sample name	sample
index	1201
start time	 04-26-2021  12:44:04 PM


Wavelength (nm)	Absorbance
494.344910	-0.392800
494.563924	-0.392800
494.782919	-0.392800
495.001897	0.408839
495.220856	-0.267057
495.439797	-0.241868
495.658719	-0.208109
495.877624	-0.162012
496.096510	-0.143883
496.315378	-0.112697
496.534227	0.000394
496.753059	0.026434
496.971872	0.053664
497.190667	0.145391
497.409444	0.157977
497.628203	0.162123
497.846943	0.165991
498.065665	0.163354
498.284369	0.163931
498.503055	0.163366
498.721723	0.163913
498.940372	0.164278
499.159003	0.163772
499.377616	0.163641
499.596210	0.162762
499.814787	0.160880
500.033345	0.161755
500.251885	0.160473
500.470406	0.161327
500.688910	0.161867
500.907395	0.162714
501.125862	0.162650
501.344311	0.163687
501.562742	0.165634
501.781154	0.166773
501.999548	0.166769
502.217924	0.167922
502.436282	0.167548
502.654621	0.165943
502.872942	0.166571
503.091245	0.167339
503.309530	0.167234
503.527797	0.166010
503.746045	0.165887
503.964275	0.165840
504.182487	0.166407
504.400681	0.165334
504.618856	0.166667
504.837013	0.166833
505.055152	0.166797
505.273273	0.165983
505.491376	0.165978
505.709460	0.166647
505.927526	0.166038
506.145574	0.165973
506.363604	0.166286
506.581615	0.165802
506.799608	0.166594
507.017583	0.166765
507.235540	0.168151
507.453478	0.168151
507.671399	0.168694
507.889301	0.169433
508.107185	0.168304
508.325050	0.169847
508.542898	0.169708
508.760727	0.169040
508.978538	0.168753
509.196330	0.168055
509.414105	0.168542
509.631861	0.167964
509.849599	0.168232
510.067319	0.169110
510.285021	0.168446
510.502704	0.169534
510.720369	0.168896
510.938016	0.169915
511.155645	0.170547
511.373255	0.170846
511.590848	0.170481
511.808422	0.170082
512.025977	0.169548
512.243515	0.169733
512.461034	0.169469
512.678536	0.170242
512.896018	0.170216
513.113483	0.169887
513.330930	0.170385
513.548358	0.170733
513.765768	0.171097
513.983160	0.172001
514.200533	0.171310
514.417889	0.172383
514.635226	0.172059
514.852545	0.172690
515.069845	0.173320
515.287128	0.173957
515.504392	0.174550
515.721638	0.174853
515.938866	0.175226
516.156075	0.175878
516.373267	0.175413
516.590440	0.175708
516.807594	0.175653
517.024731	0.175554
517.241850	0.174709
517.458950	0.174879
517.676032	0.175347
517.893095	0.174960
518.110141	0.175784
518.327168	0.175639
518.544177	0.175664
518.761168	0.175970
518.978141	0.176996
519.195095	0.177155
519.412031	0.177825
519.628949	0.178346
519.845849	0.179015
520.062731	0.178559
520.279594	0.179028
520.496439	0.179502
520.713266	0.179326
520.930074	0.178978
521.146865	0.179922
521.363637	0.179588
521.580391	0.178817
521.797127	0.179559
522.013844	0.179857
522.230543	0.180894
522.447224	0.181223
522.663887	0.181834
522.880532	0.182715
523.097158	0.182645
523.313766	0.182877
523.530356	0.183439
523.746928	0.183047
523.963481	0.183343
524.180017	0.182888
524.396534	0.183844
524.613032	0.183784
524.829513	0.183161
525.045975	0.183322
525.262420	0.183232
525.478845	0.183606
525.695253	0.183920
525.911643	0.183672
526.128014	0.184548
526.344367	0.184073
526.560702	0.184462
526.777018	0.184436
526.993316	0.184597
527.209597	0.184710
527.425858	0.185309
527.642102	0.185684
527.858328	0.187199
528.074535	0.187079
528.290724	0.187154
528.506894	0.187390
528.723047	0.188253
528.939181	0.188822
529.155297	0.189361
529.371395	0.189418
529.587475	0.189684
529.803536	0.189396
530.019579	0.190205
530.235604	0.189810
530.451611	0.189825
530.667600	0.189948
530.883570	0.190128
531.099522	0.190317
531.315456	0.190895
531.531372	0.191360
531.747269	0.191670
531.963148	0.191259
532.179009	0.192612
532.394852	0.193415
532.610676	0.193856
532.826482	0.193680
533.042271	0.193994
533.258040	0.193602
533.473792	0.193231
533.689525	0.192876
533.905240	0.192716
534.120937	0.192753
534.336616	0.193400
534.552277	0.193265
534.767919	0.193930
534.983543	0.193551
535.199149	0.194079
535.414736	0.195251
535.630306	0.195758
535.845857	0.196159
536.061390	0.195711
536.276904	0.195863
536.492401	0.196313
536.707879	0.196251
536.923339	0.196695
537.138781	0.196371
537.354204	0.196349
537.569610	0.196657
537.784997	0.197027
538.000366	0.197372
538.215716	0.196901
538.431049	0.197242
538.646363	0.197808
538.861659	0.198725
539.076937	0.199441
539.292196	0.198538
539.507438	0.199162
539.722661	0.199565
539.937866	0.200226
540.153052	0.200249
540.368221	0.200855
540.583371	0.201406
540.798503	0.201632
541.013617	0.201043
541.228712	0.202047
541.443789	0.202102
541.658848	0.202225
541.873889	0.203108
542.088912	0.203810
542.303916	0.203265
542.518902	0.202819
542.733870	0.202472
542.948820	0.203289
543.163752	0.203661
543.378665	0.203936
543.593560	0.204056
543.808437	0.203707
544.023295	0.203257
544.238136	0.203285
544.452958	0.203580
544.667762	0.203897
544.882548	0.204286
545.097315	0.204364
545.312064	0.203989
545.526795	0.204146
545.741508	0.204251
545.956203	0.204379
546.170879	0.204953
546.385537	0.205472
546.600177	0.206536
546.814799	0.206745
547.029402	0.206715
547.243988	0.207284
547.458555	0.207014
547.673103	0.207248
547.887634	0.207809
548.102146	0.208128
548.316640	0.207972
548.531116	0.207933
548.745574	0.207995
548.960013	0.208545
549.174435	0.208775
549.388838	0.209664
549.603222	0.209846
549.817589	0.210297
550.031937	0.210524
550.246267	0.210877
550.460579	0.211082
550.674873	0.211145
550.889148	0.211322
551.103405	0.211014
551.317644	0.211032
551.531865	0.211333
551.746068	0.211873
551.960252	0.212035
552.174418	0.212377
552.388566	0.211847
552.602696	0.212046
552.816807	0.212001
553.030900	0.212777
553.244975	0.212940
553.459032	0.213116
553.673070	0.213109
553.887091	0.213509
554.101093	0.213933
554.315077	0.214505
554.529042	0.214774
554.742990	0.215354
554.956919	0.215139
555.170830	0.214895
555.384722	0.214569
555.598597	0.214240
555.812453	0.213973
556.026291	0.213244
556.240111	0.213382
556.453913	0.213153
556.667696	0.212892
556.881461	0.213455
557.095208	0.213616
557.308937	0.213924
557.522647	0.213998
557.736339	0.214113
557.950013	0.214406
558.163669	0.214026
558.377307	0.214433
558.590926	0.214706
558.804527	0.213953
559.018110	0.214404
559.231675	0.214816
559.445221	0.214946
559.658749	0.215649
559.872259	0.215720
560.085751	0.216119
560.299225	0.216632
560.512680	0.216634
560.726117	0.217258
560.939536	0.217209
561.152937	0.217216
561.366319	0.217319
561.579683	0.216723
561.793029	0.216971
562.006357	0.217001
562.219667	0.216686
562.432958	0.216716
562.646231	0.216750
562.859486	0.216904
563.072723	0.216691
563.285941	0.216964
563.499141	0.216976
563.712323	0.217114
563.925487	0.217050
564.138632	0.217696
564.351760	0.217904
564.564869	0.218111
564.777960	0.217854
564.991032	0.217791
565.204087	0.217797
565.417123	0.218399
565.630141	0.218402
565.843140	0.218752
566.056122	0.218188
566.269085	0.218295
566.482030	0.218392
566.694957	0.218706
566.907866	0.218815
567.120756	0.218937
567.333628	0.218296
567.546482	0.218553
567.759318	0.218458
567.972135	0.218439
568.184935	0.218686
568.397716	0.218642
568.610478	0.219274
568.823223	0.219458
569.035949	0.219607
569.248657	0.219938
569.461347	0.220088
569.674019	0.220469
569.886672	0.220922
570.099308	0.220948
570.311925	0.221453
570.524523	0.221422
570.737104	0.221613
570.949666	0.221542
571.162210	0.222231
571.374736	0.222503
571.587244	0.222844
571.799733	0.222965
572.012205	0.223268
572.224658	0.223425
572.437092	0.223070
572.649509	0.223677
572.861907	0.224021
573.074287	0.224131
573.286649	0.224291
573.498993	0.224242
573.711318	0.224106
573.923625	0.224271
574.135914	0.223834
574.348185	0.224379
574.560438	0.224329
574.772672	0.224592
574.984888	0.224595
575.197086	0.224547
575.409266	0.224776
575.621427	0.225480
575.833570	0.225429
576.045695	0.225970
576.257802	0.225968
576.469890	0.226057
576.681961	0.226129
576.894013	0.226071
577.106046	0.226031
577.318062	0.226448
577.530059	0.226728
577.742039	0.226993
577.954000	0.227236
578.165942	0.227437
578.377867	0.227696
578.589773	0.227590
578.801661	0.227972
579.013531	0.228279
579.225382	0.228136
579.437216	0.227454
579.649031	0.227559
579.860828	0.227707
580.072606	0.227936
580.284367	0.227805
580.496109	0.227875
580.707833	0.227892
580.919539	0.228173
581.131227	0.228540
581.342896	0.229131
581.554547	0.228952
581.766180	0.228952
581.977795	0.228791
582.189391	0.228849
582.400969	0.229480
582.612529	0.229717
582.824071	0.229776
583.035595	0.229565
583.247100	0.230091
583.458587	0.230513
583.670056	0.230638
583.881506	0.230936
584.092939	0.231330
584.304353	0.231212
584.515749	0.231542
584.727127	0.231889
584.938486	0.231855
585.149828	0.231622
585.361151	0.231555
585.572456	0.231937
585.783742	0.232247
585.995011	0.232729
586.206261	0.232790
586.417493	0.232930
586.628706	0.233058
586.839902	0.233517
587.051079	0.233285
587.262238	0.233591
587.473379	0.233694
587.684502	0.233749
587.895606	0.233536
588.106692	0.233853
588.317760	0.233775
588.528810	0.234036
588.739841	0.234364
588.950855	0.234989
589.161850	0.235328
589.372827	0.235664
589.583785	0.235928
589.794726	0.235871
590.005648	0.236293
590.216552	0.236827
590.427437	0.236739
590.638305	0.236933
590.849154	0.237207
591.059985	0.237017
591.270798	0.237174
591.481592	0.237606
591.692369	0.238337
591.903127	0.238147
592.113867	0.238119
592.324588	0.238200
592.535292	0.237832
592.745977	0.237842
592.956644	0.238478
593.167293	0.238579
593.377923	0.238425
593.588536	0.238698
593.799130	0.239237
594.009706	0.239076
594.220263	0.239271
594.430803	0.239517
594.641324	0.239858
594.851827	0.239893
595.062312	0.239868
595.272778	0.240126
595.483227	0.240286
595.693657	0.240237
595.904069	0.240443
596.114462	0.240766
596.324838	0.240809
596.535195	0.240733
596.745534	0.240931
596.955855	0.241177
597.166157	0.241376
597.376441	0.241327
597.586707	0.241604
597.796955	0.241818
598.007185	0.242012
598.217396	0.242022
598.427589	0.241848
598.637764	0.241512
598.847921	0.241414
599.058060	0.241277
599.268180	0.241215
599.478282	0.241118
599.688366	0.240943
599.898431	0.240546
600.108479	0.240964
600.318508	0.241519
600.528519	0.241589
600.738511	0.241701
600.948486	0.241840
601.158442	0.241887
601.368380	0.242185
601.578300	0.242676
601.788202	0.243457
601.998085	0.244150
602.207950	0.244148
602.417797	0.244427
602.627626	0.244619
602.837436	0.244859
603.047228	0.245268
603.257002	0.245462
603.466758	0.245502
603.676496	0.245270
603.886215	0.244671
604.095916	0.244870
604.305599	0.245195
604.515264	0.245334
604.724910	0.245453
604.934538	0.245804
605.144148	0.245780
605.353740	0.245649
605.563314	0.245729
605.772869	0.246326
605.982406	0.246331
606.191925	0.246574
606.401425	0.246759
606.610908	0.246874
606.820372	0.246431
607.029818	0.246537
607.239246	0.246669
607.448655	0.247042
607.658047	0.247304
607.867420	0.247443
608.076775	0.247826
608.286111	0.247769
608.495430	0.247793
608.704730	0.247950
608.914012	0.248075
609.123275	0.248379
609.332521	0.248330
609.541748	0.247979
609.750957	0.248331
609.960148	0.247879
610.169321	0.248154
610.378475	0.248408
610.587611	0.248769
610.796729	0.249031
611.005829	0.249259
611.214910	0.249496
611.423974	0.249648
611.633019	0.249759
611.842045	0.250142
612.051054	0.250315
612.260044	0.250325
612.469017	0.250421
612.677970	0.250366
612.886906	0.250105
613.095824	0.250363
613.304723	0.250615
613.513604	0.250744
613.722467	0.250610
613.931311	0.250580
614.140138	0.250903
614.348946	0.251086
614.557736	0.251108
614.766507	0.251713
614.975261	0.251559
615.183996	0.251728
615.392713	0.251435
615.601412	0.251609
615.810092	0.252219
616.018754	0.252256
616.227399	0.252258
616.436024	0.252588
616.644632	0.252688
616.853222	0.252983
617.061793	0.252787
617.270346	0.253112
617.478880	0.253256
617.687397	0.252978
617.895895	0.253260
618.104375	0.253181
618.312837	0.253317
618.521281	0.253706
618.729706	0.253734
618.938113	0.254187
619.146502	0.254354
619.354873	0.254709
619.563226	0.255047
619.771560	0.255172
619.979876	0.255383
620.188174	0.255666
620.396453	0.255598
620.604715	0.255423
620.812958	0.255506
621.021183	0.255525
621.229390	0.255353
621.437578	0.255340
621.645748	0.255320
621.853900	0.255633
622.062034	0.255793
622.270150	0.255866
622.478247	0.256628
622.686326	0.256872
622.894387	0.257130
623.102430	0.257370
623.310454	0.257462
623.518461	0.257434
623.726449	0.257529
623.934418	0.257285
624.142370	0.257048
624.350303	0.256898
624.558218	0.257061
624.766115	0.257042
624.973994	0.257464
625.181855	0.257614
625.389697	0.257954
625.597521	0.258553
625.805327	0.258922
626.013114	0.259349
626.220883	0.259552
626.428634	0.259426
626.636367	0.259834
626.844082	0.259879
627.051778	0.260209
627.259457	0.260458
627.467117	0.260307
627.674758	0.260320
627.882382	0.260474
628.089987	0.260431
628.297574	0.260603
628.505143	0.260665
628.712694	0.260868
628.920226	0.260722
629.127740	0.260471
629.335236	0.260637
629.542714	0.260810
629.750174	0.260928
629.957615	0.261301
630.165038	0.261635
630.372443	0.261676
630.579829	0.261626
630.787198	0.261980
630.994548	0.262253
631.201880	0.262148
631.409194	0.262469
631.616489	0.262540
631.823766	0.262793
632.031025	0.262906
632.238266	0.263201
632.445489	0.263111
632.652693	0.263102
632.859879	0.263263
633.067047	0.263573
633.274197	0.263284
633.481329	0.263489
633.688442	0.263562
633.895537	0.263648
634.102614	0.263874
634.309672	0.264219
634.516713	0.264283
634.723735	0.264414
634.930739	0.264495
635.137724	0.264929
635.344692	0.265162
635.551641	0.265087
635.758572	0.265206
635.965485	0.265249
636.172379	0.265600
636.379256	0.265899
636.586114	0.265982
636.792954	0.266125
636.999775	0.266350
637.206579	0.266526
637.413364	0.266751
637.620131	0.266514
637.826880	0.266620
638.033610	0.266281
638.240323	0.266599
638.447017	0.266960
638.653692	0.267007
638.860350	0.266904
639.066990	0.266879
639.273611	0.266843
639.480214	0.267330
639.686798	0.267451
639.893365	0.267671
640.099913	0.267557
640.306443	0.267687
640.512955	0.267811
640.719449	0.268130
640.925924	0.268261
641.132381	0.268685
641.338820	0.268889
641.545241	0.268893
641.751644	0.269238
641.958028	0.269269
642.164394	0.269390
642.370742	0.269639
642.577071	0.269729
642.783383	0.269917
642.989676	0.269665
643.195951	0.269734
643.402207	0.270013
643.608446	0.270257
643.814666	0.270660
644.020868	0.270889
644.227052	0.270871
644.433218	0.271188
644.639365	0.271463
644.845494	0.271768
645.051605	0.272155
645.257698	0.272309
645.463772	0.272139
645.669828	0.272049
645.875866	0.272110
646.081886	0.272472
646.287888	0.272500
646.493871	0.272476
646.699836	0.272712
646.905783	0.272937
647.111712	0.273161
647.317622	0.273697
647.523514	0.274032
647.729388	0.274015
647.935244	0.273958
648.141082	0.274249
648.346901	0.274301
648.552702	0.274307
648.758485	0.274125
648.964250	0.274055
649.169996	0.274148
649.375724	0.274338
649.581434	0.274488
649.787126	0.274877
649.992800	0.275038
650.198455	0.275274
650.404092	0.275586
650.609711	0.275703
650.815311	0.275836
651.020894	0.275855
651.226458	0.275933
651.432004	0.276020
651.637532	0.276156
651.843041	0.276179
652.048532	0.276356
652.254006	0.276469
652.459460	0.276738
652.664897	0.277164
652.870315	0.277176
653.075716	0.277025
653.281097	0.277284
653.486461	0.277082
653.691807	0.277109
653.897134	0.277234
654.102443	0.277351
654.307734	0.277303
654.513006	0.277417
654.718261	0.277827
654.923497	0.278255
655.128715	0.278457
655.333915	0.278798
655.539096	0.278941
655.744259	0.279176
655.949404	0.279303
656.154531	0.279568
656.359640	0.279396
656.564730	0.279506
656.769802	0.279559
656.974856	0.279806
657.179892	0.280210
657.384909	0.280521
657.589908	0.280655
657.794889	0.280909
657.999852	0.281093
658.204797	0.281539
658.409723	0.281601
658.614631	0.282150
658.819521	0.282319
659.024393	0.282505
659.229246	0.282546
659.434081	0.282820
659.638898	0.282858
659.843697	0.283265
660.048478	0.283488
660.253240	0.283719
660.457984	0.283764
660.662710	0.283887
660.867417	0.283990
661.072107	0.284248
661.276778	0.284671
661.481431	0.285050
661.686066	0.285311
661.890682	0.285710
662.095281	0.286053
662.299861	0.286196
662.504422	0.286440
662.708966	0.286574
662.913491	0.287089
663.117999	0.287244
663.322488	0.287505
663.526958	0.287552
663.731411	0.287574
663.935845	0.287697
664.140261	0.287655
664.344659	0.288047
664.549038	0.288078
664.753400	0.287964
664.957743	0.287892
665.162068	0.288200
665.366375	0.288349
665.570663	0.288519
665.774933	0.288610
665.979185	0.289012
666.183419	0.288988
666.387635	0.289188
666.591832	0.289355
666.796011	0.289653
667.000172	0.289702
667.204315	0.289772
667.408439	0.289668
667.612545	0.289843
667.816634	0.289910
668.020703	0.289983
668.224755	0.290318
668.428788	0.290245
668.632803	0.290440
668.836800	0.290443
669.040779	0.290628
669.244739	0.290975
669.448681	0.291037
669.652605	0.291269
669.856511	0.291616
670.060399	0.291738
670.264268	0.292404
670.468119	0.292508
670.671952	0.292931
670.875767	0.293266
671.079563	0.293636
671.283341	0.294206
671.487101	0.294328
671.690843	0.294560
671.894567	0.294587
672.098272	0.294620
672.301959	0.295050
672.505628	0.295178
672.709278	0.295557
672.912911	0.295631
673.116525	0.295629
673.320121	0.296172
673.523699	0.296254
673.727258	0.296744
673.930799	0.297335
674.134322	0.297373
674.337827	0.297560
674.541314	0.297552
674.744782	0.297834
674.948232	0.298155
675.151664	0.297982
675.355078	0.298281
675.558474	0.298384
675.761851	0.298154
675.965210	0.298204
676.168551	0.298498
676.371873	0.298724
676.575178	0.298830
676.778464	0.298871
676.981732	0.299196
677.184981	0.299325
677.388213	0.299480
677.591426	0.299654
677.794621	0.299876
677.997798	0.299908
678.200956	0.299883
678.404097	0.300028
678.607219	0.300016
678.810323	0.300061
679.013408	0.300043
679.216476	0.300359
679.419525	0.300476
679.622556	0.300860
679.825569	0.301180
680.028563	0.301572
680.231540	0.301918
680.434498	0.302631
680.637438	0.303127
680.840359	0.303465
681.043263	0.303539
681.246148	0.304019
681.449015	0.304257
681.651864	0.304246
681.854694	0.304392
682.057506	0.304546
682.260301	0.304454
682.463076	0.304524
682.665834	0.304940
682.868573	0.305131
683.071295	0.305255
683.273998	0.305119
683.476682	0.305205
683.679349	0.305342
683.881997	0.305530
684.084627	0.305615
684.287239	0.305674
684.489833	0.305668
684.692408	0.305636
684.894965	0.305534
685.097504	0.305865
685.300025	0.306121
685.502527	0.306492
685.705012	0.306701
685.907478	0.306969
686.109925	0.307232
686.312355	0.307337
686.514766	0.307766
686.717159	0.308150
686.919534	0.308366
687.121891	0.308378
687.324230	0.308397
687.526550	0.308586
687.728852	0.308677
687.931136	0.308985
688.133401	0.309307
688.335649	0.309335
688.537878	0.309432
688.740089	0.309445
688.942281	0.309840
689.144456	0.309979
689.346612	0.309977
689.548750	0.310232
689.750870	0.310318
689.952971	0.310543
690.155055	0.310886
690.357120	0.311118
690.559167	0.311318
690.761195	0.311475
690.963206	0.311738
691.165198	0.311830
691.367172	0.312084
691.569128	0.312141
691.771065	0.312453
691.972984	0.312578
692.174885	0.312618
692.376768	0.313073
692.578633	0.313094
692.780479	0.313151
692.982308	0.313553
693.184118	0.313648
693.385909	0.313946
