sample name	sample
index	454
start time	 03-11-2021  11:24:02 AM


Wavelength (nm)	Absorbance
494.344910	0.268981
494.563924	0.268981
494.782919	0.268981
495.001897	0.119221
495.220856	0.191224
495.439797	0.167321
495.658719	0.149104
495.877624	0.108586
496.096510	0.131209
496.315378	0.110208
496.534227	0.055023
496.753059	0.010650
496.971872	0.014751
497.190667	0.056567
497.409444	0.060582
497.628203	0.062415
497.846943	0.064611
498.065665	0.063410
498.284369	0.064395
498.503055	0.066438
498.721723	0.066396
498.940372	0.066300
499.159003	0.065906
499.377616	0.066303
499.596210	0.066452
499.814787	0.065724
500.033345	0.065119
500.251885	0.065067
500.470406	0.064172
500.688910	0.064770
500.907395	0.065892
501.125862	0.066522
501.344311	0.065639
501.562742	0.066048
501.781154	0.067085
501.999548	0.068368
502.217924	0.068751
502.436282	0.069018
502.654621	0.067965
502.872942	0.067498
503.091245	0.067581
503.309530	0.068652
503.527797	0.068381
503.746045	0.068499
503.964275	0.068011
504.182487	0.067930
504.400681	0.067963
504.618856	0.068676
504.837013	0.068686
505.055152	0.067731
505.273273	0.067410
505.491376	0.067489
505.709460	0.066648
505.927526	0.067481
506.145574	0.067137
506.363604	0.067440
506.581615	0.066794
506.799608	0.066085
507.017583	0.066796
507.235540	0.067374
507.453478	0.067809
507.671399	0.068077
507.889301	0.067368
508.107185	0.067645
508.325050	0.067786
508.542898	0.068039
508.760727	0.068170
508.978538	0.067560
509.196330	0.066818
509.414105	0.066924
509.631861	0.066665
509.849599	0.067509
510.067319	0.067822
510.285021	0.067375
510.502704	0.067885
510.720369	0.068293
510.938016	0.068590
511.155645	0.069035
511.373255	0.069115
511.590848	0.069602
511.808422	0.069454
512.025977	0.069937
512.243515	0.069719
512.461034	0.069767
512.678536	0.069902
512.896018	0.069433
513.113483	0.069284
513.330930	0.068960
513.548358	0.069291
513.765768	0.069574
513.983160	0.069039
514.200533	0.069144
514.417889	0.069236
514.635226	0.069849
514.852545	0.070496
515.069845	0.070858
515.287128	0.070493
515.504392	0.070327
515.721638	0.069729
515.938866	0.070210
516.156075	0.070155
516.373267	0.069921
516.590440	0.069599
516.807594	0.070361
517.024731	0.069891
517.241850	0.070204
517.458950	0.069745
517.676032	0.070113
517.893095	0.069963
518.110141	0.069512
518.327168	0.069449
518.544177	0.069750
518.761168	0.069488
518.978141	0.070449
519.195095	0.071486
519.412031	0.071549
519.628949	0.071113
519.845849	0.071249
520.062731	0.072556
520.279594	0.073046
520.496439	0.072756
520.713266	0.072401
520.930074	0.071917
521.146865	0.071003
521.363637	0.071223
521.580391	0.071624
521.797127	0.071252
522.013844	0.070582
522.230543	0.070343
522.447224	0.070586
522.663887	0.071205
522.880532	0.071662
523.097158	0.071359
523.313766	0.071608
523.530356	0.071838
523.746928	0.072391
523.963481	0.072926
524.180017	0.072858
524.396534	0.072641
524.613032	0.072090
524.829513	0.072360
525.045975	0.073535
525.262420	0.073823
525.478845	0.073642
525.695253	0.073902
525.911643	0.074313
526.128014	0.075135
526.344367	0.074998
526.560702	0.076140
526.777018	0.075730
526.993316	0.075608
527.209597	0.075614
527.425858	0.075971
527.642102	0.075869
527.858328	0.075401
528.074535	0.075645
528.290724	0.076146
528.506894	0.075673
528.723047	0.076323
528.939181	0.076295
529.155297	0.076411
529.371395	0.076648
529.587475	0.076895
529.803536	0.077133
530.019579	0.077170
530.235604	0.077765
530.451611	0.078153
530.667600	0.078176
530.883570	0.078296
531.099522	0.078866
531.315456	0.078586
531.531372	0.078465
531.747269	0.078905
531.963148	0.078496
532.179009	0.078260
532.394852	0.078111
532.610676	0.078195
532.826482	0.078227
533.042271	0.078208
533.258040	0.078974
533.473792	0.079095
533.689525	0.079733
533.905240	0.079998
534.120937	0.079696
534.336616	0.079751
534.552277	0.080133
534.767919	0.080848
534.983543	0.080556
535.199149	0.080472
535.414736	0.080690
535.630306	0.079970
535.845857	0.080227
536.061390	0.080460
536.276904	0.081024
536.492401	0.080339
536.707879	0.080274
536.923339	0.080474
537.138781	0.080658
537.354204	0.081058
537.569610	0.081144
537.784997	0.080982
538.000366	0.081780
538.215716	0.081444
538.431049	0.082227
538.646363	0.082259
538.861659	0.082274
539.076937	0.082092
539.292196	0.082167
539.507438	0.082490
539.722661	0.082708
539.937866	0.082485
540.153052	0.082936
540.368221	0.082655
540.583371	0.082830
540.798503	0.082872
541.013617	0.082539
541.228712	0.082174
541.443789	0.081925
541.658848	0.082022
541.873889	0.081983
542.088912	0.081961
542.303916	0.081991
542.518902	0.081880
542.733870	0.082218
542.948820	0.082533
543.163752	0.082752
543.378665	0.083402
543.593560	0.083775
543.808437	0.083444
544.023295	0.083565
544.238136	0.083863
544.452958	0.083685
544.667762	0.083280
544.882548	0.083479
545.097315	0.083625
545.312064	0.083564
545.526795	0.083377
545.741508	0.084181
545.956203	0.084130
546.170879	0.084031
546.385537	0.084332
546.600177	0.084961
546.814799	0.085333
547.029402	0.085728
547.243988	0.086018
547.458555	0.086396
547.673103	0.086197
547.887634	0.086154
548.102146	0.086367
548.316640	0.086523
548.531116	0.086692
548.745574	0.086912
548.960013	0.086964
549.174435	0.086601
549.388838	0.086255
549.603222	0.086180
549.817589	0.086550
550.031937	0.086794
550.246267	0.086528
550.460579	0.086539
550.674873	0.086690
550.889148	0.086826
551.103405	0.087350
551.317644	0.087978
551.531865	0.088369
551.746068	0.088595
551.960252	0.088697
552.174418	0.089026
552.388566	0.089165
552.602696	0.088974
552.816807	0.088601
553.030900	0.088642
553.244975	0.088582
553.459032	0.088581
553.673070	0.088349
553.887091	0.088533
554.101093	0.088862
554.315077	0.088980
554.529042	0.089029
554.742990	0.089052
554.956919	0.088854
555.170830	0.088949
555.384722	0.089230
555.598597	0.089373
555.812453	0.089356
556.026291	0.089275
556.240111	0.089310
556.453913	0.089497
556.667696	0.090279
556.881461	0.090593
557.095208	0.090774
557.308937	0.090855
557.522647	0.091257
557.736339	0.091544
557.950013	0.091835
558.163669	0.091681
558.377307	0.091935
558.590926	0.091499
558.804527	0.091479
559.018110	0.091534
559.231675	0.091371
559.445221	0.091066
559.658749	0.090917
559.872259	0.091030
560.085751	0.091346
560.299225	0.091468
560.512680	0.091767
560.726117	0.091674
560.939536	0.091693
561.152937	0.092025
561.366319	0.092299
561.579683	0.092402
561.793029	0.092223
562.006357	0.092465
562.219667	0.092152
562.432958	0.092082
562.646231	0.092379
562.859486	0.092665
563.072723	0.092802
563.285941	0.092826
563.499141	0.092929
563.712323	0.093062
563.925487	0.093010
564.138632	0.093019
564.351760	0.093037
564.564869	0.093116
564.777960	0.093222
564.991032	0.093117
565.204087	0.093379
565.417123	0.092950
565.630141	0.092888
565.843140	0.092872
566.056122	0.093536
566.269085	0.093748
566.482030	0.093481
566.694957	0.093075
566.907866	0.093224
567.120756	0.093182
567.333628	0.093556
567.546482	0.093894
567.759318	0.094170
567.972135	0.094027
568.184935	0.093921
568.397716	0.094281
568.610478	0.094443
568.823223	0.094512
569.035949	0.094510
569.248657	0.094606
569.461347	0.094217
569.674019	0.094199
569.886672	0.094194
570.099308	0.094364
570.311925	0.094534
570.524523	0.094575
570.737104	0.094370
570.949666	0.094393
571.162210	0.094502
571.374736	0.094967
571.587244	0.095003
571.799733	0.095191
572.012205	0.095321
572.224658	0.095718
572.437092	0.096452
572.649509	0.096849
572.861907	0.097252
573.074287	0.097104
573.286649	0.097070
573.498993	0.097306
573.711318	0.097261
573.923625	0.097255
574.135914	0.096888
574.348185	0.096434
574.560438	0.096567
574.772672	0.096117
574.984888	0.096468
575.197086	0.096497
575.409266	0.096400
575.621427	0.096319
575.833570	0.096206
576.045695	0.096314
576.257802	0.096108
576.469890	0.096087
576.681961	0.096112
576.894013	0.096191
577.106046	0.096111
577.318062	0.096243
577.530059	0.096165
577.742039	0.096373
577.954000	0.096515
578.165942	0.097182
578.377867	0.097311
578.589773	0.097759
578.801661	0.097958
579.013531	0.098465
579.225382	0.098831
579.437216	0.098973
579.649031	0.098855
579.860828	0.098659
580.072606	0.098294
580.284367	0.098182
580.496109	0.098220
580.707833	0.097914
580.919539	0.097748
581.131227	0.097620
581.342896	0.097779
581.554547	0.098072
581.766180	0.098372
581.977795	0.098382
582.189391	0.098410
582.400969	0.098376
582.612529	0.098879
582.824071	0.098684
583.035595	0.098485
583.247100	0.098517
583.458587	0.098863
583.670056	0.098831
583.881506	0.098896
584.092939	0.098854
584.304353	0.099201
584.515749	0.098963
584.727127	0.099319
584.938486	0.099757
585.149828	0.099835
585.361151	0.099675
585.572456	0.099888
585.783742	0.099804
585.995011	0.100049
586.206261	0.099970
586.417493	0.100163
586.628706	0.100432
586.839902	0.100219
587.051079	0.100359
587.262238	0.100529
587.473379	0.100433
587.684502	0.100679
587.895606	0.100900
588.106692	0.100950
588.317760	0.100946
588.528810	0.100594
588.739841	0.100281
588.950855	0.100504
589.161850	0.100397
589.372827	0.100919
589.583785	0.101105
589.794726	0.101168
590.005648	0.101261
590.216552	0.101378
590.427437	0.101778
590.638305	0.102090
590.849154	0.102065
591.059985	0.102258
591.270798	0.102204
591.481592	0.102325
591.692369	0.102300
591.903127	0.102509
592.113867	0.102760
592.324588	0.102646
592.535292	0.102784
592.745977	0.102740
592.956644	0.102652
593.167293	0.102463
593.377923	0.102284
593.588536	0.102365
593.799130	0.102087
594.009706	0.102274
594.220263	0.102364
594.430803	0.102673
594.641324	0.102618
594.851827	0.102844
595.062312	0.102823
595.272778	0.103257
595.483227	0.103236
595.693657	0.103193
595.904069	0.103133
596.114462	0.103107
596.324838	0.103135
596.535195	0.103380
596.745534	0.103363
596.955855	0.103967
597.166157	0.104160
597.376441	0.104571
597.586707	0.105012
597.796955	0.105282
598.007185	0.106058
598.217396	0.106041
598.427589	0.106414
598.637764	0.106698
598.847921	0.106752
599.058060	0.106622
599.268180	0.106858
599.478282	0.106921
599.688366	0.106922
599.898431	0.106324
600.108479	0.106372
600.318508	0.106560
600.528519	0.106607
600.738511	0.106313
600.948486	0.106237
601.158442	0.105900
601.368380	0.105847
601.578300	0.105756
601.788202	0.106019
601.998085	0.106061
602.207950	0.105739
602.417797	0.105890
602.627626	0.105913
602.837436	0.106229
603.047228	0.106271
603.257002	0.106276
603.466758	0.106439
603.676496	0.106601
603.886215	0.106868
604.095916	0.107195
604.305599	0.107257
604.515264	0.107310
604.724910	0.107397
604.934538	0.107627
605.144148	0.107980
605.353740	0.108150
605.563314	0.108243
605.772869	0.108535
605.982406	0.108529
606.191925	0.108699
606.401425	0.108926
606.610908	0.108853
606.820372	0.108712
607.029818	0.108658
607.239246	0.108559
607.448655	0.108334
607.658047	0.108331
607.867420	0.108215
608.076775	0.108142
608.286111	0.108149
608.495430	0.108059
608.704730	0.108158
608.914012	0.108148
609.123275	0.108239
609.332521	0.108630
609.541748	0.108507
609.750957	0.108664
609.960148	0.108729
610.169321	0.109060
610.378475	0.109382
610.587611	0.109496
610.796729	0.109809
611.005829	0.109796
611.214910	0.109536
611.423974	0.109910
611.633019	0.110052
611.842045	0.110140
612.051054	0.110171
612.260044	0.110299
612.469017	0.110699
612.677970	0.110685
612.886906	0.110871
613.095824	0.111043
613.304723	0.111104
613.513604	0.111341
613.722467	0.111523
613.931311	0.111501
614.140138	0.111575
614.348946	0.111314
614.557736	0.111258
614.766507	0.111420
614.975261	0.111705
615.183996	0.111642
615.392713	0.111571
615.601412	0.111648
615.810092	0.111717
616.018754	0.111901
616.227399	0.112043
616.436024	0.112181
616.644632	0.112280
616.853222	0.112258
617.061793	0.112319
617.270346	0.112356
617.478880	0.112067
617.687397	0.112126
617.895895	0.112295
618.104375	0.112227
618.312837	0.112302
618.521281	0.112153
618.729706	0.112316
618.938113	0.112270
619.146502	0.112376
619.354873	0.112883
619.563226	0.113096
619.771560	0.112993
619.979876	0.113269
620.188174	0.113300
620.396453	0.113645
620.604715	0.113918
620.812958	0.114071
621.021183	0.114305
621.229390	0.114278
621.437578	0.113995
621.645748	0.114136
621.853900	0.114130
622.062034	0.114350
622.270150	0.114428
622.478247	0.114302
622.686326	0.114517
622.894387	0.114276
623.102430	0.114304
623.310454	0.114332
623.518461	0.114369
623.726449	0.114505
623.934418	0.114446
624.142370	0.114161
624.350303	0.113963
624.558218	0.113935
624.766115	0.114176
624.973994	0.114289
625.181855	0.114729
625.389697	0.114870
625.597521	0.114946
625.805327	0.115244
626.013114	0.115559
626.220883	0.116085
626.428634	0.116077
626.636367	0.116075
626.844082	0.116043
627.051778	0.115996
627.259457	0.115831
627.467117	0.115798
627.674758	0.115651
627.882382	0.115767
628.089987	0.115566
628.297574	0.115509
628.505143	0.115667
628.712694	0.115904
628.920226	0.115952
629.127740	0.115990
629.335236	0.116143
629.542714	0.116058
629.750174	0.115986
629.957615	0.115991
630.165038	0.116123
630.372443	0.116073
630.579829	0.115953
630.787198	0.115959
630.994548	0.116186
631.201880	0.116256
631.409194	0.116474
631.616489	0.116674
631.823766	0.116906
632.031025	0.117201
632.238266	0.117325
632.445489	0.117435
632.652693	0.117792
632.859879	0.117925
633.067047	0.118242
633.274197	0.118137
633.481329	0.118357
633.688442	0.118367
633.895537	0.118179
634.102614	0.118356
634.309672	0.118407
634.516713	0.118357
634.723735	0.118231
634.930739	0.118116
635.137724	0.118398
635.344692	0.118163
635.551641	0.118133
635.758572	0.118527
635.965485	0.118449
636.172379	0.118696
636.379256	0.118674
636.586114	0.118922
636.792954	0.118730
636.999775	0.118821
637.206579	0.119051
637.413364	0.119227
637.620131	0.119152
637.826880	0.119394
638.033610	0.119546
638.240323	0.119513
638.447017	0.119571
638.653692	0.119842
638.860350	0.119928
639.066990	0.119847
639.273611	0.120185
639.480214	0.120094
639.686798	0.120177
639.893365	0.120001
640.099913	0.120348
640.306443	0.120342
640.512955	0.120493
640.719449	0.120587
640.925924	0.120686
641.132381	0.120551
641.338820	0.120846
641.545241	0.120972
641.751644	0.121024
641.958028	0.120817
642.164394	0.120998
642.370742	0.121123
642.577071	0.121115
642.783383	0.121212
642.989676	0.121454
643.195951	0.121376
643.402207	0.121480
643.608446	0.121711
643.814666	0.121991
644.020868	0.122041
644.227052	0.121996
644.433218	0.122035
644.639365	0.122071
644.845494	0.121911
645.051605	0.122175
645.257698	0.122236
645.463772	0.122404
645.669828	0.122436
645.875866	0.122592
646.081886	0.122723
646.287888	0.123004
646.493871	0.123166
646.699836	0.123203
646.905783	0.123062
647.111712	0.122833
647.317622	0.122814
647.523514	0.122942
647.729388	0.122975
647.935244	0.122935
648.141082	0.122939
648.346901	0.123007
648.552702	0.123168
648.758485	0.123514
648.964250	0.123915
649.169996	0.124098
649.375724	0.124301
649.581434	0.124378
649.787126	0.124384
649.992800	0.124459
650.198455	0.124644
650.404092	0.124732
650.609711	0.124788
650.815311	0.124749
651.020894	0.124621
651.226458	0.124698
651.432004	0.124564
651.637532	0.124877
651.843041	0.124959
652.048532	0.124907
652.254006	0.124819
652.459460	0.124597
652.664897	0.124618
652.870315	0.124755
653.075716	0.124553
653.281097	0.124623
653.486461	0.124600
653.691807	0.124485
653.897134	0.124555
654.102443	0.124807
654.307734	0.125000
654.513006	0.125027
654.718261	0.124948
654.923497	0.125197
655.128715	0.125317
655.333915	0.125380
655.539096	0.125558
655.744259	0.125681
655.949404	0.125609
656.154531	0.125628
656.359640	0.125751
656.564730	0.126111
656.769802	0.126056
656.974856	0.126227
657.179892	0.126490
657.384909	0.126474
657.589908	0.126576
657.794889	0.126641
657.999852	0.126723
658.204797	0.126970
658.409723	0.126927
658.614631	0.126971
658.819521	0.127152
659.024393	0.127108
659.229246	0.127520
659.434081	0.127766
659.638898	0.128142
659.843697	0.128435
660.048478	0.128386
660.253240	0.128485
660.457984	0.128797
660.662710	0.128748
660.867417	0.128990
661.072107	0.128834
661.276778	0.128712
661.481431	0.128583
661.686066	0.128640
661.890682	0.128672
662.095281	0.128826
662.299861	0.128962
662.504422	0.129147
662.708966	0.128897
662.913491	0.129000
663.117999	0.129100
663.322488	0.129250
663.526958	0.129341
663.731411	0.129643
663.935845	0.129456
664.140261	0.129452
664.344659	0.129440
664.549038	0.129541
664.753400	0.129603
664.957743	0.129706
665.162068	0.129985
665.366375	0.129973
665.570663	0.130112
665.774933	0.130439
665.979185	0.130632
666.183419	0.130690
666.387635	0.131071
666.591832	0.131170
666.796011	0.131347
667.000172	0.131228
667.204315	0.131228
667.408439	0.130987
667.612545	0.130927
667.816634	0.130938
668.020703	0.130864
668.224755	0.130858
668.428788	0.131172
668.632803	0.131193
668.836800	0.131564
669.040779	0.131823
669.244739	0.131835
669.448681	0.132242
669.652605	0.132357
669.856511	0.132656
670.060399	0.132703
670.264268	0.132501
670.468119	0.132507
670.671952	0.132107
670.875767	0.132082
671.079563	0.132390
671.283341	0.132134
671.487101	0.132143
671.690843	0.132261
671.894567	0.132281
672.098272	0.132557
672.301959	0.132697
672.505628	0.132814
672.709278	0.132841
672.912911	0.132790
673.116525	0.133054
673.320121	0.133165
673.523699	0.133180
673.727258	0.133263
673.930799	0.133309
674.134322	0.133599
674.337827	0.133955
674.541314	0.134142
674.744782	0.134458
674.948232	0.134377
675.151664	0.134440
675.355078	0.134723
675.558474	0.134829
675.761851	0.134901
675.965210	0.134948
676.168551	0.134943
676.371873	0.135026
676.575178	0.135014
676.778464	0.135251
676.981732	0.135391
677.184981	0.135370
677.388213	0.135511
677.591426	0.135536
677.794621	0.135572
677.997798	0.135867
678.200956	0.135869
678.404097	0.136053
678.607219	0.136040
678.810323	0.136020
679.013408	0.136097
679.216476	0.136337
679.419525	0.136477
679.622556	0.136467
679.825569	0.136411
680.028563	0.136593
680.231540	0.136460
680.434498	0.136617
680.637438	0.136835
680.840359	0.136874
681.043263	0.136844
681.246148	0.136919
681.449015	0.136945
681.651864	0.136872
681.854694	0.136812
682.057506	0.136915
682.260301	0.136860
682.463076	0.136842
682.665834	0.136996
682.868573	0.137021
683.071295	0.137075
683.273998	0.137269
683.476682	0.137486
683.679349	0.137856
683.881997	0.138154
684.084627	0.138490
684.287239	0.138565
684.489833	0.138741
684.692408	0.139001
684.894965	0.139342
685.097504	0.139456
685.300025	0.139429
685.502527	0.139367
685.705012	0.139397
685.907478	0.139534
686.109925	0.139726
686.312355	0.139766
686.514766	0.139762
686.717159	0.139618
686.919534	0.139747
687.121891	0.139910
687.324230	0.140190
687.526550	0.140126
687.728852	0.140031
687.931136	0.140154
688.133401	0.140313
688.335649	0.140293
688.537878	0.140372
688.740089	0.140288
688.942281	0.140462
689.144456	0.140408
689.346612	0.140537
689.548750	0.140695
689.750870	0.140704
689.952971	0.140659
690.155055	0.140723
690.357120	0.140942
690.559167	0.141034
690.761195	0.141004
690.963206	0.140902
691.165198	0.141052
691.367172	0.141032
691.569128	0.140918
691.771065	0.141047
691.972984	0.141212
692.174885	0.141284
692.376768	0.141466
692.578633	0.141310
692.780479	0.141343
692.982308	0.141352
693.184118	0.141411
693.385909	0.141554
