sample name	sample
index	894
start time	 04-08-2021  03:11:02 PM


Wavelength (nm)	Absorbance
494.344910	-0.102907
494.563924	-0.102907
494.782919	-0.102907
495.001897	NaN
495.220856	NaN
495.439797	NaN
495.658719	2.262451
495.877624	0.297095
496.096510	-0.223455
496.315378	-0.319944
496.534227	-0.264913
496.753059	-0.298212
496.971872	-0.208523
497.190667	0.151118
497.409444	0.160645
497.628203	0.164221
497.846943	0.163844
498.065665	0.164177
498.284369	0.162437
498.503055	0.162105
498.721723	0.161736
498.940372	0.161509
499.159003	0.161073
499.377616	0.159914
499.596210	0.160041
499.814787	0.160214
500.033345	0.159720
500.251885	0.160483
500.470406	0.160796
500.688910	0.160883
500.907395	0.160388
501.125862	0.160282
501.344311	0.161710
501.562742	0.162521
501.781154	0.162221
501.999548	0.162683
502.217924	0.162683
502.436282	0.162491
502.654621	0.163124
502.872942	0.163000
503.091245	0.163813
503.309530	0.163618
503.527797	0.161976
503.746045	0.162674
503.964275	0.162056
504.182487	0.162225
504.400681	0.163367
504.618856	0.162326
504.837013	0.163469
505.055152	0.163158
505.273273	0.162728
505.491376	0.164316
505.709460	0.163497
505.927526	0.164323
506.145574	0.164396
506.363604	0.164802
506.581615	0.164780
506.799608	0.163919
507.017583	0.165158
507.235540	0.165017
507.453478	0.164757
507.671399	0.165691
507.889301	0.164679
508.107185	0.164479
508.325050	0.163267
508.542898	0.163268
508.760727	0.164233
508.978538	0.162448
509.196330	0.162899
509.414105	0.162498
509.631861	0.162603
509.849599	0.163654
510.067319	0.164217
510.285021	0.164732
510.502704	0.164597
510.720369	0.165665
510.938016	0.167036
511.155645	0.167745
511.373255	0.167818
511.590848	0.167682
511.808422	0.167692
512.025977	0.167716
512.243515	0.167787
512.461034	0.168177
512.678536	0.166503
512.896018	0.167228
513.113483	0.166661
513.330930	0.165720
513.548358	0.166073
513.765768	0.166714
513.983160	0.167424
514.200533	0.167235
514.417889	0.168276
514.635226	0.169043
514.852545	0.169611
515.069845	0.169814
515.287128	0.171509
515.504392	0.171359
515.721638	0.171396
515.938866	0.171872
516.156075	0.173017
516.373267	0.171952
516.590440	0.172399
516.807594	0.172207
517.024731	0.172363
517.241850	0.172562
517.458950	0.173488
517.676032	0.173661
517.893095	0.172969
518.110141	0.173069
518.327168	0.173818
518.544177	0.173813
518.761168	0.173411
518.978141	0.173599
519.195095	0.174344
519.412031	0.174357
519.628949	0.174707
519.845849	0.175673
520.062731	0.175821
520.279594	0.176337
520.496439	0.177501
520.713266	0.177736
520.930074	0.178007
521.146865	0.177549
521.363637	0.177401
521.580391	0.177108
521.797127	0.176920
522.013844	0.177390
522.230543	0.177088
522.447224	0.176888
522.663887	0.177641
522.880532	0.178621
523.097158	0.178755
523.313766	0.179002
523.530356	0.179399
523.746928	0.179828
523.963481	0.179972
524.180017	0.180715
524.396534	0.180912
524.613032	0.181017
524.829513	0.180870
525.045975	0.180707
525.262420	0.180995
525.478845	0.181470
525.695253	0.181439
525.911643	0.182041
526.128014	0.182244
526.344367	0.182737
526.560702	0.182696
526.777018	0.184034
526.993316	0.184506
527.209597	0.185153
527.425858	0.185484
527.642102	0.186121
527.858328	0.186693
528.074535	0.187358
528.290724	0.187265
528.506894	0.187736
528.723047	0.187096
528.939181	0.187686
529.155297	0.187822
529.371395	0.188407
529.587475	0.188963
529.803536	0.188509
530.019579	0.188835
530.235604	0.188775
530.451611	0.189026
530.667600	0.189447
530.883570	0.189504
531.099522	0.189771
531.315456	0.189870
531.531372	0.189696
531.747269	0.189372
531.963148	0.189337
532.179009	0.190119
532.394852	0.190270
532.610676	0.189850
532.826482	0.190387
533.042271	0.191370
533.258040	0.191449
533.473792	0.191356
533.689525	0.193039
533.905240	0.193842
534.120937	0.193982
534.336616	0.193741
534.552277	0.194636
534.767919	0.195386
534.983543	0.195177
535.199149	0.195868
535.414736	0.196092
535.630306	0.195984
535.845857	0.195841
536.061390	0.196375
536.276904	0.197200
536.492401	0.197160
536.707879	0.197136
536.923339	0.197870
537.138781	0.197668
537.354204	0.198087
537.569610	0.198102
537.784997	0.198670
538.000366	0.199140
538.215716	0.199334
538.431049	0.200018
538.646363	0.200657
538.861659	0.200532
539.076937	0.200966
539.292196	0.202179
539.507438	0.202712
539.722661	0.202653
539.937866	0.203005
540.153052	0.202857
540.368221	0.203196
540.583371	0.203112
540.798503	0.203298
541.013617	0.203792
541.228712	0.202831
541.443789	0.202925
541.658848	0.203225
541.873889	0.203066
542.088912	0.203690
542.303916	0.203489
542.518902	0.204078
542.733870	0.204172
542.948820	0.204922
543.163752	0.205823
543.378665	0.206146
543.593560	0.206842
543.808437	0.207237
544.023295	0.207675
544.238136	0.208581
544.452958	0.208876
544.667762	0.209225
544.882548	0.208961
545.097315	0.209321
545.312064	0.209187
545.526795	0.209481
545.741508	0.209906
545.956203	0.210118
546.170879	0.209720
546.385537	0.209754
546.600177	0.210455
546.814799	0.210621
547.029402	0.211134
547.243988	0.211654
547.458555	0.211488
547.673103	0.211638
547.887634	0.211722
548.102146	0.212398
548.316640	0.212530
548.531116	0.212800
548.745574	0.212971
548.960013	0.213160
549.174435	0.213897
549.388838	0.214482
549.603222	0.214968
549.817589	0.215672
550.031937	0.216054
550.246267	0.216407
550.460579	0.216672
550.674873	0.216672
550.889148	0.216456
551.103405	0.215737
551.317644	0.215881
551.531865	0.215517
551.746068	0.215665
551.960252	0.216017
552.174418	0.216301
552.388566	0.216549
552.602696	0.217505
552.816807	0.217980
553.030900	0.218687
553.244975	0.219059
553.459032	0.219666
553.673070	0.219584
553.887091	0.219272
554.101093	0.219183
554.315077	0.219327
554.529042	0.219386
554.742990	0.219587
554.956919	0.219712
555.170830	0.219749
555.384722	0.219770
555.598597	0.220239
555.812453	0.220620
556.026291	0.220583
556.240111	0.220535
556.453913	0.220455
556.667696	0.220567
556.881461	0.220582
557.095208	0.220789
557.308937	0.220845
557.522647	0.221022
557.736339	0.221211
557.950013	0.221767
558.163669	0.221896
558.377307	0.222009
558.590926	0.222051
558.804527	0.222763
559.018110	0.222961
559.231675	0.223545
559.445221	0.223584
559.658749	0.223420
559.872259	0.224223
560.085751	0.224722
560.299225	0.225276
560.512680	0.225623
560.726117	0.225763
560.939536	0.225719
561.152937	0.225779
561.366319	0.225631
561.579683	0.226434
561.793029	0.225801
562.006357	0.225741
562.219667	0.225793
562.432958	0.225994
562.646231	0.225724
562.859486	0.225908
563.072723	0.226095
563.285941	0.226533
563.499141	0.226760
563.712323	0.226827
563.925487	0.226905
564.138632	0.226709
564.351760	0.227085
564.564869	0.227596
564.777960	0.228062
564.991032	0.228186
565.204087	0.228652
565.417123	0.228480
565.630141	0.228840
565.843140	0.229351
566.056122	0.230051
566.269085	0.229965
566.482030	0.229945
566.694957	0.229914
566.907866	0.230121
567.120756	0.230038
567.333628	0.230363
567.546482	0.230586
567.759318	0.230352
567.972135	0.230502
568.184935	0.231090
568.397716	0.230927
568.610478	0.230989
568.823223	0.231117
569.035949	0.231318
569.248657	0.231292
569.461347	0.231918
569.674019	0.232358
569.886672	0.232092
570.099308	0.231734
570.311925	0.232574
570.524523	0.232684
570.737104	0.232699
570.949666	0.232515
571.162210	0.232764
571.374736	0.232550
571.587244	0.232821
571.799733	0.232900
572.012205	0.233151
572.224658	0.233048
572.437092	0.233177
572.649509	0.233228
572.861907	0.233871
573.074287	0.234333
573.286649	0.234374
573.498993	0.234282
573.711318	0.234584
573.923625	0.234747
574.135914	0.234891
574.348185	0.235337
574.560438	0.235124
574.772672	0.235273
574.984888	0.235447
575.197086	0.235579
575.409266	0.235460
575.621427	0.235531
575.833570	0.235394
576.045695	0.235930
576.257802	0.235753
576.469890	0.236477
576.681961	0.236842
576.894013	0.236528
577.106046	0.236478
577.318062	0.237178
577.530059	0.237965
577.742039	0.238592
577.954000	0.238419
578.165942	0.239045
578.377867	0.239091
578.589773	0.238884
578.801661	0.239364
579.013531	0.239688
579.225382	0.239726
579.437216	0.239586
579.649031	0.239873
579.860828	0.240280
580.072606	0.240172
580.284367	0.240184
580.496109	0.240279
580.707833	0.240098
580.919539	0.240437
581.131227	0.240150
581.342896	0.240134
581.554547	0.239979
581.766180	0.239721
581.977795	0.240009
582.189391	0.240450
582.400969	0.240531
582.612529	0.240978
582.824071	0.241289
583.035595	0.241437
583.247100	0.241810
583.458587	0.242156
583.670056	0.242653
583.881506	0.242617
584.092939	0.243087
584.304353	0.243614
584.515749	0.243726
584.727127	0.243718
584.938486	0.243963
585.149828	0.243877
585.361151	0.244104
585.572456	0.243670
585.783742	0.244000
585.995011	0.243777
586.206261	0.243792
586.417493	0.243692
586.628706	0.243710
586.839902	0.243927
587.051079	0.244004
587.262238	0.244234
587.473379	0.244901
587.684502	0.244743
587.895606	0.244911
588.106692	0.245172
588.317760	0.245359
588.528810	0.245600
588.739841	0.246217
588.950855	0.246465
589.161850	0.245875
589.372827	0.245781
589.583785	0.246162
589.794726	0.246204
590.005648	0.246312
590.216552	0.246167
590.427437	0.246349
590.638305	0.246364
590.849154	0.246395
591.059985	0.246780
591.270798	0.247166
591.481592	0.247629
591.692369	0.248082
591.903127	0.248354
592.113867	0.248715
592.324588	0.249209
592.535292	0.249395
592.745977	0.249824
592.956644	0.250101
593.167293	0.250082
593.377923	0.250009
593.588536	0.249793
593.799130	0.249499
594.009706	0.249702
594.220263	0.249785
594.430803	0.249731
594.641324	0.249674
594.851827	0.250039
595.062312	0.250546
595.272778	0.250584
595.483227	0.251083
595.693657	0.251228
595.904069	0.251332
596.114462	0.251435
596.324838	0.251523
596.535195	0.251788
596.745534	0.251767
596.955855	0.251627
597.166157	0.252250
597.376441	0.252076
597.586707	0.252230
597.796955	0.252273
598.007185	0.252367
598.217396	0.252595
598.427589	0.252816
598.637764	0.253286
598.847921	0.253415
599.058060	0.253496
599.268180	0.253778
599.478282	0.253804
599.688366	0.254122
599.898431	0.254056
600.108479	0.253994
600.318508	0.254304
600.528519	0.253968
600.738511	0.254106
600.948486	0.253267
601.158442	0.253553
601.368380	0.253983
601.578300	0.254046
601.788202	0.254072
601.998085	0.254310
602.207950	0.254018
602.417797	0.254500
602.627626	0.254537
602.837436	0.255315
603.047228	0.255487
603.257002	0.255643
603.466758	0.255917
603.676496	0.256289
603.886215	0.256401
604.095916	0.256691
604.305599	0.256662
604.515264	0.256905
604.724910	0.256693
604.934538	0.256427
605.144148	0.256076
605.353740	0.256019
605.563314	0.256046
605.772869	0.256270
605.982406	0.256218
606.191925	0.256471
606.401425	0.256581
606.610908	0.256779
606.820372	0.256716
607.029818	0.257276
607.239246	0.257369
607.448655	0.257412
607.658047	0.257525
607.867420	0.257663
608.076775	0.257913
608.286111	0.257834
608.495430	0.258141
608.704730	0.259008
608.914012	0.259300
609.123275	0.259792
609.332521	0.260097
609.541748	0.260296
609.750957	0.260620
609.960148	0.260175
610.169321	0.260334
610.378475	0.260408
610.587611	0.260217
610.796729	0.259997
611.005829	0.259833
611.214910	0.259799
611.423974	0.259804
611.633019	0.259945
611.842045	0.260171
612.051054	0.260419
612.260044	0.260781
612.469017	0.261089
612.677970	0.261619
612.886906	0.261863
613.095824	0.262036
613.304723	0.262169
613.513604	0.262464
613.722467	0.262986
613.931311	0.262839
614.140138	0.262701
614.348946	0.262585
614.557736	0.262531
614.766507	0.262624
614.975261	0.262592
615.183996	0.262712
615.392713	0.262468
615.601412	0.262315
615.810092	0.262710
616.018754	0.262727
616.227399	0.262699
616.436024	0.262852
616.644632	0.262902
616.853222	0.263228
617.061793	0.263479
617.270346	0.264010
617.478880	0.263958
617.687397	0.264236
617.895895	0.264187
618.104375	0.264645
618.312837	0.264585
618.521281	0.264616
618.729706	0.264676
618.938113	0.264521
619.146502	0.264324
619.354873	0.264673
619.563226	0.264630
619.771560	0.265180
619.979876	0.265209
620.188174	0.265277
620.396453	0.265338
620.604715	0.265456
620.812958	0.265573
621.021183	0.265920
621.229390	0.266024
621.437578	0.266002
621.645748	0.265583
621.853900	0.265709
622.062034	0.266000
622.270150	0.266424
622.478247	0.266791
622.686326	0.267037
622.894387	0.266991
623.102430	0.267205
623.310454	0.267526
623.518461	0.268093
623.726449	0.268097
623.934418	0.268091
624.142370	0.268103
624.350303	0.268094
624.558218	0.268286
624.766115	0.268230
624.973994	0.268585
625.181855	0.268807
625.389697	0.269009
625.597521	0.269407
625.805327	0.269731
626.013114	0.269609
626.220883	0.269535
626.428634	0.269717
626.636367	0.270091
626.844082	0.269725
627.051778	0.269837
627.259457	0.269804
627.467117	0.269915
627.674758	0.269622
627.882382	0.269970
628.089987	0.270056
628.297574	0.270373
628.505143	0.270428
628.712694	0.270896
628.920226	0.270651
629.127740	0.271082
629.335236	0.271139
629.542714	0.271319
629.750174	0.271582
629.957615	0.272167
630.165038	0.272115
630.372443	0.272054
630.579829	0.272064
630.787198	0.272651
630.994548	0.272758
631.201880	0.272681
631.409194	0.273150
631.616489	0.273235
631.823766	0.273347
632.031025	0.273173
632.238266	0.273461
632.445489	0.273889
632.652693	0.273646
632.859879	0.273710
633.067047	0.273877
633.274197	0.273919
633.481329	0.274210
633.688442	0.274108
633.895537	0.274478
634.102614	0.274820
634.309672	0.274615
634.516713	0.274898
634.723735	0.275304
634.930739	0.275547
635.137724	0.275689
635.344692	0.276035
635.551641	0.276317
635.758572	0.276475
635.965485	0.276545
636.172379	0.276762
636.379256	0.277045
636.586114	0.277106
636.792954	0.277276
636.999775	0.277746
637.206579	0.277596
637.413364	0.277716
637.620131	0.277657
637.826880	0.277845
638.033610	0.277894
638.240323	0.277861
638.447017	0.277784
638.653692	0.278060
638.860350	0.278085
639.066990	0.278263
639.273611	0.278457
639.480214	0.279126
639.686798	0.279387
639.893365	0.279690
640.099913	0.280011
640.306443	0.280226
640.512955	0.280171
640.719449	0.280117
640.925924	0.280293
641.132381	0.280477
641.338820	0.280446
641.545241	0.280429
641.751644	0.280609
641.958028	0.280830
642.164394	0.280923
642.370742	0.281327
642.577071	0.281608
642.783383	0.281786
642.989676	0.281821
643.195951	0.281811
643.402207	0.281955
643.608446	0.281930
643.814666	0.281895
644.020868	0.282117
644.227052	0.282150
644.433218	0.282209
644.639365	0.282227
644.845494	0.282523
645.051605	0.282733
645.257698	0.282780
645.463772	0.283061
645.669828	0.282958
645.875866	0.283274
646.081886	0.283448
646.287888	0.283503
646.493871	0.283615
646.699836	0.283839
646.905783	0.284012
647.111712	0.284488
647.317622	0.284866
647.523514	0.285492
647.729388	0.285527
647.935244	0.285879
648.141082	0.286283
648.346901	0.286724
648.552702	0.287027
648.758485	0.287284
648.964250	0.287208
649.169996	0.287416
649.375724	0.287777
649.581434	0.287891
649.787126	0.288028
649.992800	0.288415
650.198455	0.288573
650.404092	0.288529
650.609711	0.288402
650.815311	0.288729
651.020894	0.288650
651.226458	0.288648
651.432004	0.288793
651.637532	0.288994
651.843041	0.288875
652.048532	0.288854
652.254006	0.288843
652.459460	0.289357
652.664897	0.289551
652.870315	0.289646
653.075716	0.289676
653.281097	0.290029
653.486461	0.290016
653.691807	0.290178
653.897134	0.290540
654.102443	0.290797
654.307734	0.290885
654.513006	0.290939
654.718261	0.291317
654.923497	0.291608
655.128715	0.291546
655.333915	0.291751
655.539096	0.292236
655.744259	0.292324
655.949404	0.292802
656.154531	0.293195
656.359640	0.293470
656.564730	0.293674
656.769802	0.293814
656.974856	0.294089
657.179892	0.294646
657.384909	0.294731
657.589908	0.294972
657.794889	0.294905
657.999852	0.295367
658.204797	0.295629
658.409723	0.295870
658.614631	0.296062
658.819521	0.296365
659.024393	0.296385
659.229246	0.296535
659.434081	0.296801
659.638898	0.297228
659.843697	0.296999
660.048478	0.297207
660.253240	0.297402
660.457984	0.297536
660.662710	0.297693
660.867417	0.297877
661.072107	0.298015
661.276778	0.298084
661.481431	0.298230
661.686066	0.298489
661.890682	0.298736
662.095281	0.298908
662.299861	0.299494
662.504422	0.299790
662.708966	0.299837
662.913491	0.300170
663.117999	0.300596
663.322488	0.300866
663.526958	0.301267
663.731411	0.301424
663.935845	0.301786
664.140261	0.301780
664.344659	0.301800
664.549038	0.302038
664.753400	0.302168
664.957743	0.302418
665.162068	0.302480
665.366375	0.302528
665.570663	0.302659
665.774933	0.302759
665.979185	0.303179
666.183419	0.303682
666.387635	0.303764
666.591832	0.303951
666.796011	0.303997
667.000172	0.304170
667.204315	0.304207
667.408439	0.304455
667.612545	0.304604
667.816634	0.304619
668.020703	0.304758
668.224755	0.305063
668.428788	0.305154
668.632803	0.305301
668.836800	0.305544
669.040779	0.305830
669.244739	0.305925
669.448681	0.306080
669.652605	0.306287
669.856511	0.306552
670.060399	0.306913
670.264268	0.307326
670.468119	0.307599
670.671952	0.307744
670.875767	0.307942
671.079563	0.308402
671.283341	0.308780
671.487101	0.309172
671.690843	0.309551
671.894567	0.309877
672.098272	0.310205
672.301959	0.310600
672.505628	0.311022
672.709278	0.311416
672.912911	0.311481
673.116525	0.311580
673.320121	0.311526
673.523699	0.311619
673.727258	0.311706
673.930799	0.311644
674.134322	0.311662
674.337827	0.311748
674.541314	0.312042
674.744782	0.312207
674.948232	0.312497
675.151664	0.312698
675.355078	0.312778
675.558474	0.312940
675.761851	0.313417
675.965210	0.313533
676.168551	0.313820
676.371873	0.314029
676.575178	0.314442
676.778464	0.314474
676.981732	0.314752
677.184981	0.315078
677.388213	0.315184
677.591426	0.315295
677.794621	0.315638
677.997798	0.315717
678.200956	0.315428
678.404097	0.315751
678.607219	0.316090
678.810323	0.316054
679.013408	0.316148
679.216476	0.316466
679.419525	0.316640
679.622556	0.317007
679.825569	0.317330
680.028563	0.317691
680.231540	0.317822
680.434498	0.318137
680.637438	0.318689
680.840359	0.318936
681.043263	0.319109
681.246148	0.319375
681.449015	0.319357
681.651864	0.319555
681.854694	0.320038
682.057506	0.319921
682.260301	0.319985
682.463076	0.320290
682.665834	0.320259
682.868573	0.320641
683.071295	0.320639
683.273998	0.321012
683.476682	0.321104
683.679349	0.321175
683.881997	0.321550
684.084627	0.321742
684.287239	0.321695
684.489833	0.322122
684.692408	0.322160
684.894965	0.322090
685.097504	0.322246
685.300025	0.322343
685.502527	0.322335
685.705012	0.322531
685.907478	0.322884
686.109925	0.322957
686.312355	0.323105
686.514766	0.323505
686.717159	0.324178
686.919534	0.324467
687.121891	0.324856
687.324230	0.325281
687.526550	0.325511
687.728852	0.325580
687.931136	0.325999
688.133401	0.326211
688.335649	0.326300
688.537878	0.326576
688.740089	0.326697
688.942281	0.326907
689.144456	0.327138
689.346612	0.327308
689.548750	0.327349
689.750870	0.327716
689.952971	0.328024
690.155055	0.328180
690.357120	0.328178
690.559167	0.328358
690.761195	0.328700
690.963206	0.328929
691.165198	0.329135
691.367172	0.329282
691.569128	0.329281
691.771065	0.329270
691.972984	0.329062
692.174885	0.329101
692.376768	0.329315
692.578633	0.329203
692.780479	0.329237
692.982308	0.329363
693.184118	0.329807
693.385909	0.329770
