sample name	sample
index	122
start time	 02-15-2021  12:47:39 PM


Wavelength (nm)	Absorbance
494.344910	-0.097934
494.563924	-0.097934
494.782919	-0.097934
495.001897	-0.282714
495.220856	-0.169124
495.439797	-0.166431
495.658719	-0.078309
495.877624	-0.022551
496.096510	0.024365
496.315378	0.218617
496.534227	0.305347
496.753059	0.151444
496.971872	0.355582
497.190667	0.174075
497.409444	0.130640
497.628203	0.112213
497.846943	0.109642
498.065665	0.107889
498.284369	0.104915
498.503055	0.102389
498.721723	0.104390
498.940372	0.104068
499.159003	0.103526
499.377616	0.103575
499.596210	0.106025
499.814787	0.105602
500.033345	0.106523
500.251885	0.106983
500.470406	0.107018
500.688910	0.108529
500.907395	0.108686
501.125862	0.108510
501.344311	0.108225
501.562742	0.106285
501.781154	0.105546
501.999548	0.104641
502.217924	0.103065
502.436282	0.103350
502.654621	0.100160
502.872942	0.100704
503.091245	0.099551
503.309530	0.100695
503.527797	0.101478
503.746045	0.102570
503.964275	0.102425
504.182487	0.105364
504.400681	0.107248
504.618856	0.107640
504.837013	0.105759
505.055152	0.107160
505.273273	0.105786
505.491376	0.106700
505.709460	0.106366
505.927526	0.108998
506.145574	0.108245
506.363604	0.107118
506.581615	0.108299
506.799608	0.109774
507.017583	0.109633
507.235540	0.110882
507.453478	0.108039
507.671399	0.109741
507.889301	0.109100
508.107185	0.107148
508.325050	0.107381
508.542898	0.108125
508.760727	0.106580
508.978538	0.107332
509.196330	0.108706
509.414105	0.112149
509.631861	0.112128
509.849599	0.111672
510.067319	0.115179
510.285021	0.115716
510.502704	0.116674
510.720369	0.116731
510.938016	0.116102
511.155645	0.115027
511.373255	0.112853
511.590848	0.112772
511.808422	0.112811
512.025977	0.111924
512.243515	0.111363
512.461034	0.110148
512.678536	0.111019
512.896018	0.109948
513.113483	0.110433
513.330930	0.113777
513.548358	0.113956
513.765768	0.114222
513.983160	0.113476
514.200533	0.113587
514.417889	0.115620
514.635226	0.116900
514.852545	0.117887
515.069845	0.119339
515.287128	0.117850
515.504392	0.117005
515.721638	0.117250
515.938866	0.116760
516.156075	0.117122
516.373267	0.116228
516.590440	0.115953
516.807594	0.117639
517.024731	0.117279
517.241850	0.117709
517.458950	0.119256
517.676032	0.121483
517.893095	0.123739
518.110141	0.123939
518.327168	0.124966
518.544177	0.125767
518.761168	0.125891
518.978141	0.123774
519.195095	0.124576
519.412031	0.125751
519.628949	0.123910
519.845849	0.123628
520.062731	0.125242
520.279594	0.124101
520.496439	0.123465
520.713266	0.122172
520.930074	0.124258
521.146865	0.123495
521.363637	0.121168
521.580391	0.121105
521.797127	0.121200
522.013844	0.119893
522.230543	0.119642
522.447224	0.120698
522.663887	0.122708
522.880532	0.122220
523.097158	0.122748
523.313766	0.123667
523.530356	0.124705
523.746928	0.125077
523.963481	0.126587
524.180017	0.127178
524.396534	0.127503
524.613032	0.126284
524.829513	0.126888
525.045975	0.126912
525.262420	0.127445
525.478845	0.127585
525.695253	0.127736
525.911643	0.127355
526.128014	0.128385
526.344367	0.128387
526.560702	0.128778
526.777018	0.129356
526.993316	0.130548
527.209597	0.130551
527.425858	0.130690
527.642102	0.130684
527.858328	0.130848
528.074535	0.131185
528.290724	0.130632
528.506894	0.132236
528.723047	0.132885
528.939181	0.132469
529.155297	0.132800
529.371395	0.134122
529.587475	0.134608
529.803536	0.135642
530.019579	0.134972
530.235604	0.136332
530.451611	0.136396
530.667600	0.136709
530.883570	0.138109
531.099522	0.138746
531.315456	0.138191
531.531372	0.138802
531.747269	0.138237
531.963148	0.140206
532.179009	0.139967
532.394852	0.140507
532.610676	0.140181
532.826482	0.139344
533.042271	0.138629
533.258040	0.137424
533.473792	0.137816
533.689525	0.138516
533.905240	0.138730
534.120937	0.138608
534.336616	0.138274
534.552277	0.139498
534.767919	0.139613
534.983543	0.140347
535.199149	0.141442
535.414736	0.142043
535.630306	0.143188
535.845857	0.142242
536.061390	0.142647
536.276904	0.143235
536.492401	0.142635
536.707879	0.142940
536.923339	0.143193
537.138781	0.143207
537.354204	0.143971
537.569610	0.143919
537.784997	0.143521
538.000366	0.144462
538.215716	0.144598
538.431049	0.145115
538.646363	0.144634
538.861659	0.146520
539.076937	0.148436
539.292196	0.147582
539.507438	0.146717
539.722661	0.147490
539.937866	0.147425
540.153052	0.147411
540.368221	0.147528
540.583371	0.148711
540.798503	0.147968
541.013617	0.147831
541.228712	0.149197
541.443789	0.149568
541.658848	0.150530
541.873889	0.151239
542.088912	0.152117
542.303916	0.152006
542.518902	0.152577
542.733870	0.152617
542.948820	0.152656
543.163752	0.151837
543.378665	0.151704
543.593560	0.151729
543.808437	0.152337
544.023295	0.151802
544.238136	0.152543
544.452958	0.153022
544.667762	0.153039
544.882548	0.153433
545.097315	0.153880
545.312064	0.155682
545.526795	0.155496
545.741508	0.154978
545.956203	0.154843
546.170879	0.155803
546.385537	0.155624
546.600177	0.156704
546.814799	0.157456
547.029402	0.158093
547.243988	0.157705
547.458555	0.158794
547.673103	0.158647
547.887634	0.159571
548.102146	0.158938
548.316640	0.159885
548.531116	0.159198
548.745574	0.159554
548.960013	0.158989
549.174435	0.160112
549.388838	0.160099
549.603222	0.161181
549.817589	0.162019
550.031937	0.162709
550.246267	0.162665
550.460579	0.163575
550.674873	0.163216
550.889148	0.163568
551.103405	0.162662
551.317644	0.163336
551.531865	0.163547
551.746068	0.163085
551.960252	0.163502
552.174418	0.163030
552.388566	0.163518
552.602696	0.163603
552.816807	0.164250
553.030900	0.164300
553.244975	0.163882
553.459032	0.164611
553.673070	0.165359
553.887091	0.165135
554.101093	0.166521
554.315077	0.167137
554.529042	0.167482
554.742990	0.167350
554.956919	0.168015
555.170830	0.168108
555.384722	0.167737
555.598597	0.166877
555.812453	0.166826
556.026291	0.166339
556.240111	0.165931
556.453913	0.166029
556.667696	0.167285
556.881461	0.167533
557.095208	0.167667
557.308937	0.167420
557.522647	0.167939
557.736339	0.168820
557.950013	0.169039
558.163669	0.170325
558.377307	0.170301
558.590926	0.169664
558.804527	0.170156
559.018110	0.170684
559.231675	0.170549
559.445221	0.171954
559.658749	0.171517
559.872259	0.171428
560.085751	0.169865
560.299225	0.169988
560.512680	0.170495
560.726117	0.170304
560.939536	0.170098
561.152937	0.171098
561.366319	0.170581
561.579683	0.171410
561.793029	0.172340
562.006357	0.172760
562.219667	0.173365
562.432958	0.173853
562.646231	0.172413
562.859486	0.172785
563.072723	0.172682
563.285941	0.172375
563.499141	0.172629
563.712323	0.172519
563.925487	0.173094
564.138632	0.173134
564.351760	0.172854
564.564869	0.174825
564.777960	0.174986
564.991032	0.175305
565.204087	0.175891
565.417123	0.175872
565.630141	0.175899
565.843140	0.175619
566.056122	0.176444
566.269085	0.176455
566.482030	0.176383
566.694957	0.177290
566.907866	0.177601
567.120756	0.177233
567.333628	0.177402
567.546482	0.177760
567.759318	0.178624
567.972135	0.178333
568.184935	0.179315
568.397716	0.179523
568.610478	0.179250
568.823223	0.177929
569.035949	0.178639
569.248657	0.179472
569.461347	0.179867
569.674019	0.179614
569.886672	0.179136
570.099308	0.178827
570.311925	0.179088
570.524523	0.179646
570.737104	0.181449
570.949666	0.181689
571.162210	0.181040
571.374736	0.180808
571.587244	0.181319
571.799733	0.182426
572.012205	0.182394
572.224658	0.182764
572.437092	0.182891
572.649509	0.183229
572.861907	0.183550
573.074287	0.183457
573.286649	0.183762
573.498993	0.183554
573.711318	0.182744
573.923625	0.182988
574.135914	0.182920
574.348185	0.181447
574.560438	0.181571
574.772672	0.181693
574.984888	0.181959
575.197086	0.182017
575.409266	0.182377
575.621427	0.183634
575.833570	0.183817
576.045695	0.183306
576.257802	0.184649
576.469890	0.184142
576.681961	0.184193
576.894013	0.183917
577.106046	0.184274
577.318062	0.185183
577.530059	0.185142
577.742039	0.184956
577.954000	0.185575
578.165942	0.185804
578.377867	0.186815
578.589773	0.186548
578.801661	0.187268
579.013531	0.187260
579.225382	0.186168
579.437216	0.186193
579.649031	0.186634
579.860828	0.186963
580.072606	0.187350
580.284367	0.187303
580.496109	0.187874
580.707833	0.188141
580.919539	0.188841
581.131227	0.190073
581.342896	0.189935
581.554547	0.189806
581.766180	0.190068
581.977795	0.190070
582.189391	0.189795
582.400969	0.190271
582.612529	0.190563
582.824071	0.190792
583.035595	0.190471
583.247100	0.190886
583.458587	0.191028
583.670056	0.191065
583.881506	0.191654
584.092939	0.191596
584.304353	0.191168
584.515749	0.191142
584.727127	0.190779
584.938486	0.190878
585.149828	0.190612
585.361151	0.190959
585.572456	0.191654
585.783742	0.191227
585.995011	0.191686
586.206261	0.192627
586.417493	0.192980
586.628706	0.192974
586.839902	0.193906
587.051079	0.194280
587.262238	0.194907
587.473379	0.195469
587.684502	0.196152
587.895606	0.196674
588.106692	0.196511
588.317760	0.196534
588.528810	0.196949
588.739841	0.195955
588.950855	0.196178
589.161850	0.195949
589.372827	0.195428
589.583785	0.195192
589.794726	0.195363
590.005648	0.194951
590.216552	0.194527
590.427437	0.195343
590.638305	0.196376
590.849154	0.196638
591.059985	0.196927
591.270798	0.196631
591.481592	0.197280
591.692369	0.197606
591.903127	0.198707
592.113867	0.199602
592.324588	0.198770
592.535292	0.198575
592.745977	0.198774
592.956644	0.198958
593.167293	0.199223
593.377923	0.199191
593.588536	0.199613
593.799130	0.199659
594.009706	0.199863
594.220263	0.200650
594.430803	0.200836
594.641324	0.201665
594.851827	0.202270
595.062312	0.202331
595.272778	0.202090
595.483227	0.201168
595.693657	0.200850
595.904069	0.201021
596.114462	0.201237
596.324838	0.201602
596.535195	0.200909
596.745534	0.200048
596.955855	0.200711
597.166157	0.201564
597.376441	0.202509
597.586707	0.203192
597.796955	0.203758
598.007185	0.204323
598.217396	0.205374
598.427589	0.206341
598.637764	0.207857
598.847921	0.208460
599.058060	0.208226
599.268180	0.208763
599.478282	0.208508
599.688366	0.208116
599.898431	0.207757
600.108479	0.207409
600.318508	0.207552
600.528519	0.207172
600.738511	0.206953
600.948486	0.207747
601.158442	0.206872
601.368380	0.207485
601.578300	0.207900
601.788202	0.207941
601.998085	0.207606
602.207950	0.207216
602.417797	0.207540
602.627626	0.208125
602.837436	0.207275
603.047228	0.208259
603.257002	0.207983
603.466758	0.207639
603.676496	0.207515
603.886215	0.207523
604.095916	0.208442
604.305599	0.208411
604.515264	0.208052
604.724910	0.209044
604.934538	0.209590
605.144148	0.210099
605.353740	0.210986
605.563314	0.211502
605.772869	0.211933
605.982406	0.212146
606.191925	0.212135
606.401425	0.212224
606.610908	0.212574
606.820372	0.212180
607.029818	0.212641
607.239246	0.212420
607.448655	0.212216
607.658047	0.212691
607.867420	0.212501
608.076775	0.212595
608.286111	0.213202
608.495430	0.212151
608.704730	0.212456
608.914012	0.212219
609.123275	0.212389
609.332521	0.213033
609.541748	0.213369
609.750957	0.212842
609.960148	0.213729
610.169321	0.213473
610.378475	0.214846
610.587611	0.214338
610.796729	0.214566
611.005829	0.214945
611.214910	0.215280
611.423974	0.214978
611.633019	0.215564
611.842045	0.215400
612.051054	0.215970
612.260044	0.215792
612.469017	0.216999
612.677970	0.217099
612.886906	0.217094
613.095824	0.216357
613.304723	0.216062
613.513604	0.216433
613.722467	0.216669
613.931311	0.216827
614.140138	0.216830
614.348946	0.216439
614.557736	0.216726
614.766507	0.216929
614.975261	0.217619
615.183996	0.217739
615.392713	0.218071
615.601412	0.218162
615.810092	0.218367
616.018754	0.218388
616.227399	0.218756
616.436024	0.218896
616.644632	0.219072
616.853222	0.219176
617.061793	0.219764
617.270346	0.219502
617.478880	0.219524
617.687397	0.219480
617.895895	0.219477
618.104375	0.219510
618.312837	0.219831
618.521281	0.219675
618.729706	0.220404
618.938113	0.220676
619.146502	0.220787
619.354873	0.220676
619.563226	0.221422
619.771560	0.222091
619.979876	0.222027
620.188174	0.221748
620.396453	0.221341
620.604715	0.221322
620.812958	0.221303
621.021183	0.221464
621.229390	0.222163
621.437578	0.221507
621.645748	0.221757
621.853900	0.222393
622.062034	0.222919
622.270150	0.224326
622.478247	0.224493
622.686326	0.224766
622.894387	0.225017
623.102430	0.224929
623.310454	0.225166
623.518461	0.225336
623.726449	0.225091
623.934418	0.224986
624.142370	0.224557
624.350303	0.224750
624.558218	0.225195
624.766115	0.225505
624.973994	0.225847
625.181855	0.226475
625.389697	0.226693
625.597521	0.227107
625.805327	0.227213
626.013114	0.227184
626.220883	0.227012
626.428634	0.227420
626.636367	0.227741
626.844082	0.227356
627.051778	0.227430
627.259457	0.227588
627.467117	0.227839
627.674758	0.228167
627.882382	0.228999
628.089987	0.229145
628.297574	0.228475
628.505143	0.228655
628.712694	0.229592
628.920226	0.229316
629.127740	0.229263
629.335236	0.229108
629.542714	0.228802
629.750174	0.228682
629.957615	0.229152
630.165038	0.229759
630.372443	0.229138
630.579829	0.228884
630.787198	0.229488
630.994548	0.229545
631.201880	0.230071
631.409194	0.230629
631.616489	0.230739
631.823766	0.230677
632.031025	0.230836
632.238266	0.231803
632.445489	0.232181
632.652693	0.232396
632.859879	0.232329
633.067047	0.231954
633.274197	0.232974
633.481329	0.233585
633.688442	0.234050
633.895537	0.234319
634.102614	0.234296
634.309672	0.234189
634.516713	0.234753
634.723735	0.235747
634.930739	0.236680
635.137724	0.236168
635.344692	0.236524
635.551641	0.236308
635.758572	0.236257
635.965485	0.236548
636.172379	0.237184
636.379256	0.237057
636.586114	0.237047
636.792954	0.236765
636.999775	0.237092
637.206579	0.237265
637.413364	0.238316
637.620131	0.238709
637.826880	0.238971
638.033610	0.238782
638.240323	0.239111
638.447017	0.238882
638.653692	0.239298
638.860350	0.239791
639.066990	0.239533
639.273611	0.239173
639.480214	0.239635
639.686798	0.239612
639.893365	0.240697
640.099913	0.240915
640.306443	0.241569
640.512955	0.241749
640.719449	0.241385
640.925924	0.241752
641.132381	0.242017
641.338820	0.241600
641.545241	0.241764
641.751644	0.241495
641.958028	0.241678
642.164394	0.241312
642.370742	0.241234
642.577071	0.241280
642.783383	0.241303
642.989676	0.241675
643.195951	0.242258
643.402207	0.242637
643.608446	0.243095
643.814666	0.243169
644.020868	0.243795
644.227052	0.244052
644.433218	0.244620
644.639365	0.244860
644.845494	0.244918
645.051605	0.245372
645.257698	0.245804
645.463772	0.245525
645.669828	0.245306
645.875866	0.245812
646.081886	0.245606
646.287888	0.245901
646.493871	0.246299
646.699836	0.246704
646.905783	0.246324
647.111712	0.246702
647.317622	0.246991
647.523514	0.247531
647.729388	0.247089
647.935244	0.247986
648.141082	0.248659
648.346901	0.248930
648.552702	0.249292
648.758485	0.250084
648.964250	0.249582
649.169996	0.249469
649.375724	0.249722
649.581434	0.250125
649.787126	0.250120
649.992800	0.250103
650.198455	0.250640
650.404092	0.250573
650.609711	0.250765
650.815311	0.250849
651.020894	0.251367
651.226458	0.251279
651.432004	0.251670
651.637532	0.251985
651.843041	0.252026
652.048532	0.251586
652.254006	0.251736
652.459460	0.251766
652.664897	0.252162
652.870315	0.252486
653.075716	0.252559
653.281097	0.252439
653.486461	0.252750
653.691807	0.252960
653.897134	0.253207
654.102443	0.253047
654.307734	0.253181
654.513006	0.253706
654.718261	0.253902
654.923497	0.254524
655.128715	0.254281
655.333915	0.254271
655.539096	0.254195
655.744259	0.254430
655.949404	0.255167
656.154531	0.255604
656.359640	0.255731
656.564730	0.256005
656.769802	0.256304
656.974856	0.257367
657.179892	0.257858
657.384909	0.258282
657.589908	0.258920
657.794889	0.258956
657.999852	0.259489
658.204797	0.259539
658.409723	0.259821
658.614631	0.260073
658.819521	0.260422
659.024393	0.260705
659.229246	0.261171
659.434081	0.261057
659.638898	0.261891
659.843697	0.261842
660.048478	0.261934
660.253240	0.262026
660.457984	0.261988
660.662710	0.262379
660.867417	0.262856
661.072107	0.262814
661.276778	0.263328
661.481431	0.263064
661.686066	0.263215
661.890682	0.263888
662.095281	0.264188
662.299861	0.264697
662.504422	0.264985
662.708966	0.265411
662.913491	0.266483
663.117999	0.266252
663.322488	0.267281
663.526958	0.267789
663.731411	0.268036
663.935845	0.268601
664.140261	0.268760
664.344659	0.268893
664.549038	0.268768
664.753400	0.268634
664.957743	0.269105
665.162068	0.268609
665.366375	0.268732
665.570663	0.269145
665.774933	0.269091
665.979185	0.269277
666.183419	0.269310
666.387635	0.269679
666.591832	0.269954
666.796011	0.270406
667.000172	0.270517
667.204315	0.271014
667.408439	0.271106
667.612545	0.271292
667.816634	0.271507
668.020703	0.272229
668.224755	0.272391
668.428788	0.272584
668.632803	0.272820
668.836800	0.273350
669.040779	0.272962
669.244739	0.272930
669.448681	0.273210
669.652605	0.273653
669.856511	0.273618
670.060399	0.273637
670.264268	0.273754
670.468119	0.274393
670.671952	0.274413
670.875767	0.275002
671.079563	0.275735
671.283341	0.275949
671.487101	0.276386
671.690843	0.276412
671.894567	0.276535
672.098272	0.276735
672.301959	0.276884
672.505628	0.277313
672.709278	0.277401
672.912911	0.277623
673.116525	0.278202
673.320121	0.278492
673.523699	0.278753
673.727258	0.279562
673.930799	0.279726
674.134322	0.279859
674.337827	0.280367
674.541314	0.280960
674.744782	0.280963
674.948232	0.281620
675.151664	0.282117
675.355078	0.282501
675.558474	0.282694
675.761851	0.283333
675.965210	0.283651
676.168551	0.283481
676.371873	0.283376
676.575178	0.284027
676.778464	0.283566
676.981732	0.282964
677.184981	0.282882
677.388213	0.283124
677.591426	0.282963
677.794621	0.283595
677.997798	0.284427
678.200956	0.284895
678.404097	0.285306
678.607219	0.286105
678.810323	0.286528
679.013408	0.287048
679.216476	0.286753
679.419525	0.286716
679.622556	0.286702
679.825569	0.286902
680.028563	0.287426
680.231540	0.287839
680.434498	0.287497
680.637438	0.288121
680.840359	0.288774
681.043263	0.289265
681.246148	0.290331
681.449015	0.290606
681.651864	0.290402
681.854694	0.290328
682.057506	0.289743
682.260301	0.290502
682.463076	0.290902
682.665834	0.290632
682.868573	0.290879
683.071295	0.290736
683.273998	0.290556
683.476682	0.290500
683.679349	0.290945
683.881997	0.291326
684.084627	0.291194
684.287239	0.291164
684.489833	0.291711
684.692408	0.292054
684.894965	0.292605
685.097504	0.292652
685.300025	0.292933
685.502527	0.292849
685.705012	0.293160
685.907478	0.293268
686.109925	0.293503
686.312355	0.293448
686.514766	0.293920
686.717159	0.293521
686.919534	0.294123
687.121891	0.294586
687.324230	0.295196
687.526550	0.295465
687.728852	0.295816
687.931136	0.296148
688.133401	0.296306
688.335649	0.296626
688.537878	0.296903
688.740089	0.297094
688.942281	0.297650
689.144456	0.297874
689.346612	0.298458
689.548750	0.298742
689.750870	0.298897
689.952971	0.299177
690.155055	0.299058
690.357120	0.299811
690.559167	0.300070
690.761195	0.299935
690.963206	0.299677
691.165198	0.299679
691.367172	0.299490
691.569128	0.299629
691.771065	0.300216
691.972984	0.300187
692.174885	0.299902
692.376768	0.299808
692.578633	0.299943
692.780479	0.300204
692.982308	0.300305
693.184118	0.300980
693.385909	0.301488
