sample name	sample
index	983
start time	 04-14-2021  03:24:45 PM


Wavelength (nm)	Absorbance
494.344910	-0.024161
494.563924	-0.024161
494.782919	-0.024161
495.001897	0.079974
495.220856	-0.005436
495.439797	-0.000812
495.658719	-0.002955
495.877624	-0.018021
496.096510	-0.020483
496.315378	-0.034159
496.534227	-0.036137
496.753059	-0.029550
496.971872	-0.010126
497.190667	0.112711
497.409444	0.152524
497.628203	0.171942
497.846943	0.182877
498.065665	0.188006
498.284369	0.192555
498.503055	0.193137
498.721723	0.193727
498.940372	0.195125
499.159003	0.195793
499.377616	0.196178
499.596210	0.195582
499.814787	0.196961
500.033345	0.197251
500.251885	0.197166
500.470406	0.197214
500.688910	0.198220
500.907395	0.198734
501.125862	0.198046
501.344311	0.199220
501.562742	0.199665
501.781154	0.198650
501.999548	0.197838
502.217924	0.198670
502.436282	0.200091
502.654621	0.200627
502.872942	0.200167
503.091245	0.201844
503.309530	0.203224
503.527797	0.203306
503.746045	0.203937
503.964275	0.204240
504.182487	0.203552
504.400681	0.203844
504.618856	0.203734
504.837013	0.204832
505.055152	0.204799
505.273273	0.204601
505.491376	0.205634
505.709460	0.204830
505.927526	0.205246
506.145574	0.205980
506.363604	0.205849
506.581615	0.205987
506.799608	0.205589
507.017583	0.205793
507.235540	0.205842
507.453478	0.205897
507.671399	0.206611
507.889301	0.207684
508.107185	0.207939
508.325050	0.208569
508.542898	0.209342
508.760727	0.209442
508.978538	0.210150
509.196330	0.209405
509.414105	0.208965
509.631861	0.209321
509.849599	0.208538
510.067319	0.208420
510.285021	0.208437
510.502704	0.208209
510.720369	0.208953
510.938016	0.209352
511.155645	0.210162
511.373255	0.210538
511.590848	0.211108
511.808422	0.211218
512.025977	0.211264
512.243515	0.211256
512.461034	0.210856
512.678536	0.210914
512.896018	0.210797
513.113483	0.210116
513.330930	0.210633
513.548358	0.210344
513.765768	0.211546
513.983160	0.212388
514.200533	0.212540
514.417889	0.213383
514.635226	0.212610
514.852545	0.211997
515.069845	0.212489
515.287128	0.212704
515.504392	0.212740
515.721638	0.212706
515.938866	0.211851
516.156075	0.211541
516.373267	0.211772
516.590440	0.213306
516.807594	0.214356
517.024731	0.215224
517.241850	0.214996
517.458950	0.215541
517.676032	0.215722
517.893095	0.217073
518.110141	0.217880
518.327168	0.217976
518.544177	0.217365
518.761168	0.216822
518.978141	0.217133
519.195095	0.218086
519.412031	0.217855
519.628949	0.217949
519.845849	0.217799
520.062731	0.217572
520.279594	0.218296
520.496439	0.218412
520.713266	0.218952
520.930074	0.218563
521.146865	0.219397
521.363637	0.220194
521.580391	0.220211
521.797127	0.221362
522.013844	0.222528
522.230543	0.222290
522.447224	0.222469
522.663887	0.223116
522.880532	0.223424
523.097158	0.222980
523.313766	0.222850
523.530356	0.223509
523.746928	0.223271
523.963481	0.223429
524.180017	0.224619
524.396534	0.225046
524.613032	0.224740
524.829513	0.225207
525.045975	0.224975
525.262420	0.225201
525.478845	0.225029
525.695253	0.226059
525.911643	0.226166
526.128014	0.226114
526.344367	0.227316
526.560702	0.227887
526.777018	0.228360
526.993316	0.228878
527.209597	0.229741
527.425858	0.230268
527.642102	0.230300
527.858328	0.229963
528.074535	0.230212
528.290724	0.229576
528.506894	0.230107
528.723047	0.230604
528.939181	0.230868
529.155297	0.230909
529.371395	0.231464
529.587475	0.230989
529.803536	0.232212
530.019579	0.232977
530.235604	0.233749
530.451611	0.234293
530.667600	0.234950
530.883570	0.235509
531.099522	0.236409
531.315456	0.237531
531.531372	0.238346
531.747269	0.238420
531.963148	0.238774
532.179009	0.239282
532.394852	0.239923
532.610676	0.239121
532.826482	0.239761
533.042271	0.240287
533.258040	0.239829
533.473792	0.240124
533.689525	0.240290
533.905240	0.239758
534.120937	0.240608
534.336616	0.240172
534.552277	0.241256
534.767919	0.242181
534.983543	0.241951
535.199149	0.242381
535.414736	0.242682
535.630306	0.243468
535.845857	0.244270
536.061390	0.243887
536.276904	0.244243
536.492401	0.244477
536.707879	0.243911
536.923339	0.244460
537.138781	0.244691
537.354204	0.245373
537.569610	0.245181
537.784997	0.245567
538.000366	0.246537
538.215716	0.246905
538.431049	0.246774
538.646363	0.247653
538.861659	0.248237
539.076937	0.247988
539.292196	0.247877
539.507438	0.248740
539.722661	0.248692
539.937866	0.249291
540.153052	0.249854
540.368221	0.251117
540.583371	0.251165
540.798503	0.251516
541.013617	0.252793
541.228712	0.253509
541.443789	0.253477
541.658848	0.253904
541.873889	0.253487
542.088912	0.253842
542.303916	0.254055
542.518902	0.254888
542.733870	0.254682
542.948820	0.254931
543.163752	0.254799
543.378665	0.254916
543.593560	0.255675
543.808437	0.256066
544.023295	0.256204
544.238136	0.256018
544.452958	0.255740
544.667762	0.256216
544.882548	0.256366
545.097315	0.256897
545.312064	0.257238
545.526795	0.257147
545.741508	0.257027
545.956203	0.257359
546.170879	0.257848
546.385537	0.257820
546.600177	0.257976
546.814799	0.258260
547.029402	0.258383
547.243988	0.258747
547.458555	0.259294
547.673103	0.259864
547.887634	0.260309
548.102146	0.260868
548.316640	0.261627
548.531116	0.262385
548.745574	0.262777
548.960013	0.263474
549.174435	0.263791
549.388838	0.264050
549.603222	0.264834
549.817589	0.265145
550.031937	0.265459
550.246267	0.265358
550.460579	0.265723
550.674873	0.265428
550.889148	0.265052
551.103405	0.265174
551.317644	0.265055
551.531865	0.265131
551.746068	0.265050
551.960252	0.265452
552.174418	0.265439
552.388566	0.265440
552.602696	0.266383
552.816807	0.267015
553.030900	0.267555
553.244975	0.268218
553.459032	0.268489
553.673070	0.268910
553.887091	0.268805
554.101093	0.269666
554.315077	0.270139
554.529042	0.269980
554.742990	0.269892
554.956919	0.270173
555.170830	0.270719
555.384722	0.270490
555.598597	0.271012
555.812453	0.271204
556.026291	0.271446
556.240111	0.271891
556.453913	0.272185
556.667696	0.272884
556.881461	0.272732
557.095208	0.272357
557.308937	0.272720
557.522647	0.273164
557.736339	0.273535
557.950013	0.273594
558.163669	0.273398
558.377307	0.273818
558.590926	0.274427
558.804527	0.275129
559.018110	0.275157
559.231675	0.275255
559.445221	0.275038
559.658749	0.275093
559.872259	0.275589
560.085751	0.275900
560.299225	0.276099
560.512680	0.275446
560.726117	0.275187
560.939536	0.275280
561.152937	0.275351
561.366319	0.275655
561.579683	0.275784
561.793029	0.275489
562.006357	0.275241
562.219667	0.275467
562.432958	0.275978
562.646231	0.276384
562.859486	0.277149
563.072723	0.278120
563.285941	0.278238
563.499141	0.278977
563.712323	0.279353
563.925487	0.279487
564.138632	0.279728
564.351760	0.280045
564.564869	0.279938
564.777960	0.280063
564.991032	0.279558
565.204087	0.279568
565.417123	0.279459
565.630141	0.279831
565.843140	0.280565
566.056122	0.280795
566.269085	0.280914
566.482030	0.281234
566.694957	0.281303
566.907866	0.281635
567.120756	0.282184
567.333628	0.282481
567.546482	0.282664
567.759318	0.282642
567.972135	0.283084
568.184935	0.283327
568.397716	0.284174
568.610478	0.284402
568.823223	0.284679
569.035949	0.284759
569.248657	0.284785
569.461347	0.285133
569.674019	0.285388
569.886672	0.285223
570.099308	0.285182
570.311925	0.285062
570.524523	0.285519
570.737104	0.285747
570.949666	0.285452
571.162210	0.285353
571.374736	0.285142
571.587244	0.285236
571.799733	0.285325
572.012205	0.285515
572.224658	0.285584
572.437092	0.285681
572.649509	0.285843
572.861907	0.286608
573.074287	0.287368
573.286649	0.287583
573.498993	0.287841
573.711318	0.287616
573.923625	0.287755
574.135914	0.288080
574.348185	0.288301
574.560438	0.288062
574.772672	0.288219
574.984888	0.287665
575.197086	0.288070
575.409266	0.288185
575.621427	0.288581
575.833570	0.288979
576.045695	0.288912
576.257802	0.289055
576.469890	0.289539
576.681961	0.289954
576.894013	0.290619
577.106046	0.290480
577.318062	0.290989
577.530059	0.291513
577.742039	0.291595
577.954000	0.291839
578.165942	0.291335
578.377867	0.292032
578.589773	0.291866
578.801661	0.292069
579.013531	0.292385
579.225382	0.292030
579.437216	0.291617
579.649031	0.291769
579.860828	0.291821
580.072606	0.292290
580.284367	0.291775
580.496109	0.291977
580.707833	0.292146
580.919539	0.292332
581.131227	0.292307
581.342896	0.293092
581.554547	0.293172
581.766180	0.293720
581.977795	0.293821
582.189391	0.294445
582.400969	0.294737
582.612529	0.294705
582.824071	0.294719
583.035595	0.294862
583.247100	0.294862
583.458587	0.295081
583.670056	0.295292
583.881506	0.296064
584.092939	0.296205
584.304353	0.296233
584.515749	0.296268
584.727127	0.296768
584.938486	0.297188
585.149828	0.297367
585.361151	0.297547
585.572456	0.297591
585.783742	0.297353
585.995011	0.297608
586.206261	0.298109
586.417493	0.298792
586.628706	0.299016
586.839902	0.299340
587.051079	0.299311
587.262238	0.299803
587.473379	0.299930
587.684502	0.300266
587.895606	0.300721
588.106692	0.300581
588.317760	0.300708
588.528810	0.300725
588.739841	0.301256
588.950855	0.301436
589.161850	0.301712
589.372827	0.301728
589.583785	0.301536
589.794726	0.301489
590.005648	0.301884
590.216552	0.301739
590.427437	0.302173
590.638305	0.302082
590.849154	0.302629
591.059985	0.302698
591.270798	0.303167
591.481592	0.304184
591.692369	0.304343
591.903127	0.304423
592.113867	0.304967
592.324588	0.305323
592.535292	0.305634
592.745977	0.305920
592.956644	0.306220
593.167293	0.306178
593.377923	0.306345
593.588536	0.306490
593.799130	0.306701
594.009706	0.306878
594.220263	0.306767
594.430803	0.306787
594.641324	0.306687
594.851827	0.306284
595.062312	0.306735
595.272778	0.306602
595.483227	0.307254
595.693657	0.307156
595.904069	0.306987
596.114462	0.307176
596.324838	0.307623
596.535195	0.307561
596.745534	0.308531
596.955855	0.308531
597.166157	0.308510
597.376441	0.308256
597.586707	0.308452
597.796955	0.309121
598.007185	0.309396
598.217396	0.309361
598.427589	0.309832
598.637764	0.309760
598.847921	0.309800
599.058060	0.310299
599.268180	0.310435
599.478282	0.310504
599.688366	0.310070
599.898431	0.309940
600.108479	0.310373
600.318508	0.310455
600.528519	0.310564
600.738511	0.310769
600.948486	0.311013
601.158442	0.311095
601.368380	0.311169
601.578300	0.311389
601.788202	0.311469
601.998085	0.311595
602.207950	0.311676
602.417797	0.311733
602.627626	0.311982
602.837436	0.311918
603.047228	0.312295
603.257002	0.312526
603.466758	0.312818
603.676496	0.313388
603.886215	0.313186
604.095916	0.313539
604.305599	0.313679
604.515264	0.313837
604.724910	0.313730
604.934538	0.313985
605.144148	0.314264
605.353740	0.314354
605.563314	0.314526
605.772869	0.315057
605.982406	0.315220
606.191925	0.315581
606.401425	0.316166
606.610908	0.316781
606.820372	0.316790
607.029818	0.317143
607.239246	0.317745
607.448655	0.317879
607.658047	0.317872
607.867420	0.318203
608.076775	0.318069
608.286111	0.317935
608.495430	0.318232
608.704730	0.318271
608.914012	0.318463
609.123275	0.318168
609.332521	0.318432
609.541748	0.318730
609.750957	0.318781
609.960148	0.319289
610.169321	0.319341
610.378475	0.319406
610.587611	0.319475
610.796729	0.319708
611.005829	0.320221
611.214910	0.319728
611.423974	0.319614
611.633019	0.319746
611.842045	0.319888
612.051054	0.320261
612.260044	0.320252
612.469017	0.320664
612.677970	0.320681
612.886906	0.320899
613.095824	0.321428
613.304723	0.321855
613.513604	0.321904
613.722467	0.321958
613.931311	0.321878
614.140138	0.322319
614.348946	0.322269
614.557736	0.322347
614.766507	0.322224
614.975261	0.322673
615.183996	0.322387
615.392713	0.322592
615.601412	0.322817
615.810092	0.323006
616.018754	0.322519
616.227399	0.322775
616.436024	0.323054
616.644632	0.323468
616.853222	0.323388
617.061793	0.323962
617.270346	0.324098
617.478880	0.323935
617.687397	0.324152
617.895895	0.324636
618.104375	0.324901
618.312837	0.325015
618.521281	0.325245
618.729706	0.325267
618.938113	0.325242
619.146502	0.325547
619.354873	0.325799
619.563226	0.325966
619.771560	0.325915
619.979876	0.326063
620.188174	0.326045
620.396453	0.326053
620.604715	0.326426
620.812958	0.326552
621.021183	0.326413
621.229390	0.326618
621.437578	0.326926
621.645748	0.327234
621.853900	0.326712
622.062034	0.327490
622.270150	0.327647
622.478247	0.327932
622.686326	0.328126
622.894387	0.328440
623.102430	0.328635
623.310454	0.328310
623.518461	0.328482
623.726449	0.328887
623.934418	0.328431
624.142370	0.328533
624.350303	0.328282
624.558218	0.328418
624.766115	0.328545
624.973994	0.328506
625.181855	0.328913
625.389697	0.329088
625.597521	0.329708
625.805327	0.330092
626.013114	0.330291
626.220883	0.330784
626.428634	0.331045
626.636367	0.331496
626.844082	0.331948
627.051778	0.332126
627.259457	0.332134
627.467117	0.332324
627.674758	0.332328
627.882382	0.332720
628.089987	0.332852
628.297574	0.333455
628.505143	0.333116
628.712694	0.333342
628.920226	0.333656
629.127740	0.333906
629.335236	0.333783
629.542714	0.334186
629.750174	0.334281
629.957615	0.334826
630.165038	0.334561
630.372443	0.334918
630.579829	0.334972
630.787198	0.335120
630.994548	0.335538
631.201880	0.335607
631.409194	0.336103
631.616489	0.335933
631.823766	0.335750
632.031025	0.336051
632.238266	0.336395
632.445489	0.336813
632.652693	0.337202
632.859879	0.337203
633.067047	0.337316
633.274197	0.336912
633.481329	0.337161
633.688442	0.337338
633.895537	0.337230
634.102614	0.337396
634.309672	0.337435
634.516713	0.337268
634.723735	0.337249
634.930739	0.337542
635.137724	0.337789
635.344692	0.338015
635.551641	0.338025
635.758572	0.338222
635.965485	0.338668
636.172379	0.338664
636.379256	0.339130
636.586114	0.339419
636.792954	0.339922
636.999775	0.340113
637.206579	0.340360
637.413364	0.340491
637.620131	0.341028
637.826880	0.340997
638.033610	0.341272
638.240323	0.341426
638.447017	0.342001
638.653692	0.342389
638.860350	0.342716
639.066990	0.342994
639.273611	0.343237
639.480214	0.343281
639.686798	0.343474
639.893365	0.343688
640.099913	0.343939
640.306443	0.343900
640.512955	0.343812
640.719449	0.343876
640.925924	0.344127
641.132381	0.344466
641.338820	0.344482
641.545241	0.344607
641.751644	0.344994
641.958028	0.345026
642.164394	0.345204
642.370742	0.345574
642.577071	0.346018
642.783383	0.346293
642.989676	0.346779
643.195951	0.347121
643.402207	0.347394
643.608446	0.347195
643.814666	0.347458
644.020868	0.347567
644.227052	0.347749
644.433218	0.347833
644.639365	0.347538
644.845494	0.347398
645.051605	0.347425
645.257698	0.347597
645.463772	0.347913
645.669828	0.348021
645.875866	0.348006
646.081886	0.348041
646.287888	0.347943
646.493871	0.348548
646.699836	0.348719
646.905783	0.349121
647.111712	0.349187
647.317622	0.349244
647.523514	0.349459
647.729388	0.350015
647.935244	0.350346
648.141082	0.350683
648.346901	0.350703
648.552702	0.350641
648.758485	0.350754
648.964250	0.350949
649.169996	0.351245
649.375724	0.351493
649.581434	0.351891
649.787126	0.352012
649.992800	0.352231
650.198455	0.352616
650.404092	0.353229
650.609711	0.353655
650.815311	0.353947
651.020894	0.354395
651.226458	0.354547
651.432004	0.354636
651.637532	0.354790
651.843041	0.355249
652.048532	0.355388
652.254006	0.355670
652.459460	0.355617
652.664897	0.355975
652.870315	0.356193
653.075716	0.356571
653.281097	0.356867
653.486461	0.357297
653.691807	0.357385
653.897134	0.357575
654.102443	0.357712
654.307734	0.358032
654.513006	0.358124
654.718261	0.358264
654.923497	0.358382
655.128715	0.358308
655.333915	0.358339
655.539096	0.358545
655.744259	0.358899
655.949404	0.359067
656.154531	0.359032
656.359640	0.359460
656.564730	0.359656
656.769802	0.359804
656.974856	0.360087
657.179892	0.360240
657.384909	0.360534
657.589908	0.360642
657.794889	0.360970
657.999852	0.361274
658.204797	0.361287
658.409723	0.361481
658.614631	0.361592
658.819521	0.361871
659.024393	0.362210
659.229246	0.362339
659.434081	0.362409
659.638898	0.362827
659.843697	0.363253
660.048478	0.363632
660.253240	0.364056
660.457984	0.364461
660.662710	0.364568
660.867417	0.364696
661.072107	0.364833
661.276778	0.365260
661.481431	0.365338
661.686066	0.365650
661.890682	0.365550
662.095281	0.365717
662.299861	0.365764
662.504422	0.366222
662.708966	0.366576
662.913491	0.367056
663.117999	0.367131
663.322488	0.367259
663.526958	0.367550
663.731411	0.368129
663.935845	0.368228
664.140261	0.368613
664.344659	0.368798
664.549038	0.369056
664.753400	0.369248
664.957743	0.369548
665.162068	0.369762
665.366375	0.370021
665.570663	0.370352
665.774933	0.370840
665.979185	0.370992
666.183419	0.371311
666.387635	0.371340
666.591832	0.371466
666.796011	0.371619
667.000172	0.371886
667.204315	0.371841
667.408439	0.371845
667.612545	0.371790
667.816634	0.372198
668.020703	0.372309
668.224755	0.372668
668.428788	0.372972
668.632803	0.373229
668.836800	0.373229
669.040779	0.373518
669.244739	0.373678
669.448681	0.373720
669.652605	0.373989
669.856511	0.374165
670.060399	0.374317
670.264268	0.374459
670.468119	0.374772
670.671952	0.375101
670.875767	0.375515
671.079563	0.376069
671.283341	0.376676
671.487101	0.376756
671.690843	0.376938
671.894567	0.377188
672.098272	0.377491
672.301959	0.377770
672.505628	0.378075
672.709278	0.378150
672.912911	0.378244
673.116525	0.378472
673.320121	0.378644
673.523699	0.379048
673.727258	0.379481
673.930799	0.379537
674.134322	0.379840
674.337827	0.380138
674.541314	0.380537
674.744782	0.380493
674.948232	0.380630
675.151664	0.380998
675.355078	0.381131
675.558474	0.381154
675.761851	0.381560
675.965210	0.381791
676.168551	0.381816
676.371873	0.381980
676.575178	0.382642
676.778464	0.382987
676.981732	0.383358
677.184981	0.383491
677.388213	0.383736
677.591426	0.384126
677.794621	0.384520
677.997798	0.385299
678.200956	0.385465
678.404097	0.385346
678.607219	0.385718
678.810323	0.385979
679.013408	0.386418
679.216476	0.386921
679.419525	0.387297
679.622556	0.387586
679.825569	0.387449
680.028563	0.387684
680.231540	0.388116
680.434498	0.388078
680.637438	0.388425
680.840359	0.388407
681.043263	0.388460
681.246148	0.388547
681.449015	0.388631
681.651864	0.388986
681.854694	0.389274
682.057506	0.389622
682.260301	0.389966
682.463076	0.389863
682.665834	0.390358
682.868573	0.390749
683.071295	0.390800
683.273998	0.391112
683.476682	0.391442
683.679349	0.391667
683.881997	0.391868
684.084627	0.392038
684.287239	0.392303
684.489833	0.392479
684.692408	0.392683
684.894965	0.393234
685.097504	0.393262
685.300025	0.393301
685.502527	0.393627
685.705012	0.393675
685.907478	0.393932
686.109925	0.394143
686.312355	0.394251
686.514766	0.394568
686.717159	0.394481
686.919534	0.394846
687.121891	0.395234
687.324230	0.395462
687.526550	0.395893
687.728852	0.395865
687.931136	0.396362
688.133401	0.396501
688.335649	0.396409
688.537878	0.396680
688.740089	0.396738
688.942281	0.397095
689.144456	0.397094
689.346612	0.397160
689.548750	0.397509
689.750870	0.397650
689.952971	0.398015
690.155055	0.398294
690.357120	0.398526
690.559167	0.398841
690.761195	0.398718
690.963206	0.398987
691.165198	0.398966
691.367172	0.399192
691.569128	0.399198
691.771065	0.399624
691.972984	0.400015
692.174885	0.400275
692.376768	0.400472
692.578633	0.400715
692.780479	0.401046
692.982308	0.401546
693.184118	0.401854
693.385909	0.402350
