sample name	sample
index	1299
start time	 04-29-2021  03:41:37 PM


Wavelength (nm)	Absorbance
494.344910	NaN
494.563924	NaN
494.782919	NaN
495.001897	NaN
495.220856	0.038882
495.439797	0.067985
495.658719	0.044442
495.877624	0.250465
496.096510	0.122815
496.315378	0.089718
496.534227	0.131570
496.753059	0.029882
496.971872	-0.073603
497.190667	0.099984
497.409444	0.102301
497.628203	0.107695
497.846943	0.110558
498.065665	0.113028
498.284369	0.114190
498.503055	0.114402
498.721723	0.115275
498.940372	0.114664
499.159003	0.113865
499.377616	0.114297
499.596210	0.113334
499.814787	0.111733
500.033345	0.110903
500.251885	0.109024
500.470406	0.109144
500.688910	0.108094
500.907395	0.108541
501.125862	0.109002
501.344311	0.110390
501.562742	0.110525
501.781154	0.110715
501.999548	0.111013
502.217924	0.112294
502.436282	0.111807
502.654621	0.113656
502.872942	0.112751
503.091245	0.112930
503.309530	0.111463
503.527797	0.110818
503.746045	0.110129
503.964275	0.110555
504.182487	0.109918
504.400681	0.109364
504.618856	0.108048
504.837013	0.109218
505.055152	0.109097
505.273273	0.109090
505.491376	0.110097
505.709460	0.110314
505.927526	0.110220
506.145574	0.111296
506.363604	0.110732
506.581615	0.110579
506.799608	0.110230
507.017583	0.111168
507.235540	0.110405
507.453478	0.109852
507.671399	0.109159
507.889301	0.110190
508.107185	0.109868
508.325050	0.111728
508.542898	0.111749
508.760727	0.111354
508.978538	0.110939
509.196330	0.112594
509.414105	0.113032
509.631861	0.114180
509.849599	0.112359
510.067319	0.111306
510.285021	0.110587
510.502704	0.111093
510.720369	0.110954
510.938016	0.110339
511.155645	0.109794
511.373255	0.109915
511.590848	0.109531
511.808422	0.110196
512.025977	0.110943
512.243515	0.110810
512.461034	0.110708
512.678536	0.111388
512.896018	0.112398
513.113483	0.111831
513.330930	0.111620
513.548358	0.112460
513.765768	0.112831
513.983160	0.112916
514.200533	0.112668
514.417889	0.112561
514.635226	0.113217
514.852545	0.113263
515.069845	0.114279
515.287128	0.113913
515.504392	0.113544
515.721638	0.112900
515.938866	0.112776
516.156075	0.113085
516.373267	0.113411
516.590440	0.112437
516.807594	0.112037
517.024731	0.111435
517.241850	0.111614
517.458950	0.111707
517.676032	0.112643
517.893095	0.113196
518.110141	0.114177
518.327168	0.113641
518.544177	0.113726
518.761168	0.114168
518.978141	0.113534
519.195095	0.114905
519.412031	0.115463
519.628949	0.115409
519.845849	0.114957
520.062731	0.114199
520.279594	0.114426
520.496439	0.115000
520.713266	0.115064
520.930074	0.115628
521.146865	0.114221
521.363637	0.113646
521.580391	0.113339
521.797127	0.113662
522.013844	0.114145
522.230543	0.114320
522.447224	0.114351
522.663887	0.113784
522.880532	0.114198
523.097158	0.114800
523.313766	0.115307
523.530356	0.115407
523.746928	0.115664
523.963481	0.115328
524.180017	0.115575
524.396534	0.115661
524.613032	0.116803
524.829513	0.116800
525.045975	0.117115
525.262420	0.116507
525.478845	0.116990
525.695253	0.116960
525.911643	0.117414
526.128014	0.117747
526.344367	0.118138
526.560702	0.117351
526.777018	0.117978
526.993316	0.117971
527.209597	0.119038
527.425858	0.119395
527.642102	0.119375
527.858328	0.119554
528.074535	0.119423
528.290724	0.119394
528.506894	0.119680
528.723047	0.119467
528.939181	0.119375
529.155297	0.119090
529.371395	0.118100
529.587475	0.118255
529.803536	0.118496
530.019579	0.118974
530.235604	0.118354
530.451611	0.118493
530.667600	0.118956
530.883570	0.119776
531.099522	0.119495
531.315456	0.120594
531.531372	0.120470
531.747269	0.120728
531.963148	0.120362
532.179009	0.121405
532.394852	0.121305
532.610676	0.121469
532.826482	0.120726
533.042271	0.121316
533.258040	0.121257
533.473792	0.121784
533.689525	0.121553
533.905240	0.121870
534.120937	0.121773
534.336616	0.122138
534.552277	0.121758
534.767919	0.122156
534.983543	0.122082
535.199149	0.122345
535.414736	0.122003
535.630306	0.121958
535.845857	0.121658
536.061390	0.121931
536.276904	0.122156
536.492401	0.122567
536.707879	0.122579
536.923339	0.123074
537.138781	0.123062
537.354204	0.123338
537.569610	0.123159
537.784997	0.123469
538.000366	0.123063
538.215716	0.122952
538.431049	0.122534
538.646363	0.122740
538.861659	0.123107
539.076937	0.122702
539.292196	0.123058
539.507438	0.124164
539.722661	0.124556
539.937866	0.125134
540.153052	0.125296
540.368221	0.126445
540.583371	0.126736
540.798503	0.126496
541.013617	0.127167
541.228712	0.126741
541.443789	0.126695
541.658848	0.126426
541.873889	0.126021
542.088912	0.126212
542.303916	0.125827
542.518902	0.125767
542.733870	0.125633
542.948820	0.125950
543.163752	0.126283
543.378665	0.125655
543.593560	0.126179
543.808437	0.126673
544.023295	0.126817
544.238136	0.126881
544.452958	0.127367
544.667762	0.126978
544.882548	0.126340
545.097315	0.126742
545.312064	0.127366
545.526795	0.127213
545.741508	0.126747
545.956203	0.127202
546.170879	0.127110
546.385537	0.127213
546.600177	0.127940
546.814799	0.128432
547.029402	0.128257
547.243988	0.128149
547.458555	0.128487
547.673103	0.128613
547.887634	0.127925
548.102146	0.128217
548.316640	0.128083
548.531116	0.128360
548.745574	0.128446
548.960013	0.128616
549.174435	0.129088
549.388838	0.128878
549.603222	0.129842
549.817589	0.130578
550.031937	0.130661
550.246267	0.130731
550.460579	0.130592
550.674873	0.130846
550.889148	0.131021
551.103405	0.130808
551.317644	0.131616
551.531865	0.131540
551.746068	0.131737
551.960252	0.131586
552.174418	0.132074
552.388566	0.132095
552.602696	0.132537
552.816807	0.132597
553.030900	0.132459
553.244975	0.131942
553.459032	0.131737
553.673070	0.131566
553.887091	0.132018
554.101093	0.131874
554.315077	0.132073
554.529042	0.131714
554.742990	0.131752
554.956919	0.132188
555.170830	0.132613
555.384722	0.132950
555.598597	0.132761
555.812453	0.132363
556.026291	0.132433
556.240111	0.132662
556.453913	0.132742
556.667696	0.132884
556.881461	0.132913
557.095208	0.132508
557.308937	0.132463
557.522647	0.132682
557.736339	0.132723
557.950013	0.132475
558.163669	0.132526
558.377307	0.132596
558.590926	0.132520
558.804527	0.132637
559.018110	0.132797
559.231675	0.132719
559.445221	0.133016
559.658749	0.133462
559.872259	0.133611
560.085751	0.133446
560.299225	0.133572
560.512680	0.133976
560.726117	0.133839
560.939536	0.133943
561.152937	0.134034
561.366319	0.134116
561.579683	0.134016
561.793029	0.134306
562.006357	0.134375
562.219667	0.134492
562.432958	0.134617
562.646231	0.134472
562.859486	0.134759
563.072723	0.134694
563.285941	0.135319
563.499141	0.135503
563.712323	0.135776
563.925487	0.135982
564.138632	0.136077
564.351760	0.136002
564.564869	0.136467
564.777960	0.136546
564.991032	0.137086
565.204087	0.136577
565.417123	0.136577
565.630141	0.136391
565.843140	0.136561
566.056122	0.136501
566.269085	0.136670
566.482030	0.136596
566.694957	0.136527
566.907866	0.136409
567.120756	0.136408
567.333628	0.136830
567.546482	0.137012
567.759318	0.136866
567.972135	0.137215
568.184935	0.137216
568.397716	0.137452
568.610478	0.137471
568.823223	0.137803
569.035949	0.137743
569.248657	0.137546
569.461347	0.137987
569.674019	0.138180
569.886672	0.138200
570.099308	0.138318
570.311925	0.138351
570.524523	0.138638
570.737104	0.138124
570.949666	0.138561
571.162210	0.138843
571.374736	0.138486
571.587244	0.138301
571.799733	0.138120
572.012205	0.138250
572.224658	0.138684
572.437092	0.138482
572.649509	0.138874
572.861907	0.138409
573.074287	0.138222
573.286649	0.138237
573.498993	0.138816
573.711318	0.139031
573.923625	0.139076
574.135914	0.138979
574.348185	0.139486
574.560438	0.139980
574.772672	0.140447
574.984888	0.140621
575.197086	0.140666
575.409266	0.140634
575.621427	0.140660
575.833570	0.140704
576.045695	0.140791
576.257802	0.140796
576.469890	0.140736
576.681961	0.140674
576.894013	0.140799
577.106046	0.141033
577.318062	0.140486
577.530059	0.140636
577.742039	0.140381
577.954000	0.140433
578.165942	0.139886
578.377867	0.139681
578.589773	0.140003
578.801661	0.139822
579.013531	0.139867
579.225382	0.140229
579.437216	0.140074
579.649031	0.140203
579.860828	0.140293
580.072606	0.140743
580.284367	0.141295
580.496109	0.141166
580.707833	0.141321
580.919539	0.141460
581.131227	0.141834
581.342896	0.142192
581.554547	0.142260
581.766180	0.142372
581.977795	0.142727
582.189391	0.142585
582.400969	0.142513
582.612529	0.142846
582.824071	0.142611
583.035595	0.142427
583.247100	0.142396
583.458587	0.142961
583.670056	0.142962
583.881506	0.142790
584.092939	0.142607
584.304353	0.142746
584.515749	0.142879
584.727127	0.143341
584.938486	0.143693
585.149828	0.143885
585.361151	0.143747
585.572456	0.143468
585.783742	0.143576
585.995011	0.144008
586.206261	0.144430
586.417493	0.144474
586.628706	0.144262
586.839902	0.144238
587.051079	0.144450
587.262238	0.144615
587.473379	0.144831
587.684502	0.144820
587.895606	0.144774
588.106692	0.144430
588.317760	0.144768
588.528810	0.144962
588.739841	0.144912
588.950855	0.144697
589.161850	0.144849
589.372827	0.145021
589.583785	0.145407
589.794726	0.145114
590.005648	0.145526
590.216552	0.145420
590.427437	0.145413
590.638305	0.145819
590.849154	0.145959
591.059985	0.145748
591.270798	0.146003
591.481592	0.145950
591.692369	0.146092
591.903127	0.146071
592.113867	0.146085
592.324588	0.146074
592.535292	0.146011
592.745977	0.146051
592.956644	0.146088
593.167293	0.146334
593.377923	0.146434
593.588536	0.146530
593.799130	0.146844
594.009706	0.147021
594.220263	0.147254
594.430803	0.147414
594.641324	0.147721
594.851827	0.147728
595.062312	0.147551
595.272778	0.148021
595.483227	0.148105
595.693657	0.148072
595.904069	0.147768
596.114462	0.147882
596.324838	0.147993
596.535195	0.147995
596.745534	0.148347
596.955855	0.148214
597.166157	0.147690
597.376441	0.148037
597.586707	0.148101
597.796955	0.148585
598.007185	0.148679
598.217396	0.148660
598.427589	0.148654
598.637764	0.148828
598.847921	0.149156
599.058060	0.149346
599.268180	0.149171
599.478282	0.149188
599.688366	0.149156
599.898431	0.149286
600.108479	0.149182
600.318508	0.149130
600.528519	0.148749
600.738511	0.148647
600.948486	0.148439
601.158442	0.148531
601.368380	0.148651
601.578300	0.148784
601.788202	0.148688
601.998085	0.148587
602.207950	0.148537
602.417797	0.148787
602.627626	0.148870
602.837436	0.149140
603.047228	0.149504
603.257002	0.149306
603.466758	0.148936
603.676496	0.148786
603.886215	0.149122
604.095916	0.149615
604.305599	0.149774
604.515264	0.149801
604.724910	0.149716
604.934538	0.149669
605.144148	0.149624
605.353740	0.149738
605.563314	0.150230
605.772869	0.150018
605.982406	0.149702
606.191925	0.149781
606.401425	0.150012
606.610908	0.150068
606.820372	0.149848
607.029818	0.150078
607.239246	0.150164
607.448655	0.149861
607.658047	0.150158
607.867420	0.150083
608.076775	0.150153
608.286111	0.150115
608.495430	0.150205
608.704730	0.150335
608.914012	0.150213
609.123275	0.150346
609.332521	0.150470
609.541748	0.150448
609.750957	0.150541
609.960148	0.150500
610.169321	0.150423
610.378475	0.150467
610.587611	0.150505
610.796729	0.150609
611.005829	0.150347
611.214910	0.150314
611.423974	0.150298
611.633019	0.150339
611.842045	0.150320
612.051054	0.150315
612.260044	0.150276
612.469017	0.150192
612.677970	0.150214
612.886906	0.150563
613.095824	0.150657
613.304723	0.150676
613.513604	0.150682
613.722467	0.150700
613.931311	0.150809
614.140138	0.151244
614.348946	0.151643
614.557736	0.151883
614.766507	0.152062
614.975261	0.152210
615.183996	0.152290
615.392713	0.152720
615.601412	0.152819
615.810092	0.152875
616.018754	0.152862
616.227399	0.152665
616.436024	0.152754
616.644632	0.152613
616.853222	0.152586
617.061793	0.152867
617.270346	0.152440
617.478880	0.152378
617.687397	0.152432
617.895895	0.152384
618.104375	0.152394
618.312837	0.152190
618.521281	0.152108
618.729706	0.152157
618.938113	0.151932
619.146502	0.152052
619.354873	0.152163
619.563226	0.151990
619.771560	0.151811
619.979876	0.151805
620.188174	0.151652
620.396453	0.151766
620.604715	0.151612
620.812958	0.151562
621.021183	0.151781
621.229390	0.151849
621.437578	0.152037
621.645748	0.152139
621.853900	0.152310
622.062034	0.152922
622.270150	0.153038
622.478247	0.153195
622.686326	0.153315
622.894387	0.153135
623.102430	0.153174
623.310454	0.152970
623.518461	0.153072
623.726449	0.152987
623.934418	0.152615
624.142370	0.152536
624.350303	0.152415
624.558218	0.152393
624.766115	0.152817
624.973994	0.152774
625.181855	0.153188
625.389697	0.153078
625.597521	0.152947
625.805327	0.153201
626.013114	0.153330
626.220883	0.153482
626.428634	0.153736
626.636367	0.153791
626.844082	0.153830
627.051778	0.153962
627.259457	0.154383
627.467117	0.154662
627.674758	0.154693
627.882382	0.154846
628.089987	0.155102
628.297574	0.155222
628.505143	0.155011
628.712694	0.155125
628.920226	0.154846
629.127740	0.154512
629.335236	0.154423
629.542714	0.154193
629.750174	0.154051
629.957615	0.153855
630.165038	0.153604
630.372443	0.153655
630.579829	0.153695
630.787198	0.154009
630.994548	0.154200
631.201880	0.154479
631.409194	0.154805
631.616489	0.154844
631.823766	0.154987
632.031025	0.155376
632.238266	0.155688
632.445489	0.155574
632.652693	0.155430
632.859879	0.155674
633.067047	0.155581
633.274197	0.155506
633.481329	0.155554
633.688442	0.155756
633.895537	0.155758
634.102614	0.155572
634.309672	0.155877
634.516713	0.155929
634.723735	0.155990
634.930739	0.156121
635.137724	0.156362
635.344692	0.156725
635.551641	0.156728
635.758572	0.156805
635.965485	0.156995
636.172379	0.157026
636.379256	0.157185
636.586114	0.157228
636.792954	0.157319
636.999775	0.157494
637.206579	0.157560
637.413364	0.157716
637.620131	0.157759
637.826880	0.157706
638.033610	0.157716
638.240323	0.157671
638.447017	0.157612
638.653692	0.157580
638.860350	0.157504
639.066990	0.157320
639.273611	0.157430
639.480214	0.157342
639.686798	0.157535
639.893365	0.157704
640.099913	0.157722
640.306443	0.157801
640.512955	0.157963
640.719449	0.157887
640.925924	0.158142
641.132381	0.158350
641.338820	0.158413
641.545241	0.158697
641.751644	0.158660
641.958028	0.158873
642.164394	0.159027
642.370742	0.159080
642.577071	0.159408
642.783383	0.159602
642.989676	0.159552
643.195951	0.159561
643.402207	0.159519
643.608446	0.159774
643.814666	0.159854
644.020868	0.160072
644.227052	0.160218
644.433218	0.160108
644.639365	0.160056
644.845494	0.160066
645.051605	0.160358
645.257698	0.160512
645.463772	0.160611
645.669828	0.160704
645.875866	0.160769
646.081886	0.160933
646.287888	0.161359
646.493871	0.161649
646.699836	0.161754
646.905783	0.161804
647.111712	0.161755
647.317622	0.161333
647.523514	0.161337
647.729388	0.161246
647.935244	0.161342
648.141082	0.161169
648.346901	0.161049
648.552702	0.160953
648.758485	0.161166
648.964250	0.161381
649.169996	0.162080
649.375724	0.162388
649.581434	0.162714
649.787126	0.162785
649.992800	0.162955
650.198455	0.163069
650.404092	0.163441
650.609711	0.163346
650.815311	0.163607
651.020894	0.163611
651.226458	0.163758
651.432004	0.163689
651.637532	0.163597
651.843041	0.163435
652.048532	0.163588
652.254006	0.163600
652.459460	0.163735
652.664897	0.163606
652.870315	0.163414
653.075716	0.163333
653.281097	0.163406
653.486461	0.163741
653.691807	0.164032
653.897134	0.164017
654.102443	0.163938
654.307734	0.163918
654.513006	0.163864
654.718261	0.164120
654.923497	0.164158
655.128715	0.164245
655.333915	0.163924
655.539096	0.164164
655.744259	0.164336
655.949404	0.164461
656.154531	0.164744
656.359640	0.164968
656.564730	0.165056
656.769802	0.165259
656.974856	0.165458
657.179892	0.165914
657.384909	0.166131
657.589908	0.166264
657.794889	0.166541
657.999852	0.166618
658.204797	0.166718
658.409723	0.166915
658.614631	0.166926
658.819521	0.167009
659.024393	0.167184
659.229246	0.167082
659.434081	0.166914
659.638898	0.167154
659.843697	0.167181
660.048478	0.167238
660.253240	0.167279
660.457984	0.167588
660.662710	0.167575
660.867417	0.167521
661.072107	0.167457
661.276778	0.167761
661.481431	0.167755
661.686066	0.167876
661.890682	0.167866
662.095281	0.168077
662.299861	0.168116
662.504422	0.168248
662.708966	0.168507
662.913491	0.168860
663.117999	0.169051
663.322488	0.168969
663.526958	0.168894
663.731411	0.169080
663.935845	0.168949
664.140261	0.169064
664.344659	0.169130
664.549038	0.169095
664.753400	0.169056
664.957743	0.169087
665.162068	0.169056
665.366375	0.169199
665.570663	0.169382
665.774933	0.169651
665.979185	0.169686
666.183419	0.169758
666.387635	0.169710
666.591832	0.169726
666.796011	0.169584
667.000172	0.169837
667.204315	0.170106
667.408439	0.170185
667.612545	0.170087
667.816634	0.169940
668.020703	0.169953
668.224755	0.170128
668.428788	0.170228
668.632803	0.170694
668.836800	0.170855
669.040779	0.170868
669.244739	0.170975
669.448681	0.171289
669.652605	0.171470
669.856511	0.171769
670.060399	0.171745
670.264268	0.171922
670.468119	0.171880
670.671952	0.171944
670.875767	0.172105
671.079563	0.172135
671.283341	0.172086
671.487101	0.172556
671.690843	0.172724
671.894567	0.172892
672.098272	0.172855
672.301959	0.173000
672.505628	0.172999
672.709278	0.173095
672.912911	0.172923
673.116525	0.173012
673.320121	0.172956
673.523699	0.172972
673.727258	0.173161
673.930799	0.173382
674.134322	0.173333
674.337827	0.173498
674.541314	0.173494
674.744782	0.173934
674.948232	0.173998
675.151664	0.173783
675.355078	0.173918
675.558474	0.173983
675.761851	0.174051
675.965210	0.174260
676.168551	0.174521
676.371873	0.174596
676.575178	0.174613
676.778464	0.174821
676.981732	0.175198
677.184981	0.175130
677.388213	0.175183
677.591426	0.175284
677.794621	0.175322
677.997798	0.175336
678.200956	0.175594
678.404097	0.175632
678.607219	0.175803
678.810323	0.175791
679.013408	0.175851
679.216476	0.176009
679.419525	0.176246
679.622556	0.176558
679.825569	0.176652
680.028563	0.176645
680.231540	0.176900
680.434498	0.176930
680.637438	0.177085
680.840359	0.177349
681.043263	0.177482
681.246148	0.177362
681.449015	0.177126
681.651864	0.177367
681.854694	0.177383
682.057506	0.177397
682.260301	0.177482
682.463076	0.177543
682.665834	0.177609
682.868573	0.177818
683.071295	0.178209
683.273998	0.178530
683.476682	0.178495
683.679349	0.178882
683.881997	0.179118
684.084627	0.179375
684.287239	0.179551
684.489833	0.179816
684.692408	0.179772
684.894965	0.179631
685.097504	0.179840
685.300025	0.179966
685.502527	0.179996
685.705012	0.179964
685.907478	0.179973
686.109925	0.180004
686.312355	0.179809
686.514766	0.179845
686.717159	0.179896
686.919534	0.179889
687.121891	0.179951
687.324230	0.179848
687.526550	0.179927
687.728852	0.179852
687.931136	0.179980
688.133401	0.180139
688.335649	0.180236
688.537878	0.180496
688.740089	0.180563
688.942281	0.180763
689.144456	0.180977
689.346612	0.181123
689.548750	0.181408
689.750870	0.181635
689.952971	0.181776
690.155055	0.182099
690.357120	0.182159
690.559167	0.182366
690.761195	0.182299
690.963206	0.182314
691.165198	0.182494
691.367172	0.182506
691.569128	0.182507
691.771065	0.182679
691.972984	0.182563
692.174885	0.182754
692.376768	0.182443
692.578633	0.182555
692.780479	0.182770
692.982308	0.182683
693.184118	0.182847
693.385909	0.182618
693.587683	0.182619
