sample name	sample
index	408
start time	 03-08-2021  10:49:28 AM


Wavelength (nm)	Absorbance
494.344910	-0.086132
494.563924	-0.086132
494.782919	-0.086132
495.001897	0.125408
495.220856	-0.091756
495.439797	-0.088817
495.658719	-0.112979
495.877624	-0.094148
496.096510	-0.111921
496.315378	-0.120600
496.534227	-0.083076
496.753059	-0.070753
496.971872	-0.019768
497.190667	0.107440
497.409444	0.140590
497.628203	0.152527
497.846943	0.155150
498.065665	0.157591
498.284369	0.158216
498.503055	0.158909
498.721723	0.158367
498.940372	0.158668
499.159003	0.160338
499.377616	0.159783
499.596210	0.159397
499.814787	0.159628
500.033345	0.159793
500.251885	0.159514
500.470406	0.159623
500.688910	0.160150
500.907395	0.161067
501.125862	0.160599
501.344311	0.160548
501.562742	0.160672
501.781154	0.160984
501.999548	0.160384
502.217924	0.161535
502.436282	0.161384
502.654621	0.161434
502.872942	0.161088
503.091245	0.162036
503.309530	0.162693
503.527797	0.164016
503.746045	0.164328
503.964275	0.164938
504.182487	0.165482
504.400681	0.165627
504.618856	0.167168
504.837013	0.167683
505.055152	0.166323
505.273273	0.166499
505.491376	0.165454
505.709460	0.165490
505.927526	0.165888
506.145574	0.165685
506.363604	0.165919
506.581615	0.164905
506.799608	0.164977
507.017583	0.166291
507.235540	0.165405
507.453478	0.165703
507.671399	0.164948
507.889301	0.165301
508.107185	0.165733
508.325050	0.166329
508.542898	0.167209
508.760727	0.167719
508.978538	0.167149
509.196330	0.168720
509.414105	0.168392
509.631861	0.169105
509.849599	0.169669
510.067319	0.170136
510.285021	0.170852
510.502704	0.171428
510.720369	0.171491
510.938016	0.172755
511.155645	0.173617
511.373255	0.174257
511.590848	0.175249
511.808422	0.174625
512.025977	0.174672
512.243515	0.173087
512.461034	0.172689
512.678536	0.172042
512.896018	0.171823
513.113483	0.170976
513.330930	0.171521
513.548358	0.171500
513.765768	0.172621
513.983160	0.172920
514.200533	0.174746
514.417889	0.174985
514.635226	0.176071
514.852545	0.176023
515.069845	0.177298
515.287128	0.176959
515.504392	0.177122
515.721638	0.176335
515.938866	0.176243
516.156075	0.176044
516.373267	0.176276
516.590440	0.176638
516.807594	0.177783
517.024731	0.177073
517.241850	0.178006
517.458950	0.177482
517.676032	0.178261
517.893095	0.178449
518.110141	0.178023
518.327168	0.178614
518.544177	0.178625
518.761168	0.178777
518.978141	0.179085
519.195095	0.179169
519.412031	0.179428
519.628949	0.180177
519.845849	0.180577
520.062731	0.181515
520.279594	0.182171
520.496439	0.182352
520.713266	0.182194
520.930074	0.182336
521.146865	0.181972
521.363637	0.182339
521.580391	0.182253
521.797127	0.182067
522.013844	0.182275
522.230543	0.182306
522.447224	0.182113
522.663887	0.182481
522.880532	0.183349
523.097158	0.184146
523.313766	0.184530
523.530356	0.184447
523.746928	0.185188
523.963481	0.184814
524.180017	0.185299
524.396534	0.185632
524.613032	0.186208
524.829513	0.186563
525.045975	0.186657
525.262420	0.187373
525.478845	0.187774
525.695253	0.187696
525.911643	0.188501
526.128014	0.188468
526.344367	0.188803
526.560702	0.188928
526.777018	0.189174
526.993316	0.189354
527.209597	0.189434
527.425858	0.189830
527.642102	0.191137
527.858328	0.191774
528.074535	0.191781
528.290724	0.192768
528.506894	0.192740
528.723047	0.192260
528.939181	0.193195
529.155297	0.193853
529.371395	0.194174
529.587475	0.193448
529.803536	0.193751
530.019579	0.194546
530.235604	0.194406
530.451611	0.195486
530.667600	0.196577
530.883570	0.196874
531.099522	0.196647
531.315456	0.196722
531.531372	0.198079
531.747269	0.197908
531.963148	0.198077
532.179009	0.198680
532.394852	0.198714
532.610676	0.198523
532.826482	0.198788
533.042271	0.199762
533.258040	0.200442
533.473792	0.200444
533.689525	0.200522
533.905240	0.200993
534.120937	0.201484
534.336616	0.201980
534.552277	0.203009
534.767919	0.203734
534.983543	0.203524
535.199149	0.203664
535.414736	0.203505
535.630306	0.204559
535.845857	0.204431
536.061390	0.204406
536.276904	0.204100
536.492401	0.203726
536.707879	0.204028
536.923339	0.203973
537.138781	0.205095
537.354204	0.205223
537.569610	0.205517
537.784997	0.206018
538.000366	0.206012
538.215716	0.206796
538.431049	0.207466
538.646363	0.206954
538.861659	0.207969
539.076937	0.207180
539.292196	0.207908
539.507438	0.208259
539.722661	0.208591
539.937866	0.209198
540.153052	0.209287
540.368221	0.209764
540.583371	0.210521
540.798503	0.210391
541.013617	0.211096
541.228712	0.211682
541.443789	0.211708
541.658848	0.212025
541.873889	0.212637
542.088912	0.212647
542.303916	0.212489
542.518902	0.212966
542.733870	0.213004
542.948820	0.213331
543.163752	0.213403
543.378665	0.213724
543.593560	0.214401
543.808437	0.214568
544.023295	0.215235
544.238136	0.215910
544.452958	0.216484
544.667762	0.217010
544.882548	0.217537
545.097315	0.217849
545.312064	0.218778
545.526795	0.218483
545.741508	0.218680
545.956203	0.218397
546.170879	0.218848
546.385537	0.218269
546.600177	0.218766
546.814799	0.218623
547.029402	0.218884
547.243988	0.219195
547.458555	0.219898
547.673103	0.220278
547.887634	0.221071
548.102146	0.220997
548.316640	0.221812
548.531116	0.222617
548.745574	0.223217
548.960013	0.223341
549.174435	0.223204
549.388838	0.223185
549.603222	0.223698
549.817589	0.223608
550.031937	0.223859
550.246267	0.224219
550.460579	0.223948
550.674873	0.224074
550.889148	0.224233
551.103405	0.225014
551.317644	0.225397
551.531865	0.225181
551.746068	0.226076
551.960252	0.226142
552.174418	0.225970
552.388566	0.225997
552.602696	0.226103
552.816807	0.226863
553.030900	0.226518
553.244975	0.226667
553.459032	0.226743
553.673070	0.226459
553.887091	0.227214
554.101093	0.227346
554.315077	0.227943
554.529042	0.228188
554.742990	0.227852
554.956919	0.227532
555.170830	0.227836
555.384722	0.228438
555.598597	0.228780
555.812453	0.228628
556.026291	0.229278
556.240111	0.229514
556.453913	0.229861
556.667696	0.230060
556.881461	0.230693
557.095208	0.231044
557.308937	0.231454
557.522647	0.231782
557.736339	0.231805
557.950013	0.232339
558.163669	0.232140
558.377307	0.232279
558.590926	0.232690
558.804527	0.233202
559.018110	0.233141
559.231675	0.233212
559.445221	0.233579
559.658749	0.234147
559.872259	0.233861
560.085751	0.234323
560.299225	0.234455
560.512680	0.234920
560.726117	0.235049
560.939536	0.235142
561.152937	0.235247
561.366319	0.235488
561.579683	0.235668
561.793029	0.235990
562.006357	0.236319
562.219667	0.236383
562.432958	0.236544
562.646231	0.236916
562.859486	0.237321
563.072723	0.237426
563.285941	0.237399
563.499141	0.237857
563.712323	0.238260
563.925487	0.238543
564.138632	0.239130
564.351760	0.239221
564.564869	0.239078
564.777960	0.239327
564.991032	0.239668
565.204087	0.240047
565.417123	0.239841
565.630141	0.240026
565.843140	0.240344
566.056122	0.240712
566.269085	0.241256
566.482030	0.241897
566.694957	0.241791
566.907866	0.241985
567.120756	0.242348
567.333628	0.242749
567.546482	0.242785
567.759318	0.242843
567.972135	0.242689
568.184935	0.242787
568.397716	0.242365
568.610478	0.242548
568.823223	0.242735
569.035949	0.242571
569.248657	0.242727
569.461347	0.243195
569.674019	0.243463
569.886672	0.243774
570.099308	0.243636
570.311925	0.244483
570.524523	0.245359
570.737104	0.245553
570.949666	0.245835
571.162210	0.246257
571.374736	0.245964
571.587244	0.246246
571.799733	0.246461
572.012205	0.246938
572.224658	0.246582
572.437092	0.246206
572.649509	0.246448
572.861907	0.246562
573.074287	0.246672
573.286649	0.247112
573.498993	0.247400
573.711318	0.248128
573.923625	0.248372
574.135914	0.249154
574.348185	0.249802
574.560438	0.250280
574.772672	0.250689
574.984888	0.250681
575.197086	0.251218
575.409266	0.250924
575.621427	0.251003
575.833570	0.251064
576.045695	0.250691
576.257802	0.250489
576.469890	0.250693
576.681961	0.250929
576.894013	0.251120
577.106046	0.250784
577.318062	0.251171
577.530059	0.250982
577.742039	0.251338
577.954000	0.251675
578.165942	0.252292
578.377867	0.252563
578.589773	0.252149
578.801661	0.252338
579.013531	0.252885
579.225382	0.253291
579.437216	0.253621
579.649031	0.253563
579.860828	0.254137
580.072606	0.254261
580.284367	0.254346
580.496109	0.254945
580.707833	0.255377
580.919539	0.255736
581.131227	0.256009
581.342896	0.256327
581.554547	0.256735
581.766180	0.256654
581.977795	0.256751
582.189391	0.256818
582.400969	0.257315
582.612529	0.257714
582.824071	0.257822
583.035595	0.257483
583.247100	0.257486
583.458587	0.257443
583.670056	0.257723
583.881506	0.258033
584.092939	0.257972
584.304353	0.258102
584.515749	0.257825
584.727127	0.257810
584.938486	0.258493
585.149828	0.258856
585.361151	0.259657
585.572456	0.259978
585.783742	0.259889
585.995011	0.260424
586.206261	0.260691
586.417493	0.261420
586.628706	0.261573
586.839902	0.261180
587.051079	0.261143
587.262238	0.260922
587.473379	0.260938
587.684502	0.261269
587.895606	0.261340
588.106692	0.261757
588.317760	0.261702
588.528810	0.261674
588.739841	0.262736
588.950855	0.263160
589.161850	0.263378
589.372827	0.263650
589.583785	0.263685
589.794726	0.263814
590.005648	0.263396
590.216552	0.263343
590.427437	0.264056
590.638305	0.263982
590.849154	0.263865
591.059985	0.263694
591.270798	0.264099
591.481592	0.264919
591.692369	0.265154
591.903127	0.265695
592.113867	0.266256
592.324588	0.266198
592.535292	0.266563
592.745977	0.266837
592.956644	0.267378
593.167293	0.267356
593.377923	0.267507
593.588536	0.267989
593.799130	0.268155
594.009706	0.267831
594.220263	0.268199
594.430803	0.268547
594.641324	0.268685
594.851827	0.268878
595.062312	0.268871
595.272778	0.268780
595.483227	0.268920
595.693657	0.269421
595.904069	0.270042
596.114462	0.270291
596.324838	0.270090
596.535195	0.270112
596.745534	0.270152
596.955855	0.270482
597.166157	0.270620
597.376441	0.270762
597.586707	0.270679
597.796955	0.271084
598.007185	0.271356
598.217396	0.271491
598.427589	0.272004
598.637764	0.272283
598.847921	0.271924
599.058060	0.271773
599.268180	0.271634
599.478282	0.271643
599.688366	0.271587
599.898431	0.271659
600.108479	0.271829
600.318508	0.272076
600.528519	0.272280
600.738511	0.272964
600.948486	0.273352
601.158442	0.273575
601.368380	0.273778
601.578300	0.273910
601.788202	0.274071
601.998085	0.274131
602.207950	0.274183
602.417797	0.274325
602.627626	0.274749
602.837436	0.275171
603.047228	0.275475
603.257002	0.275488
603.466758	0.275697
603.676496	0.275666
603.886215	0.275942
604.095916	0.276111
604.305599	0.276411
604.515264	0.276965
604.724910	0.277208
604.934538	0.277171
605.144148	0.277306
605.353740	0.277325
605.563314	0.278053
605.772869	0.278381
605.982406	0.278274
606.191925	0.278291
606.401425	0.277821
606.610908	0.277834
606.820372	0.278049
607.029818	0.278490
607.239246	0.279172
607.448655	0.278652
607.658047	0.278674
607.867420	0.279347
608.076775	0.279864
608.286111	0.280313
608.495430	0.280669
608.704730	0.280982
608.914012	0.280931
609.123275	0.280725
609.332521	0.281122
609.541748	0.281557
609.750957	0.281623
609.960148	0.281374
610.169321	0.281510
610.378475	0.281706
610.587611	0.282095
610.796729	0.282593
611.005829	0.282613
611.214910	0.282595
611.423974	0.282489
611.633019	0.282561
611.842045	0.282963
612.051054	0.282773
612.260044	0.282531
612.469017	0.282563
612.677970	0.282347
612.886906	0.282511
613.095824	0.282946
613.304723	0.283051
613.513604	0.283156
613.722467	0.283503
613.931311	0.283781
614.140138	0.283855
614.348946	0.283886
614.557736	0.284139
614.766507	0.284343
614.975261	0.284126
615.183996	0.284232
615.392713	0.284262
615.601412	0.283954
615.810092	0.284522
616.018754	0.285059
616.227399	0.285353
616.436024	0.285552
616.644632	0.285804
616.853222	0.286142
617.061793	0.286736
617.270346	0.287052
617.478880	0.287590
617.687397	0.287515
617.895895	0.287800
618.104375	0.287997
618.312837	0.288301
618.521281	0.288132
618.729706	0.288389
618.938113	0.288121
619.146502	0.288352
619.354873	0.288224
619.563226	0.288349
619.771560	0.288136
619.979876	0.288259
620.188174	0.288388
620.396453	0.288810
620.604715	0.288578
620.812958	0.288634
621.021183	0.288570
621.229390	0.288512
621.437578	0.288428
621.645748	0.288394
621.853900	0.288614
622.062034	0.288670
622.270150	0.288612
622.478247	0.289239
622.686326	0.289381
622.894387	0.289701
623.102430	0.290112
623.310454	0.290265
623.518461	0.290769
623.726449	0.290932
623.934418	0.291166
624.142370	0.291335
624.350303	0.291280
624.558218	0.291756
624.766115	0.291918
624.973994	0.292075
625.181855	0.292527
625.389697	0.292365
625.597521	0.292382
625.805327	0.292556
626.013114	0.293198
626.220883	0.293391
626.428634	0.293480
626.636367	0.293643
626.844082	0.293863
627.051778	0.294080
627.259457	0.294470
627.467117	0.294814
627.674758	0.295046
627.882382	0.294786
628.089987	0.295197
628.297574	0.295389
628.505143	0.295463
628.712694	0.295463
628.920226	0.295483
629.127740	0.295604
629.335236	0.295822
629.542714	0.296000
629.750174	0.296185
629.957615	0.295867
630.165038	0.296127
630.372443	0.296343
630.579829	0.296567
630.787198	0.296564
630.994548	0.296752
631.201880	0.296520
631.409194	0.296686
631.616489	0.296811
631.823766	0.297191
632.031025	0.297294
632.238266	0.297185
632.445489	0.297560
632.652693	0.297927
632.859879	0.297985
633.067047	0.298200
633.274197	0.298261
633.481329	0.298470
633.688442	0.298717
633.895537	0.298770
634.102614	0.299207
634.309672	0.299230
634.516713	0.299413
634.723735	0.299801
634.930739	0.300119
635.137724	0.300208
635.344692	0.300598
635.551641	0.300650
635.758572	0.300824
635.965485	0.301163
636.172379	0.301388
636.379256	0.301475
636.586114	0.301523
636.792954	0.301610
636.999775	0.302223
637.206579	0.302348
637.413364	0.302657
637.620131	0.302874
637.826880	0.302830
638.033610	0.302727
638.240323	0.302898
638.447017	0.303194
638.653692	0.303357
638.860350	0.303112
639.066990	0.303216
639.273611	0.303319
639.480214	0.303600
639.686798	0.304123
639.893365	0.304448
640.099913	0.304600
640.306443	0.304709
640.512955	0.304901
640.719449	0.305030
640.925924	0.305476
641.132381	0.305768
641.338820	0.305753
641.545241	0.305794
641.751644	0.306153
641.958028	0.306449
642.164394	0.306616
642.370742	0.306802
642.577071	0.307075
642.783383	0.306946
642.989676	0.306881
643.195951	0.307369
643.402207	0.307396
643.608446	0.307649
643.814666	0.307707
644.020868	0.307963
644.227052	0.308282
644.433218	0.308588
644.639365	0.308896
644.845494	0.309265
645.051605	0.309316
645.257698	0.309604
645.463772	0.309567
645.669828	0.309934
645.875866	0.310009
646.081886	0.309949
646.287888	0.310113
646.493871	0.310146
646.699836	0.310416
646.905783	0.310503
647.111712	0.310721
647.317622	0.311100
647.523514	0.311040
647.729388	0.311223
647.935244	0.311531
648.141082	0.311708
648.346901	0.312212
648.552702	0.312355
648.758485	0.312493
648.964250	0.312670
649.169996	0.312663
649.375724	0.312916
649.581434	0.313243
649.787126	0.313823
649.992800	0.314014
650.198455	0.314092
650.404092	0.314202
650.609711	0.314599
650.815311	0.314741
651.020894	0.315261
651.226458	0.315614
651.432004	0.315743
651.637532	0.315719
651.843041	0.315767
652.048532	0.315846
652.254006	0.316058
652.459460	0.316047
652.664897	0.316328
652.870315	0.316176
653.075716	0.316420
653.281097	0.316638
653.486461	0.316667
653.691807	0.316921
653.897134	0.317066
654.102443	0.317377
654.307734	0.317914
654.513006	0.318138
654.718261	0.318507
654.923497	0.318627
655.128715	0.319080
655.333915	0.319190
655.539096	0.319608
655.744259	0.320007
655.949404	0.320479
656.154531	0.320507
656.359640	0.320794
656.564730	0.320962
656.769802	0.321245
656.974856	0.320932
657.179892	0.321067
657.384909	0.321004
657.589908	0.321120
657.794889	0.321242
657.999852	0.321479
658.204797	0.321559
658.409723	0.321552
658.614631	0.321816
658.819521	0.322233
659.024393	0.322669
659.229246	0.323067
659.434081	0.323637
659.638898	0.323824
659.843697	0.324222
660.048478	0.324377
660.253240	0.324851
660.457984	0.325000
660.662710	0.325257
660.867417	0.325538
661.072107	0.325697
661.276778	0.325382
661.481431	0.325157
661.686066	0.325091
661.890682	0.325382
662.095281	0.325520
662.299861	0.325711
662.504422	0.326121
662.708966	0.326206
662.913491	0.326369
663.117999	0.326956
663.322488	0.327520
663.526958	0.327934
663.731411	0.328095
663.935845	0.328348
664.140261	0.328759
664.344659	0.328791
664.549038	0.329200
664.753400	0.329485
664.957743	0.329464
665.162068	0.329886
665.366375	0.329789
665.570663	0.329985
665.774933	0.330285
665.979185	0.330213
666.183419	0.330651
666.387635	0.331047
666.591832	0.331377
666.796011	0.331685
667.000172	0.331514
667.204315	0.332235
667.408439	0.332522
667.612545	0.332767
667.816634	0.333117
668.020703	0.333135
668.224755	0.333191
668.428788	0.333524
668.632803	0.334253
668.836800	0.334723
669.040779	0.335033
669.244739	0.335395
669.448681	0.335893
669.652605	0.336142
669.856511	0.336643
670.060399	0.337038
670.264268	0.337222
670.468119	0.337034
670.671952	0.337105
670.875767	0.337179
671.079563	0.337311
671.283341	0.337168
671.487101	0.337435
671.690843	0.337518
671.894567	0.337587
672.098272	0.337655
672.301959	0.337566
672.505628	0.337693
672.709278	0.337607
672.912911	0.337977
673.116525	0.338280
673.320121	0.338234
673.523699	0.338451
673.727258	0.338572
673.930799	0.338722
674.134322	0.339072
674.337827	0.339328
674.541314	0.339685
674.744782	0.339905
674.948232	0.340321
675.151664	0.340751
675.355078	0.340997
675.558474	0.341451
675.761851	0.341692
675.965210	0.342038
676.168551	0.342404
676.371873	0.342554
676.575178	0.342629
676.778464	0.342826
676.981732	0.343529
677.184981	0.343639
677.388213	0.343655
677.591426	0.343896
677.794621	0.344259
677.997798	0.344603
678.200956	0.344891
678.404097	0.345151
678.607219	0.345128
678.810323	0.344894
679.013408	0.345160
679.216476	0.345199
679.419525	0.345447
679.622556	0.345659
679.825569	0.345742
680.028563	0.345974
680.231540	0.346349
680.434498	0.346363
680.637438	0.346576
680.840359	0.346803
681.043263	0.347096
681.246148	0.347303
681.449015	0.347283
681.651864	0.347444
681.854694	0.347808
682.057506	0.347795
682.260301	0.348365
682.463076	0.348698
682.665834	0.349012
682.868573	0.349551
683.071295	0.350077
683.273998	0.350571
683.476682	0.351060
683.679349	0.351067
683.881997	0.351513
684.084627	0.351571
684.287239	0.351510
684.489833	0.351647
684.692408	0.351838
684.894965	0.351733
685.097504	0.351726
685.300025	0.351807
685.502527	0.351826
685.705012	0.351891
685.907478	0.352285
686.109925	0.352678
686.312355	0.353044
686.514766	0.353285
686.717159	0.353611
686.919534	0.353735
687.121891	0.353838
687.324230	0.354203
687.526550	0.354409
687.728852	0.354471
687.931136	0.354429
688.133401	0.354531
688.335649	0.354518
688.537878	0.354516
688.740089	0.354877
688.942281	0.355351
689.144456	0.355503
689.346612	0.355858
689.548750	0.355956
689.750870	0.356303
689.952971	0.356557
690.155055	0.356627
690.357120	0.356755
690.559167	0.356714
690.761195	0.356496
690.963206	0.356860
691.165198	0.356742
691.367172	0.357010
691.569128	0.357406
691.771065	0.357425
691.972984	0.357810
692.174885	0.358219
692.376768	0.358660
692.578633	0.358746
692.780479	0.358730
692.982308	0.358778
693.184118	0.359014
693.385909	0.358955
