sample name	sample
index	892
start time	 04-08-2021  02:52:26 PM
880	0.538619
Peak Time (s)	122.535
Peak Height 	0.5386
calc peak height	120,123
Baseline Time (s)	9.037
Baseline Value 	-0.005114
subtract baseline	10,4
Abs	0.402769
Peak Time (s)	121.535
Peak Height 	0.4028
calc peak height	120,123
Baseline Time (s)	9.537
Baseline Value 	0.003632
subtract baseline	10,3
PK_550	0.197291
Peak Time (s)	122.035
Peak Height 	0.1973
calc peak height	120,123
Baseline Time (s)	11.037
Baseline Value 	3.8784E-4
subtract baseline	10,2
PK_880	0.361495
Peak Time (s)	122.035
Peak Height 	0.3615
calc peak height	120,123
Baseline Time (s)	9.037
Baseline Value 	0.001437
subtract baseline	10,1


Time (s)	A880-A510	A880-A775	A880-A975	A880	I510	I775	I975	I880	
0.036500	0.000352	-0.000052	-0.004588	0.002124	6886.274838	42462.307831	3928.903049	22770.237343
0.537000	-0.003735	0.000372	-0.003791	0.004635	6823.126834	42271.782695	3923.941214	22654.434567
1.037000	-0.001339	-0.000956	-0.003395	0.003584	6855.993040	42246.613734	3928.128137	22702.811014
1.537500	-0.003192	-0.000098	-0.005144	0.006362	6811.894959	42072.234277	3915.073851	22575.159299
2.037500	-0.001596	-0.000256	-0.002551	0.001070	6877.654002	42540.139732	3937.895970	22819.006313
2.535500	0.001030	0.000574	0.002469	0.001701	6896.903189	42558.472474	3950.779633	22789.802864
3.038000	0.001264	0.000109	-0.000438	-0.001227	6927.583021	42784.985857	3950.841465	22925.787610
3.536000	0.002281	0.000175	0.000143	0.001430	6911.634714	42546.666079	3944.731454	22802.337524
4.036000	-0.001072	0.000356	0.000385	0.000854	6884.791102	42616.176509	3947.135925	22829.055290
4.539000	0.000931	0.000372	0.000556	0.000879	6903.891817	42615.333027	3947.563051	22827.860635
5.037000	0.000507	0.000440	-0.000864	0.000611	6902.384167	42646.192801	3944.178255	22840.294432
5.537000	-0.000406	0.000003	-0.002722	-0.000012	6899.578064	42663.293601	3940.559043	22869.258166
6.037000	-0.001780	0.000363	-0.000989	0.000791	6878.563117	42622.573271	3943.282451	22831.941734
6.534500	0.000349	-0.000452	-0.004801	-0.000410	6910.739532	42658.038931	3935.649504	22887.734773
7.035500	-0.000999	-0.000058	-0.002842	0.000135	6892.427870	42644.192908	3939.779087	22862.401229
7.535500	-0.000021	0.000440	0.003354	0.001033	6893.195974	42607.397051	3955.370304	22820.734113
8.035500	0.001164	0.000051	-0.005013	0.000420	6910.606524	42628.076820	3932.617006	22849.189936
8.536000	-0.002608	-0.000417	-0.005614	-0.000353	6881.617153	42656.033179	3933.114380	22885.099829
9.036500	0.000000	0.000212	0.000253	0.000000	6903.391408	42681.437909	3949.260604	22868.686184
9.536500	-0.000032	-0.000039	0.000000	-0.000034	6903.410579	42661.436129	3948.616121	22870.272007
10.036500	-0.001086	0.000159	0.000934	0.000322	6889.782739	42646.904976	3950.319664	22853.718968
10.537000	0.000588	-0.000609	-0.001134	-0.000384	6912.820171	42641.278361	3946.309234	22886.562412
11.037000	0.001047	0.000000	0.002228	0.000146	6912.121289	42648.484840	3954.662560	22861.893648
11.537500	0.001166	0.000122	-0.001546	0.001075	6904.271274	42574.425452	3940.819074	22818.789220
12.035000	0.001063	0.000782	-0.005252	0.000631	6907.579269	42675.869778	3931.308346	22839.388257
12.535500	0.002357	0.000810	0.000539	0.000835	6918.151788	42659.645272	3947.644575	22829.910300
13.036000	0.000740	-0.000046	-0.001363	-0.000317	6913.642081	42686.854848	3945.438527	22883.432763
13.536000	-0.000065	-0.000212	-0.002317	0.002043	6883.023367	42455.085459	3935.739894	22773.945742
14.036500	-0.000825	-0.000028	-0.000893	0.002478	6871.525526	42432.076736	3938.626333	22753.840753
14.536500	-0.000897	-0.000127	-0.002273	0.002377	6871.816492	42432.362145	3934.894646	22758.539439
15.037000	-0.000530	0.000558	0.001845	0.000606	6892.407415	42657.467784	3952.170178	22840.526898
15.537000	0.000108	0.000084	-0.002117	0.002516	6880.137221	42438.857473	3934.944015	22752.092316
16.037500	0.001307	0.000197	0.000918	0.000263	6913.507739	42655.864025	3950.446408	22856.469210
16.535500	-0.000110	0.000052	0.002498	0.000295	6899.472033	42639.615056	3955.020486	22855.001907
17.038000	0.002291	0.000772	-0.001016	-0.001957	6944.723555	42913.692293	3951.289780	22959.841680
17.535000	-0.000253	-0.000344	-0.001994	0.000981	6891.456352	42540.218065	3939.783529	22823.124141
18.036000	0.000081	0.001070	0.000794	0.002333	6881.646798	42545.944418	3943.990574	22760.555049
18.536000	-0.001387	0.000892	0.002031	0.002003	6870.695464	42559.836950	3948.596049	22775.794317
19.036500	0.000132	0.000174	0.000052	0.001183	6893.226360	42569.230218	3945.188342	22813.782210
19.536500	0.001106	0.000654	0.001859	0.002299	6891.856807	42510.941121	3947.221874	22762.122734
20.036500	0.001585	0.000651	-0.000074	0.001981	6899.557065	42539.766377	3942.477484	22776.824007
20.537000	-0.000178	0.000528	0.000024	0.001803	6884.253538	42544.902669	3943.288837	22785.075965
21.035000	-0.000406	0.000278	0.001675	0.001580	6884.202055	42542.369588	3948.793646	22795.372264
21.538000	-0.000999	0.000019	-0.001615	0.001492	6879.342684	42526.676769	3939.396890	22799.457572
22.035000	-0.002077	-0.000223	-0.001302	0.001518	6868.721300	42502.109094	3940.235373	22798.243249
22.535500	0.000588	0.000650	0.003485	0.001879	6890.908708	42549.027314	3953.253820	22781.549104
23.036000	0.000966	0.000267	-0.003294	0.001495	6898.273038	42549.125972	3934.490811	22799.324738
23.536000	-0.000388	-0.000443	-0.002113	0.001032	6889.655908	42526.457205	3939.287049	22820.759805
24.036500	0.001026	0.000220	-0.000740	0.001357	6900.186084	42557.538905	3942.354181	22805.720270
24.537000	0.001046	0.000506	-0.004119	0.001823	6895.877371	42541.027305	3931.137121	22784.156767
25.034500	0.000491	-0.000001	0.003073	0.001808	6890.658257	42495.876926	3952.246814	22784.828375
25.534500	-0.002723	-0.000744	-0.004924	0.000668	6870.679159	42532.207472	3932.152613	22837.642256
26.037500	-0.001180	-0.000317	-0.002468	0.001328	6879.183342	42510.937367	3937.386494	22807.074292
26.535500	-0.001406	0.000312	-0.002840	0.001551	6874.856100	42548.149079	3935.649572	22796.738529
27.035500	-0.000236	0.001421	0.000994	0.003025	6871.934084	42514.686112	3942.546596	22728.576093
27.535000	0.000757	0.000790	-0.001903	0.000383	6907.008601	42699.372010	3941.799485	22850.888981
28.036000	0.000991	0.000323	0.000269	0.000662	6906.582058	42630.809121	3947.359291	22837.960868
28.536500	-0.000027	0.000847	0.000891	0.000581	6897.502958	42686.324791	3949.427474	22841.681120
29.036500	-0.000710	0.001248	-0.003658	0.003444	6863.364831	42460.506408	3927.771243	22709.281747
29.536500	0.000491	0.000325	-0.002031	0.000608	6902.258620	42635.839192	3940.767313	22840.432176
30.034500	0.000938	0.001111	-0.000030	0.001187	6900.981412	42654.929759	3944.934095	22813.575132
30.534500	-0.001733	0.000099	-0.000093	0.002648	6861.186362	42428.153270	3940.468585	22745.996416
31.038000	-0.002420	-0.000949	0.001409	0.003340	6847.988920	42269.413696	3942.841727	22714.074436
31.538000	-0.000127	-0.000046	0.001277	0.000365	6898.628137	42624.108603	3951.204727	22851.723355
32.035000	-0.000412	0.000235	0.001234	0.000456	6894.998444	42641.594751	3950.810136	22847.519197
32.536000	-0.000161	0.000209	-0.001779	0.000648	6895.565208	42621.638932	3941.388058	22838.612930
33.036000	-0.001364	-0.000427	-0.002200	0.002969	6861.639784	42350.773204	3933.382003	22731.166731
33.536500	0.000149	0.000060	-0.000080	0.001171	6893.506308	42559.890234	3944.838972	22814.349564
34.036500	0.001746	0.000452	-0.002445	0.002492	6896.169819	42474.702365	3934.059399	22753.197176
34.537500	-0.001824	0.000462	-0.000962	0.002114	6865.437466	42510.344651	3939.488932	22770.691713
35.037500	-0.001864	0.000542	-0.001453	0.003169	6854.944741	42421.070535	3934.976841	22721.942083
35.538000	-0.001292	-0.000243	-0.000318	0.001975	6871.877363	42458.429904	3941.780171	22777.095005
36.035000	0.000183	0.000191	0.000690	0.002120	6884.670299	42484.885795	3944.309734	22770.379174
36.535500	0.001319	0.000649	-0.001809	0.002566	6891.333522	42485.961199	3935.693916	22749.768138
37.036000	-0.000958	0.000083	0.001744	0.003414	6861.275891	42356.772844	3943.606345	22710.656612
37.536000	-0.000132	0.000456	-0.003822	0.002841	6874.705898	42443.159238	3929.042721	22737.072278
38.036500	-0.001008	0.000074	-0.001426	0.002225	6872.207511	42464.558158	3937.808593	22765.540314
38.536500	-0.000995	0.000067	-0.000427	0.002094	6873.590206	42475.938062	3941.112621	22771.600173
39.040000	0.001117	0.000422	-0.001134	0.002322	6891.737585	42487.584276	3938.379074	22761.056856
39.537500	0.002068	0.000628	0.002765	0.002950	6894.859902	42448.986977	3947.971327	22732.066352
40.038000	0.001055	0.001020	-0.000466	0.002937	6885.203564	42486.051160	3938.533619	22732.649944
40.535000	-0.001218	0.000625	-0.001214	0.002599	6866.590412	42480.777007	3937.333974	22748.252076
41.035500	0.000956	0.001254	-0.000980	0.003000	6883.653769	42501.704281	3936.847944	22729.759826
41.535500	-0.001863	-0.000241	-0.002087	0.002338	6862.914423	42425.474071	3935.550404	22760.327042
42.038500	-0.001338	0.000702	0.001909	0.002586	6865.566471	42488.966714	3946.521790	22748.843099
42.536500	-0.000621	0.000412	0.001952	0.002456	6873.703253	42474.437429	3947.033589	22754.885306
43.039000	-0.000880	0.000508	0.001826	0.002361	6872.126876	42491.907610	3946.940807	22759.274248
43.537000	-0.002290	0.000086	-0.003446	0.003834	6844.506860	42318.685938	3927.253815	22691.265137
44.037000	0.002179	0.000910	-0.000478	0.000886	6915.930285	42664.177476	3944.505007	22827.569816
44.536500	0.001800	0.000412	0.003244	0.000379	6917.172117	42664.953519	3956.982202	22851.078608
45.035000	0.000532	0.000923	0.000361	0.001357	6895.417823	42622.106605	3945.587065	22805.734712
45.535500	-0.002455	-0.000030	-0.003170	0.005969	6822.606860	42113.941406	3921.881311	22593.163726
46.035500	0.001502	0.000786	0.000860	0.001082	6907.459848	42634.724969	3947.861176	22818.458755
46.535500	0.002599	0.000316	-0.000904	0.000370	6925.026826	42656.949885	3944.768791	22851.477239
47.036000	-0.003056	0.000491	0.000477	0.005495	6821.411076	42204.409177	3933.823553	22614.930190
47.536500	-0.002312	0.000069	0.001777	0.005206	6831.226411	42192.289100	3938.458189	22628.196260
48.036500	0.001065	0.000563	0.001942	0.001526	6898.930912	42573.493584	3949.743777	22797.911158
48.537000	-0.000703	0.000058	0.000890	0.000280	6893.883641	42641.504992	3950.314035	22855.676524
49.040500	-0.003470	-0.000939	0.000231	0.005310	6819.226630	42091.343008	3933.644891	22623.401195
49.535000	-0.001834	-0.000004	0.001188	0.005739	6830.696901	42137.207009	3935.180980	22603.706927
50.035500	0.001038	0.000127	0.001067	-0.001601	6929.027823	42821.156167	3956.396469	22943.237201
50.535500	0.004059	0.001737	0.006971	0.012498	6822.472073	41684.462174	3932.343221	22296.124715
51.036000	-0.016633	-0.006194	0.003106	0.005232	6696.922578	41624.764985	3942.269885	22626.967733
51.535500	-0.037708	-0.016130	0.012895	0.042240	6196.365649	37638.909728	3864.949901	20998.028761
52.039000	-0.032872	-0.015287	-0.004137	-0.063240	7207.948713	47324.660584	4134.972029	26032.506337
52.536500	-0.021792	-0.011646	-0.006637	-0.083454	7544.897458	49843.227713	4195.981777	27144.900196
53.036500	-0.021383	-0.009817	-0.019186	-0.108130	7833.080555	52808.649023	4239.203745	28574.903736
53.537000	-0.002620	-0.006144	-0.012355	-0.111610	8102.917603	53640.517774	4276.919476	28783.227543
54.037500	0.004249	-0.002384	-0.009212	-0.075348	7749.236142	49968.787057	4158.897396	26692.577768
54.535000	0.003072	-0.005310	-0.004118	-0.059623	7556.441546	47982.731480	4122.881095	25838.853031
55.036500	0.004158	-0.000933	-0.004397	-0.040478	7358.580409	46469.548093	4059.312915	24840.366480
55.535500	0.004414	-0.002732	0.000185	-0.027330	7222.268172	44989.420132	4032.168797	24179.648377
56.035500	0.008664	-0.000516	0.006379	-0.003495	7022.781794	42936.818002	3977.925472	23031.750261
56.536000	0.010639	-0.001671	0.008022	0.010734	6902.473152	41537.159266	3940.552657	22375.930217
57.036500	0.010421	-0.000624	0.010650	0.021008	6802.116730	40721.222435	3918.371269	21915.571535
57.536500	0.014219	0.001076	0.021274	0.025536	6795.230328	40474.667978	3936.027122	21716.145456
58.037000	0.015315	0.001357	0.021057	0.039031	6679.922118	39343.199303	3896.664860	21133.871286
58.540000	0.020326	0.003969	0.028108	0.049287	6632.116970	38704.210862	3887.640318	20703.267155
59.037500	0.020927	0.003911	0.028713	0.053075	6603.357595	38386.931941	3878.743862	20546.787220
59.535000	0.024463	0.004533	0.030714	0.057639	6594.127553	38064.723895	3871.629256	20360.085604
60.035000	0.029359	0.006038	0.030755	0.059254	6623.670496	38055.758547	3867.281489	20294.476748
60.535500	0.030375	0.006978	0.034349	0.064189	6588.408277	37732.247056	3863.590753	20095.521972
61.036000	0.033778	0.007546	0.037872	0.052729	6723.844849	38715.453216	3905.502857	20561.038911
61.536500	0.032901	0.009506	0.039772	0.066778	6587.843588	37727.351055	3871.407320	19992.029453
62.036000	0.044415	0.012581	0.051504	0.083223	6543.938941	36666.030607	3858.434024	19348.941724
62.536000	0.047334	0.014425	0.058516	0.092438	6488.583144	36094.829928	3852.417864	18999.083721
63.039500	0.054094	0.018670	0.061899	0.101151	6471.580757	35753.177626	3837.989695	18675.034981
63.537000	0.060382	0.020317	0.075190	0.110768	6442.768564	35152.543319	3847.915551	18324.835111
64.034500	0.066642	0.025566	0.079329	0.124620	6377.870612	34516.374979	3821.853404	17833.852366
64.535000	0.076264	0.031108	0.088921	0.135390	6368.167582	34135.920555	3818.732926	17462.818861
65.035000	0.083083	0.034841	0.095132	0.142909	6362.253489	33863.301671	3815.277279	17209.180059
65.536000	0.090057	0.039086	0.102536	0.152071	6343.836983	33512.651136	3810.647756	16905.966038
66.036000	0.102415	0.044521	0.115523	0.161761	6366.303402	33212.452818	3819.342552	16592.170192
66.536000	0.106894	0.048205	0.125397	0.174722	6295.364525	32568.020815	3811.199303	16183.270682
67.036500	0.111988	0.052022	0.129417	0.172039	6360.359861	33018.117981	3828.957940	16266.924787
67.537000	0.127964	0.060590	0.142407	0.192801	6320.221818	32179.302617	3808.393786	15632.888233
68.036500	0.137915	0.066837	0.156663	0.196039	6376.635302	32384.037278	3837.655214	15536.699078
68.537500	0.147039	0.070418	0.165514	0.223034	6228.351693	30827.259114	3789.859324	14762.200581
69.035000	0.154403	0.076888	0.178719	0.243998	6119.522759	29904.698288	3770.022365	14193.064874
69.535000	0.164274	0.083462	0.182986	0.246343	6179.322797	30170.697348	3774.902451	14131.090599
70.035500	0.173954	0.088000	0.192170	0.254080	6194.930581	29969.227737	3778.588539	13928.963097
70.536000	0.177085	0.090848	0.198654	0.263286	6146.362320	29573.222548	3771.660789	13693.134101
71.036000	0.180398	0.095937	0.203673	0.274339	6085.451333	29206.985085	3756.452974	13416.495022
71.536500	0.189901	0.098711	0.212485	0.277284	6136.991908	29196.591138	3771.238621	13343.986963
72.037000	0.193752	0.102468	0.220919	0.287263	6088.810564	28819.972288	3767.323005	13101.848106
72.537000	0.201479	0.106195	0.221825	0.296940	6073.625618	28464.882219	3745.376326	12872.323410
73.051000	0.204645	0.108919	0.228214	0.304241	6041.635621	28194.921369	3743.117914	12702.474649
73.537500	0.210581	0.111320	0.234603	0.304878	6082.680359	28298.649567	3757.432403	12687.799695
74.038000	0.214637	0.113190	0.228094	0.307792	6091.590234	28237.254540	3734.082699	12620.918158
74.535500	0.219918	0.115499	0.236067	0.311436	6104.402686	28158.882035	3744.747628	12537.887474
75.039000	0.219788	0.118122	0.242799	0.319615	6039.862698	27835.585090	3741.171983	12354.073868
75.536000	0.224163	0.119399	0.248201	0.318001	6086.257630	28003.263717	3758.622735	12390.057853
76.036500	0.224925	0.119520	0.250402	0.320477	6072.919176	27866.606107	3757.936095	12334.899425
76.536500	0.231457	0.122789	0.255996	0.325029	6088.329771	27792.368428	3760.549352	12234.275663
77.037000	0.229688	0.123479	0.253478	0.332513	6016.871413	27403.245363	3735.711277	12071.137019
77.537000	0.236250	0.125758	0.256912	0.333648	6058.601841	27468.354381	3741.368841	12046.636618
78.037500	0.238361	0.127556	0.259418	0.337211	6047.385925	27367.956694	3738.763605	11970.141250
78.535000	0.242727	0.128819	0.262632	0.342286	6041.919473	27152.560401	3734.189993	11862.259003
79.035500	0.243177	0.129070	0.264337	0.344730	6026.604137	27029.478383	3732.379982	11810.762956
79.535500	0.246817	0.131909	0.265863	0.349886	6015.003428	26900.163446	3723.531536	11703.057162
80.035500	0.250266	0.133566	0.276187	0.353985	6010.049341	26764.581369	3738.751142	11618.350805
80.536000	0.252662	0.135887	0.278080	0.358839	5991.362324	26624.782727	3731.486638	11519.068249
81.036500	0.254363	0.136384	0.281603	0.362607	5975.717928	26445.393468	3730.886412	11442.748493
81.539500	0.254998	0.137286	0.282813	0.365466	5958.978394	26338.721699	3726.864638	11385.281017
82.034500	0.260235	0.139139	0.288402	0.369729	5966.302604	26208.082736	3730.096920	11300.303333
82.537000	0.259506	0.138906	0.284193	0.372572	5939.536662	26042.321346	3713.015145	11244.094311
83.037500	0.261817	0.141314	0.286386	0.376522	5927.325165	25959.608570	3708.802384	11166.590401
83.535500	0.265990	0.141976	0.286089	0.380740	5926.985285	25770.090649	3698.051749	11084.604806
84.035500	0.266152	0.143631	0.294193	0.383737	5905.982147	25699.020241	3710.219232	11026.855265
84.535500	0.271312	0.145721	0.299245	0.387992	5912.669285	25584.753954	3712.131063	10945.513155
85.036000	0.270413	0.145685	0.293929	0.393603	5864.855392	25289.409761	3686.227387	10839.486104
85.536000	0.271624	0.147239	0.295857	0.393693	5873.029328	25365.562297	3690.536010	10837.780773
86.039500	0.274711	0.148425	0.300089	0.396486	5875.185019	25281.956582	3693.925539	10785.522269
86.537000	0.276567	0.148361	0.307236	0.398884	5871.218163	25154.379658	3705.189266	10740.914534
87.037000	0.277053	0.150608	0.303288	0.406250	5821.358414	24891.560925	3678.558445	10605.445283
87.537500	0.281704	0.153667	0.308865	0.407036	5849.273448	25007.913219	3689.751476	10591.124165
88.035000	0.281166	0.151361	0.308616	0.407587	5841.384351	24861.761248	3687.873005	10581.098383
88.535000	0.284295	0.153917	0.314217	0.412186	5830.754073	24757.843680	3690.223528	10497.911701
89.038000	0.285998	0.156095	0.318272	0.417241	5806.676890	24612.355928	3687.877137	10407.500163
89.535500	0.287552	0.157004	0.320297	0.418005	5812.331885	24619.645116	3690.838646	10393.931543
90.036000	0.290153	0.156820	0.319308	0.419818	5817.991228	24519.212272	3684.271989	10361.819150
90.536500	0.292777	0.158052	0.321409	0.423202	5812.534657	24411.449919	3681.275846	10302.223020
91.036500	0.290530	0.159403	0.321241	0.427728	5764.346890	24253.478588	3670.401305	10223.260919
91.536500	0.293150	0.159678	0.326716	0.428536	5777.166605	24227.057305	3681.213859	10209.246475
92.037500	0.297170	0.161893	0.328884	0.431736	5782.980448	24178.320761	3678.813450	10154.011823
92.534500	0.297606	0.161197	0.324964	0.432182	5782.907027	24121.961921	3668.716077	10146.338348
93.035000	0.298388	0.163602	0.335136	0.438591	5743.200468	23925.576910	3677.412301	10037.037197
93.535000	0.303084	0.164314	0.336850	0.438801	5774.817529	23950.070519	3680.908142	10033.479710
94.035500	0.304185	0.164634	0.334823	0.440548	5770.245963	23880.454967	3672.157832	10003.985145
94.535500	0.303930	0.164924	0.337309	0.442738	5752.998461	23788.090925	3672.841615	9967.175631
95.036000	0.306303	0.166539	0.340311	0.447665	5735.087304	23628.067296	3668.406160	9885.030158
95.536500	0.305635	0.168545	0.338584	0.448743	5722.906292	23672.768130	3661.974510	9867.172221
96.036000	0.310564	0.168996	0.340085	0.450962	5741.836647	23587.628968	3660.333986	9830.568220
96.537000	0.310217	0.169105	0.341847	0.452861	5726.136518	23501.782685	3660.021746	9799.387182
97.034500	0.308954	0.168505	0.345433	0.456466	5692.388520	23301.594199	3659.980416	9740.589842
97.534500	0.310494	0.169167	0.341157	0.457968	5692.651619	23261.832048	3646.889998	9716.227721
