sample name	sample
index	54
start time	 02-11-2021  02:39:57 PM


Wavelength (nm)	Absorbance
494.344910	-0.373777
494.563924	-0.373777
494.782919	-0.373777
495.001897	-0.030115
495.220856	-0.147333
495.439797	-0.089691
495.658719	-0.112012
495.877624	-0.178691
496.096510	-0.228761
496.315378	-0.322600
496.534227	-0.161135
496.753059	-0.186491
496.971872	-0.279915
497.190667	0.053238
497.409444	0.102038
497.628203	0.105174
497.846943	0.110925
498.065665	0.115186
498.284369	0.121171
498.503055	0.124054
498.721723	0.126838
498.940372	0.129117
499.159003	0.130844
499.377616	0.130992
499.596210	0.133206
499.814787	0.134887
500.033345	0.134879
500.251885	0.132219
500.470406	0.131155
500.688910	0.128610
500.907395	0.126739
501.125862	0.123570
501.344311	0.121022
501.562742	0.121557
501.781154	0.121319
501.999548	0.121563
502.217924	0.122903
502.436282	0.120782
502.654621	0.122031
502.872942	0.123417
503.091245	0.124909
503.309530	0.127026
503.527797	0.128262
503.746045	0.127596
503.964275	0.127281
504.182487	0.125905
504.400681	0.126899
504.618856	0.127654
504.837013	0.126295
505.055152	0.126386
505.273273	0.124504
505.491376	0.122488
505.709460	0.123880
505.927526	0.124386
506.145574	0.126309
506.363604	0.127547
506.581615	0.127657
506.799608	0.128222
507.017583	0.128584
507.235540	0.128653
507.453478	0.130212
507.671399	0.128040
507.889301	0.127436
508.107185	0.128281
508.325050	0.128166
508.542898	0.128353
508.760727	0.129684
508.978538	0.129306
509.196330	0.130271
509.414105	0.130609
509.631861	0.131482
509.849599	0.132020
510.067319	0.130941
510.285021	0.129924
510.502704	0.128342
510.720369	0.127347
510.938016	0.129488
511.155645	0.129991
511.373255	0.129156
511.590848	0.131043
511.808422	0.131569
512.025977	0.131753
512.243515	0.132717
512.461034	0.133817
512.678536	0.133409
512.896018	0.133817
513.113483	0.133156
513.330930	0.134503
513.548358	0.134517
513.765768	0.135027
513.983160	0.135441
514.200533	0.135612
514.417889	0.137264
514.635226	0.137394
514.852545	0.136825
515.069845	0.138220
515.287128	0.136995
515.504392	0.134856
515.721638	0.134247
515.938866	0.135547
516.156075	0.136152
516.373267	0.135646
516.590440	0.136259
516.807594	0.136315
517.024731	0.135535
517.241850	0.136372
517.458950	0.138591
517.676032	0.138270
517.893095	0.137780
518.110141	0.136591
518.327168	0.136496
518.544177	0.135556
518.761168	0.136618
518.978141	0.137671
519.195095	0.138305
519.412031	0.138324
519.628949	0.139812
519.845849	0.140035
520.062731	0.142036
520.279594	0.141597
520.496439	0.142368
520.713266	0.141785
520.930074	0.141481
521.146865	0.141247
521.363637	0.140232
521.580391	0.139923
521.797127	0.140827
522.013844	0.141448
522.230543	0.141542
522.447224	0.142049
522.663887	0.141936
522.880532	0.142448
523.097158	0.142108
523.313766	0.143793
523.530356	0.144508
523.746928	0.144009
523.963481	0.143138
524.180017	0.143682
524.396534	0.145371
524.613032	0.146936
524.829513	0.147954
525.045975	0.148470
525.262420	0.148216
525.478845	0.148864
525.695253	0.150267
525.911643	0.150485
526.128014	0.151401
526.344367	0.150966
526.560702	0.149435
526.777018	0.150385
526.993316	0.150160
527.209597	0.149789
527.425858	0.149662
527.642102	0.148067
527.858328	0.148773
528.074535	0.148819
528.290724	0.149041
528.506894	0.149382
528.723047	0.148167
528.939181	0.148139
529.155297	0.148964
529.371395	0.148674
529.587475	0.147189
529.803536	0.148036
530.019579	0.147091
530.235604	0.146902
530.451611	0.147550
530.667600	0.148236
530.883570	0.148963
531.099522	0.149363
531.315456	0.150528
531.531372	0.152797
531.747269	0.151184
531.963148	0.152837
532.179009	0.153409
532.394852	0.152373
532.610676	0.151955
532.826482	0.152867
533.042271	0.153445
533.258040	0.152733
533.473792	0.152888
533.689525	0.154767
533.905240	0.154053
534.120937	0.153404
534.336616	0.154985
534.552277	0.155487
534.767919	0.155702
534.983543	0.155219
535.199149	0.155676
535.414736	0.156804
535.630306	0.156123
535.845857	0.156358
536.061390	0.157166
536.276904	0.158194
536.492401	0.159175
536.707879	0.160248
536.923339	0.160558
537.138781	0.160425
537.354204	0.160817
537.569610	0.160796
537.784997	0.161436
538.000366	0.162178
538.215716	0.161268
538.431049	0.161281
538.646363	0.160419
538.861659	0.160755
539.076937	0.161392
539.292196	0.160981
539.507438	0.162036
539.722661	0.162162
539.937866	0.161927
540.153052	0.162240
540.368221	0.161889
540.583371	0.162197
540.798503	0.163085
541.013617	0.163669
541.228712	0.163921
541.443789	0.163352
541.658848	0.163817
541.873889	0.164241
542.088912	0.164593
542.303916	0.165941
542.518902	0.166511
542.733870	0.166496
542.948820	0.167299
543.163752	0.167413
543.378665	0.167643
543.593560	0.167712
543.808437	0.167523
544.023295	0.167918
544.238136	0.167462
544.452958	0.167691
544.667762	0.168043
544.882548	0.167796
545.097315	0.167844
545.312064	0.168957
545.526795	0.170221
545.741508	0.170128
545.956203	0.170845
546.170879	0.171195
546.385537	0.170980
546.600177	0.170286
546.814799	0.170456
547.029402	0.171107
547.243988	0.170729
547.458555	0.170012
547.673103	0.170736
547.887634	0.170822
548.102146	0.170733
548.316640	0.171249
548.531116	0.172080
548.745574	0.171655
548.960013	0.171861
549.174435	0.172763
549.388838	0.172942
549.603222	0.173474
549.817589	0.173064
550.031937	0.173288
550.246267	0.173763
550.460579	0.173275
550.674873	0.173393
550.889148	0.173916
551.103405	0.172988
551.317644	0.173909
551.531865	0.174025
551.746068	0.174770
551.960252	0.175037
552.174418	0.173943
552.388566	0.174308
552.602696	0.174883
552.816807	0.174705
553.030900	0.175557
553.244975	0.175014
553.459032	0.175869
553.673070	0.175554
553.887091	0.175812
554.101093	0.177344
554.315077	0.177815
554.529042	0.178223
554.742990	0.177968
554.956919	0.177810
555.170830	0.177511
555.384722	0.176774
555.598597	0.177787
555.812453	0.177967
556.026291	0.177074
556.240111	0.177427
556.453913	0.177283
556.667696	0.177526
556.881461	0.177624
557.095208	0.177778
557.308937	0.177574
557.522647	0.177069
557.736339	0.177504
557.950013	0.177528
558.163669	0.177859
558.377307	0.178725
558.590926	0.178661
558.804527	0.178943
559.018110	0.179602
559.231675	0.180533
559.445221	0.180766
559.658749	0.180310
559.872259	0.181064
560.085751	0.181009
560.299225	0.180441
560.512680	0.181034
560.726117	0.181071
560.939536	0.180991
561.152937	0.180548
561.366319	0.180458
561.579683	0.180613
561.793029	0.180727
562.006357	0.180164
562.219667	0.180285
562.432958	0.179561
562.646231	0.180009
562.859486	0.180779
563.072723	0.181493
563.285941	0.181796
563.499141	0.181920
563.712323	0.182608
563.925487	0.183354
564.138632	0.183518
564.351760	0.184565
564.564869	0.184517
564.777960	0.184505
564.991032	0.184701
565.204087	0.184778
565.417123	0.185164
565.630141	0.183940
565.843140	0.184459
566.056122	0.184904
566.269085	0.184879
566.482030	0.185158
566.694957	0.185049
566.907866	0.185189
567.120756	0.185639
567.333628	0.185900
567.546482	0.187254
567.759318	0.187896
567.972135	0.188017
568.184935	0.188670
568.397716	0.188476
568.610478	0.188346
568.823223	0.188482
569.035949	0.189116
569.248657	0.189098
569.461347	0.189004
569.674019	0.187951
569.886672	0.188262
570.099308	0.187914
570.311925	0.188573
570.524523	0.189158
570.737104	0.188742
570.949666	0.187931
571.162210	0.187857
571.374736	0.187580
571.587244	0.187969
571.799733	0.187650
572.012205	0.187564
572.224658	0.187162
572.437092	0.186756
572.649509	0.187030
572.861907	0.187545
573.074287	0.187543
573.286649	0.188111
573.498993	0.188654
573.711318	0.188848
573.923625	0.188992
574.135914	0.189229
574.348185	0.189639
574.560438	0.189893
574.772672	0.190021
574.984888	0.189998
575.197086	0.190141
575.409266	0.190068
575.621427	0.189515
575.833570	0.189471
576.045695	0.189628
576.257802	0.189711
576.469890	0.189143
576.681961	0.188658
576.894013	0.189811
577.106046	0.189682
577.318062	0.189083
577.530059	0.190256
577.742039	0.190909
577.954000	0.191278
578.165942	0.190866
578.377867	0.191485
578.589773	0.191758
578.801661	0.190821
579.013531	0.190882
579.225382	0.192125
579.437216	0.191794
579.649031	0.191912
579.860828	0.192354
580.072606	0.193091
580.284367	0.193527
580.496109	0.194298
580.707833	0.194980
580.919539	0.195045
581.131227	0.194126
581.342896	0.194579
581.554547	0.194367
581.766180	0.193839
581.977795	0.193563
582.189391	0.193299
582.400969	0.193660
582.612529	0.192860
582.824071	0.192509
583.035595	0.193875
583.247100	0.193773
583.458587	0.194086
583.670056	0.194358
583.881506	0.194716
584.092939	0.195497
584.304353	0.194946
584.515749	0.196061
584.727127	0.197083
584.938486	0.196694
585.149828	0.196808
585.361151	0.196285
585.572456	0.196302
585.783742	0.196072
585.995011	0.195637
586.206261	0.196232
586.417493	0.196156
586.628706	0.195393
586.839902	0.195529
587.051079	0.196241
587.262238	0.197123
587.473379	0.196987
587.684502	0.198101
587.895606	0.198665
588.106692	0.198317
588.317760	0.198320
588.528810	0.198925
588.739841	0.199079
588.950855	0.198326
589.161850	0.198140
589.372827	0.199272
589.583785	0.198962
589.794726	0.198435
590.005648	0.198921
590.216552	0.198989
590.427437	0.198919
590.638305	0.198140
590.849154	0.198194
591.059985	0.198874
591.270798	0.198088
591.481592	0.198446
591.692369	0.199433
591.903127	0.199329
592.113867	0.199338
592.324588	0.199647
592.535292	0.200418
592.745977	0.200485
592.956644	0.200477
593.167293	0.201355
593.377923	0.201249
593.588536	0.201370
593.799130	0.201495
594.009706	0.201803
594.220263	0.201865
594.430803	0.202465
594.641324	0.202485
594.851827	0.202947
595.062312	0.202672
595.272778	0.202752
595.483227	0.202142
595.693657	0.202689
595.904069	0.202695
596.114462	0.203321
596.324838	0.202769
596.535195	0.203076
596.745534	0.202332
596.955855	0.202741
597.166157	0.203383
597.376441	0.203518
597.586707	0.202898
597.796955	0.203492
598.007185	0.203618
598.217396	0.204318
598.427589	0.205044
598.637764	0.205257
598.847921	0.204731
599.058060	0.204227
599.268180	0.204644
599.478282	0.205115
599.688366	0.204815
599.898431	0.204818
600.108479	0.204556
600.318508	0.203993
600.528519	0.203989
600.738511	0.204663
600.948486	0.205275
601.158442	0.204870
601.368380	0.204869
601.578300	0.204992
601.788202	0.205125
601.998085	0.204877
602.207950	0.205170
602.417797	0.205652
602.627626	0.205198
602.837436	0.205096
603.047228	0.205536
603.257002	0.205144
603.466758	0.205166
603.676496	0.205116
603.886215	0.205300
604.095916	0.204994
604.305599	0.205107
604.515264	0.205510
604.724910	0.205085
604.934538	0.205501
605.144148	0.205646
605.353740	0.205973
605.563314	0.206045
605.772869	0.206694
605.982406	0.208014
606.191925	0.208263
606.401425	0.208654
606.610908	0.209309
606.820372	0.208990
607.029818	0.209636
607.239246	0.209553
607.448655	0.209931
607.658047	0.209820
607.867420	0.209212
608.076775	0.209338
608.286111	0.209688
608.495430	0.209652
608.704730	0.210206
608.914012	0.210017
609.123275	0.210279
609.332521	0.209933
609.541748	0.210148
609.750957	0.210529
609.960148	0.209936
610.169321	0.209648
610.378475	0.209686
610.587611	0.209456
610.796729	0.209351
611.005829	0.209709
611.214910	0.209833
611.423974	0.209806
611.633019	0.210164
611.842045	0.210679
612.051054	0.210542
612.260044	0.210852
612.469017	0.210995
612.677970	0.211325
612.886906	0.211685
613.095824	0.211653
613.304723	0.212383
613.513604	0.212163
613.722467	0.212586
613.931311	0.212794
614.140138	0.212856
614.348946	0.213140
614.557736	0.213554
614.766507	0.213199
614.975261	0.213495
615.183996	0.213225
615.392713	0.212960
615.601412	0.212884
615.810092	0.212697
616.018754	0.213222
616.227399	0.213470
616.436024	0.213538
616.644632	0.213835
616.853222	0.213839
617.061793	0.213828
617.270346	0.213955
617.478880	0.213868
617.687397	0.213996
617.895895	0.213865
618.104375	0.213846
618.312837	0.213712
618.521281	0.213481
618.729706	0.213951
618.938113	0.213740
619.146502	0.214587
619.354873	0.215255
619.563226	0.215239
619.771560	0.215352
619.979876	0.215709
620.188174	0.215943
620.396453	0.216049
620.604715	0.215491
620.812958	0.216123
621.021183	0.215359
621.229390	0.215453
621.437578	0.216299
621.645748	0.215774
621.853900	0.215786
622.062034	0.216123
622.270150	0.216634
622.478247	0.217334
622.686326	0.217510
622.894387	0.218120
623.102430	0.218038
623.310454	0.217796
623.518461	0.218483
623.726449	0.218227
623.934418	0.218181
624.142370	0.218280
624.350303	0.218685
624.558218	0.218701
624.766115	0.218833
624.973994	0.218993
625.181855	0.218844
625.389697	0.219238
625.597521	0.219890
625.805327	0.220177
626.013114	0.220253
626.220883	0.220127
626.428634	0.219792
626.636367	0.219776
626.844082	0.219937
627.051778	0.220392
627.259457	0.220170
627.467117	0.220104
627.674758	0.220135
627.882382	0.220255
628.089987	0.220024
628.297574	0.220382
628.505143	0.220584
628.712694	0.220688
628.920226	0.221012
629.127740	0.221312
629.335236	0.221483
629.542714	0.221480
629.750174	0.221170
629.957615	0.221292
630.165038	0.221310
630.372443	0.221612
630.579829	0.221660
630.787198	0.221313
630.994548	0.221695
631.201880	0.221846
631.409194	0.222032
631.616489	0.222691
631.823766	0.223282
632.031025	0.223734
632.238266	0.223741
632.445489	0.223675
632.652693	0.224471
632.859879	0.224410
633.067047	0.224229
633.274197	0.224687
633.481329	0.225037
633.688442	0.225213
633.895537	0.225316
634.102614	0.225790
634.309672	0.225991
634.516713	0.226247
634.723735	0.226153
634.930739	0.226642
635.137724	0.226478
635.344692	0.226620
635.551641	0.226502
635.758572	0.226870
635.965485	0.226826
636.172379	0.227063
636.379256	0.226998
636.586114	0.227628
636.792954	0.227800
636.999775	0.227993
637.206579	0.228092
637.413364	0.228365
637.620131	0.228632
637.826880	0.228950
638.033610	0.228897
638.240323	0.228794
638.447017	0.228626
638.653692	0.228659
638.860350	0.229052
639.066990	0.229377
639.273611	0.229449
639.480214	0.229526
639.686798	0.229804
639.893365	0.230360
640.099913	0.231112
640.306443	0.231079
640.512955	0.230912
640.719449	0.230937
640.925924	0.230782
641.132381	0.230986
641.338820	0.230723
641.545241	0.230834
641.751644	0.230830
641.958028	0.230315
642.164394	0.230489
642.370742	0.231020
642.577071	0.230818
642.783383	0.231055
642.989676	0.231161
643.195951	0.231363
643.402207	0.231026
643.608446	0.231281
643.814666	0.231508
644.020868	0.231702
644.227052	0.232015
644.433218	0.232749
644.639365	0.232397
644.845494	0.232738
645.051605	0.233133
645.257698	0.233642
645.463772	0.233678
645.669828	0.234169
645.875866	0.234266
646.081886	0.234092
646.287888	0.234346
646.493871	0.235033
646.699836	0.235263
646.905783	0.235259
647.111712	0.235171
647.317622	0.235571
647.523514	0.235343
647.729388	0.235781
647.935244	0.236150
648.141082	0.235799
648.346901	0.235707
648.552702	0.235443
648.758485	0.235392
648.964250	0.235656
649.169996	0.235721
649.375724	0.236335
649.581434	0.236105
649.787126	0.236149
649.992800	0.236737
650.198455	0.237131
650.404092	0.237488
650.609711	0.238068
650.815311	0.238549
651.020894	0.239014
651.226458	0.238933
651.432004	0.239180
651.637532	0.239470
651.843041	0.239516
652.048532	0.239651
652.254006	0.239742
652.459460	0.239800
652.664897	0.239369
652.870315	0.238996
653.075716	0.239158
653.281097	0.239625
653.486461	0.239692
653.691807	0.239991
653.897134	0.240050
654.102443	0.240145
654.307734	0.240313
654.513006	0.240672
654.718261	0.241111
654.923497	0.241311
655.128715	0.241373
655.333915	0.241178
655.539096	0.241170
655.744259	0.241623
655.949404	0.241895
656.154531	0.241978
656.359640	0.242412
656.564730	0.242468
656.769802	0.242346
656.974856	0.242518
657.179892	0.243007
657.384909	0.243109
657.589908	0.242762
657.794889	0.243018
657.999852	0.243243
658.204797	0.242997
658.409723	0.243253
658.614631	0.243798
658.819521	0.243811
659.024393	0.243998
659.229246	0.244018
659.434081	0.244786
659.638898	0.244797
659.843697	0.245151
660.048478	0.245491
660.253240	0.245483
660.457984	0.245734
660.662710	0.245991
660.867417	0.246123
661.072107	0.246579
661.276778	0.246239
661.481431	0.246757
661.686066	0.246910
661.890682	0.246997
662.095281	0.247632
662.299861	0.247764
662.504422	0.247956
662.708966	0.248274
662.913491	0.248567
663.117999	0.249176
663.322488	0.249535
663.526958	0.249820
663.731411	0.250075
663.935845	0.249868
664.140261	0.250224
664.344659	0.250872
664.549038	0.250769
664.753400	0.250854
664.957743	0.250633
665.162068	0.250532
665.366375	0.250472
665.570663	0.250762
665.774933	0.251166
665.979185	0.251263
666.183419	0.250860
666.387635	0.251444
666.591832	0.251803
666.796011	0.252106
667.000172	0.252469
667.204315	0.252311
667.408439	0.252602
667.612545	0.252631
667.816634	0.252495
668.020703	0.253272
668.224755	0.253792
668.428788	0.254024
668.632803	0.254393
668.836800	0.254420
669.040779	0.254782
669.244739	0.255257
669.448681	0.255568
669.652605	0.256017
669.856511	0.255937
670.060399	0.255386
670.264268	0.255112
670.468119	0.255169
670.671952	0.255497
670.875767	0.255859
671.079563	0.255606
671.283341	0.255641
671.487101	0.255589
671.690843	0.255913
671.894567	0.256079
672.098272	0.256293
672.301959	0.256108
672.505628	0.256309
672.709278	0.256514
672.912911	0.256736
673.116525	0.257018
673.320121	0.257070
673.523699	0.257065
673.727258	0.257393
673.930799	0.257696
674.134322	0.258259
674.337827	0.258140
674.541314	0.258353
674.744782	0.258606
674.948232	0.258713
675.151664	0.259422
675.355078	0.259425
675.558474	0.259538
675.761851	0.259638
675.965210	0.259737
676.168551	0.260271
676.371873	0.260746
676.575178	0.261020
676.778464	0.261379
676.981732	0.261300
677.184981	0.261681
677.388213	0.261638
677.591426	0.261943
677.794621	0.262233
677.997798	0.262201
678.200956	0.261763
678.404097	0.261748
678.607219	0.261977
678.810323	0.262377
679.013408	0.262667
679.216476	0.263299
679.419525	0.263272
679.622556	0.263379
679.825569	0.263604
680.028563	0.264150
680.231540	0.264360
680.434498	0.264540
680.637438	0.264230
680.840359	0.264146
681.043263	0.264382
681.246148	0.264656
681.449015	0.264865
681.651864	0.265117
681.854694	0.265059
682.057506	0.265568
682.260301	0.265468
682.463076	0.265798
682.665834	0.266316
682.868573	0.266479
683.071295	0.266960
683.273998	0.267311
683.476682	0.267325
683.679349	0.267743
683.881997	0.267963
684.084627	0.268532
684.287239	0.268671
684.489833	0.268642
684.692408	0.268672
684.894965	0.268921
685.097504	0.269041
685.300025	0.269475
685.502527	0.269595
685.705012	0.269377
685.907478	0.269084
686.109925	0.269866
686.312355	0.269921
686.514766	0.270261
686.717159	0.270170
686.919534	0.270357
687.121891	0.270402
687.324230	0.270519
687.526550	0.270798
687.728852	0.271197
687.931136	0.270709
688.133401	0.270871
688.335649	0.271084
688.537878	0.271135
688.740089	0.271080
688.942281	0.271204
689.144456	0.271291
689.346612	0.271511
689.548750	0.271655
689.750870	0.271918
689.952971	0.271836
690.155055	0.271930
690.357120	0.272171
690.559167	0.272251
690.761195	0.272024
690.963206	0.272031
691.165198	0.272191
691.367172	0.271951
691.569128	0.272550
691.771065	0.272803
691.972984	0.272706
692.174885	0.272913
692.376768	0.273105
692.578633	0.273664
692.780479	0.274101
692.982308	0.273919
693.184118	0.274446
693.385909	0.274193
