sample name	sample
index	1206
start time	 04-26-2021  01:00:39 PM


Wavelength (nm)	Absorbance
494.344910	NaN
494.563924	NaN
494.782919	NaN
495.001897	-0.498841
495.220856	-0.612264
495.439797	-0.587683
495.658719	-0.643276
495.877624	-0.459501
496.096510	-0.444032
496.315378	-0.533849
496.534227	-0.612651
496.753059	-0.597255
496.971872	-0.320540
497.190667	0.125363
497.409444	0.152978
497.628203	0.160643
497.846943	0.160325
498.065665	0.160082
498.284369	0.159936
498.503055	0.161203
498.721723	0.162718
498.940372	0.160624
499.159003	0.160526
499.377616	0.159629
499.596210	0.159113
499.814787	0.159029
500.033345	0.159319
500.251885	0.159535
500.470406	0.159028
500.688910	0.158065
500.907395	0.157610
501.125862	0.157330
501.344311	0.157491
501.562742	0.156859
501.781154	0.157337
501.999548	0.157931
502.217924	0.157827
502.436282	0.158248
502.654621	0.158630
502.872942	0.159221
503.091245	0.159123
503.309530	0.160940
503.527797	0.161788
503.746045	0.162270
503.964275	0.161183
504.182487	0.162160
504.400681	0.161731
504.618856	0.161628
504.837013	0.162241
505.055152	0.163365
505.273273	0.162115
505.491376	0.161479
505.709460	0.160717
505.927526	0.160117
506.145574	0.158641
506.363604	0.159017
506.581615	0.159280
506.799608	0.158401
507.017583	0.156971
507.235540	0.156851
507.453478	0.158044
507.671399	0.157725
507.889301	0.158714
508.107185	0.158503
508.325050	0.157723
508.542898	0.157740
508.760727	0.158488
508.978538	0.158910
509.196330	0.158791
509.414105	0.158132
509.631861	0.158573
509.849599	0.158103
510.067319	0.158359
510.285021	0.159545
510.502704	0.158801
510.720369	0.158452
510.938016	0.159457
511.155645	0.159986
511.373255	0.160164
511.590848	0.159616
511.808422	0.159784
512.025977	0.160055
512.243515	0.160025
512.461034	0.161263
512.678536	0.161308
512.896018	0.160466
513.113483	0.160489
513.330930	0.160746
513.548358	0.160510
513.765768	0.160838
513.983160	0.161248
514.200533	0.161469
514.417889	0.160608
514.635226	0.160850
514.852545	0.160894
515.069845	0.160687
515.287128	0.160637
515.504392	0.161080
515.721638	0.161097
515.938866	0.161678
516.156075	0.161709
516.373267	0.162362
516.590440	0.161818
516.807594	0.162194
517.024731	0.164072
517.241850	0.164118
517.458950	0.164708
517.676032	0.164480
517.893095	0.163726
518.110141	0.163290
518.327168	0.163750
518.544177	0.164645
518.761168	0.164605
518.978141	0.162666
519.195095	0.162606
519.412031	0.162601
519.628949	0.163836
519.845849	0.164443
520.062731	0.164673
520.279594	0.164398
520.496439	0.165007
520.713266	0.165237
520.930074	0.165364
521.146865	0.165533
521.363637	0.166301
521.580391	0.166439
521.797127	0.166230
522.013844	0.166569
522.230543	0.167085
522.447224	0.166548
522.663887	0.167015
522.880532	0.168856
523.097158	0.169489
523.313766	0.169209
523.530356	0.169501
523.746928	0.169954
523.963481	0.169836
524.180017	0.169246
524.396534	0.169288
524.613032	0.169766
524.829513	0.169020
525.045975	0.169226
525.262420	0.169539
525.478845	0.169372
525.695253	0.170329
525.911643	0.170966
526.128014	0.171564
526.344367	0.171763
526.560702	0.171300
526.777018	0.170956
526.993316	0.171160
527.209597	0.171108
527.425858	0.171625
527.642102	0.171740
527.858328	0.171139
528.074535	0.171549
528.290724	0.171628
528.506894	0.172531
528.723047	0.173258
528.939181	0.173492
529.155297	0.174322
529.371395	0.174194
529.587475	0.173958
529.803536	0.174422
530.019579	0.173942
530.235604	0.174609
530.451611	0.174075
530.667600	0.174553
530.883570	0.174312
531.099522	0.174565
531.315456	0.174500
531.531372	0.174505
531.747269	0.174964
531.963148	0.175929
532.179009	0.176413
532.394852	0.177563
532.610676	0.177993
532.826482	0.178727
533.042271	0.178443
533.258040	0.179219
533.473792	0.179392
533.689525	0.179992
533.905240	0.180512
534.120937	0.181033
534.336616	0.180720
534.552277	0.180453
534.767919	0.181193
534.983543	0.181554
535.199149	0.181748
535.414736	0.182188
535.630306	0.182134
535.845857	0.182389
536.061390	0.181899
536.276904	0.182683
536.492401	0.182730
536.707879	0.182647
536.923339	0.182802
537.138781	0.182992
537.354204	0.183253
537.569610	0.183753
537.784997	0.183169
538.000366	0.183872
538.215716	0.184145
538.431049	0.184643
538.646363	0.184871
538.861659	0.184913
539.076937	0.185255
539.292196	0.185463
539.507438	0.185636
539.722661	0.186668
539.937866	0.186741
540.153052	0.186202
540.368221	0.186528
540.583371	0.186621
540.798503	0.187035
541.013617	0.187300
541.228712	0.187353
541.443789	0.188131
541.658848	0.187881
541.873889	0.188298
542.088912	0.189131
542.303916	0.189629
542.518902	0.189973
542.733870	0.190633
542.948820	0.191060
543.163752	0.192024
543.378665	0.191716
543.593560	0.191758
543.808437	0.192273
544.023295	0.193039
544.238136	0.193226
544.452958	0.193183
544.667762	0.193380
544.882548	0.193333
545.097315	0.194025
545.312064	0.194190
545.526795	0.195154
545.741508	0.195375
545.956203	0.195227
546.170879	0.194807
546.385537	0.195392
546.600177	0.195463
546.814799	0.195389
547.029402	0.194955
547.243988	0.195356
547.458555	0.195425
547.673103	0.195209
547.887634	0.195097
548.102146	0.196075
548.316640	0.196042
548.531116	0.196006
548.745574	0.196523
548.960013	0.196706
549.174435	0.196671
549.388838	0.196372
549.603222	0.196590
549.817589	0.196832
550.031937	0.196426
550.246267	0.196254
550.460579	0.196954
550.674873	0.196696
550.889148	0.196582
551.103405	0.196866
551.317644	0.197215
551.531865	0.197556
551.746068	0.198157
551.960252	0.198797
552.174418	0.199235
552.388566	0.198905
552.602696	0.199376
552.816807	0.199629
553.030900	0.199647
553.244975	0.199794
553.459032	0.199591
553.673070	0.199119
553.887091	0.198849
554.101093	0.198992
554.315077	0.199413
554.529042	0.199201
554.742990	0.199180
554.956919	0.199501
555.170830	0.199643
555.384722	0.199828
555.598597	0.199662
555.812453	0.199993
556.026291	0.199913
556.240111	0.199892
556.453913	0.200313
556.667696	0.200280
556.881461	0.200230
557.095208	0.200421
557.308937	0.200643
557.522647	0.201119
557.736339	0.201071
557.950013	0.201218
558.163669	0.201164
558.377307	0.201324
558.590926	0.202181
558.804527	0.201975
559.018110	0.201971
559.231675	0.202156
559.445221	0.202489
559.658749	0.202785
559.872259	0.203086
560.085751	0.203562
560.299225	0.204145
560.512680	0.204075
560.726117	0.204847
560.939536	0.205091
561.152937	0.205100
561.366319	0.204723
561.579683	0.205059
561.793029	0.205330
562.006357	0.205708
562.219667	0.205548
562.432958	0.205485
562.646231	0.205571
562.859486	0.205812
563.072723	0.206192
563.285941	0.206809
563.499141	0.207084
563.712323	0.206628
563.925487	0.206470
564.138632	0.206225
564.351760	0.206075
564.564869	0.205649
564.777960	0.205616
564.991032	0.205644
565.204087	0.205807
565.417123	0.205442
565.630141	0.205605
565.843140	0.205493
566.056122	0.205865
566.269085	0.206131
566.482030	0.206893
566.694957	0.206997
566.907866	0.206814
567.120756	0.206357
567.333628	0.206521
567.546482	0.206832
567.759318	0.207158
567.972135	0.207145
568.184935	0.207559
568.397716	0.207364
568.610478	0.207521
568.823223	0.207963
569.035949	0.208483
569.248657	0.208486
569.461347	0.208856
569.674019	0.209051
569.886672	0.209111
570.099308	0.208754
570.311925	0.209234
570.524523	0.209229
570.737104	0.209486
570.949666	0.209620
571.162210	0.209957
571.374736	0.210092
571.587244	0.209964
571.799733	0.210497
572.012205	0.211158
572.224658	0.211051
572.437092	0.211143
572.649509	0.211099
572.861907	0.211265
573.074287	0.211334
573.286649	0.211782
573.498993	0.211853
573.711318	0.211678
573.923625	0.211784
574.135914	0.211535
574.348185	0.212034
574.560438	0.212260
574.772672	0.212467
574.984888	0.212711
575.197086	0.212533
575.409266	0.212958
575.621427	0.213004
575.833570	0.213292
576.045695	0.214018
576.257802	0.214232
576.469890	0.214191
576.681961	0.214460
576.894013	0.214750
577.106046	0.214928
577.318062	0.214954
577.530059	0.215644
577.742039	0.215667
577.954000	0.215573
578.165942	0.215717
578.377867	0.216083
578.589773	0.216134
578.801661	0.216169
579.013531	0.216393
579.225382	0.216410
579.437216	0.216438
579.649031	0.216345
579.860828	0.216616
580.072606	0.216448
580.284367	0.216432
580.496109	0.216568
580.707833	0.216687
580.919539	0.216931
581.131227	0.217065
581.342896	0.217025
581.554547	0.217253
581.766180	0.216980
581.977795	0.216844
582.189391	0.217048
582.400969	0.217214
582.612529	0.217159
582.824071	0.217216
583.035595	0.217579
583.247100	0.217825
583.458587	0.217968
583.670056	0.218308
583.881506	0.219098
584.092939	0.219184
584.304353	0.219332
584.515749	0.219718
584.727127	0.220083
584.938486	0.220324
585.149828	0.220440
585.361151	0.220763
585.572456	0.220648
585.783742	0.220684
585.995011	0.221181
586.206261	0.221551
586.417493	0.222005
586.628706	0.222137
586.839902	0.222125
587.051079	0.222303
587.262238	0.222613
587.473379	0.223145
587.684502	0.222997
587.895606	0.222861
588.106692	0.222722
588.317760	0.222520
588.528810	0.222655
588.739841	0.223028
588.950855	0.222936
589.161850	0.223017
589.372827	0.223319
589.583785	0.223343
589.794726	0.223878
590.005648	0.224154
590.216552	0.224177
590.427437	0.224265
590.638305	0.223905
590.849154	0.224457
591.059985	0.224317
591.270798	0.224747
591.481592	0.225249
591.692369	0.225748
591.903127	0.225933
592.113867	0.226402
592.324588	0.226622
592.535292	0.227336
592.745977	0.227528
592.956644	0.227597
593.167293	0.227328
593.377923	0.227538
593.588536	0.226833
593.799130	0.226834
594.009706	0.226947
594.220263	0.226896
594.430803	0.226900
594.641324	0.226777
594.851827	0.227108
595.062312	0.227338
595.272778	0.227187
595.483227	0.227291
595.693657	0.227694
595.904069	0.227646
596.114462	0.227726
596.324838	0.227660
596.535195	0.227728
596.745534	0.227818
596.955855	0.228140
597.166157	0.228541
597.376441	0.228811
597.586707	0.228539
597.796955	0.228424
598.007185	0.228332
598.217396	0.228904
598.427589	0.228778
598.637764	0.228848
598.847921	0.228466
599.058060	0.228425
599.268180	0.228453
599.478282	0.228448
599.688366	0.228623
599.898431	0.228773
600.108479	0.228657
600.318508	0.229021
600.528519	0.229262
600.738511	0.229842
600.948486	0.230076
601.158442	0.230426
601.368380	0.230710
601.578300	0.231436
601.788202	0.231964
601.998085	0.232127
602.207950	0.232059
602.417797	0.232181
602.627626	0.232271
602.837436	0.232757
603.047228	0.232601
603.257002	0.233013
603.466758	0.233006
603.676496	0.232978
603.886215	0.233029
604.095916	0.233499
604.305599	0.233454
604.515264	0.233348
604.724910	0.233290
604.934538	0.233414
605.144148	0.233582
605.353740	0.233333
605.563314	0.233413
605.772869	0.233818
605.982406	0.233917
606.191925	0.234251
606.401425	0.234395
606.610908	0.234508
606.820372	0.234781
607.029818	0.234901
607.239246	0.235308
607.448655	0.235652
607.658047	0.235504
607.867420	0.235634
608.076775	0.235913
608.286111	0.236227
608.495430	0.236317
608.704730	0.236780
608.914012	0.236830
609.123275	0.236949
609.332521	0.237131
609.541748	0.237425
609.750957	0.237428
609.960148	0.237636
610.169321	0.237673
610.378475	0.238021
610.587611	0.238024
610.796729	0.238310
611.005829	0.238593
611.214910	0.238386
611.423974	0.238426
611.633019	0.238684
611.842045	0.238348
612.051054	0.238167
612.260044	0.237869
612.469017	0.237606
612.677970	0.237712
612.886906	0.237676
613.095824	0.237884
613.304723	0.238107
613.513604	0.238214
613.722467	0.238528
613.931311	0.238976
614.140138	0.239545
614.348946	0.240174
614.557736	0.240088
614.766507	0.240318
614.975261	0.240680
615.183996	0.241127
615.392713	0.241457
615.601412	0.241646
615.810092	0.241928
616.018754	0.241863
616.227399	0.241999
616.436024	0.242186
616.644632	0.242307
616.853222	0.242243
617.061793	0.242289
617.270346	0.242389
617.478880	0.242519
617.687397	0.242625
617.895895	0.242796
618.104375	0.242683
618.312837	0.242695
618.521281	0.242850
618.729706	0.243091
618.938113	0.242841
619.146502	0.242934
619.354873	0.243326
619.563226	0.243471
619.771560	0.243689
619.979876	0.243895
620.188174	0.244351
620.396453	0.244321
620.604715	0.244552
620.812958	0.244731
621.021183	0.244896
621.229390	0.244904
621.437578	0.244953
621.645748	0.244924
621.853900	0.244837
622.062034	0.244790
622.270150	0.245324
622.478247	0.245365
622.686326	0.245754
622.894387	0.246023
623.102430	0.246234
623.310454	0.246389
623.518461	0.246451
623.726449	0.246860
623.934418	0.247131
624.142370	0.246880
624.350303	0.246857
624.558218	0.246753
624.766115	0.246941
624.973994	0.246678
625.181855	0.246858
625.389697	0.247408
625.597521	0.247794
625.805327	0.247690
626.013114	0.248217
626.220883	0.248911
626.428634	0.249237
626.636367	0.249047
626.844082	0.249309
627.051778	0.249422
627.259457	0.249320
627.467117	0.249350
627.674758	0.249710
627.882382	0.249623
628.089987	0.249407
628.297574	0.249446
628.505143	0.249814
628.712694	0.250294
628.920226	0.250412
629.127740	0.250405
629.335236	0.250441
629.542714	0.250606
629.750174	0.250717
629.957615	0.250944
630.165038	0.251241
630.372443	0.251330
630.579829	0.251263
630.787198	0.251440
630.994548	0.251835
631.201880	0.251771
631.409194	0.251849
631.616489	0.252221
631.823766	0.252005
632.031025	0.251987
632.238266	0.252283
632.445489	0.252555
632.652693	0.252487
632.859879	0.252596
633.067047	0.252774
633.274197	0.253259
633.481329	0.253378
633.688442	0.253824
633.895537	0.254147
634.102614	0.254273
634.309672	0.254213
634.516713	0.254676
634.723735	0.254757
634.930739	0.255004
635.137724	0.254973
635.344692	0.254833
635.551641	0.254861
635.758572	0.254560
635.965485	0.254631
636.172379	0.254766
636.379256	0.254449
636.586114	0.254389
636.792954	0.254686
636.999775	0.254519
637.206579	0.254851
637.413364	0.255045
637.620131	0.255234
637.826880	0.255229
638.033610	0.255638
638.240323	0.256053
638.447017	0.256384
638.653692	0.256327
638.860350	0.256525
639.066990	0.256644
639.273611	0.257098
639.480214	0.257397
639.686798	0.257426
639.893365	0.257618
640.099913	0.257948
640.306443	0.257738
640.512955	0.258082
640.719449	0.258261
640.925924	0.258327
641.132381	0.258258
641.338820	0.258696
641.545241	0.258983
641.751644	0.259130
641.958028	0.259027
642.164394	0.259744
642.370742	0.260072
642.577071	0.260299
642.783383	0.260610
642.989676	0.260882
643.195951	0.260764
643.402207	0.260930
643.608446	0.261010
643.814666	0.261205
644.020868	0.260974
644.227052	0.260813
644.433218	0.260923
644.639365	0.261018
644.845494	0.261043
645.051605	0.261550
645.257698	0.261802
645.463772	0.261844
645.669828	0.262347
645.875866	0.262498
646.081886	0.262927
646.287888	0.263304
646.493871	0.263078
646.699836	0.263248
646.905783	0.263088
647.111712	0.263212
647.317622	0.263434
647.523514	0.263341
647.729388	0.263689
647.935244	0.263754
648.141082	0.263638
648.346901	0.264177
648.552702	0.264039
648.758485	0.264400
648.964250	0.264415
649.169996	0.264666
649.375724	0.264817
649.581434	0.265100
649.787126	0.265404
649.992800	0.265762
650.198455	0.265939
650.404092	0.266429
650.609711	0.266459
650.815311	0.266552
651.020894	0.266588
651.226458	0.266822
651.432004	0.266887
651.637532	0.266850
651.843041	0.266987
652.048532	0.267122
652.254006	0.266994
652.459460	0.267120
652.664897	0.267335
652.870315	0.267322
653.075716	0.267342
653.281097	0.267440
653.486461	0.267551
653.691807	0.267514
653.897134	0.267742
654.102443	0.268248
654.307734	0.268343
654.513006	0.268701
654.718261	0.269203
654.923497	0.269328
655.128715	0.269574
655.333915	0.269656
655.539096	0.269990
655.744259	0.270062
655.949404	0.270165
656.154531	0.270157
656.359640	0.270312
656.564730	0.270153
656.769802	0.270551
656.974856	0.270786
657.179892	0.271221
657.384909	0.271623
657.589908	0.271983
657.794889	0.272608
657.999852	0.273258
658.204797	0.273265
658.409723	0.273709
658.614631	0.273697
658.819521	0.273561
659.024393	0.273499
659.229246	0.273371
659.434081	0.273465
659.638898	0.273162
659.843697	0.273266
660.048478	0.273644
660.253240	0.273656
660.457984	0.274051
660.662710	0.274316
660.867417	0.274794
661.072107	0.275062
661.276778	0.275356
661.481431	0.275407
661.686066	0.275540
661.890682	0.275743
662.095281	0.276120
662.299861	0.276531
662.504422	0.277337
662.708966	0.277485
662.913491	0.277845
663.117999	0.277650
663.322488	0.278241
663.526958	0.278429
663.731411	0.278681
663.935845	0.279024
664.140261	0.279157
664.344659	0.278943
664.549038	0.278893
664.753400	0.279148
664.957743	0.279752
665.162068	0.279901
665.366375	0.280084
665.570663	0.280190
665.774933	0.280243
665.979185	0.280300
666.183419	0.280687
666.387635	0.281146
666.591832	0.281326
666.796011	0.281505
667.000172	0.281494
667.204315	0.281720
667.408439	0.281634
667.612545	0.281682
667.816634	0.281708
668.020703	0.281915
668.224755	0.282076
668.428788	0.282148
668.632803	0.282251
668.836800	0.282293
669.040779	0.282487
669.244739	0.282850
669.448681	0.283340
669.652605	0.283741
669.856511	0.283806
670.060399	0.283889
670.264268	0.284097
670.468119	0.284439
670.671952	0.285140
670.875767	0.285356
671.079563	0.285708
671.283341	0.285979
671.487101	0.286087
671.690843	0.285958
671.894567	0.286444
672.098272	0.286869
672.301959	0.287113
672.505628	0.287080
672.709278	0.287291
672.912911	0.287337
673.116525	0.287312
673.320121	0.287481
673.523699	0.287984
673.727258	0.287822
673.930799	0.287839
674.134322	0.288066
674.337827	0.288298
674.541314	0.288566
674.744782	0.288954
674.948232	0.289291
675.151664	0.289632
675.355078	0.289870
675.558474	0.290303
675.761851	0.290681
675.965210	0.290766
676.168551	0.291053
676.371873	0.291169
676.575178	0.291269
676.778464	0.291383
676.981732	0.291503
677.184981	0.291750
677.388213	0.291737
677.591426	0.291557
677.794621	0.291670
677.997798	0.291781
678.200956	0.291825
678.404097	0.292007
678.607219	0.292319
678.810323	0.292542
679.013408	0.292406
679.216476	0.292731
679.419525	0.293126
679.622556	0.293304
679.825569	0.293576
680.028563	0.294098
680.231540	0.294584
680.434498	0.294703
680.637438	0.295063
680.840359	0.295577
681.043263	0.295972
681.246148	0.296304
681.449015	0.296387
681.651864	0.296539
681.854694	0.296525
682.057506	0.296427
682.260301	0.296624
682.463076	0.296753
682.665834	0.296972
682.868573	0.296980
683.071295	0.296876
683.273998	0.297038
683.476682	0.297100
683.679349	0.297563
683.881997	0.297837
684.084627	0.297828
684.287239	0.297788
684.489833	0.297742
684.692408	0.297791
684.894965	0.297808
685.097504	0.298091
685.300025	0.298234
685.502527	0.298089
685.705012	0.298180
685.907478	0.298453
686.109925	0.298658
686.312355	0.299153
686.514766	0.299418
686.717159	0.299838
686.919534	0.299783
687.121891	0.299872
687.324230	0.300359
687.526550	0.300808
687.728852	0.300995
687.931136	0.301286
688.133401	0.301439
688.335649	0.301728
688.537878	0.302046
688.740089	0.302432
688.942281	0.302695
689.144456	0.302601
689.346612	0.302462
689.548750	0.302669
689.750870	0.302790
689.952971	0.302966
690.155055	0.303329
690.357120	0.303545
690.559167	0.303894
690.761195	0.304407
690.963206	0.304654
691.165198	0.305122
691.367172	0.305430
691.569128	0.305428
691.771065	0.305443
691.972984	0.305548
692.174885	0.305652
692.376768	0.305635
692.578633	0.305412
692.780479	0.305660
692.982308	0.305532
693.184118	0.305266
693.385909	0.305876
