sample name	sample
index	1254
start time	 04-29-2021  12:56:20 PM
880	0.555542
Peak Time (s)	102.035
Peak Height 	0.5555
calc peak height	100,103
Baseline Time (s)	10.537
Baseline Value 	-0.003482
subtract baseline	10,4
Abs	0.369742
Peak Time (s)	100.037
Peak Height 	0.3697
calc peak height	100,103
Baseline Time (s)	11.035
Baseline Value 	-4.1121E-4
subtract baseline	10,3
PK_550	0.206100
Peak Time (s)	101.04
Peak Height 	0.2061
calc peak height	100,103
Baseline Time (s)	10.537
Baseline Value 	1.6011E-4
subtract baseline	10,2
PK_880	0.352766
Peak Time (s)	101.04
Peak Height 	0.3528
calc peak height	100,103
Baseline Time (s)	9.037
Baseline Value 	-8.8893E-4
subtract baseline	10,1


Time (s)	A880-A510	A880-A775	A880-A975	A880	I510	I775	I975	I880	
0.034000	-0.004231	0.000504	-0.000951	0.008859	6118.317786	43397.380363	3892.059540	22447.562178
0.537500	0.000044	-0.000159	-0.000029	0.003842	6186.972905	43804.678736	3905.486195	22674.272651
1.038000	0.003127	0.000545	-0.000875	0.004556	6204.710540	43803.729162	3901.941345	22641.835987
1.535000	-0.000335	-0.000218	-0.004542	0.000717	6207.545102	44094.040720	3902.333612	22816.821888
2.035500	-0.001355	-0.000128	-0.004255	0.004888	6168.762679	43709.395586	3893.560081	22626.793449
2.536000	0.001871	0.000959	-0.000991	0.001101	6221.261235	44169.197174	3909.544839	22799.233384
3.036000	0.002999	0.000864	0.004826	-0.000493	6241.875577	44311.686882	3926.630745	22872.300548
3.536500	0.000929	0.000227	0.003856	0.000794	6216.474890	44128.880906	3921.394902	22813.270054
4.037000	0.001535	0.000251	-0.001168	0.001153	6218.337391	44097.113344	3909.021162	22796.858066
4.537000	0.001554	0.000293	0.003708	0.000751	6221.514008	44139.229387	3921.152824	22815.245993
5.037000	0.002596	0.000705	0.004664	0.001519	6223.582888	44105.480793	3921.587541	22780.117263
5.537500	0.001469	0.000723	0.003686	0.001024	6218.815763	44154.131093	3920.471297	22802.770204
6.034500	-0.000736	0.000317	0.000735	0.000778	6204.072380	44138.927389	3914.239878	22814.023277
6.535500	0.002578	0.000908	-0.000013	0.001302	6225.091081	44145.327246	3911.324210	22790.070762
7.035500	0.001340	-0.000095	0.003780	0.000579	6221.197349	44118.762187	3921.715938	22823.123782
7.535500	0.003295	0.000837	0.002712	0.000404	6237.310631	44223.768215	3919.652731	22831.142884
8.036500	0.001736	0.000174	0.001097	-0.000074	6229.124343	44206.216184	3917.033001	22853.070189
8.536500	-0.001207	-0.000307	0.000076	-0.000590	6210.815497	44209.443826	3915.869127	22876.716840
9.036500	0.000000	-0.000388	-0.001526	-0.000448	6218.836712	44188.404289	3911.866065	22870.219874
9.537500	0.000646	0.000709	0.006084	0.000416	6217.191707	44210.407865	3927.440825	22830.582091
10.037000	-0.000268	0.000213	-0.004950	0.002595	6193.958371	43957.193338	3897.158190	22731.013108
10.537000	-0.001029	0.000000	0.003157	0.000000	6207.718131	44182.657464	3921.614515	22849.660667
11.035000	0.001295	0.000743	0.000000	0.000373	6222.408795	44217.771156	3913.480888	22832.544611
11.538000	0.001832	-0.000507	-0.000800	-0.000892	6236.044095	44219.133947	3914.548744	22890.587979
12.036000	0.002026	0.000017	0.000839	-0.000515	6234.660906	44233.186513	3917.452777	22873.296312
12.536000	0.001951	0.000135	0.001673	-0.000139	6231.241989	44208.704550	3918.508910	22856.031475
13.036500	0.001274	0.000454	-0.000484	-0.000547	6229.211450	44277.831939	3914.482626	22874.772880
13.539500	0.000984	0.000858	0.005402	-0.000543	6226.984611	44315.896690	3928.086582	22874.592456
14.037000	0.000921	0.001451	0.002079	0.002312	6204.992267	44100.964812	3913.803130	22743.919171
14.537000	-0.000985	-0.000416	-0.002811	0.001300	6198.293913	44020.182914	3904.943427	22790.165728
15.035000	0.001018	-0.000505	0.000362	-0.001340	6233.268477	44262.024953	3918.254886	22911.206233
15.535000	0.001751	-0.000487	0.002064	-0.000878	6235.325894	44219.783811	3921.117880	22889.958875
16.038500	-0.000046	0.000108	0.000578	0.002797	6194.110846	43928.221798	3909.255287	22721.812496
16.536000	0.001660	0.000620	0.004901	-0.000367	6230.757539	44276.375343	3926.508424	22866.474539
17.039000	0.002815	0.000151	0.006594	-0.002679	6257.107906	44452.113507	3935.864160	22972.879554
17.536500	0.000953	0.000687	0.002767	0.001278	6213.011258	44126.641876	3917.763364	22791.149425
18.039000	0.001787	0.001151	0.000275	0.003098	6205.598261	43998.391156	3907.876291	22708.139646
18.536500	0.001030	0.000261	0.008107	0.001592	6211.224747	44056.531295	3929.413196	22776.784299
19.039500	0.003025	0.000535	0.004561	0.001667	6225.703301	44075.343448	3921.006163	22773.370239
19.537000	0.001169	-0.000191	-0.000019	0.000505	6220.464029	44116.718404	3913.135580	22826.525806
20.037500	0.003313	-0.000007	0.001887	0.001963	6225.649051	43996.192556	3914.163174	22759.865874
20.535500	0.002160	0.000417	0.000889	0.001052	6223.819061	44122.445966	3913.964217	22801.504411
21.035500	-0.000455	0.000648	-0.001938	0.000982	6204.651941	44150.947946	3907.653752	22804.693047
21.537500	-0.000202	0.000635	0.003536	0.001023	6206.241362	44145.842325	3920.127418	22802.807323
22.036500	-0.001698	-0.000168	-0.000546	0.001956	6188.041264	43981.562709	3908.608548	22760.156845
22.539000	0.001825	0.000827	0.001727	0.001210	6220.089464	44146.305146	3915.526590	22794.246079
23.036000	0.002044	0.000816	0.000846	0.001390	6220.386408	44128.228277	3913.088845	22786.014660
23.537000	0.000698	-0.000128	0.005632	0.000465	6217.221254	44126.471166	3926.276193	22828.370050
24.037500	0.002588	0.000400	0.003373	0.001744	6221.816833	44055.253485	3918.085314	22769.838201
24.534500	0.001733	0.000382	0.000261	0.000959	6221.292263	44127.910220	3912.735498	22805.727128
25.035000	0.001932	-0.000748	0.002646	0.000010	6229.969622	44110.750899	3920.409999	22849.188852
25.535000	0.001446	0.000269	-0.001713	0.001142	6217.746218	44099.810214	3907.801239	22797.346515
26.035500	0.001929	0.000817	0.007656	0.002760	6209.201570	43998.641408	3925.645067	22723.508562
26.535500	-0.000286	-0.000244	0.000068	0.000765	6207.550735	44087.047121	3912.738803	22814.631684
27.036000	0.001070	0.000641	0.001835	0.001312	6213.630346	44119.032306	3915.539225	22789.574827
27.539500	0.003873	0.000039	0.002435	-0.001025	6252.565590	44283.726586	3922.316028	22896.699460
28.036500	-0.001708	-0.000264	0.000559	0.003408	6177.150159	43835.711069	3907.816112	22694.026057
28.534000	0.000976	0.000443	0.008627	-0.000457	6226.268831	44268.065353	3935.420199	22870.602862
29.037500	0.003882	0.000589	0.002547	-0.000185	6246.239875	44256.143051	3920.632607	22858.143976
29.537500	0.000239	0.000155	-0.001687	0.003738	6189.200387	43843.993007	3901.955994	22678.986705
30.035000	-0.000139	0.000283	0.001250	0.003623	6187.239859	43866.941909	3908.901406	22684.216374
30.535500	0.002705	0.000966	0.006057	0.000121	6234.983839	44262.911574	3928.064497	22844.106099
31.036000	0.002110	0.000186	0.001449	0.002158	6215.102916	43996.016096	3912.712052	22750.976717
31.536000	0.000687	0.000460	0.001604	0.004233	6188.852749	43826.114333	3908.317997	22656.494008
32.036500	0.001881	0.000130	0.002489	-0.000414	6232.791981	44234.318388	3921.027353	22868.666150
32.537500	0.003230	0.001140	0.004340	0.000075	6239.311822	44283.832458	3924.181794	22846.229400
33.036500	0.001408	0.001159	0.003947	-0.000009	6226.144025	44293.609866	3923.464135	22850.053821
33.538500	-0.000391	0.000616	-0.002450	0.003973	6182.748779	43865.379806	3899.695189	22668.337501
34.037500	-0.000316	-0.000197	0.000869	0.002792	6192.127442	43900.001765	3909.931099	22722.046704
34.535000	-0.002014	0.000518	-0.000478	0.001439	6189.548222	44095.344074	3909.945301	22783.791704
35.035500	0.001446	0.000611	-0.000870	0.001795	6212.831016	44070.483685	3908.236937	22767.544796
35.535500	0.000819	0.000437	-0.000399	0.002463	6203.102739	43990.896156	3907.787709	22737.071285
36.035500	0.001814	0.000627	0.002586	0.001782	6215.702685	44073.212433	3916.187685	22768.135490
36.539000	0.001139	0.001380	0.002180	0.002670	6203.946537	44060.355041	3913.211613	22727.597300
37.036500	-0.000397	0.000869	0.002869	0.002007	6197.393494	44074.768932	3916.319921	22757.837053
37.536500	-0.000539	-0.000558	0.001271	0.002061	6195.929669	43934.873537	3912.525576	22755.377964
38.037000	0.000251	0.000688	0.001364	0.002226	6200.617741	44036.995504	3912.360892	22747.876457
38.534500	0.000815	0.000676	-0.001352	0.002024	6206.363944	44054.981919	3906.615951	22757.086090
39.037000	0.000940	0.001106	-0.001980	0.002029	6207.269650	44095.235419	3905.174831	22756.860367
39.534500	0.001033	0.000508	-0.000328	0.001804	6209.657413	44059.881069	3909.454226	22767.105227
40.035000	0.002377	0.000866	0.006311	0.002398	6215.303810	44037.578626	3923.366911	22740.029684
40.536000	-0.000442	0.001070	0.005564	0.001975	6197.306634	44096.912439	3922.614824	22759.321953
41.038500	0.001245	0.001388	0.001449	0.002480	6206.166310	44079.155420	3911.973203	22736.274658
41.536000	0.000081	0.001306	0.006168	0.004296	6183.860865	43899.919751	3918.646775	22653.658911
42.036500	-0.000153	0.000247	-0.000127	0.002751	6193.651100	43945.685608	3907.749546	22723.914922
42.537000	0.000386	0.000659	0.001548	0.002053	6202.925659	44050.656973	3913.179750	22755.768408
43.037000	0.002567	0.001486	0.005672	0.002501	6215.958769	44086.476359	3921.647497	22735.327392
43.534500	0.002017	0.000199	0.003721	0.001713	6217.751110	44039.220508	3918.960307	22771.282194
44.038000	-0.000984	0.000008	0.003211	0.001567	6196.296774	44034.968842	3918.120998	22777.943851
44.534500	0.002842	0.001279	0.005490	-0.000311	6239.296160	44333.813799	3927.748711	22863.905682
45.035500	0.003170	0.000048	0.003765	-0.000420	6242.621447	44227.153786	3923.996143	22868.945450
45.536000	-0.000226	0.000274	0.001875	0.005422	6173.182018	43697.040621	3906.225336	22602.585791
46.035500	0.000226	0.000305	0.004642	0.003097	6193.901551	43918.558026	3917.891246	22708.144549
46.536500	0.002917	0.000539	0.007171	0.000293	6235.286318	44206.051297	3930.261439	22836.235230
47.036500	0.000713	0.000117	-0.000233	-0.000791	6226.808124	44268.926157	3915.621266	22885.966181
47.540000	-0.001427	0.000404	0.002926	0.003584	6177.924143	43881.941943	3912.827385	22685.985235
48.037500	0.000855	0.000281	0.001600	0.003740	6193.802438	43855.742347	3909.436496	22678.927865
48.534500	0.000533	0.000739	0.004006	0.000260	6217.515185	44228.125478	3922.978999	22837.758906
49.035500	0.002141	0.001117	0.000953	-0.000188	6233.051623	44306.695025	3916.961857	22858.271998
49.535500	-0.001975	0.000593	-0.000181	0.005643	6158.574360	43706.185010	3901.051479	22592.595173
50.035500	0.002259	0.000056	0.005442	0.001583	6220.559536	44038.032859	3923.241732	22777.216711
50.536000	0.004537	0.000054	0.008858	0.002372	6231.808407	43963.273783	3929.346630	22741.217145
51.036000	0.020830	-0.008251	0.014845	0.081180	5791.002701	36512.969046	3773.053210	19454.623936
51.536500	0.018408	-0.019612	-0.004902	0.302615	4644.258419	22595.285340	3408.234439	12856.915511
52.037000	-0.006932	-0.028721	-0.021182	-0.107174	7064.857241	52342.120824	4132.739007	28423.162883
52.537000	0.005285	-0.025213	-0.001476	-0.127742	7388.003933	55156.423427	4250.881825	29659.262445
53.034500	0.012675	-0.010510	0.013934	-0.092573	7112.634078	52754.210222	4191.551143	27580.546257
53.534500	0.030744	0.002944	0.038061	-0.060530	6980.633025	50668.390910	4168.529309	25827.763656
54.034500	0.051417	0.006533	0.052908	-0.011241	6723.217658	45904.241475	4073.101627	23371.794640
54.535500	0.055800	0.015752	0.054669	0.059737	6185.934685	40213.126707	3902.766092	20290.660659
55.039000	0.078553	0.025996	0.077336	0.046209	6468.414466	42308.529370	3988.450126	20839.753372
55.536000	0.096947	0.038887	0.101681	0.098093	6206.833374	38930.502850	3922.612122	18823.725570
56.036500	0.127395	0.056643	0.127707	0.138459	6133.167101	37106.344433	3889.948392	17413.652498
56.536000	0.153360	0.073713	0.156689	0.180680	6015.992388	35185.599733	3860.732338	16072.479246
57.037000	0.175809	0.089648	0.175595	0.209040	5974.455937	34277.007738	3840.409193	15242.100298
57.537500	0.191030	0.097422	0.197077	0.248536	5809.714867	32071.920247	3802.889717	14172.412565
58.034500	0.210163	0.107151	0.216387	0.278751	5737.508170	30731.032874	3780.918543	13417.270531
58.534500	0.222650	0.111449	0.226231	0.303105	5662.208256	29478.232223	3752.528579	12845.736676
59.035500	0.237833	0.119155	0.248943	0.357968	5424.849064	26750.820326	3692.904195	11669.808740
59.538500	0.252712	0.130294	0.256213	0.378583	5392.297393	26237.580342	3669.422547	11264.956518
60.035500	0.259129	0.134662	0.266401	0.392053	5352.854774	25755.000434	3663.757341	11010.612328
60.536000	0.272970	0.143677	0.274697	0.454655	5097.006840	23110.236476	3575.971453	9926.773948
61.036500	0.280948	0.152575	0.291497	0.464278	5088.868923	23076.649290	3586.952151	9773.590156
61.537000	0.294207	0.160252	0.302432	0.483405	5060.083015	22553.526281	3574.432731	9479.026570
62.037500	0.304569	0.168271	0.321534	0.502512	5017.895262	22059.909430	3574.425071	9197.435404
62.537000	0.306203	0.170119	0.325191	0.512405	4978.826616	21709.505576	3565.051761	9056.427860
63.037500	0.310957	0.174990	0.327487	0.518626	4971.960373	21651.351887	3559.219667	8969.385923
63.535000	0.317484	0.179283	0.329412	0.522737	4983.276736	21659.229195	3555.995803	8912.561032
64.038000	0.319520	0.182694	0.338797	0.531181	4953.406758	21443.845080	3557.381098	8797.487229
64.535500	0.326262	0.184569	0.333921	0.524656	5015.742338	21804.673441	3559.819222	8886.214883
65.035500	0.325225	0.183321	0.335842	0.520019	5032.990977	21952.192177	3569.600207	8950.077531
65.536500	0.326950	0.187000	0.339594	0.521201	5035.601522	22061.616608	3573.473374	8933.724376
66.036000	0.327361	0.185559	0.340220	0.512590	5079.511555	22379.454646	3587.587993	9053.825856
66.537000	0.334292	0.189762	0.350804	0.508908	5132.342431	22735.019694	3609.984416	9105.904929
67.036500	0.333227	0.188985	0.342918	0.510024	5121.380771	22649.058767	3595.765653	9090.067176
67.537500	0.334791	0.189568	0.353607	0.511380	5122.422845	22614.080483	3610.512138	9070.886356
68.038000	0.333010	0.189803	0.348928	0.517352	5083.874864	22356.265453	3593.708676	8987.112256
68.535000	0.333383	0.192081	0.353952	0.515236	5096.175000	22553.405285	3604.926786	9016.660520
69.035000	0.333116	0.192786	0.342685	0.516679	5087.720621	22520.190025	3585.084130	8996.502106
69.535500	0.332882	0.190493	0.350704	0.522783	5056.655896	22145.802222	3588.036395	8911.920586
70.036000	0.335505	0.194639	0.353532	0.519497	5085.599318	22476.757627	3597.551186	8957.304671
70.536500	0.338630	0.194640	0.358842	0.521816	5089.577934	22372.935732	3602.254934	8925.241219
71.036500	0.341666	0.195614	0.349435	0.522283	5102.314296	22395.613032	3586.850728	8918.811005
71.537000	0.340690	0.197042	0.353786	0.523486	5091.512769	22405.678943	3591.723670	8902.265817
72.037500	0.344698	0.196302	0.353481	0.523479	5111.455354	22372.913485	3591.260482	8902.361715
72.537500	0.344570	0.198137	0.359963	0.524373	5106.357686	22414.999426	3599.992615	8890.084726
73.034500	0.343524	0.197351	0.352388	0.522439	5110.783201	22466.420883	3591.178132	8916.652779
73.535500	0.342262	0.198560	0.355746	0.526883	5082.503978	22321.765407	3589.493971	8855.780477
74.035000	0.347495	0.198231	0.354258	0.519453	5145.775898	22640.771025	3598.759541	8957.909503
74.536000	0.349683	0.199919	0.363935	0.518957	5159.425328	22739.901668	3614.918072	8964.789184
75.036000	0.347986	0.200068	0.360781	0.517112	5160.180932	22830.896493	3612.818199	8990.455751
75.537000	0.342471	0.199837	0.355337	0.518675	5124.357877	22749.040418	3601.682129	8968.717744
76.037000	0.348854	0.201684	0.359816	0.515841	5171.127720	22963.394283	3613.310168	9008.205906
76.537000	0.348709	0.201208	0.359385	0.513404	5182.912081	23053.864690	3616.534032	9042.371425
77.034500	0.346533	0.200215	0.360923	0.511934	5179.277397	23075.914812	3621.396680	9063.069453
77.535000	0.347103	0.199733	0.363183	0.510797	5188.076549	23106.250846	3626.927344	9079.122732
78.038000	0.348372	0.201510	0.366616	0.512247	5187.142531	23121.406960	3630.176530	9058.653947
78.535500	0.347321	0.200856	0.363623	0.511494	5185.603754	23125.982396	3626.506674	9069.272409
79.035500	0.349030	0.203047	0.360878	0.512488	5189.296987	23181.620711	3620.424172	9055.253032
79.536000	0.349036	0.202784	0.371904	0.512159	5191.032755	23184.705547	3639.060573	9059.893000
80.036500	0.349652	0.202789	0.366935	0.511812	5196.019698	23201.134547	3631.417040	9064.793855
80.536500	0.349703	0.202169	0.366815	0.511265	5199.122154	23197.730720	3632.119155	9072.512606
81.037000	0.351928	0.203113	0.371121	0.511942	5207.173706	23210.142925	3638.120219	9062.949672
81.534000	0.349203	0.204665	0.366245	0.513763	5183.607702	23197.598700	3627.084747	9037.317397
82.037500	0.349949	0.204500	0.363790	0.513855	5186.982151	23185.644025	3622.932166	9036.032144
82.538000	0.347464	0.203760	0.362620	0.512860	5179.298594	23197.498742	3622.647863	9050.016748
83.035000	0.351531	0.203292	0.365209	0.512813	5200.578221	23177.950994	3626.943646	9050.683032
83.536000	0.347693	0.201882	0.361137	0.515867	5165.046479	22971.272892	3615.388180	9007.834503
84.036000	0.349002	0.204961	0.367476	0.519901	5151.152081	22927.337536	3619.105510	8951.704774
84.536000	0.351838	0.204071	0.364809	0.514208	5194.930934	23149.258088	3624.015807	9031.070074
85.036500	0.350861	0.205655	0.367197	0.516036	5180.440522	23137.983343	3624.927690	9005.479791
85.536500	0.351460	0.206229	0.367993	0.519753	5164.439150	22992.549351	3620.182834	8953.762619
86.037500	0.350423	0.205394	0.363446	0.522621	5144.562327	22822.541880	3608.277860	8914.156930
86.534500	0.350259	0.205759	0.369261	0.518317	5165.642147	23037.110401	3624.575237	8973.690553
87.035000	0.353908	0.205360	0.371425	0.519044	5180.638353	22985.135486	3626.919753	8963.582980
87.535000	0.350629	0.205038	0.365883	0.520815	5154.781082	22888.958190	3615.065112	8939.064623
88.035000	0.347953	0.205337	0.367650	0.526364	5113.298882	22649.579065	3609.010255	8862.854147
88.535500	0.348313	0.205630	0.365571	0.522094	5136.556676	22857.428410	3612.510606	8921.410542
89.035500	0.352473	0.205905	0.368930	0.524363	5146.124820	22766.356387	3614.259834	8890.231369
89.536000	0.348996	0.204701	0.366547	0.525736	5121.668674	22649.229075	3608.255173	8871.434346
90.036500	0.349841	0.205746	0.371103	0.531309	5098.081178	22445.125399	3606.636286	8795.757802
90.537000	0.351954	0.206266	0.368348	0.528556	5122.358811	22592.459270	3606.634410	8833.018256
91.037000	0.351646	0.206462	0.366849	0.529277	5117.200915	22568.748150	3603.117223	8823.240186
91.534500	0.345824	0.204084	0.356591	0.530844	5080.536731	22391.502028	3584.685700	8802.034637
92.035000	0.349451	0.205845	0.365903	0.536635	5069.920633	22212.162190	3590.121843	8724.353793
92.535000	0.346119	0.202813	0.363723	0.530945	5081.492339	22330.285658	3595.585407	8800.681431
93.035500	0.352590	0.205679	0.358975	0.534059	5098.080091	22319.228041	3583.408680	8758.780893
93.536000	0.349646	0.204602	0.362254	0.537199	5068.112086	22132.282936	3583.623404	8716.840555
94.036000	0.351650	0.206273	0.360076	0.537086	5078.490875	22211.145947	3580.459875	8718.344344
94.536500	0.352739	0.205866	0.369582	0.538085	5078.936292	22148.930858	3593.585237	8705.056316
95.037000	0.351235	0.204853	0.366698	0.538504	5069.499772	22085.800528	3588.458786	8699.492034
95.534000	0.349652	0.205450	0.368642	0.541174	5048.788688	21994.832583	3587.337206	8664.178670
96.037500	0.350304	0.204952	0.372176	0.541235	5051.651166	21970.342636	3592.719177	8663.369891
96.537500	0.350610	0.205262	0.370064	0.542405	5047.464096	21932.749861	3587.632026	8647.967316
97.035000	0.354995	0.205023	0.364200	0.544564	5058.275901	21828.325949	3575.354907	8619.641775
97.538000	0.352370	0.205166	0.358616	0.544913	5043.845668	21819.391509	3566.421873	8615.076648
98.035500	0.350216	0.205117	0.375448	0.546056	5027.960258	21767.732691	3590.313209	8600.149225
