sample name	sample
index	70
start time	 02-11-2021  03:42:23 PM


Wavelength (nm)	Absorbance
494.344910	-0.272836
494.563924	-0.272836
494.782919	-0.272836
495.001897	-0.740694
495.220856	-0.200613
495.439797	-0.187832
495.658719	0.123874
495.877624	NaN
496.096510	NaN
496.315378	0.568928
496.534227	NaN
496.753059	0.047709
496.971872	0.374003
497.190667	0.156857
497.409444	0.117307
497.628203	0.112395
497.846943	0.110241
498.065665	0.111307
498.284369	0.113602
498.503055	0.115488
498.721723	0.116398
498.940372	0.115053
499.159003	0.114855
499.377616	0.116580
499.596210	0.117041
499.814787	0.116574
500.033345	0.117701
500.251885	0.117760
500.470406	0.117793
500.688910	0.119078
500.907395	0.120056
501.125862	0.119126
501.344311	0.119304
501.562742	0.118295
501.781154	0.119127
501.999548	0.119578
502.217924	0.117639
502.436282	0.115028
502.654621	0.116680
502.872942	0.116771
503.091245	0.118285
503.309530	0.119160
503.527797	0.120726
503.746045	0.121288
503.964275	0.120321
504.182487	0.121873
504.400681	0.123515
504.618856	0.122086
504.837013	0.122841
505.055152	0.122255
505.273273	0.121796
505.491376	0.119932
505.709460	0.119688
505.927526	0.119822
506.145574	0.120767
506.363604	0.120438
506.581615	0.118435
506.799608	0.117854
507.017583	0.119766
507.235540	0.122262
507.453478	0.124411
507.671399	0.123518
507.889301	0.123786
508.107185	0.124147
508.325050	0.124571
508.542898	0.126121
508.760727	0.126075
508.978538	0.123852
509.196330	0.122641
509.414105	0.122562
509.631861	0.125511
509.849599	0.126384
510.067319	0.126534
510.285021	0.126892
510.502704	0.127834
510.720369	0.129829
510.938016	0.131523
511.155645	0.132208
511.373255	0.132895
511.590848	0.132831
511.808422	0.132114
512.025977	0.131969
512.243515	0.133340
512.461034	0.132688
512.678536	0.131279
512.896018	0.131268
513.113483	0.130223
513.330930	0.129975
513.548358	0.128467
513.765768	0.129613
513.983160	0.130864
514.200533	0.132116
514.417889	0.133495
514.635226	0.132115
514.852545	0.131852
515.069845	0.132570
515.287128	0.133259
515.504392	0.134622
515.721638	0.134429
515.938866	0.134339
516.156075	0.132809
516.373267	0.131929
516.590440	0.133729
516.807594	0.132979
517.024731	0.132725
517.241850	0.132256
517.458950	0.131664
517.676032	0.130841
517.893095	0.129190
518.110141	0.130068
518.327168	0.131046
518.544177	0.131429
518.761168	0.132088
518.978141	0.133722
519.195095	0.133437
519.412031	0.133310
519.628949	0.134440
519.845849	0.135029
520.062731	0.134312
520.279594	0.135004
520.496439	0.135071
520.713266	0.136403
520.930074	0.136049
521.146865	0.136890
521.363637	0.138071
521.580391	0.138146
521.797127	0.139060
522.013844	0.139058
522.230543	0.138372
522.447224	0.138902
522.663887	0.138535
522.880532	0.137047
523.097158	0.136962
523.313766	0.137899
523.530356	0.138350
523.746928	0.138264
523.963481	0.139405
524.180017	0.139334
524.396534	0.140383
524.613032	0.141733
524.829513	0.143356
525.045975	0.143099
525.262420	0.142405
525.478845	0.142260
525.695253	0.142513
525.911643	0.142766
526.128014	0.144460
526.344367	0.143679
526.560702	0.142975
526.777018	0.142860
526.993316	0.144060
527.209597	0.143249
527.425858	0.142831
527.642102	0.142229
527.858328	0.142123
528.074535	0.141645
528.290724	0.142307
528.506894	0.142267
528.723047	0.141744
528.939181	0.141841
529.155297	0.143406
529.371395	0.145448
529.587475	0.146150
529.803536	0.145681
530.019579	0.145654
530.235604	0.146346
530.451611	0.146667
530.667600	0.147829
530.883570	0.148085
531.099522	0.147918
531.315456	0.148154
531.531372	0.149311
531.747269	0.150110
531.963148	0.150610
532.179009	0.149387
532.394852	0.150171
532.610676	0.150707
532.826482	0.150269
533.042271	0.151060
533.258040	0.150454
533.473792	0.150342
533.689525	0.151149
533.905240	0.151261
534.120937	0.152303
534.336616	0.151418
534.552277	0.150461
534.767919	0.151395
534.983543	0.152059
535.199149	0.151736
535.414736	0.151988
535.630306	0.151695
535.845857	0.152135
536.061390	0.152618
536.276904	0.152983
536.492401	0.154596
536.707879	0.154865
536.923339	0.155400
537.138781	0.156680
537.354204	0.156800
537.569610	0.157547
537.784997	0.157753
538.000366	0.158382
538.215716	0.159360
538.431049	0.159720
538.646363	0.160137
538.861659	0.159683
539.076937	0.160418
539.292196	0.161043
539.507438	0.161302
539.722661	0.161584
539.937866	0.161487
540.153052	0.161650
540.368221	0.161304
540.583371	0.161665
540.798503	0.162119
541.013617	0.161647
541.228712	0.162197
541.443789	0.162472
541.658848	0.161475
541.873889	0.162375
542.088912	0.163065
542.303916	0.162806
542.518902	0.162924
542.733870	0.162958
542.948820	0.163651
543.163752	0.163214
543.378665	0.162963
543.593560	0.164278
543.808437	0.164151
544.023295	0.164714
544.238136	0.166257
544.452958	0.167135
544.667762	0.167702
544.882548	0.167705
545.097315	0.168066
545.312064	0.168133
545.526795	0.168439
545.741508	0.168066
545.956203	0.167926
546.170879	0.168313
546.385537	0.167301
546.600177	0.167464
546.814799	0.167653
547.029402	0.167804
547.243988	0.168593
547.458555	0.168604
547.673103	0.169125
547.887634	0.168756
548.102146	0.168346
548.316640	0.169505
548.531116	0.169145
548.745574	0.168924
548.960013	0.169089
549.174435	0.169502
549.388838	0.170087
549.603222	0.170306
549.817589	0.171772
550.031937	0.172340
550.246267	0.171552
550.460579	0.172493
550.674873	0.172684
550.889148	0.173630
551.103405	0.174446
551.317644	0.174312
551.531865	0.174580
551.746068	0.173648
551.960252	0.173190
552.174418	0.173381
552.388566	0.173411
552.602696	0.173943
552.816807	0.173722
553.030900	0.173596
553.244975	0.173959
553.459032	0.174047
553.673070	0.174558
553.887091	0.174717
554.101093	0.176347
554.315077	0.176135
554.529042	0.176661
554.742990	0.177080
554.956919	0.177133
555.170830	0.177547
555.384722	0.178072
555.598597	0.177895
555.812453	0.178972
556.026291	0.178804
556.240111	0.179439
556.453913	0.179919
556.667696	0.180737
556.881461	0.180855
557.095208	0.181344
557.308937	0.181629
557.522647	0.182434
557.736339	0.182355
557.950013	0.182682
558.163669	0.182994
558.377307	0.182567
558.590926	0.182489
558.804527	0.182712
559.018110	0.182607
559.231675	0.182661
559.445221	0.182964
559.658749	0.183343
559.872259	0.183449
560.085751	0.183655
560.299225	0.183586
560.512680	0.183974
560.726117	0.184083
560.939536	0.184831
561.152937	0.184966
561.366319	0.185100
561.579683	0.184795
561.793029	0.185708
562.006357	0.185634
562.219667	0.186382
562.432958	0.186054
562.646231	0.186201
562.859486	0.185799
563.072723	0.186372
563.285941	0.186509
563.499141	0.186854
563.712323	0.185881
563.925487	0.186429
564.138632	0.186893
564.351760	0.187175
564.564869	0.187562
564.777960	0.187796
564.991032	0.187944
565.204087	0.188344
565.417123	0.188349
565.630141	0.188919
565.843140	0.188890
566.056122	0.188386
566.269085	0.188914
566.482030	0.189029
566.694957	0.189750
566.907866	0.189909
567.120756	0.189373
567.333628	0.189188
567.546482	0.189449
567.759318	0.189206
567.972135	0.189431
568.184935	0.189226
568.397716	0.189571
568.610478	0.189963
568.823223	0.190165
569.035949	0.190891
569.248657	0.190838
569.461347	0.190795
569.674019	0.191504
569.886672	0.191564
570.099308	0.191913
570.311925	0.191792
570.524523	0.192396
570.737104	0.193025
570.949666	0.192957
571.162210	0.194075
571.374736	0.194122
571.587244	0.194678
571.799733	0.195155
572.012205	0.194955
572.224658	0.194716
572.437092	0.194252
572.649509	0.193673
572.861907	0.194366
573.074287	0.194272
573.286649	0.194203
573.498993	0.193888
573.711318	0.194459
573.923625	0.195118
574.135914	0.195513
574.348185	0.195306
574.560438	0.195631
574.772672	0.195812
574.984888	0.196110
575.197086	0.196153
575.409266	0.196476
575.621427	0.196691
575.833570	0.196664
576.045695	0.197019
576.257802	0.197254
576.469890	0.197702
576.681961	0.197384
576.894013	0.197402
577.106046	0.197971
577.318062	0.197567
577.530059	0.197795
577.742039	0.197782
577.954000	0.197953
578.165942	0.197465
578.377867	0.197657
578.589773	0.198249
578.801661	0.198179
579.013531	0.198840
579.225382	0.199444
579.437216	0.199058
579.649031	0.198684
579.860828	0.199050
580.072606	0.199573
580.284367	0.199843
580.496109	0.199512
580.707833	0.199965
580.919539	0.199894
581.131227	0.200257
581.342896	0.200763
581.554547	0.202138
581.766180	0.202678
581.977795	0.202780
582.189391	0.202979
582.400969	0.203241
582.612529	0.203434
582.824071	0.203523
583.035595	0.203162
583.247100	0.203277
583.458587	0.202790
583.670056	0.202610
583.881506	0.202763
584.092939	0.202778
584.304353	0.202908
584.515749	0.203334
584.727127	0.202894
584.938486	0.203650
585.149828	0.203601
585.361151	0.204263
585.572456	0.204408
585.783742	0.204572
585.995011	0.204640
586.206261	0.204866
586.417493	0.205348
586.628706	0.205579
586.839902	0.206037
587.051079	0.206022
587.262238	0.205842
587.473379	0.205973
587.684502	0.206384
587.895606	0.206638
588.106692	0.207339
588.317760	0.206689
588.528810	0.207167
588.739841	0.206202
588.950855	0.206746
589.161850	0.207165
589.372827	0.207427
589.583785	0.207899
589.794726	0.207904
590.005648	0.208048
590.216552	0.208589
590.427437	0.208991
590.638305	0.210072
590.849154	0.210370
591.059985	0.209900
591.270798	0.210182
591.481592	0.210188
591.692369	0.210660
591.903127	0.210314
592.113867	0.210637
592.324588	0.210465
592.535292	0.210585
592.745977	0.210116
592.956644	0.210766
593.167293	0.210057
593.377923	0.210372
593.588536	0.210424
593.799130	0.210965
594.009706	0.210965
594.220263	0.211146
594.430803	0.211225
594.641324	0.211791
594.851827	0.211735
595.062312	0.212195
595.272778	0.211760
595.483227	0.211958
595.693657	0.211840
595.904069	0.211979
596.114462	0.212541
596.324838	0.212669
596.535195	0.213152
596.745534	0.213658
596.955855	0.213608
597.166157	0.213936
597.376441	0.213615
597.586707	0.213657
597.796955	0.213910
598.007185	0.213875
598.217396	0.213696
598.427589	0.213443
598.637764	0.212902
598.847921	0.213667
599.058060	0.214208
599.268180	0.214062
599.478282	0.214240
599.688366	0.214541
599.898431	0.214761
600.108479	0.215138
600.318508	0.215495
600.528519	0.216532
600.738511	0.216939
600.948486	0.216596
601.158442	0.216948
601.368380	0.217006
601.578300	0.217416
601.788202	0.217420
601.998085	0.217881
602.207950	0.218022
602.417797	0.218169
602.627626	0.218284
602.837436	0.219251
603.047228	0.219100
603.257002	0.219467
603.466758	0.219192
603.676496	0.219313
603.886215	0.218991
604.095916	0.218878
604.305599	0.218753
604.515264	0.218464
604.724910	0.218382
604.934538	0.219226
605.144148	0.219841
605.353740	0.220218
605.563314	0.220279
605.772869	0.220830
605.982406	0.221542
606.191925	0.221760
606.401425	0.222698
606.610908	0.222556
606.820372	0.222551
607.029818	0.222438
607.239246	0.222564
607.448655	0.223568
607.658047	0.224223
607.867420	0.224377
608.076775	0.224112
608.286111	0.223412
608.495430	0.223740
608.704730	0.224134
608.914012	0.224461
609.123275	0.224823
609.332521	0.224434
609.541748	0.223954
609.750957	0.223731
609.960148	0.224142
610.169321	0.224635
610.378475	0.224474
610.587611	0.224778
610.796729	0.224577
611.005829	0.224104
611.214910	0.224339
611.423974	0.224132
611.633019	0.224130
611.842045	0.224010
612.051054	0.224630
612.260044	0.224975
612.469017	0.225034
612.677970	0.224922
612.886906	0.225850
613.095824	0.225670
613.304723	0.226136
613.513604	0.227100
613.722467	0.227377
613.931311	0.226837
614.140138	0.227140
614.348946	0.226877
614.557736	0.226781
614.766507	0.226219
614.975261	0.226674
615.183996	0.226799
615.392713	0.226479
615.601412	0.226837
615.810092	0.227370
616.018754	0.226921
616.227399	0.227156
616.436024	0.227597
616.644632	0.227984
616.853222	0.228388
617.061793	0.228842
617.270346	0.228990
617.478880	0.229353
617.687397	0.229061
617.895895	0.229727
618.104375	0.230116
618.312837	0.230577
618.521281	0.230642
618.729706	0.230679
618.938113	0.230342
619.146502	0.230481
619.354873	0.230555
619.563226	0.231379
619.771560	0.231880
619.979876	0.232010
620.188174	0.232022
620.396453	0.232205
620.604715	0.232373
620.812958	0.232513
621.021183	0.232694
621.229390	0.232796
621.437578	0.232614
621.645748	0.232778
621.853900	0.232959
622.062034	0.233136
622.270150	0.233572
622.478247	0.233383
622.686326	0.234181
622.894387	0.234438
623.102430	0.234680
623.310454	0.234923
623.518461	0.235269
623.726449	0.235195
623.934418	0.235811
624.142370	0.235723
624.350303	0.236552
624.558218	0.236448
624.766115	0.236461
624.973994	0.236565
625.181855	0.236394
625.389697	0.236230
625.597521	0.237144
625.805327	0.236902
626.013114	0.237013
626.220883	0.236946
626.428634	0.236864
626.636367	0.237342
626.844082	0.237043
627.051778	0.237725
627.259457	0.237760
627.467117	0.237233
627.674758	0.238055
627.882382	0.237928
628.089987	0.237795
628.297574	0.238055
628.505143	0.237603
628.712694	0.238045
628.920226	0.237846
629.127740	0.237944
629.335236	0.238301
629.542714	0.238122
629.750174	0.238604
629.957615	0.238776
630.165038	0.238534
630.372443	0.238990
630.579829	0.239181
630.787198	0.239666
630.994548	0.239785
631.201880	0.239726
631.409194	0.239522
631.616489	0.239819
631.823766	0.240256
632.031025	0.240439
632.238266	0.240715
632.445489	0.240941
632.652693	0.240692
632.859879	0.241065
633.067047	0.241457
633.274197	0.241578
633.481329	0.241782
633.688442	0.241814
633.895537	0.242102
634.102614	0.242500
634.309672	0.242842
634.516713	0.243131
634.723735	0.243182
634.930739	0.243371
635.137724	0.243760
635.344692	0.244188
635.551641	0.244660
635.758572	0.244823
635.965485	0.244797
636.172379	0.244874
636.379256	0.245280
636.586114	0.245563
636.792954	0.245998
636.999775	0.246064
637.206579	0.245938
637.413364	0.246063
637.620131	0.246689
637.826880	0.246836
638.033610	0.247090
638.240323	0.247082
638.447017	0.247307
638.653692	0.246784
638.860350	0.246727
639.066990	0.247141
639.273611	0.246771
639.480214	0.246809
639.686798	0.247082
639.893365	0.246789
640.099913	0.247059
640.306443	0.247350
640.512955	0.248358
640.719449	0.249032
640.925924	0.249060
641.132381	0.249394
641.338820	0.249656
641.545241	0.249925
641.751644	0.250856
641.958028	0.251121
642.164394	0.251065
642.370742	0.250728
642.577071	0.250592
642.783383	0.250558
642.989676	0.250908
643.195951	0.251248
643.402207	0.251520
643.608446	0.251184
643.814666	0.251375
644.020868	0.251624
644.227052	0.251983
644.433218	0.252235
644.639365	0.252515
644.845494	0.252525
645.051605	0.251935
645.257698	0.251721
645.463772	0.252113
645.669828	0.251722
645.875866	0.251727
646.081886	0.251644
646.287888	0.251746
646.493871	0.252112
646.699836	0.252517
646.905783	0.253106
647.111712	0.253154
647.317622	0.253448
647.523514	0.254023
647.729388	0.254354
647.935244	0.254817
648.141082	0.255208
648.346901	0.255664
648.552702	0.255400
648.758485	0.256291
648.964250	0.256862
649.169996	0.257035
649.375724	0.257590
649.581434	0.257729
649.787126	0.258240
649.992800	0.258609
650.198455	0.258499
650.404092	0.258935
650.609711	0.259040
650.815311	0.259403
651.020894	0.259606
651.226458	0.259712
651.432004	0.259756
651.637532	0.259748
651.843041	0.259519
652.048532	0.259507
652.254006	0.260068
652.459460	0.260093
652.664897	0.260270
652.870315	0.260552
653.075716	0.260628
653.281097	0.261324
653.486461	0.261496
653.691807	0.262010
653.897134	0.262752
654.102443	0.262889
654.307734	0.262879
654.513006	0.262591
654.718261	0.262886
654.923497	0.263037
655.128715	0.263479
655.333915	0.264083
655.539096	0.264268
655.744259	0.264116
655.949404	0.264216
656.154531	0.264657
656.359640	0.265261
656.564730	0.265359
656.769802	0.265846
656.974856	0.265513
657.179892	0.265016
657.384909	0.265277
657.589908	0.265952
657.794889	0.266178
657.999852	0.265890
658.204797	0.266227
658.409723	0.266099
658.614631	0.266022
658.819521	0.266521
659.024393	0.266972
659.229246	0.267093
659.434081	0.266542
659.638898	0.267052
659.843697	0.267346
660.048478	0.267526
660.253240	0.267666
660.457984	0.267592
660.662710	0.267872
660.867417	0.268046
661.072107	0.268218
661.276778	0.269056
661.481431	0.268838
661.686066	0.269460
661.890682	0.269746
662.095281	0.270062
662.299861	0.270443
662.504422	0.270338
662.708966	0.270705
662.913491	0.270921
663.117999	0.271100
663.322488	0.271685
663.526958	0.272042
663.731411	0.272455
663.935845	0.273196
664.140261	0.273878
664.344659	0.274311
664.549038	0.274520
664.753400	0.275470
664.957743	0.275749
665.162068	0.275992
665.366375	0.276155
665.570663	0.276189
665.774933	0.276326
665.979185	0.276333
666.183419	0.276607
666.387635	0.276830
666.591832	0.276820
666.796011	0.277034
667.000172	0.277300
667.204315	0.277524
667.408439	0.277819
667.612545	0.278153
667.816634	0.278711
668.020703	0.279265
668.224755	0.279937
668.428788	0.280306
668.632803	0.280180
668.836800	0.280309
669.040779	0.280449
669.244739	0.280730
669.448681	0.280846
669.652605	0.280727
669.856511	0.280781
670.060399	0.280571
670.264268	0.280256
670.468119	0.280195
670.671952	0.280686
670.875767	0.281097
671.079563	0.281199
671.283341	0.281679
671.487101	0.281844
671.690843	0.282209
671.894567	0.282747
672.098272	0.283146
672.301959	0.284073
672.505628	0.284029
672.709278	0.284558
672.912911	0.284712
673.116525	0.284905
673.320121	0.285344
673.523699	0.285382
673.727258	0.285775
673.930799	0.286133
674.134322	0.286460
674.337827	0.286975
674.541314	0.286466
674.744782	0.286964
674.948232	0.286961
675.151664	0.287256
675.355078	0.287539
675.558474	0.287703
675.761851	0.288256
675.965210	0.288542
676.168551	0.288737
676.371873	0.288802
676.575178	0.288507
676.778464	0.288773
676.981732	0.288964
677.184981	0.289186
677.388213	0.289143
677.591426	0.289318
677.794621	0.289669
677.997798	0.289742
678.200956	0.290465
678.404097	0.291311
678.607219	0.292033
678.810323	0.292324
679.013408	0.292721
679.216476	0.293234
679.419525	0.293355
679.622556	0.293467
679.825569	0.293986
680.028563	0.294621
680.231540	0.294881
680.434498	0.294673
680.637438	0.294720
680.840359	0.294785
681.043263	0.294901
681.246148	0.294815
681.449015	0.294714
681.651864	0.294673
681.854694	0.294602
682.057506	0.294994
682.260301	0.295138
682.463076	0.295495
682.665834	0.295709
682.868573	0.296051
683.071295	0.296576
683.273998	0.297177
683.476682	0.297468
683.679349	0.297630
683.881997	0.297209
684.084627	0.297532
684.287239	0.297886
684.489833	0.298197
684.692408	0.298306
684.894965	0.298443
685.097504	0.298374
685.300025	0.298482
685.502527	0.298769
685.705012	0.299256
685.907478	0.299559
686.109925	0.299839
686.312355	0.300257
686.514766	0.300717
686.717159	0.300886
686.919534	0.300911
687.121891	0.301740
687.324230	0.301961
687.526550	0.302273
687.728852	0.302632
687.931136	0.302677
688.133401	0.301992
688.335649	0.302170
688.537878	0.302449
688.740089	0.302930
688.942281	0.302465
689.144456	0.302999
689.346612	0.302933
689.548750	0.303162
689.750870	0.303513
689.952971	0.304205
690.155055	0.304298
690.357120	0.304458
690.559167	0.304367
690.761195	0.304599
690.963206	0.304204
691.165198	0.304504
691.367172	0.304599
691.569128	0.304984
691.771065	0.304959
691.972984	0.304992
692.174885	0.305162
692.376768	0.305531
692.578633	0.305882
692.780479	0.306474
692.982308	0.306933
693.184118	0.306759
693.385909	0.306624
693.587683	0.307022
