sample name	sample
index	1142
start time	 04-22-2021  03:06:59 PM


Wavelength (nm)	Absorbance
494.344910	NaN
494.563924	NaN
494.782919	NaN
495.001897	-0.394513
495.220856	NaN
495.439797	0.650269
495.658719	NaN
495.877624	-0.051141
496.096510	-0.264066
496.315378	-0.412479
496.534227	-0.473327
496.753059	-0.363060
496.971872	-0.191992
497.190667	0.051364
497.409444	0.064462
497.628203	0.067134
497.846943	0.067426
498.065665	0.070932
498.284369	0.071772
498.503055	0.069896
498.721723	0.068874
498.940372	0.068669
499.159003	0.069980
499.377616	0.069315
499.596210	0.068268
499.814787	0.069113
500.033345	0.068653
500.251885	0.068392
500.470406	0.068087
500.688910	0.067902
500.907395	0.068544
501.125862	0.067892
501.344311	0.068464
501.562742	0.068447
501.781154	0.068031
501.999548	0.067235
502.217924	0.066921
502.436282	0.067450
502.654621	0.068805
502.872942	0.067242
503.091245	0.066470
503.309530	0.066038
503.527797	0.065964
503.746045	0.065743
503.964275	0.065357
504.182487	0.065928
504.400681	0.065754
504.618856	0.064818
504.837013	0.064247
505.055152	0.064868
505.273273	0.066425
505.491376	0.066416
505.709460	0.066631
505.927526	0.066580
506.145574	0.065686
506.363604	0.066146
506.581615	0.066731
506.799608	0.067592
507.017583	0.067056
507.235540	0.066693
507.453478	0.067035
507.671399	0.066276
507.889301	0.066814
508.107185	0.066466
508.325050	0.066596
508.542898	0.064600
508.760727	0.064341
508.978538	0.064207
509.196330	0.062555
509.414105	0.061778
509.631861	0.062827
509.849599	0.063020
510.067319	0.063274
510.285021	0.063377
510.502704	0.065069
510.720369	0.065222
510.938016	0.065468
511.155645	0.066273
511.373255	0.065580
511.590848	0.064864
511.808422	0.064162
512.025977	0.064055
512.243515	0.063120
512.461034	0.063980
512.678536	0.063829
512.896018	0.064805
513.113483	0.064237
513.330930	0.065313
513.548358	0.065237
513.765768	0.065878
513.983160	0.065630
514.200533	0.065826
514.417889	0.064926
514.635226	0.065426
514.852545	0.064702
515.069845	0.065424
515.287128	0.065090
515.504392	0.065163
515.721638	0.065221
515.938866	0.065424
516.156075	0.065210
516.373267	0.064978
516.590440	0.064934
516.807594	0.065216
517.024731	0.064221
517.241850	0.064539
517.458950	0.064628
517.676032	0.063787
517.893095	0.063636
518.110141	0.064115
518.327168	0.064287
518.544177	0.063827
518.761168	0.062892
518.978141	0.063097
519.195095	0.063272
519.412031	0.063671
519.628949	0.064231
519.845849	0.064205
520.062731	0.063909
520.279594	0.063957
520.496439	0.064927
520.713266	0.065617
520.930074	0.065777
521.146865	0.065492
521.363637	0.065588
521.580391	0.065513
521.797127	0.065999
522.013844	0.065940
522.230543	0.065393
522.447224	0.064303
522.663887	0.063310
522.880532	0.063300
523.097158	0.062804
523.313766	0.061893
523.530356	0.061826
523.746928	0.061668
523.963481	0.061680
524.180017	0.062117
524.396534	0.062167
524.613032	0.062921
524.829513	0.063377
525.045975	0.063794
525.262420	0.063923
525.478845	0.064458
525.695253	0.064490
525.911643	0.064387
526.128014	0.064375
526.344367	0.063900
526.560702	0.063901
526.777018	0.063869
526.993316	0.063048
527.209597	0.063102
527.425858	0.062820
527.642102	0.062428
527.858328	0.062016
528.074535	0.062027
528.290724	0.063175
528.506894	0.062786
528.723047	0.062745
528.939181	0.063287
529.155297	0.063945
529.371395	0.063182
529.587475	0.063400
529.803536	0.063757
530.019579	0.063770
530.235604	0.062860
530.451611	0.063182
530.667600	0.062874
530.883570	0.062599
531.099522	0.061947
531.315456	0.061865
531.531372	0.061539
531.747269	0.061681
531.963148	0.061590
532.179009	0.062042
532.394852	0.061843
532.610676	0.061966
532.826482	0.062725
533.042271	0.062670
533.258040	0.063282
533.473792	0.063849
533.689525	0.063954
533.905240	0.063911
534.120937	0.063836
534.336616	0.063706
534.552277	0.063368
534.767919	0.062719
534.983543	0.062586
535.199149	0.062591
535.414736	0.062659
535.630306	0.062316
535.845857	0.062415
536.061390	0.062408
536.276904	0.062446
536.492401	0.062716
536.707879	0.062687
536.923339	0.062795
537.138781	0.062116
537.354204	0.061904
537.569610	0.061497
537.784997	0.061259
538.000366	0.061415
538.215716	0.061513
538.431049	0.061414
538.646363	0.061457
538.861659	0.062068
539.076937	0.062311
539.292196	0.062403
539.507438	0.062925
539.722661	0.063132
539.937866	0.062870
540.153052	0.062785
540.368221	0.062815
540.583371	0.063186
540.798503	0.063097
541.013617	0.063654
541.228712	0.063388
541.443789	0.063092
541.658848	0.062950
541.873889	0.063200
542.088912	0.063148
542.303916	0.063318
542.518902	0.063177
542.733870	0.062554
542.948820	0.062539
543.163752	0.062479
543.378665	0.062487
543.593560	0.062652
543.808437	0.062649
544.023295	0.062825
544.238136	0.062843
544.452958	0.062636
544.667762	0.062758
544.882548	0.062419
545.097315	0.062531
545.312064	0.062862
545.526795	0.062778
545.741508	0.063457
545.956203	0.063862
546.170879	0.064044
546.385537	0.064136
546.600177	0.064770
546.814799	0.064955
547.029402	0.065236
547.243988	0.065406
547.458555	0.065350
547.673103	0.064848
547.887634	0.064645
548.102146	0.064103
548.316640	0.064007
548.531116	0.063490
548.745574	0.063289
548.960013	0.063354
549.174435	0.062892
549.388838	0.063032
549.603222	0.062457
549.817589	0.062067
550.031937	0.062313
550.246267	0.062783
550.460579	0.062670
550.674873	0.062697
550.889148	0.062517
551.103405	0.062847
551.317644	0.062701
551.531865	0.062600
551.746068	0.062988
551.960252	0.062717
552.174418	0.062350
552.388566	0.062500
552.602696	0.062670
552.816807	0.062881
553.030900	0.062317
553.244975	0.062507
553.459032	0.062834
553.673070	0.063067
553.887091	0.063194
554.101093	0.063183
554.315077	0.063278
554.529042	0.062990
554.742990	0.062974
554.956919	0.063595
555.170830	0.063416
555.384722	0.063497
555.598597	0.063222
555.812453	0.063258
556.026291	0.063126
556.240111	0.063055
556.453913	0.063268
556.667696	0.063047
556.881461	0.062766
557.095208	0.062983
557.308937	0.063098
557.522647	0.062967
557.736339	0.063106
557.950013	0.062913
558.163669	0.062645
558.377307	0.062761
558.590926	0.062786
558.804527	0.062956
559.018110	0.062749
559.231675	0.062732
559.445221	0.063061
559.658749	0.063073
559.872259	0.063470
560.085751	0.063992
560.299225	0.063863
560.512680	0.063833
560.726117	0.063376
560.939536	0.063690
561.152937	0.063775
561.366319	0.063592
561.579683	0.063665
561.793029	0.063581
562.006357	0.063732
562.219667	0.063978
562.432958	0.063987
562.646231	0.064622
562.859486	0.064223
563.072723	0.064345
563.285941	0.064340
563.499141	0.064246
563.712323	0.064510
563.925487	0.064169
564.138632	0.063901
564.351760	0.063846
564.564869	0.063514
564.777960	0.063498
564.991032	0.063077
565.204087	0.062848
565.417123	0.063017
565.630141	0.062551
565.843140	0.062569
566.056122	0.062434
566.269085	0.062414
566.482030	0.062499
566.694957	0.062932
566.907866	0.062884
567.120756	0.063170
567.333628	0.062993
567.546482	0.063558
567.759318	0.063570
567.972135	0.063645
568.184935	0.063813
568.397716	0.064192
568.610478	0.063943
568.823223	0.063826
569.035949	0.063669
569.248657	0.063622
569.461347	0.063463
569.674019	0.063658
569.886672	0.063753
570.099308	0.063646
570.311925	0.063434
570.524523	0.063478
570.737104	0.063545
570.949666	0.063630
571.162210	0.063853
571.374736	0.063660
571.587244	0.063390
571.799733	0.063036
572.012205	0.063157
572.224658	0.062964
572.437092	0.062657
572.649509	0.062948
572.861907	0.062961
573.074287	0.062484
573.286649	0.062750
573.498993	0.062553
573.711318	0.062835
573.923625	0.062719
574.135914	0.062975
574.348185	0.063428
574.560438	0.063140
574.772672	0.063352
574.984888	0.063743
575.197086	0.063425
575.409266	0.063773
575.621427	0.063889
575.833570	0.063774
576.045695	0.063957
576.257802	0.063653
576.469890	0.063717
576.681961	0.063440
576.894013	0.063521
577.106046	0.063691
577.318062	0.063638
577.530059	0.063598
577.742039	0.063545
577.954000	0.062942
578.165942	0.063208
578.377867	0.063615
578.589773	0.063567
578.801661	0.063521
579.013531	0.063672
579.225382	0.063720
579.437216	0.063630
579.649031	0.063668
579.860828	0.063835
580.072606	0.063440
580.284367	0.062795
580.496109	0.062567
580.707833	0.062289
580.919539	0.062122
581.131227	0.062036
581.342896	0.062066
581.554547	0.062146
581.766180	0.062314
581.977795	0.062827
582.189391	0.063162
582.400969	0.063734
582.612529	0.063939
582.824071	0.063939
583.035595	0.063737
583.247100	0.063697
583.458587	0.063966
583.670056	0.063954
583.881506	0.063906
584.092939	0.063842
584.304353	0.063795
584.515749	0.063618
584.727127	0.063651
584.938486	0.063610
585.149828	0.064046
585.361151	0.064115
585.572456	0.063694
585.783742	0.063661
585.995011	0.063715
586.206261	0.063519
586.417493	0.063399
586.628706	0.063158
586.839902	0.063616
587.051079	0.063324
587.262238	0.063079
587.473379	0.063189
587.684502	0.062934
587.895606	0.063207
588.106692	0.063028
588.317760	0.063136
588.528810	0.063332
588.739841	0.063175
588.950855	0.062861
589.161850	0.062837
589.372827	0.062930
589.583785	0.062919
589.794726	0.062655
590.005648	0.062634
590.216552	0.062766
590.427437	0.062578
590.638305	0.062479
590.849154	0.062805
591.059985	0.062722
591.270798	0.062795
591.481592	0.062880
591.692369	0.062841
591.903127	0.063252
592.113867	0.063372
592.324588	0.063624
592.535292	0.063803
592.745977	0.063976
592.956644	0.064007
593.167293	0.064040
593.377923	0.064269
593.588536	0.064243
593.799130	0.064135
594.009706	0.064545
594.220263	0.064524
594.430803	0.064679
594.641324	0.064316
594.851827	0.064334
595.062312	0.064287
595.272778	0.064207
595.483227	0.064270
595.693657	0.064400
595.904069	0.063928
596.114462	0.063901
596.324838	0.063513
596.535195	0.063689
596.745534	0.063825
596.955855	0.064152
597.166157	0.064299
597.376441	0.064222
597.586707	0.063945
597.796955	0.064056
598.007185	0.064060
598.217396	0.064068
598.427589	0.064051
598.637764	0.063814
598.847921	0.063656
599.058060	0.063002
599.268180	0.063173
599.478282	0.062966
599.688366	0.062880
599.898431	0.062733
600.108479	0.062623
600.318508	0.062629
600.528519	0.062647
600.738511	0.062377
600.948486	0.062593
601.158442	0.062495
601.368380	0.062708
601.578300	0.062682
601.788202	0.062830
601.998085	0.063007
602.207950	0.063100
602.417797	0.063111
602.627626	0.063074
602.837436	0.063180
603.047228	0.063106
603.257002	0.063240
603.466758	0.063141
603.676496	0.063177
603.886215	0.063058
604.095916	0.062709
604.305599	0.062826
604.515264	0.062963
604.724910	0.062977
604.934538	0.063232
605.144148	0.063103
605.353740	0.063097
605.563314	0.063021
605.772869	0.063329
605.982406	0.063587
606.191925	0.063561
606.401425	0.063476
606.610908	0.063365
606.820372	0.062954
607.029818	0.062969
607.239246	0.063129
607.448655	0.062921
607.658047	0.062587
607.867420	0.062339
608.076775	0.062175
608.286111	0.062108
608.495430	0.062135
608.704730	0.062267
608.914012	0.062209
609.123275	0.062031
609.332521	0.062024
609.541748	0.062023
609.750957	0.061860
609.960148	0.061966
610.169321	0.062003
610.378475	0.061956
610.587611	0.061912
610.796729	0.061942
611.005829	0.062140
611.214910	0.062419
611.423974	0.062799
611.633019	0.063040
611.842045	0.062950
612.051054	0.063113
612.260044	0.063184
612.469017	0.063154
612.677970	0.063029
612.886906	0.062845
613.095824	0.062840
613.304723	0.062521
613.513604	0.062595
613.722467	0.062580
613.931311	0.062474
614.140138	0.062354
614.348946	0.062598
614.557736	0.062563
614.766507	0.062615
614.975261	0.062405
615.183996	0.062445
615.392713	0.062363
615.601412	0.062548
615.810092	0.062338
616.018754	0.062309
616.227399	0.061960
616.436024	0.061837
616.644632	0.061542
616.853222	0.061752
617.061793	0.061510
617.270346	0.061551
617.478880	0.061350
617.687397	0.061332
617.895895	0.061519
618.104375	0.061693
618.312837	0.061714
618.521281	0.061699
618.729706	0.061636
618.938113	0.061488
619.146502	0.061374
619.354873	0.061396
619.563226	0.061653
619.771560	0.061721
619.979876	0.061559
620.188174	0.061650
620.396453	0.061859
620.604715	0.061577
620.812958	0.061888
621.021183	0.061913
621.229390	0.061883
621.437578	0.061543
621.645748	0.061336
621.853900	0.061451
622.062034	0.061498
622.270150	0.061520
622.478247	0.061653
622.686326	0.061578
622.894387	0.061666
623.102430	0.061587
623.310454	0.061938
623.518461	0.062048
623.726449	0.062131
623.934418	0.062188
624.142370	0.062089
624.350303	0.061909
624.558218	0.061929
624.766115	0.061883
624.973994	0.061913
625.181855	0.062131
625.389697	0.061954
625.597521	0.061879
625.805327	0.061910
626.013114	0.062047
626.220883	0.062192
626.428634	0.062246
626.636367	0.062236
626.844082	0.062575
627.051778	0.062332
627.259457	0.062474
627.467117	0.062249
627.674758	0.062257
627.882382	0.061899
628.089987	0.062069
628.297574	0.061969
628.505143	0.062023
628.712694	0.061681
628.920226	0.061595
629.127740	0.061495
629.335236	0.061487
629.542714	0.061491
629.750174	0.061529
629.957615	0.061399
630.165038	0.061546
630.372443	0.061575
630.579829	0.061867
630.787198	0.061731
630.994548	0.061697
631.201880	0.061892
631.409194	0.061679
631.616489	0.061846
631.823766	0.061943
632.031025	0.061844
632.238266	0.061803
632.445489	0.061588
632.652693	0.061714
632.859879	0.062012
633.067047	0.062138
633.274197	0.062253
633.481329	0.062365
633.688442	0.062534
633.895537	0.062634
634.102614	0.062514
634.309672	0.062605
634.516713	0.062522
634.723735	0.062276
634.930739	0.062316
635.137724	0.062451
635.344692	0.062410
635.551641	0.062106
635.758572	0.062194
635.965485	0.062341
636.172379	0.062234
636.379256	0.062175
636.586114	0.062340
636.792954	0.062282
636.999775	0.062175
637.206579	0.062087
637.413364	0.062203
637.620131	0.062203
637.826880	0.062186
638.033610	0.062218
638.240323	0.062461
638.447017	0.062260
638.653692	0.062180
638.860350	0.062126
639.066990	0.062263
639.273611	0.062283
639.480214	0.062158
639.686798	0.062201
639.893365	0.062456
640.099913	0.062275
640.306443	0.062394
640.512955	0.062537
640.719449	0.062547
640.925924	0.062767
641.132381	0.062831
641.338820	0.063023
641.545241	0.062984
641.751644	0.063032
641.958028	0.063194
642.164394	0.063297
642.370742	0.063208
642.577071	0.063516
642.783383	0.063380
642.989676	0.063375
643.195951	0.063457
643.402207	0.063511
643.608446	0.063429
643.814666	0.063591
644.020868	0.063627
644.227052	0.063460
644.433218	0.063301
644.639365	0.063340
644.845494	0.063529
645.051605	0.063355
645.257698	0.063256
645.463772	0.063150
645.669828	0.062990
645.875866	0.062973
646.081886	0.063095
646.287888	0.063060
646.493871	0.062933
646.699836	0.062671
646.905783	0.062501
647.111712	0.062515
647.317622	0.062401
647.523514	0.062468
647.729388	0.062313
647.935244	0.062319
648.141082	0.062238
648.346901	0.062242
648.552702	0.062228
648.758485	0.062293
648.964250	0.062267
649.169996	0.062462
649.375724	0.062297
649.581434	0.062531
649.787126	0.062599
649.992800	0.062742
650.198455	0.062712
650.404092	0.062887
650.609711	0.062894
650.815311	0.062915
651.020894	0.062713
651.226458	0.062757
651.432004	0.062682
651.637532	0.062821
651.843041	0.062747
652.048532	0.062863
652.254006	0.062663
652.459460	0.062783
652.664897	0.062858
652.870315	0.063135
653.075716	0.063429
653.281097	0.063460
653.486461	0.063368
653.691807	0.063348
653.897134	0.063567
654.102443	0.063691
654.307734	0.063696
654.513006	0.063836
654.718261	0.063694
654.923497	0.063385
655.128715	0.063297
655.333915	0.063159
655.539096	0.063211
655.744259	0.063075
655.949404	0.063211
656.154531	0.063353
656.359640	0.063110
656.564730	0.063134
656.769802	0.063403
656.974856	0.063581
657.179892	0.063901
657.384909	0.064177
657.589908	0.064334
657.794889	0.064489
657.999852	0.064364
658.204797	0.064625
658.409723	0.064690
658.614631	0.064507
658.819521	0.064443
659.024393	0.064299
659.229246	0.064000
659.434081	0.063819
659.638898	0.063612
659.843697	0.063551
660.048478	0.063293
660.253240	0.063334
660.457984	0.063323
660.662710	0.063511
660.867417	0.063571
661.072107	0.063699
661.276778	0.063645
661.481431	0.063641
661.686066	0.063758
661.890682	0.064135
662.095281	0.064319
662.299861	0.064635
662.504422	0.064702
662.708966	0.064848
662.913491	0.064826
663.117999	0.064973
663.322488	0.064979
663.526958	0.065137
663.731411	0.065082
663.935845	0.064930
664.140261	0.064716
664.344659	0.064386
664.549038	0.064135
664.753400	0.064205
664.957743	0.064186
665.162068	0.064240
665.366375	0.064010
665.570663	0.063962
665.774933	0.063896
665.979185	0.063912
666.183419	0.064136
666.387635	0.064423
666.591832	0.064322
666.796011	0.064360
667.000172	0.064425
667.204315	0.064375
667.408439	0.064508
667.612545	0.064661
667.816634	0.064851
668.020703	0.064841
668.224755	0.064797
668.428788	0.065074
668.632803	0.065158
668.836800	0.065008
669.040779	0.065307
669.244739	0.065242
669.448681	0.065370
669.652605	0.065491
669.856511	0.065520
670.060399	0.065603
670.264268	0.065191
670.468119	0.064884
670.671952	0.065126
670.875767	0.065265
671.079563	0.065297
671.283341	0.065093
671.487101	0.064938
671.690843	0.065065
671.894567	0.065067
672.098272	0.065531
672.301959	0.066012
672.505628	0.065959
672.709278	0.065999
672.912911	0.066253
673.116525	0.066407
673.320121	0.066439
673.523699	0.066449
673.727258	0.066461
673.930799	0.066595
674.134322	0.066436
674.337827	0.066581
674.541314	0.066381
674.744782	0.066231
674.948232	0.066124
675.151664	0.066087
675.355078	0.065962
675.558474	0.065902
675.761851	0.065618
675.965210	0.065669
676.168551	0.065692
676.371873	0.065647
676.575178	0.065572
676.778464	0.065688
676.981732	0.065552
677.184981	0.065599
677.388213	0.065832
677.591426	0.065973
677.794621	0.065928
677.997798	0.065779
678.200956	0.065878
678.404097	0.065975
678.607219	0.066118
678.810323	0.066326
679.013408	0.066537
679.216476	0.066470
679.419525	0.066494
679.622556	0.066617
679.825569	0.066626
680.028563	0.066819
680.231540	0.066932
680.434498	0.067087
680.637438	0.067348
680.840359	0.067086
681.043263	0.067179
681.246148	0.067384
681.449015	0.067485
681.651864	0.067726
681.854694	0.067672
682.057506	0.067815
682.260301	0.067979
682.463076	0.067943
682.665834	0.068225
682.868573	0.068287
683.071295	0.068144
683.273998	0.068001
683.476682	0.068043
683.679349	0.068253
683.881997	0.068088
684.084627	0.067804
684.287239	0.067781
684.489833	0.067571
684.692408	0.067583
684.894965	0.067656
685.097504	0.067740
685.300025	0.067788
685.502527	0.067608
685.705012	0.067697
685.907478	0.067674
686.109925	0.067551
686.312355	0.067604
686.514766	0.067599
686.717159	0.067565
686.919534	0.067561
687.121891	0.067287
687.324230	0.067173
687.526550	0.067211
687.728852	0.066991
687.931136	0.066894
688.133401	0.066919
688.335649	0.066607
688.537878	0.066396
688.740089	0.066358
688.942281	0.066599
689.144456	0.066632
689.346612	0.066564
689.548750	0.066725
689.750870	0.066735
689.952971	0.066760
690.155055	0.066955
690.357120	0.067220
690.559167	0.067294
690.761195	0.067129
690.963206	0.067076
691.165198	0.066862
691.367172	0.066893
691.569128	0.066832
691.771065	0.066715
691.972984	0.066522
692.174885	0.066504
692.376768	0.066348
692.578633	0.066444
692.780479	0.066418
692.982308	0.066642
693.184118	0.066739
693.385909	0.066973
693.587683	0.067260
