sample name	sample
index	1385
start time	 05-03-2021  03:03:28 PM
880	0.450953
Peak Time (s)	92.538
Peak Height 	0.451
calc peak height	90,93
Baseline Time (s)	9.536
Baseline Value 	-0.004626
subtract baseline	10,4
Abs	0.308323
Peak Time (s)	92.038
Peak Height 	0.3083
calc peak height	90,93
Baseline Time (s)	11.037
Baseline Value 	0.002548
subtract baseline	10,3
PK_550	0.161719
Peak Time (s)	90.536
Peak Height 	0.1617
calc peak height	90,93
Baseline Time (s)	11.037
Baseline Value 	5.3478E-4
subtract baseline	10,2
PK_880	0.294136
Peak Time (s)	92.038
Peak Height 	0.2941
calc peak height	90,93
Baseline Time (s)	10.537
Baseline Value 	0.001984
subtract baseline	10,1


Time (s)	A880-A510	A880-A775	A880-A975	A880	I510	I775	I975	I880	
0.036000	-0.002193	-0.000300	-0.001247	0.002031	6141.797868	42475.893457	3947.304517	22100.552867
0.540000	-0.002689	0.000158	-0.003035	0.004044	6123.620153	42334.980647	3938.751356	22012.195355
1.037500	-0.002488	-0.000086	-0.007918	0.005017	6118.042285	42224.898935	3925.713527	21969.593637
1.600500	-0.001213	-0.000111	0.000116	0.001501	6152.795448	42541.271881	3951.591882	22123.898741
2.035500	-0.001040	-0.000124	-0.002480	0.001385	6154.901187	42550.632025	3945.977903	22129.011638
2.535000	-0.000560	-0.000336	0.003552	0.000961	6161.506010	42569.941038	3960.662196	22147.713549
3.036000	-0.000523	-0.000835	0.001907	0.001931	6154.685322	42436.371927	3954.686745	22104.952250
3.535500	0.000989	-0.000029	-0.001880	0.000683	6174.895306	42623.331552	3948.922353	22159.984757
4.035500	0.003403	0.000398	0.003735	0.000932	6190.839117	42639.535569	3961.147469	22148.987911
4.536000	-0.001920	-0.000160	-0.005197	0.000279	6156.551825	42648.289318	3942.347795	22177.850667
5.036500	-0.001152	0.000300	0.001107	0.000578	6159.976769	42662.918324	3955.947396	22164.614559
5.539000	-0.000634	0.000159	-0.001075	0.000579	6163.759481	42649.948632	3950.982858	22164.589470
6.035000	0.003818	0.000982	-0.002093	0.001524	6189.529941	42638.853386	3946.539072	22122.902594
6.535000	0.000252	0.000131	-0.003119	0.000421	6171.412454	42661.810711	3946.713982	22171.571487
7.035000	0.001250	0.000227	-0.001617	0.000103	6181.080157	42699.608840	3950.832600	22185.622569
7.535500	0.001006	-0.000393	-0.000479	-0.000340	6182.542351	42683.458858	3954.426491	22205.192512
8.035500	0.002378	-0.000099	0.002759	0.000308	6187.879501	42651.152376	3960.342054	22176.549680
8.536000	-0.000197	0.000167	-0.003925	0.000507	6167.489670	42657.299546	3944.699007	22167.766526
9.036500	0.000136	-0.000128	-0.004584	-0.000188	6175.030685	42693.786685	3944.780135	22198.500869
9.536000	-0.000971	-0.000229	0.000869	0.000000	6165.535961	42667.338778	3956.723892	22190.170160
10.037000	-0.000176	0.000187	-0.002193	0.000600	6166.956701	42650.570921	3948.400931	22163.637210
10.537000	0.000000	-0.000305	0.004305	-0.000024	6172.825783	42662.575877	3964.653535	22191.223191
11.037500	0.001762	0.000000	0.000000	-0.000034	6185.855830	42691.383482	3954.820187	22191.665585
11.535000	0.000628	0.000019	0.000247	0.000035	6177.007418	42686.878634	3955.226053	22188.637639
12.035500	0.001212	0.000029	-0.000866	0.000060	6181.116274	42685.490940	3952.637050	22187.530701
12.535500	-0.000373	-0.000070	-0.004993	-0.000626	6174.509327	42739.058134	3944.844308	22217.861900
13.036000	0.000256	-0.000254	-0.005628	-0.002228	6190.938922	42869.041429	3947.029768	22288.967001
13.536500	-0.000413	0.000383	0.002345	0.000009	6169.552029	42722.416328	3960.077737	22189.752038
14.050000	-0.000387	0.000383	-0.000794	0.001492	6158.888697	42587.093878	3949.548883	22124.300502
14.536000	-0.001163	-0.000170	-0.007083	0.001550	6152.800982	42531.489035	3935.273246	22121.742531
15.034000	0.000808	-0.000092	-0.006887	0.000689	6173.519725	42616.977143	3937.636162	22159.711956
15.546500	-0.001648	-0.000043	-0.002541	-0.000132	6161.543561	42696.438071	3949.270743	22196.005318
16.037500	0.000871	0.000509	-0.001328	0.000505	6175.341612	42688.631368	3950.576924	22167.852526
16.535500	0.000346	0.000436	-0.001354	0.000361	6172.542771	42695.178718	3950.845372	22174.230735
17.035500	0.002081	0.000068	-0.001447	-0.000509	6191.715375	42741.001959	3952.607976	22212.678261
17.535500	0.002599	-0.000185	-0.002869	-0.000669	6196.725837	42732.572987	3949.745653	22219.794641
18.038500	0.002722	0.000278	-0.003517	-0.002997	6214.906863	42988.640079	3953.559984	22323.176253
18.536000	-0.002056	0.000085	-0.001458	0.000575	6153.404507	42643.615847	3950.124924	22164.777233
19.036500	-0.001712	-0.000258	-0.001444	0.000483	6156.578901	42620.651949	3950.363920	22168.814173
19.537000	0.000679	0.000447	-0.003853	0.001039	6170.012911	42634.278445	3943.661791	22144.280533
20.036500	-0.001253	-0.000214	-0.005197	0.000669	6158.576978	42607.738929	3941.470633	22160.613441
20.535000	-0.000903	-0.000030	-0.002793	0.000674	6161.095080	42624.013277	3946.877615	22160.387359
21.037000	-0.000144	0.000162	-0.001376	0.000794	6165.774209	42630.595637	3949.811927	22155.098642
21.535000	-0.001016	0.000543	0.001239	0.001337	6155.426449	42615.855101	3954.521080	22131.142607
22.038500	0.000593	0.000320	-0.000980	0.000730	6171.644378	42650.832470	3950.854840	22157.907451
22.535500	-0.000062	0.000089	-0.006503	0.000671	6167.277362	42635.225583	3938.536856	22160.534093
23.036000	0.001686	0.000568	-0.005243	0.001227	6176.028488	42628.223927	3940.116822	22136.010558
23.539000	-0.001854	-0.000139	-0.007630	0.000486	6155.528773	42631.255718	3936.428031	22168.704710
24.037000	-0.001430	-0.000503	-0.000228	0.000808	6156.268023	42568.703200	3952.386263	22154.467132
24.537000	-0.001795	-0.000809	-0.003490	0.000223	6157.875922	42594.140046	3946.322385	22180.321640
25.037500	-0.000627	0.000459	0.000314	0.001379	6157.963227	42604.313459	3952.320747	22129.283538
25.537500	-0.000663	-0.000258	-0.005746	0.001042	6160.161409	42569.725046	3939.401400	22144.141833
26.035000	0.000306	-0.000048	-0.002908	0.000636	6170.229715	42625.864652	3946.703240	22162.044649
26.535000	-0.001418	-0.000553	0.000668	0.000400	6159.335151	42601.276139	3955.353021	22172.469123
27.035500	-0.001500	0.000155	-0.004163	0.001186	6153.001037	42594.292629	3942.634886	22137.809259
27.535500	0.000754	-0.000114	-0.002313	0.001150	6169.748180	42572.999141	3946.886033	22139.392853
28.036000	-0.001634	-0.000952	0.000754	-0.000454	6164.008153	42642.891092	3957.499561	22210.273492
28.536500	0.000208	0.000697	0.000196	0.000570	6169.990133	42699.893772	3953.889817	22164.962950
29.037000	-0.000808	0.000129	-0.000034	-0.000851	6172.960965	42777.870474	3956.604204	22227.819882
29.539500	0.001713	0.000532	0.002284	0.000139	6184.219866	42724.158003	3959.639939	22184.003086
30.034500	0.000229	-0.000252	-0.004727	-0.000176	6175.625266	42681.321673	3944.431832	22197.955053
30.538000	0.001776	0.000451	-0.002393	0.000127	6184.778528	42717.902196	3949.019800	22184.566796
31.035500	-0.000238	-0.000388	-0.001275	-0.000151	6172.012026	42666.573336	3952.184982	22196.828625
31.579500	-0.001250	-0.000513	0.003920	-0.000799	6169.343327	42714.378306	3965.550992	22225.525606
32.037000	-0.003811	-0.000980	0.001556	0.001513	6133.819342	42461.249089	3954.841893	22123.392219
32.535000	0.000455	0.000022	0.000126	0.001295	6166.495078	42572.152822	3952.084230	22132.993380
33.047000	-0.000034	0.000315	0.005322	0.000152	6171.284239	42703.195700	3966.589396	22183.433418
33.536500	0.002550	0.000313	-0.004242	-0.000061	6191.876447	42722.474391	3945.265804	22192.875638
34.040000	-0.000042	0.000297	0.000563	-0.000066	6172.822077	42721.467963	3956.175203	22193.073988
34.540000	0.000753	0.000115	-0.003985	0.000406	6175.195511	42661.722545	3944.792615	22172.223244
35.037500	-0.001666	-0.000536	-0.002276	-0.000088	6161.095871	42647.412219	3949.773677	22194.077152
35.535500	0.001287	0.000013	-0.002251	0.001188	6173.380294	42581.081053	3946.941634	22137.708640
36.038000	0.000326	0.000081	0.000526	0.001657	6162.892362	42544.560094	3952.170333	22117.022008
36.535500	0.000500	0.000620	-0.000429	0.001515	6165.206160	42606.618865	3950.324931	22123.273279
37.036000	-0.000151	-0.000480	-0.001600	0.001542	6160.248071	42504.031458	3947.611662	22122.082175
37.536500	-0.000968	-0.000724	-0.004697	0.001441	6155.018236	42491.068340	3940.859871	22126.558653
38.036500	-0.002008	-0.000173	-0.006388	0.001031	6150.425424	42578.477074	3937.987478	22144.622912
38.539500	-0.001378	-0.000461	-0.002092	0.001262	6153.333605	42531.224445	3947.132844	22134.461104
39.037000	-0.001775	0.000723	0.001269	0.001413	6149.339772	42625.390478	3954.416420	22127.806696
39.537500	0.001011	0.000023	-0.000829	0.001654	6167.935779	42539.550110	3949.102667	22117.162937
40.035000	0.000354	-0.000174	-0.001389	0.001063	6167.446438	42575.433985	3949.172246	22143.209966
40.535000	0.003867	0.000562	-0.001389	0.001657	6188.909618	42588.404006	3947.829176	22117.037412
41.035500	-0.001154	0.000664	0.000212	0.001916	6150.197848	42574.085605	3950.869936	22105.637155
41.536000	0.000465	0.000311	-0.003020	0.001391	6165.865713	42589.778149	3944.746929	22128.763171
42.036000	-0.000065	-0.000468	0.002625	0.000983	6164.968258	42555.985738	3958.489887	22146.748832
42.536500	-0.000124	0.000041	-0.002920	0.001253	6162.558114	42577.756768	3945.281951	22134.834737
43.036500	-0.000584	-0.000059	-0.001158	0.001188	6159.675427	42574.604585	3949.414994	22137.717576
43.550000	-0.001425	0.000380	-0.007217	0.001609	6150.460405	42576.155884	3934.840629	22119.134515
44.036500	-0.002575	-0.001150	-0.006098	0.000361	6151.174802	42550.516247	3940.139802	22174.211274
44.534500	0.000125	-0.000476	-0.003589	0.001400	6163.304676	42517.284654	3943.444364	22128.358949
45.035000	-0.000455	0.000229	-0.003917	0.001590	6157.678091	42564.141497	3942.278148	22119.983690
45.535500	0.001453	0.000937	0.002070	-0.002552	6202.180629	43008.198850	3965.326266	22303.332936
46.035500	0.000072	0.001257	0.001003	0.001310	6163.580770	42683.452339	3954.043536	22132.338163
46.536000	0.000029	0.000144	-0.000434	0.000285	6170.776666	42675.414464	3953.108208	22177.588933
47.039000	0.000318	0.000721	0.000543	0.000469	6171.547587	42711.325220	3954.912142	22169.450952
47.537000	-0.000013	0.000102	-0.006061	-0.000106	6173.336914	42707.283431	3941.271073	22194.870313
48.039000	0.000260	0.000477	-0.002463	0.000980	6167.371732	42642.417102	3946.931942	22146.889548
48.537500	-0.001588	0.000301	-0.003733	0.003420	6136.107052	42404.372350	3938.582368	22039.520535
49.051000	-0.002369	-0.000159	-0.004052	-0.000290	6157.427837	42700.239679	3946.211942	22202.996417
49.535000	-0.001415	-0.000519	-0.005543	0.001076	6154.421431	42542.910558	3939.781497	22142.668091
50.036000	0.000505	0.000346	0.003016	0.002064	6161.226951	42531.648685	3956.913450	22099.122354
50.552000	-0.002689	-0.000181	-0.003342	0.003128	6130.240194	42387.146121	3940.115238	22052.331906
51.036000	0.002513	0.000893	0.005128	0.000908	6184.448973	42686.923275	3964.400940	22150.049275
51.535500	0.001837	-0.000453	-0.000250	-0.000840	6192.359118	42723.611594	3956.087447	22227.347495
52.036000	0.002572	0.001013	-0.005323	-0.000759	6197.194575	42850.454076	3944.401553	22223.760473
52.537000	-0.001652	-0.000473	-0.000867	0.003761	6133.168830	42303.432117	3944.257438	22024.584785
53.036500	0.001167	-0.000414	-0.004151	0.006231	6135.698247	42085.902411	3931.374241	21916.589043
53.536500	0.031592	-0.024949	0.027465	0.588225	3869.952678	12685.726064	3237.483794	7942.145689
54.035000	0.023425	-0.027392	-0.020394	-0.006338	6398.748351	40811.005477	3923.238583	22472.478142
54.535000	0.024818	-0.063530	-0.013460	-0.241420	8869.291114	62769.825478	4637.600780	36468.590345
55.035000	0.031014	-0.070711	-0.003845	-0.256371	9162.894417	63848.459570	4734.910014	37641.359334
55.535000	0.040538	-0.042863	0.012439	-0.208089	8635.458006	61052.668165	4609.232522	33994.991527
56.035500	0.045110	-0.029463	0.019630	-0.185294	8403.281958	59810.817191	4551.221602	32409.374130
56.536000	0.051299	-0.011152	0.030205	-0.120339	7717.587607	54027.412246	4364.594834	28321.920359
57.036500	0.058315	0.000443	0.043078	-0.086915	7438.410633	51526.930428	4299.930930	26445.171879
57.536000	0.069142	0.005156	0.052161	-0.093973	7625.621778	52859.603118	4350.459317	26829.525208
58.037000	0.083330	0.015486	0.066976	-0.042631	7245.142655	48368.405527	4238.740558	24170.969003
58.537000	0.100289	0.028012	0.088757	0.032232	6713.407362	42304.696634	4092.252014	20816.489978
59.037500	0.117038	0.036930	0.105786	0.098618	6310.749724	37435.499587	3971.205630	18288.943899
59.538000	0.132361	0.051917	0.120117	0.142670	6097.880622	35207.569086	3904.682259	16812.807687
60.035000	0.149758	0.064046	0.141863	0.183206	5936.377535	33169.472456	3864.913236	15580.597574
60.536000	0.163123	0.075545	0.169151	0.228771	5725.489465	30894.855346	3827.849356	14326.132457
61.036000	0.187396	0.085298	0.183833	0.262464	5666.691134	29399.851936	3790.913960	13479.590614
61.536500	0.198241	0.094752	0.202060	0.295471	5533.286881	28007.190186	3763.296205	12711.570190
62.036500	0.212304	0.104570	0.218344	0.337699	5373.285366	26210.303986	3717.033166	11810.404813
62.537000	0.219986	0.110276	0.225134	0.365978	5262.676098	25035.707657	3680.752995	11254.100632
63.037000	0.237046	0.120114	0.238625	0.380987	5273.454996	24775.088713	3678.255741	10973.212814
63.537500	0.245888	0.126017	0.243411	0.385530	5296.218952	24843.362953	3678.655893	10890.102295
64.035000	0.244779	0.131587	0.249105	0.390099	5266.195956	24893.689596	3680.504084	10807.366279
64.552500	0.250350	0.134049	0.251039	0.390536	5293.323271	24995.931096	3682.973915	10799.512197
65.035000	0.249740	0.137136	0.257770	0.385460	5317.185379	25412.924130	3702.748285	10891.379429
65.535500	0.255952	0.140111	0.264185	0.384813	5354.305356	25600.507033	3714.834038	10903.165197
66.055000	0.260250	0.144203	0.267586	0.386228	5370.083007	25740.113578	3718.268340	10877.405022
66.651000	0.258205	0.144023	0.268771	0.391640	5329.480327	25449.375894	3710.975675	10779.665481
67.039000	0.265882	0.147447	0.269755	0.390254	5378.913878	25699.180148	3715.055975	10804.578497
67.561000	0.267482	0.147417	0.273643	0.391394	5381.454708	25638.165379	3719.812845	10784.079001
68.040000	0.268199	0.148987	0.274368	0.395189	5364.531671	25522.614597	3714.499092	10716.229799
68.537500	0.271020	0.151187	0.273430	0.398666	5360.941900	25456.545550	3706.924535	10654.598203
69.035000	0.273602	0.152092	0.274955	0.400268	5366.309683	25420.568931	3706.794020	10626.362870
69.534500	0.274176	0.152372	0.284093	0.403537	5351.576429	25266.928184	3716.879447	10569.060987
70.035500	0.272024	0.152895	0.280137	0.408667	5312.233121	25032.191513	3701.322572	10480.012582
70.536000	0.270994	0.154056	0.280282	0.417632	5259.284899	24640.127478	3686.528662	10326.884621
71.036000	0.275831	0.155423	0.281810	0.416200	5292.350715	24779.889151	3691.460441	10351.131773
71.536000	0.277346	0.154448	0.285396	0.418967	5285.711405	24593.211326	3692.830107	10304.352186
72.037500	0.277377	0.155909	0.284297	0.421485	5272.572314	24540.774744	3686.797111	10262.038819
72.537000	0.277416	0.156424	0.285764	0.422453	5267.683397	24518.314261	3687.627555	10245.840852
73.037500	0.278690	0.155529	0.289119	0.423651	5268.085928	24414.996277	3691.224750	10225.851947
73.534500	0.277556	0.157687	0.287520	0.427763	5240.676490	24318.936388	3681.742494	10157.615273
74.035500	0.277686	0.158012	0.284211	0.430336	5228.026197	24208.942880	3672.106587	10115.250169
74.535500	0.276102	0.158496	0.282804	0.437688	5182.348429	23876.457215	3657.998044	9995.565427
75.038000	0.279819	0.159574	0.295307	0.431963	5230.641831	24205.790056	3687.683224	10088.596597
75.536000	0.281487	0.159195	0.289342	0.432662	5235.657036	24153.255145	3676.686517	10077.166980
76.036500	0.286415	0.159637	0.286642	0.434037	5254.143505	24107.903384	3670.044429	10054.749514
76.537000	0.280395	0.159447	0.295306	0.440795	5188.355805	23773.200480	3673.142374	9945.594525
77.037500	0.285160	0.160594	0.283166	0.435671	5239.101744	24075.058751	3661.803509	10028.207391
77.537000	0.281938	0.158955	0.288227	0.435088	5225.442876	24023.912522	3670.911228	10037.661130
78.035000	0.284382	0.161016	0.290611	0.437834	5223.887696	23990.832689	3670.323017	9993.211556
78.535000	0.278879	0.159847	0.284206	0.443668	5166.203575	23655.364232	3650.736329	9899.703309
79.038000	0.284166	0.161081	0.290086	0.439108	5216.222172	23932.561829	3667.410206	9972.694554
79.535500	0.284231	0.161653	0.287060	0.441394	5204.842467	23850.161836	3658.877323	9936.008792
80.038500	0.282018	0.160231	0.297841	0.442178	5189.572637	23744.579443	3675.022255	9923.463997
80.536500	0.284467	0.160605	0.291343	0.449015	5167.414082	23438.449179	3653.566651	9815.104100
81.036000	0.282496	0.160930	0.291192	0.444652	5179.464705	23660.044351	3660.273360	9884.060148
81.536500	0.284403	0.162406	0.293971	0.446762	5178.439924	23629.940972	3661.343626	9850.618913
82.036500	0.286829	0.160521	0.298965	0.446056	5194.314366	23574.092744	3670.536467	9861.792723
82.536500	0.282713	0.160459	0.287973	0.453021	5138.658956	23244.149462	3641.979546	9752.389870
83.037500	0.286334	0.160445	0.300395	0.447684	5183.545448	23493.577194	3670.216102	9836.070568
83.535000	0.288709	0.161501	0.291621	0.449715	5185.288034	23447.676681	3652.899704	9804.107766
84.035500	0.283748	0.160987	0.297453	0.450778	5154.979062	23373.637379	3660.488687	9787.439428
84.535500	0.280922	0.161526	0.295999	0.455202	5119.055906	23192.330608	3651.145879	9718.492974
85.039000	0.286202	0.161835	0.296967	0.449251	5174.958950	23485.207621	3662.156030	9811.386376
85.536000	0.290479	0.162630	0.295269	0.450243	5191.586822	23475.982975	3657.856047	9795.822868
86.036500	0.287322	0.161025	0.300825	0.449121	5181.271078	23453.204547	3668.582635	9813.430023
86.536500	0.285923	0.161671	0.306253	0.448717	5176.248264	23502.683094	3678.089474	9819.792736
87.037000	0.289645	0.161168	0.294086	0.447693	5200.323224	23527.290961	3660.038271	9835.927775
87.534000	0.289429	0.161587	0.297026	0.448560	5194.802867	23506.139088	3663.361682	9822.263983
88.041000	0.288213	0.161354	0.306916	0.447630	5193.349913	23539.060974	3680.965619	9836.922210
88.535500	0.288373	0.161633	0.293235	0.448580	5189.335772	23507.319742	3657.263171	9821.941369
89.036500	0.288597	0.160805	0.304429	0.448433	5191.219371	23475.243792	3675.566141	9824.260613
89.536000	0.290712	0.162728	0.297000	0.450226	5192.853407	23481.370435	3660.648052	9796.086404
90.036000	0.290599	0.161086	0.296441	0.450506	5190.859035	23391.011833	3659.305498	9791.699959
90.536000	0.292809	0.161719	0.299547	0.449741	5206.021995	23456.734021	3665.517534	9803.701314
91.036000	0.290179	0.161233	0.300047	0.450246	5190.047649	23410.126259	3665.510322	9795.779493
91.536500	0.290928	0.161075	0.306976	0.450505	5192.536452	23390.531654	3676.343842	9791.711118
92.037500	0.294136	0.161233	0.308323	0.450828	5207.248708	23382.832014	3678.021927	9786.660489
92.537500	0.291804	0.160796	0.301968	0.450953	5194.709781	23356.459235	3667.469404	9784.694028
93.034500	0.289520	0.160122	0.302202	0.450432	5185.761516	23349.323417	3668.691668	9792.862033
93.544500	0.291119	0.160795	0.305376	0.451573	5188.079612	23327.403832	3671.988707	9774.990379
94.038500	0.292711	0.159290	0.303992	0.450246	5202.938463	23319.086866	3671.896596	9795.774651
94.536000	0.293971	0.159660	0.304003	0.451104	5204.992916	23296.303126	3670.522421	9782.338957
95.038500	0.293449	0.161325	0.307177	0.452895	5193.202923	23290.404927	3672.769179	9754.359492
95.536500	0.294312	0.159008	0.299804	0.451149	5206.505852	23263.746685	3663.665075	9781.622134
96.045500	0.292021	0.158947	0.307903	0.451233	5194.392530	23257.053510	3676.669613	9780.320667
96.534500	0.290818	0.159720	0.309519	0.456218	5163.138423	23061.724696	3671.173893	9702.772566
97.037500	0.294172	0.159970	0.305794	0.452624	5198.260767	23239.855351	3670.959548	9758.578536
97.669500	0.293708	0.159428	0.307612	0.451495	5201.655128	23267.219397	3675.764943	9776.219113
