sample name	sample
index	991
start time	 04-14-2021  04:12:46 PM
880	0.252116
Peak Time (s)	102.537
Peak Height 	0.2521
calc peak height	100,103
Baseline Time (s)	11.537
Baseline Value 	-0.004294
subtract baseline	10,4
Abs	0.179893
Peak Time (s)	101.037
Peak Height 	0.1799
calc peak height	100,103
Baseline Time (s)	10.537
Baseline Value 	0.002469
subtract baseline	10,3
PK_550	0.104337
Peak Time (s)	100.036
Peak Height 	0.1043
calc peak height	100,103
Baseline Time (s)	11.537
Baseline Value 	4.1821E-4
subtract baseline	10,2
PK_880	0.175506
Peak Time (s)	101.037
Peak Height 	0.1755
calc peak height	100,103
Baseline Time (s)	9.536
Baseline Value 	2.8841E-4
subtract baseline	10,1


Time (s)	A880-A510	A880-A775	A880-A975	A880	I510	I775	I975	I880	
0.036500	0.003969	0.000676	0.003526	0.001871	6336.407434	42188.162771	3967.720375	22150.902275
0.536500	-0.000108	-0.000630	0.000563	0.002501	6300.393910	42014.026589	3959.500421	22123.124590
1.037000	-0.002345	-0.000269	-0.002453	0.005066	6264.054142	41816.704181	3946.869955	22010.483739
1.537500	0.001637	-0.000407	0.000158	0.000838	6326.427668	42183.731037	3962.372814	22196.539037
2.038000	0.002976	0.000618	0.004279	0.000416	6339.964250	42314.432531	3972.806321	22215.217782
2.534500	0.002252	0.000185	-0.002463	0.000151	6336.425765	42299.150348	3957.961855	22226.916381
3.035500	-0.001740	0.000302	-0.002902	0.003832	6277.921316	41978.205812	3948.636622	22064.596018
3.535500	0.001021	0.000127	-0.001139	0.001067	6319.952987	42211.178634	3958.891019	22186.388028
4.039000	0.001120	0.000282	-0.000609	0.000449	6325.447157	42281.039915	3961.509389	22213.749791
4.539000	0.000552	0.000265	0.002658	0.000795	6318.443707	42248.212586	3968.197541	22198.420009
5.036500	0.000542	-0.000058	-0.000290	0.000545	6320.283777	42241.627938	3962.019691	22209.504689
5.540000	-0.000254	-0.000141	-0.000712	0.000553	6314.133659	42233.388791	3961.034702	22209.123661
6.036500	0.000204	-0.001038	-0.000735	-0.000095	6322.598958	42210.946949	3962.464322	22237.846718
6.534500	-0.000345	-0.000566	-0.000973	0.000078	6317.064174	42237.904388	3961.524795	22230.145686
7.034500	0.002045	0.000314	-0.001406	0.000485	6332.275702	42280.680806	3959.610107	22212.167969
7.535000	0.001879	-0.000425	0.002199	0.000063	6334.235043	42252.001816	3968.824362	22230.812665
8.035500	0.003903	0.000448	0.004605	0.000689	6345.005938	42274.278367	3972.926232	22203.112586
8.536000	-0.000423	0.000427	-0.003268	0.000483	6313.377858	42290.992464	3955.381201	22212.220973
9.036000	0.000703	-0.000270	0.004520	-0.000308	6328.054244	42299.535787	3975.036330	22247.275612
9.535500	0.000000	0.000022	-0.000418	-0.000076	6320.890166	42304.957085	3963.143974	22236.995076
10.036500	-0.000570	-0.000656	0.004710	0.003260	6291.117473	41943.684232	3967.251472	22089.750162
10.537000	0.002443	-0.000237	0.000000	-0.000209	6340.674151	42293.617135	3964.405227	22242.888624
11.033500	0.001027	0.000018	-0.005043	0.000109	6327.341972	42287.930553	3952.208496	22228.807252
11.537500	-0.002383	0.000000	0.001360	0.000000	6302.114609	42296.115737	3967.044184	22233.620511
12.035000	-0.000812	-0.000180	-0.003800	0.003226	6289.540306	41989.413137	3947.979142	22091.239637
12.535000	0.001306	0.000405	0.003854	0.000175	6328.978725	42316.973156	3972.381674	22225.889066
13.035500	0.002569	0.000100	0.004169	-0.001783	6353.791699	42466.700251	3977.638019	22312.761921
13.541000	0.004397	-0.000315	0.000325	-0.001226	6363.632430	42378.587655	3967.481603	22288.001023
14.036000	-0.001093	-0.000081	-0.001205	0.003032	6288.880851	42015.679348	3954.279984	22099.776517
14.538500	0.001416	-0.000671	-0.003755	0.000437	6327.806757	42196.038212	3954.380202	22214.260290
15.036500	0.002226	-0.000400	0.003541	-0.001776	6351.087525	42420.738965	3976.167602	22312.465688
15.537500	0.003730	0.000236	-0.000474	-0.001192	6358.198983	42425.406211	3965.571064	22286.490851
16.037500	-0.001439	-0.000845	-0.000365	0.003476	6282.887507	41907.366631	3955.175031	22080.222605
16.538000	0.002187	-0.000038	0.001105	-0.001140	6345.876811	42395.872332	3969.077491	22284.205266
17.035000	0.003225	-0.000491	0.002332	-0.004246	6377.997592	42637.088786	3979.091085	22422.650453
17.543000	0.001611	-0.000948	-0.000472	-0.001045	6340.704883	42304.885289	3965.239200	22279.980143
18.038000	-0.000073	-0.000164	0.000076	0.001720	6306.608851	42126.114510	3960.173152	22157.571418
18.535500	0.003607	0.000322	-0.000037	0.000015	6347.921037	42323.880530	3963.807616	22232.974437
19.036500	0.002250	-0.000210	-0.002103	-0.000556	6341.852839	42327.415608	3960.393523	22258.255372
19.536500	-0.000050	-0.000812	-0.000061	-0.000853	6326.458598	42299.751744	3965.738450	22271.428882
20.037000	-0.000251	-0.000199	-0.007420	0.001779	6304.804998	42117.685409	3943.100329	22154.977747
20.536500	0.001043	-0.000489	-0.000733	-0.000266	6330.339780	42275.883115	3962.858242	22245.390369
21.034500	0.000416	0.000064	-0.000436	-0.000567	6327.843467	42353.193290	3964.227013	22258.766560
21.536000	-0.001375	-0.000100	0.001195	-0.000775	6315.715866	42357.205617	3968.445247	22267.998096
22.035000	-0.001571	-0.000403	-0.002245	0.001226	6298.959434	42149.074599	3956.016372	22179.373558
22.535500	0.001090	0.000012	-0.000906	-0.000165	6329.928356	42312.151589	3962.231937	22240.930045
23.036000	0.003442	-0.000313	-0.002869	-0.000666	6351.906421	42328.093469	3958.900108	22263.169615
23.536500	0.001905	-0.000153	0.003356	-0.000743	6340.639713	42349.466151	3973.350052	22266.565597
24.036500	0.001126	-0.000226	0.002174	-0.000533	6333.031256	42323.836859	3970.139340	22257.246227
24.536500	0.003469	-0.000236	-0.001014	-0.000412	6350.153409	42312.094807	3962.551476	22251.891514
25.037000	0.003111	-0.000575	-0.001969	-0.000796	6350.354749	42316.078845	3961.246053	22268.915765
25.537000	0.003195	0.000178	0.001389	-0.000107	6345.682685	42321.895689	3967.356803	22238.370843
26.037500	0.002561	0.000179	0.006956	-0.000137	6341.026087	42324.724250	3980.288923	22239.688434
26.535000	0.002656	0.000197	-0.002772	-0.000456	6344.214414	42355.173022	3958.639853	22253.818298
27.035500	0.002878	-0.000091	0.003873	-0.002118	6358.773603	42479.849955	3977.730285	22327.684770
27.538500	0.002848	0.000603	-0.002345	-0.001782	6355.947489	42512.360235	3962.640505	22312.734578
28.036000	0.002325	-0.000338	0.001068	-0.001933	6353.061344	42440.554763	3970.815686	22319.435218
28.536000	0.003166	0.000420	0.001289	-0.001236	6354.174961	42446.067431	3969.720098	22288.440982
29.036500	-0.000833	-0.000058	-0.001566	0.004001	6283.503581	41930.887595	3951.269864	22057.196726
29.537000	0.003130	0.000319	0.003649	-0.001241	6353.936812	42437.434862	3975.179755	22288.682377
30.037000	0.001559	-0.000157	0.001847	-0.001953	6347.304024	42458.784691	3972.658317	22320.331952
30.537000	0.002039	0.000238	-0.000287	0.000634	6331.082883	42260.312501	3961.820734	22205.547372
31.034000	-0.002107	-0.001593	0.000423	0.000289	6302.012827	42126.379484	3964.234070	22220.833053
31.535500	0.000244	-0.000006	0.005047	-0.001980	6337.372974	42474.956042	3980.135204	22321.527777
32.036000	0.002920	0.000355	0.004581	-0.001225	6352.189828	42439.236907	3977.299700	22287.967991
32.535500	0.001661	-0.000243	0.001584	-0.001773	6346.703810	42434.739603	3971.637334	22312.337994
33.036000	-0.001731	-0.000637	0.000258	0.003076	6283.709862	41961.816473	3957.500009	22097.817487
33.536500	0.002910	0.000306	0.006004	-0.002637	6363.048669	42563.161766	3983.896791	22350.815117
34.037000	0.000823	-0.000067	0.004090	0.002050	6310.921320	42105.128824	3968.603854	22142.995432
34.537000	0.000425	0.000248	0.003778	0.000373	6320.704638	42284.790400	3971.749051	22217.110700
35.034500	0.001337	-0.000249	0.003714	0.000797	6324.442733	42201.653566	3970.623271	22198.343755
35.534500	-0.000889	0.000324	0.000581	0.000063	6313.023896	42319.681525	3965.111921	22230.825932
36.035500	0.003144	0.000403	0.003327	0.000795	6338.332338	42260.673149	3969.735952	22198.410806
36.535500	0.001743	0.000257	0.004379	0.000204	6332.111123	42300.840570	3973.523688	22224.569642
37.038000	0.002218	-0.000824	0.005194	-0.000099	6338.093399	42230.614504	3976.110728	22237.992551
37.535500	0.002962	-0.000185	0.001278	-0.000475	6346.731133	42322.394985	3967.947046	22254.694846
38.035500	-0.000688	-0.000538	0.000187	0.001536	6303.321163	42109.000270	3960.844765	22165.685248
38.536000	0.001625	-0.000027	0.005912	0.000211	6331.150079	42274.602869	3977.056349	22224.269736
39.036500	0.002633	-0.000023	0.002925	0.000108	6339.691466	42284.197701	3970.391264	22228.817991
39.537000	0.001174	0.000369	0.000842	0.000400	6326.238088	42293.288001	3964.937614	22215.906719
40.036500	0.000737	0.000607	-0.000823	0.001802	6312.169229	42188.211825	3957.938409	22153.965593
40.537500	0.002750	0.000276	0.001272	0.000198	6339.901995	42303.172966	3966.387668	22224.863500
41.081500	0.001641	-0.000789	-0.001382	-0.000743	6338.610903	42291.921420	3962.464701	22266.565055
41.534500	0.001217	0.000230	0.002107	0.000071	6329.095724	42310.538271	3968.595592	22230.485958
42.036500	0.000989	0.000142	-0.000293	0.001655	6315.212147	42159.559312	3959.479678	22160.429771
42.535500	0.002192	0.000173	0.005792	0.000208	6335.529397	42292.943504	3976.784664	22224.408618
43.036000	0.002618	-0.000041	0.001948	-0.000124	6341.368142	42303.590943	3968.679888	22239.115130
43.536000	0.004431	-0.000368	0.004509	-0.000328	6356.937387	42292.540339	3975.055110	22248.155352
44.036500	0.001621	0.000074	0.003643	0.002304	6315.080227	42094.989451	3966.994746	22131.818162
44.537000	0.001250	-0.000211	0.004647	-0.001433	6340.914473	42406.802104	3977.935629	22297.221310
45.035000	0.004238	0.000311	0.005092	-0.001381	6363.607182	42449.422973	3978.849387	22294.903923
45.534500	0.001758	-0.000388	0.003897	-0.001700	6346.882273	42414.886653	3976.814340	22309.065376
46.035500	0.000235	-0.000991	-0.002224	0.002037	6306.540371	42023.236055	3954.224228	22143.574815
46.535500	0.003381	-0.000456	0.003837	-0.001191	6355.494858	42362.621183	3975.495989	22286.442366
47.038000	0.003581	0.000105	-0.003201	-0.001481	6359.292935	42439.787271	3959.998846	22299.357121
47.536500	0.001185	0.001127	0.002615	0.001425	6318.465891	42269.131034	3966.653569	22170.588601
48.036000	0.000091	0.000220	0.003848	0.002539	6301.613064	42086.941780	3966.925323	22121.452468
48.536500	0.002057	-0.000829	0.003231	-0.001270	6345.878145	42336.077493	3974.279751	22289.980781
49.034000	0.000909	0.000012	-0.001600	0.000426	6324.002355	42258.692391	3959.301464	22214.752589
49.535000	0.002302	-0.000133	0.001696	-0.003221	6362.864524	42576.313832	3975.241742	22376.863948
50.037500	-0.000396	-0.000040	0.001629	0.003208	6292.832737	42003.520782	3960.320640	22092.028230
50.535500	0.001342	-0.000227	0.004373	0.004536	6295.948088	41867.871267	3963.554574	22033.725114
51.038500	0.017850	-0.003709	-0.004571	0.077568	5893.163964	35594.025036	3792.689267	19086.588958
51.536000	0.012802	-0.005553	-0.005822	0.253573	4905.314003	24651.158325	3517.065331	13724.320615
52.036000	-0.002803	-0.021378	-0.021065	-0.092501	7083.072457	49283.336056	4141.590311	26800.745961
52.535000	0.010834	-0.048772	-0.007130	-0.233117	8826.191182	63060.029553	4642.250426	35903.361301
53.037000	0.028920	-0.019362	0.014064	-0.135092	7845.933720	54286.797563	4371.142109	29253.844862
53.537000	0.022436	-0.012102	0.006979	-0.070892	7117.377190	47988.275441	4159.075387	25645.152556
54.039000	0.009488	-0.010455	-0.001158	-0.068237	6971.924637	47884.107786	4129.897341	25507.123055
54.537500	0.011411	-0.006985	-0.001029	-0.061344	6926.674647	47531.982417	4111.977101	25152.618073
55.054000	0.016793	-0.005414	0.002571	-0.083845	7187.350725	50068.377646	4182.699547	26330.960341
55.535000	0.017745	-0.003161	0.009779	-0.083624	7194.413712	50288.972761	4202.363697	26319.082915
56.036000	0.015883	-0.004089	0.011723	-0.072498	7070.699148	48995.212752	4176.587281	25729.099228
56.536000	0.020577	-0.000269	0.005977	-0.070157	7092.835667	49152.078924	4154.330084	25606.871500
57.036000	0.023132	0.000522	0.015945	-0.043428	6871.000907	46478.020792	4109.500504	24257.070197
57.536500	0.022898	0.000291	0.017077	-0.025747	6714.377151	44722.410505	4066.905737	23408.752965
58.036500	0.026259	0.002006	0.021695	0.009124	6454.111263	41657.769031	3993.108947	21833.609464
58.537000	0.030187	0.003982	0.023729	0.023022	6375.613832	40611.747540	3965.546035	21240.254824
59.037500	0.033754	0.008264	0.023224	0.045962	6228.149613	39031.308720	3913.238811	20301.448325
59.535000	0.039015	0.010808	0.035705	0.056845	6186.565533	38346.610417	3916.714064	19873.099226
60.034500	0.045686	0.015648	0.047281	0.070207	6137.776465	37660.348365	3912.830914	19361.667516
60.538000	0.056367	0.020318	0.050405	0.090899	6066.173934	36405.936777	3875.459527	18600.081789
61.035500	0.065384	0.025791	0.060677	0.114099	5967.516174	35071.036172	3848.911573	17788.268694
61.535500	0.069008	0.030145	0.071450	0.129720	5886.536314	34250.426803	3839.157563	17265.565175
62.036000	0.077992	0.034412	0.074224	0.136546	5900.943671	34066.993009	3831.088178	17043.009437
62.536500	0.084655	0.038935	0.081998	0.139077	5928.717594	34209.722293	3841.544149	16961.363784
63.037000	0.090759	0.043432	0.091178	0.180231	5701.279126	31685.788066	3779.698844	15698.510568
63.537000	0.096780	0.046118	0.093436	0.154824	5904.354237	33600.844317	3832.941240	16463.966765
64.037500	0.104812	0.049224	0.094260	0.186535	5749.996601	31652.050825	3773.715286	15515.420643
64.535000	0.107218	0.052622	0.103881	0.196511	5702.403712	31221.827922	3773.060578	15231.080470
65.035500	0.114849	0.057284	0.111305	0.213131	5646.949592	30456.113125	3756.238094	14771.596626
65.535500	0.118382	0.060395	0.118457	0.213170	5668.363709	30650.785905	3769.218000	14770.542090
66.036000	0.122001	0.063485	0.121251	0.206615	5731.723576	31271.061272	3786.604734	14949.641331
66.536000	0.129587	0.067327	0.130991	0.210955	5752.246217	31238.702329	3796.818179	14830.753248
67.036500	0.134010	0.070890	0.133557	0.211264	5778.489170	31450.901888	3801.124032	14822.332147
67.536500	0.139569	0.073267	0.138113	0.207789	5836.986060	31836.504634	3816.633948	14917.377002
68.037000	0.137444	0.075510	0.133677	0.201446	5864.721346	32411.675453	3820.358870	15092.806772
68.537000	0.138084	0.075500	0.137990	0.199087	5884.603703	32571.071447	3833.519761	15158.704826
69.037500	0.137829	0.076052	0.138481	0.198104	5889.447856	32675.634374	3836.453917	15186.260065
69.535000	0.138953	0.077426	0.143155	0.195055	5917.386853	32979.051196	3851.995162	15272.157733
70.035000	0.145443	0.078654	0.144168	0.194858	5962.722221	33077.474865	3854.454941	15277.723794
70.535500	0.140809	0.078830	0.139626	0.193389	5941.179394	33191.573152	3848.221560	15319.350149
71.036500	0.144845	0.082027	0.144914	0.194428	5961.579749	33341.773120	3856.853387	15289.898684
71.535500	0.145255	0.082923	0.149889	0.194186	5966.029622	33421.297660	3867.567220	15296.745126
72.037000	0.144609	0.082794	0.145749	0.193452	5966.637791	33463.718155	3860.557877	15317.562126
72.536500	0.147846	0.083232	0.147685	0.194071	5984.598307	33451.032773	3863.263020	15300.008152
73.037000	0.146965	0.083638	0.143830	0.193865	5979.959693	33493.928833	3855.791917	15305.860610
73.537000	0.148609	0.085678	0.152043	0.195143	5982.475967	33547.495661	3870.046296	15269.683843
74.035000	0.148066	0.086069	0.153577	0.195958	5973.155112	33517.674194	3871.536630	15246.669305
74.535500	0.148135	0.085842	0.158142	0.195916	5973.911506	33504.700255	3881.149228	15247.847112
75.035500	0.150468	0.085998	0.150657	0.196166	5988.232101	33498.107385	3865.067781	15240.801869
75.538500	0.148909	0.087309	0.157787	0.197306	5969.689257	33510.082733	3877.497190	15208.694258
76.036000	0.150719	0.088190	0.153893	0.204678	5931.840950	33057.869292	3854.263644	15003.089166
76.536000	0.153502	0.088539	0.152354	0.200091	5982.099919	33401.183343	3860.490553	15130.611897
77.036500	0.150097	0.089509	0.159374	0.201105	5951.862934	33398.086403	3872.885483	15102.299134
77.537500	0.153281	0.090375	0.151332	0.203046	5960.335595	33322.939818	3852.372333	15048.294423
78.037000	0.155367	0.089456	0.164070	0.203064	5974.493241	33257.714289	3878.593827	15047.812260
78.535000	0.158579	0.090875	0.161254	0.205126	5982.384858	33212.941695	3868.446947	14990.693870
79.035000	0.156354	0.090137	0.158148	0.205541	5964.287628	33132.981856	3861.194924	14979.251529
79.538000	0.157025	0.091932	0.162384	0.207923	5952.607717	33092.260079	3865.006775	14913.683252
80.035500	0.156996	0.092325	0.156052	0.208813	5946.355325	33057.882897	3850.248705	14889.272822
80.536000	0.158427	0.093734	0.168500	0.210944	5941.612064	33008.042897	3871.407096	14831.060280
81.036000	0.157962	0.092141	0.160161	0.211411	5935.287782	32866.120673	3853.316526	14818.322757
81.536500	0.158387	0.093296	0.164358	0.212919	5927.973701	32841.926152	3858.801728	14777.346357
82.036500	0.159404	0.093552	0.162947	0.213923	5928.053298	32790.584565	3853.873030	14750.120590
82.536500	0.162676	0.094219	0.160793	0.215357	5940.493210	32738.098983	3846.603344	14711.376891
83.034500	0.159384	0.094735	0.170964	0.216970	5907.417907	32663.128621	3864.044026	14667.931474
83.535000	0.161168	0.094088	0.161572	0.216802	5920.534418	32630.452537	3845.259535	14672.445131
84.040000	0.160149	0.093616	0.163138	0.223061	5871.924012	32175.198534	3835.856237	14505.336385
84.535000	0.159699	0.095606	0.168647	0.220355	5886.902678	32492.044664	3852.385106	14577.283620
85.035500	0.160675	0.095601	0.168345	0.220980	5889.246022	32449.379905	3850.506120	14560.646688
85.535000	0.164514	0.095040	0.160817	0.221357	5912.405542	32385.912695	3834.627071	14550.595305
86.036500	0.159616	0.094934	0.164177	0.222004	5875.398068	32335.027466	3840.044279	14533.389485
86.536500	0.164719	0.097299	0.174346	0.225300	5887.405706	32272.285890	3853.919765	14446.149289
87.038000	0.163300	0.097450	0.169398	0.225625	5875.820214	32260.528951	3843.253407	14437.573963
87.537000	0.165774	0.098199	0.166470	0.227182	5881.912079	32206.260696	3834.284913	14396.634231
88.038000	0.161517	0.098262	0.165319	0.233824	5810.368146	31767.569654	3818.919627	14223.555829
88.535000	0.163474	0.097590	0.168210	0.228190	5860.001011	32097.819988	3835.741886	14370.185928
89.035000	0.164925	0.098029	0.167480	0.229617	5860.163516	32031.740484	3831.453695	14332.867267
89.535500	0.164360	0.096601	0.167949	0.229478	5857.353410	31945.769543	3832.660398	14336.499656
90.036000	0.165763	0.099340	0.175451	0.232043	5849.702264	31957.348172	3842.521547	14269.695336
90.536000	0.165719	0.097436	0.168625	0.232463	5846.656332	31802.982744	3828.088507	14258.798475
91.036500	0.168074	0.098829	0.167106	0.234139	5851.118953	31784.230760	3821.801263	14215.416106
91.536500	0.166472	0.099666	0.170346	0.234659	5837.204347	31805.248507	3827.149427	14201.981106
92.037000	0.168234	0.100322	0.168109	0.241965	5801.158065	31367.992949	3808.525643	14015.006384
92.537500	0.170166	0.101211	0.177871	0.237257	5844.379887	31735.557772	3836.925901	14135.121192
93.034500	0.168564	0.099837	0.171663	0.236652	5837.849621	31684.765671	3825.817477	14150.671220
93.537000	0.169590	0.101981	0.171564	0.238822	5830.371751	31683.018924	3821.358956	14095.047988
94.035500	0.171117	0.100708	0.180513	0.239363	5836.811747	31563.584778	3837.997820	14081.231206
94.536000	0.167488	0.099424	0.176055	0.237848	5823.016809	31578.837426	3832.137099	14119.982817
95.036000	0.169850	0.100218	0.172803	0.238833	5831.996992	31566.263044	3823.769882	14094.780724
95.536000	0.167613	0.100539	0.174460	0.240097	5809.227305	31504.397652	3824.542023	14062.518618
96.036500	0.166373	0.102191	0.181140	0.248227	5749.163673	31082.759638	3821.694951	13857.226157
96.539500	0.170759	0.102640	0.177399	0.242796	5812.125852	31465.157887	3825.014678	13993.939480
97.036500	0.172454	0.102855	0.172463	0.242849	5822.795261	31475.801792	3815.250976	13992.596288
97.537500	0.172675	0.102380	0.179879	0.243504	5819.966677	31401.890373	3828.509624	13976.016539
