sample name	sample
index	719
start time	 03-25-2021  11:39:20 AM
880	0.027869
Peak Time (s)	92.036
Peak Height 	0.02787
calc peak height	90,93
Baseline Time (s)	9.537
Baseline Value 	-0.004046
subtract baseline	10,4
Abs	0.007792
Peak Time (s)	91.035
Peak Height 	0.007792
calc peak height	90,93
Baseline Time (s)	9.537
Baseline Value 	5.3437E-4
subtract baseline	10,3
PK_550	0.009566
Peak Time (s)	90.538
Peak Height 	0.009566
calc peak height	90,93
Baseline Time (s)	10.036
Baseline Value 	1.9804E-4
subtract baseline	10,2
PK_880	0.004061
Peak Time (s)	91.535
Peak Height 	0.004061
calc peak height	90,93
Baseline Time (s)	9.035
Baseline Value 	0.002692
subtract baseline	10,1


Time (s)	A880-A510	A880-A775	A880-A975	A880	I510	I775	I975	I880	
0.035500	-0.001751	0.000092	0.001340	0.001762	7190.404118	44229.268944	3933.554812	23536.605168
0.535500	-0.005527	0.000353	-0.000780	0.007150	7100.006167	43744.674459	3914.582931	23281.768794
1.036000	-0.003885	0.000240	-0.001703	0.003777	7149.243468	44052.174269	3920.737112	23440.953855
1.537000	-0.003095	-0.000404	0.003748	0.000487	7189.719860	44303.374438	3942.980866	23597.381334
2.036500	-0.001250	0.000025	0.003538	0.000456	7208.463451	44347.182132	3942.522635	23598.879464
2.536500	-0.004504	-0.000442	-0.006658	0.006037	7120.908956	43774.583927	3902.710784	23334.151050
3.036500	-0.000590	0.000274	0.002555	-0.000955	7229.239952	44505.761744	3943.621597	23666.339337
3.537000	-0.001437	0.000393	0.001189	0.000052	7210.628430	44420.784193	3937.533981	23618.144275
4.040500	-0.001639	-0.000145	0.000966	0.000109	7208.039477	44364.057162	3936.819765	23615.436567
4.538000	-0.001705	-0.000401	0.002523	-0.000225	7210.721466	44371.593654	3941.665148	23631.420901
5.035000	-0.001119	0.001294	0.001883	0.001085	7203.468651	44408.288180	3936.667251	23568.858308
5.536000	-0.002737	0.000350	0.003799	0.000266	7195.499019	44396.381406	3943.682826	23607.969018
6.035500	-0.000574	0.000576	-0.003396	0.000281	7216.983395	44416.481623	3925.291049	23607.241518
6.536500	-0.000442	0.000379	0.005235	-0.000008	7221.203766	44425.289169	3948.086728	23621.023861
7.036500	-0.000198	0.000144	0.002075	-0.000717	7230.793600	44470.609160	3941.778294	23654.949848
7.536500	-0.001551	0.000100	0.002615	-0.000549	7215.515568	44450.372583	3942.732402	23646.922262
8.037000	-0.002067	0.000825	0.000594	0.000088	7203.960265	44458.709490	3935.922979	23616.434248
8.537500	0.000141	0.000745	0.002882	0.000429	7222.676829	44418.556461	3940.906538	23600.179068
9.035000	0.000000	-0.000082	-0.000047	-0.000300	7228.580546	44409.083944	3935.276172	23634.973003
9.537500	0.000249	-0.000115	0.000000	0.000000	7228.072628	44377.347089	3934.630862	23620.652787
10.035500	0.000550	0.000000	-0.001018	-0.000100	7232.103764	44397.844630	3932.291907	23625.421472
10.536000	-0.001257	-0.000221	-0.000587	-0.000553	7218.497368	44419.967354	3934.542727	23647.082140
11.036000	-0.001696	0.000574	0.003156	0.000088	7207.670939	44434.662039	3942.484541	23616.431392
11.536500	-0.000629	0.000821	0.004311	0.000381	7215.430783	44430.316457	3944.702983	23602.445222
12.036500	0.000497	0.000340	0.000215	0.000463	7225.909031	44376.573536	3933.998841	23598.544821
12.537000	-0.001324	0.000141	0.003458	0.000231	7209.970408	44379.769408	3942.893936	23609.627605
13.040000	-0.000477	0.001349	0.005072	0.001064	7210.112210	44415.571307	3944.903661	23569.885921
13.535000	-0.000063	0.000650	0.002708	0.000682	7218.087328	44385.191457	3939.811329	23588.072069
14.035000	-0.002856	0.000150	-0.000884	0.003556	7161.598002	44064.558367	3923.360370	23451.414425
14.538500	-0.001267	0.000885	0.001127	0.003249	7180.415952	44163.273761	3929.230179	23465.957263
15.035000	-0.005589	0.000253	-0.002908	0.005261	7117.879625	43913.130796	3913.984202	23370.761252
15.535500	0.000406	0.000744	0.008961	0.001092	7218.681859	44355.167437	3954.890505	23568.535091
16.035500	0.000543	-0.000608	0.001102	-0.000034	7231.365602	44333.547214	3937.531571	23622.273385
16.536500	-0.000571	0.000793	0.004999	0.000149	7218.344548	44449.823135	3947.076194	23613.557068
17.036500	-0.000475	0.001019	0.000163	0.001676	7204.005029	44325.693855	3930.778214	23540.730306
17.537000	-0.003344	0.000640	0.002345	0.002365	7168.571264	44224.007938	3934.581045	23507.950812
18.042500	-0.000057	0.001159	0.001899	0.002455	7200.401029	44264.902806	3933.214617	23503.689021
18.534500	-0.001969	0.000760	0.000177	0.002499	7180.900007	44222.733020	3928.724990	23501.601152
19.035000	-0.001658	-0.000243	-0.001297	0.003156	7177.447097	44065.150571	3923.327612	23470.367591
19.535500	-0.000675	0.000929	0.003896	0.002829	7190.494436	44207.441938	3937.355767	23485.901984
20.036000	-0.003830	0.000193	0.005635	0.001856	7168.801408	44229.992435	3944.313865	23532.169117
20.536000	0.000822	0.000226	0.004414	0.002119	7212.557385	44208.018761	3940.501187	23519.636748
21.036000	-0.001832	0.000447	0.003933	0.003241	7174.882551	44122.593165	3936.399405	23466.375537
21.537000	-0.003108	0.000590	-0.001888	0.002097	7173.574809	44244.823279	3924.511695	23520.697508
22.037000	-0.002476	0.000926	0.000306	0.002714	7173.719180	44218.007126	3928.504395	23491.366580
22.539500	-0.000397	0.000844	0.001603	0.002570	7195.855253	44223.957144	3932.167485	23498.227190
23.037000	-0.003015	0.000703	0.003140	0.003525	7160.336901	44119.836840	3933.648799	23452.880522
23.535000	-0.001275	0.000475	0.005402	0.002423	7188.563950	44202.818638	3942.257336	23505.178039
24.035000	0.001473	0.001447	0.003820	0.003234	7207.902862	44218.110453	3936.126601	23466.680341
24.535500	-0.001871	0.000394	0.004199	0.002412	7182.744029	44196.272827	3939.199517	23505.732607
25.035500	-0.000801	0.000634	0.002920	0.002988	7187.653055	44164.324410	3934.456177	23478.359204
25.535500	0.000634	0.001293	0.004126	0.002943	7202.418475	44231.154852	3937.650966	23480.474866
26.037000	-0.000891	0.001210	0.004627	0.003047	7186.170406	44213.336584	3938.669161	23475.539871
26.537000	-0.001272	0.000757	0.005724	0.002600	7186.837618	44212.897531	3942.630445	23496.801427
27.037000	-0.002240	0.000878	0.002578	0.003316	7170.092155	44156.299975	3932.751187	23462.811131
27.537000	-0.001250	0.000474	0.003217	0.000638	7206.629112	44372.612827	3941.230724	23590.177504
28.035000	0.001099	0.000810	0.005252	0.001143	7225.123042	44356.553647	3945.162934	23566.102711
28.535000	0.000404	0.000697	0.011290	0.001619	7213.368178	44300.394247	3959.579002	23543.408473
29.035000	0.002111	0.001871	0.006150	0.001852	7228.171049	44390.091376	3945.649946	23532.322770
29.536000	-0.001879	0.000527	0.006614	0.000884	7197.892067	44354.319635	3949.347223	23578.458872
30.035500	-0.000200	0.000399	0.005419	0.000666	7216.876227	44362.862683	3946.821723	23588.842645
30.536000	-0.001268	0.000578	0.003983	0.004730	7165.703894	43993.925200	3932.725797	23395.835591
31.036500	-0.002045	0.000987	0.004311	0.003173	7173.450497	44180.311244	3937.539765	23469.601353
31.538000	0.001156	0.000820	0.003795	0.001244	7224.679304	44347.844411	3941.159201	23561.287527
32.037000	-0.001321	0.000250	0.004024	0.000928	7203.021505	44323.715258	3942.557045	23576.354192
32.534500	-0.002317	0.000219	0.006092	0.005660	7146.128413	43872.293735	3935.732526	23351.921276
33.038000	-0.004267	0.000708	0.003288	0.005861	7124.965044	43899.511442	3928.085309	23342.465064
33.534500	0.000058	0.000740	0.005426	0.000646	7219.665285	44397.240524	3946.891593	23589.797915
34.035500	-0.001599	0.001183	0.004689	0.003563	7173.998486	44161.887039	3937.506784	23451.099479
34.536000	-0.000563	0.000393	0.005810	0.003605	7183.885068	44083.013846	3940.272641	23449.120325
35.036000	-0.000934	0.001246	0.003460	0.004240	7173.876744	44103.602648	3932.642327	23419.023450
35.536500	-0.001042	0.001934	0.007509	0.004300	7172.213161	44163.133685	3942.847734	23416.195181
36.036000	-0.000851	0.000902	0.002666	0.003673	7180.338826	44124.743150	3932.064410	23445.861087
36.539500	0.000134	0.000515	0.007777	0.003905	7187.836311	44066.153154	3944.555271	23434.902445
37.037000	-0.001526	0.001158	0.001283	0.004464	7165.787443	44074.029071	3926.546742	23408.449842
37.535000	-0.000628	0.000410	0.000765	0.004073	7178.578995	44040.197310	3926.222090	23426.918324
38.034500	-0.001433	0.000562	0.006306	0.003637	7174.910121	44095.890117	3941.460855	23447.570122
38.535000	-0.000024	0.000351	0.003925	0.003541	7189.887503	44084.967724	3935.611341	23452.117438
39.035500	-0.002237	0.000449	0.002783	0.003636	7166.945528	44085.273677	3932.455093	23447.619002
39.536000	-0.000387	0.000748	0.004234	0.003747	7184.219168	44103.177236	3935.874075	23442.385605
40.036500	-0.000272	0.001017	0.005744	0.004162	7181.230401	44089.283460	3938.674342	23422.712028
40.536500	-0.000246	0.001133	0.002836	0.004335	7179.766182	44083.890855	3930.811866	23414.522699
41.039500	-0.000835	0.001168	0.005469	0.004259	7174.672417	44094.418085	3937.722713	23418.121849
41.537000	0.000050	0.000699	0.006801	0.004102	7185.038706	44064.838777	3941.539075	23425.561568
42.035000	0.001154	0.000514	0.001933	0.003983	7197.237356	44058.634881	3929.412680	23431.204273
42.535000	-0.000394	0.000703	0.006697	0.004302	7178.633048	44046.279220	3940.757087	23416.095372
43.035000	0.000409	0.000724	-0.002277	0.003842	7191.195295	44091.840418	3919.128519	23437.846164
43.538500	0.003040	0.001047	0.002325	0.001203	7244.068960	44373.434262	3937.495732	23563.228510
44.035500	0.003076	0.001716	0.007457	0.002393	7232.442953	44323.766510	3947.627206	23506.616586
44.536000	0.000699	0.001518	0.005401	0.003650	7196.013262	44185.431001	3939.107561	23446.977137
45.036000	-0.001149	0.001867	0.009256	0.006365	7150.701215	43961.302511	3942.031113	23318.699295
45.539500	0.001185	0.000494	0.007386	0.001843	7218.962401	44259.794071	3948.865169	23532.789743
46.037500	0.002435	0.002043	0.005598	0.002894	7220.957909	44307.162368	3941.549369	23482.811317
46.537500	0.000128	0.001454	0.007512	0.003382	7192.982745	44204.669133	3945.215609	23459.650046
47.034500	-0.001242	0.000814	0.004059	0.005268	7160.629251	43965.444551	3931.551318	23370.439655
47.535000	-0.000558	0.001210	0.004957	0.004945	7170.609264	44033.395680	3934.660160	23385.681451
48.035500	-0.000103	0.000950	0.006563	0.001814	7206.347879	44305.994843	3946.813081	23534.155612
48.535500	0.001136	0.001356	0.002644	0.002853	7208.348675	44245.720173	3934.097425	23484.768575
49.035500	-0.003374	-0.000485	0.001697	0.007208	7120.506475	43660.669406	3920.659736	23279.046199
49.536000	0.001354	0.001598	0.005369	0.000347	7235.702824	44507.897813	3947.518725	23604.091025
50.036000	0.003437	0.001992	0.005066	0.002585	7234.139047	44331.770382	3940.979111	23497.479955
50.536500	0.000758	0.000630	0.007152	0.003093	7202.156610	44153.902942	3945.034313	23473.357548
51.037000	0.002969	-0.000517	0.007695	-0.000868	7264.297916	44421.781868	3956.693234	23662.156924
51.536500	-0.030318	-0.006731	-0.005311	0.137460	5826.930748	32679.425216	3624.205899	17990.020188
52.035000	-0.047543	-0.017768	0.007456	-0.051730	7267.850532	47759.353947	4096.399414	26245.853100
52.535000	-0.019757	-0.021902	0.019902	-0.138285	8595.178210	57125.166000	4421.502731	31401.954803
53.035000	-0.030751	-0.019478	0.016515	-0.103653	8023.307740	53252.403425	4287.820991	29214.870355
53.541000	-0.046394	-0.016079	0.001694	-0.057036	7333.842388	48487.040248	4095.067017	26533.228888
54.036000	-0.036107	-0.014410	-0.008196	-0.107045	8000.013038	54241.942260	4217.822591	29421.421513
54.539000	-0.014814	-0.015690	-0.003734	-0.151007	8833.221511	59539.478041	4381.917842	32250.150031
55.036000	0.014685	-0.016464	0.004059	-0.165665	9472.396421	61378.055641	4464.432736	33258.777243
55.537000	0.021676	-0.008269	0.003490	-0.145455	9274.186560	59783.623801	4387.917788	31876.918982
56.037000	0.011480	-0.005169	0.009830	-0.113083	8675.410965	56078.863532	4297.085287	29793.222103
56.534000	0.008633	-0.002941	0.009804	-0.100044	8466.570233	54772.504165	4253.509748	28996.837690
57.037500	-0.001095	-0.002886	0.009317	-0.082184	8121.548393	52690.535662	4194.484765	27944.079760
57.535000	-0.003645	0.000479	0.002205	-0.051547	7734.532779	49662.660657	4080.609774	26235.990924
58.035500	-0.001251	0.003134	0.003870	-0.026865	7490.730083	47352.279478	4015.883435	24944.963316
58.536000	-0.002098	0.004802	0.004588	-0.007576	7280.966698	45586.496162	3966.101712	23985.853959
59.036000	-0.002548	0.004350	0.007265	0.005327	7147.134320	44295.223660	3939.585553	23367.645649
59.539500	-0.005118	0.005168	0.005535	0.018524	6994.316942	43133.104831	3901.982073	22754.058564
60.036500	-0.007948	0.003906	0.004350	0.026049	6896.934662	42328.177479	3880.631800	22412.483321
60.536500	-0.010674	0.004016	0.003501	0.029012	6844.411847	42070.377610	3871.421366	22279.595802
61.040000	-0.012209	0.002919	0.006845	0.028581	6834.291168	42010.344605	3880.542616	22298.851434
61.537000	-0.008182	0.003431	0.004959	0.022494	6927.907190	42608.446161	3890.785962	22573.099797
62.035000	-0.002359	0.006055	0.002236	0.019262	7013.594539	43146.955303	3892.032342	22720.301215
62.541000	0.005223	0.008476	0.002874	0.017418	7104.714891	43543.727343	3898.139564	22804.789304
63.036000	0.004181	0.007900	0.003475	0.016585	7102.676101	43567.792042	3901.682811	22843.062424
63.536500	0.005250	0.008213	0.003579	0.015452	7124.237850	43703.311937	3904.751080	22895.264555
64.041500	0.004000	0.007633	0.001343	0.016399	7102.720519	43560.225539	3896.879068	22851.629388
64.539000	0.003103	0.006399	0.004921	0.015822	7099.595632	43498.780505	3907.164571	22878.177553
65.034000	-0.001126	0.006470	0.000121	0.019914	7019.161093	43125.012775	3885.267554	22690.539173
65.537000	0.001622	0.007917	0.005601	0.017562	7068.279567	43478.024619	3904.532069	22798.179086
66.034500	0.001520	0.007317	-0.000083	0.017271	7070.115634	43449.215018	3891.230077	22811.555222
66.537500	0.003117	0.007606	0.005772	0.017321	7085.121377	43471.538647	3905.555221	22809.228547
67.035500	-0.000475	0.008929	0.002923	0.020717	7017.706014	43278.586211	3890.152443	22653.917751
67.536000	0.002894	0.008397	0.006530	0.017742	7078.866761	43506.043893	3906.393704	22789.917864
68.036000	0.002447	0.007956	0.005454	0.017802	7073.946815	43459.271737	3903.571420	22787.149964
68.537000	0.001687	0.007693	0.003308	0.017859	7066.033755	43429.459444	3898.122660	22784.568261
69.036500	0.001569	0.009039	0.006341	0.021306	7031.655799	43234.049953	3897.101763	22627.091516
69.536500	0.003468	0.008941	0.005485	0.018997	7072.258183	43439.649520	3900.688062	22732.419525
70.037000	0.000976	0.008464	0.001582	0.019619	7042.179799	43337.382715	3889.556572	22704.015622
70.539500	0.002812	0.008924	0.005103	0.019098	7064.933528	43428.751261	3899.497885	22727.834096
71.034500	0.002059	0.009841	-0.000361	0.024120	7009.397390	43047.840406	3873.904057	22499.496502
71.535000	0.002912	0.008771	0.006686	0.018798	7068.804927	43442.416520	3904.157532	22741.558623
72.035000	0.004283	0.009246	0.005285	0.019972	7070.706016	43377.270953	3897.785993	22687.867140
72.535500	0.003826	0.008904	0.005910	0.019491	7070.939372	43390.223121	3900.519539	22709.855355
73.036000	0.005074	0.010671	0.010082	0.023291	7046.277539	43201.391375	3901.439616	22537.010443
73.536000	0.003810	0.010281	0.008965	0.020052	7065.360664	43466.349621	3906.704912	22684.250064
74.036000	0.004917	0.010009	0.005194	0.021123	7065.692540	43341.132449	3894.728242	22635.406102
74.536500	0.003582	0.009412	0.003773	0.019627	7067.253255	43424.906659	3894.912929	22703.622589
75.037000	0.005879	0.009125	0.003260	0.019355	7092.208673	43423.471285	3894.319449	22716.046190
75.537000	0.006679	0.010442	0.005259	0.020708	7086.826067	43420.119735	3895.909554	22654.315656
76.034500	0.002535	0.009337	0.002646	0.021161	7042.338400	43275.196337	3888.386603	22633.693401
76.535500	0.006686	0.010266	0.009387	0.020679	7087.182796	43406.433547	3906.195505	22655.657191
77.035000	0.005665	0.009539	0.007306	0.020369	7080.273864	43367.681156	3901.800778	22669.795838
77.541000	0.004192	0.009581	0.005385	0.020053	7069.048511	43400.916960	3897.833623	22684.196249
78.038500	0.004249	0.010443	0.006025	0.023285	7038.391752	43180.770493	3891.460587	22537.274552
78.536000	0.006974	0.010056	0.005859	0.021288	7084.065320	43330.209415	3895.959061	22627.936451
79.036500	0.004907	0.010074	0.003796	0.021019	7066.608277	43356.902172	3891.549909	22640.153791
79.539500	0.005680	0.009768	0.006330	0.021049	7073.806792	43325.593604	3897.709065	22638.783378
80.037500	0.002204	0.009689	0.005678	0.023993	7011.989654	43045.589457	3888.876541	22505.223764
80.537500	0.004331	0.010010	0.005650	0.021727	7054.193810	43285.067715	3894.364532	22607.934998
81.035000	0.002305	0.009294	0.004219	0.025648	6997.168798	42856.682728	3881.288677	22430.542677
81.535500	0.004774	0.009028	0.000644	0.021127	7064.281830	43249.634684	3883.588265	22635.244390
82.035500	0.002811	0.009212	0.006697	0.024139	7016.397234	42988.029711	3891.013011	22498.608764
82.538500	0.003395	0.009726	0.004494	0.022136	7041.229971	43220.739537	3890.522626	22589.352089
83.036000	0.003487	0.009193	0.004596	0.023874	7025.409286	43010.725979	3886.523987	22510.585427
83.536500	0.005843	0.009832	0.004985	0.022710	7059.312230	43177.508995	3890.322171	22563.341699
84.036500	0.000734	0.008689	0.002390	0.024676	6991.461826	42890.421252	3879.206758	22474.349186
84.537000	0.003605	0.008865	0.002838	0.021952	7045.022811	43158.097808	3886.925275	22597.736705
85.034500	0.004993	0.009734	0.006881	0.022970	7048.591781	43144.279930	3894.335235	22551.544138
85.535000	0.003488	0.009122	0.005736	0.022092	7042.544532	43168.886900	3893.679097	22591.354378
86.035000	0.003296	0.009128	0.005294	0.026136	7001.960282	42796.599991	3882.713943	22408.563428
86.535500	0.004602	0.008490	0.008452	0.022086	7053.346702	43110.999741	3900.387148	22591.636413
87.038500	0.001745	0.009541	0.005628	0.022186	7024.892424	43198.982587	3893.181568	22587.080191
87.536000	0.002805	0.009565	0.003980	0.022567	7031.412561	43165.970943	3888.212744	22569.823657
88.036500	0.003227	0.008583	0.000992	0.026889	6994.130722	42677.751237	3870.493406	22374.709036
88.536500	0.003895	0.009323	0.002210	0.023157	7036.224302	43089.017185	3882.459248	22543.079152
89.037000	0.001045	0.008967	-0.003215	0.025030	6991.058653	42883.529112	3864.865605	22458.406064
89.537500	0.002783	0.008965	0.004144	0.023022	7026.835955	43068.370412	3887.500421	22549.177695
90.034500	0.001705	0.008976	0.001676	0.027792	6971.109990	42631.007590	3869.964547	22334.167325
90.537500	0.002992	0.009566	0.006292	0.023669	7022.639498	43064.120046	3891.175303	22519.898626
91.035000	0.001272	0.009359	0.007792	0.025727	6986.586743	42855.384227	3889.805861	22426.953158
91.535500	0.004061	0.008117	0.003887	0.023085	7038.507615	42984.218746	3886.717986	22546.311765
92.036000	-0.000885	0.008139	-0.001560	0.027869	6945.953183	42547.587673	3862.037606	22330.724716
92.535500	0.001311	0.008773	0.002236	0.023471	7008.451910	43009.158567	3881.759991	22528.852818
93.036500	-0.000309	0.008657	0.000192	0.027509	6954.765773	42627.759001	3867.084271	22346.870945
93.536500	0.003066	0.007959	0.005403	0.023170	7028.129913	42961.865820	3890.217667	22542.469989
94.037000	0.004068	0.008852	0.008395	0.023884	7030.897527	42978.401810	3895.811815	22510.161348
94.537500	0.003268	0.008093	-0.002095	0.023476	7027.137742	42946.059585	3871.275909	22528.616776
95.035000	0.000877	0.008194	0.001830	0.026436	6976.116993	42683.545101	3873.601421	22395.065586
95.535500	0.001839	0.008290	0.005465	0.023316	7014.971405	42978.919379	3890.012031	22535.839976
96.035500	0.001897	0.008394	0.002309	0.023819	7010.718325	42942.098051	3881.090925	22513.070415
