sample name	sample
index	878
start time	 04-08-2021  01:53:59 PM
880	0.528410
Peak Time (s)	121.536
Peak Height 	0.5284
calc peak height	120,123
Baseline Time (s)	10.534
Baseline Value 	-0.002128
subtract baseline	10,4
Abs	0.396351
Peak Time (s)	121.035
Peak Height 	0.3964
calc peak height	120,123
Baseline Time (s)	10.534
Baseline Value 	0.003616
subtract baseline	10,3
PK_550	0.196695
Peak Time (s)	121.035
Peak Height 	0.1967
calc peak height	120,123
Baseline Time (s)	10.035
Baseline Value 	1.6982E-4
subtract baseline	10,2
PK_880	0.357696
Peak Time (s)	122.036
Peak Height 	0.3577
calc peak height	120,123
Baseline Time (s)	8.537
Baseline Value 	0.001003
subtract baseline	10,1


Time (s)	A880-A510	A880-A775	A880-A975	A880	I510	I775	I975	I880	
0.037500	-0.003619	-0.000541	-0.003877	0.006396	6808.845519	42013.986764	3908.759031	22528.974737
0.535000	-0.002357	-0.000347	-0.003526	0.003962	6843.983179	42252.564393	3916.733155	22640.515058
1.035500	-0.002783	-0.000199	-0.005743	0.003572	6843.631935	42301.502684	3911.495590	22658.430629
1.536000	0.001301	0.000695	-0.000162	0.001587	6901.964492	42564.736191	3933.322047	22749.924313
2.036000	-0.003834	-0.000529	-0.004758	0.005480	6815.483149	42098.094063	3908.857528	22570.873588
2.536500	-0.000527	0.001131	-0.003806	0.001260	6887.466570	42634.848328	3923.708915	22765.070845
3.036500	-0.001051	0.000086	-0.002294	-0.001240	6906.567828	42768.826738	3935.345440	22880.983657
3.536500	-0.000786	-0.000355	-0.002014	-0.000045	6897.569808	42618.200681	3932.682366	22825.467902
4.037000	-0.002009	-0.000322	-0.002812	0.002996	6856.544932	42342.831735	3921.565524	22684.954071
4.537500	0.001905	-0.000082	-0.007526	-0.000051	6923.720269	42643.796592	3916.768994	22825.742299
5.038000	-0.001483	-0.000914	-0.003744	-0.000059	6890.967356	42568.200462	3927.699204	22826.120110
5.535500	-0.002863	-0.000448	-0.002149	-0.000071	6877.781377	42612.078505	3932.366666	22826.699883
6.035500	-0.001499	-0.000158	-0.003186	0.000195	6888.370201	42614.277508	3928.583286	22814.366314
6.536000	0.000508	0.000470	-0.001795	0.000096	6908.734142	42681.098392	3932.909863	22818.957882
7.036000	-0.002005	-0.000489	-0.004695	-0.000320	6888.450391	42631.184893	3925.702630	22838.228796
7.536500	-0.001310	0.000296	-0.005605	0.000246	6889.694545	42651.323123	3921.440656	22811.995119
8.036500	-0.001118	-0.000255	-0.003326	0.000094	6893.020525	42614.618196	3928.470742	22819.048938
8.537000	0.000000	0.000936	0.000130	0.000608	6898.852698	42676.812247	3937.025934	22795.213951
9.037000	-0.001924	-0.000019	0.000845	-0.000129	6887.395224	42656.876001	3941.272123	22829.398266
9.537500	-0.000816	-0.000637	-0.000436	-0.000621	6902.858637	42645.318795	3938.962844	22852.233494
10.035000	0.000619	0.000000	-0.000920	0.000111	6909.669493	42636.528095	3935.414794	22818.262026
10.534500	0.000158	0.000082	0.000000	0.000000	6906.267227	42654.229302	3938.421971	22823.393872
11.036000	-0.001136	-0.000340	0.000333	-0.000630	6899.843387	42673.343728	3941.239968	22852.631491
11.536500	0.000928	0.000349	-0.001707	0.000286	6910.957077	42652.519305	3932.612719	22810.134844
12.036500	0.000436	0.001045	0.001082	0.000431	6904.789420	42703.172153	3940.326210	22803.422198
12.536500	-0.003561	0.000104	-0.001734	0.003944	6832.672893	42295.238143	3921.941112	22641.349913
13.036500	0.000167	0.001339	-0.003608	0.000340	6903.062793	42738.657277	3926.938786	22807.618298
13.541000	-0.001440	-0.000749	-0.004091	-0.000872	6899.238035	42658.022616	3929.052568	22863.864982
14.037500	-0.002208	0.000488	-0.000703	0.002139	6862.853404	42495.222997	3930.145745	22724.474119
14.538000	-0.002615	-0.000345	-0.003933	0.003159	6849.183221	42325.884525	3917.867353	22677.430216
15.035000	0.000129	0.000655	-0.001948	-0.000096	6906.922186	42715.839206	3933.024817	22827.861567
15.535500	-0.000207	-0.000087	-0.001723	-0.000605	6908.589573	42694.295356	3935.159566	22851.451760
16.039000	0.000921	0.000032	-0.001674	-0.000114	6914.773880	42660.139550	3933.872544	22828.669956
16.535500	-0.002224	-0.000011	-0.000586	0.004674	6838.454423	42218.362572	3923.145577	22607.825505
17.036500	0.000897	0.000242	0.002223	-0.003029	6942.939366	42948.576626	3953.860743	22964.340566
17.537000	-0.001073	-0.000278	-0.001629	0.000288	6891.575179	42594.650438	3932.831885	22810.024930
18.039500	-0.000539	0.000492	-0.003163	0.001615	6883.928875	42543.554710	3924.537396	22748.634668
18.537500	-0.001211	-0.000069	-0.003803	0.002333	6870.549906	42426.421098	3920.619835	22715.483680
19.034500	-0.001064	0.000324	-0.001393	0.001506	6879.922591	42538.198928	3929.982180	22753.701152
19.535000	-0.000797	0.000225	-0.002550	0.001477	6882.775238	42531.732750	3926.711736	22755.019011
20.035500	-0.002344	0.000478	-0.002674	0.001755	6865.222391	42529.459003	3925.548912	22742.183336
20.535500	-0.001875	-0.000150	-0.001308	0.001984	6867.528283	42450.992894	3928.838291	22731.590201
21.036000	-0.001297	-0.000186	0.001089	0.000776	6884.709331	42558.361328	3939.336263	22787.442469
21.536000	-0.002139	-0.000084	-0.002899	0.001170	6872.811331	42531.541715	3926.589191	22769.212374
22.036500	-0.000016	0.000527	0.001024	0.001577	6889.338705	42550.351322	3936.807973	22750.420438
22.537000	-0.001464	-0.000195	-0.002686	0.002059	6870.754902	42439.943535	3924.633948	22728.124525
23.037000	-0.001375	-0.000542	-0.005958	0.001023	6881.576934	42503.105945	3918.188389	22776.027234
23.534500	-0.001743	0.000106	-0.004887	0.001154	6876.774186	42550.483782	3920.896098	22769.970828
24.037000	0.000194	0.001613	0.000642	0.002211	6885.245364	42591.742080	3933.847154	22721.128310
24.535000	-0.000832	0.000095	-0.002938	0.001631	6880.949990	42505.695808	3925.140859	22747.887975
25.035500	-0.000435	0.000196	0.000269	0.000995	6890.910685	42573.312162	3936.302405	22777.308302
25.536000	-0.001917	0.000053	-0.006784	0.001325	6873.453938	42529.956559	3914.950703	22762.056944
26.036000	-0.000786	-0.000057	0.001039	0.001633	6881.372284	42491.614328	3936.687839	22747.802304
26.536000	-0.001162	0.000263	-0.000769	0.001391	6880.089987	42543.173225	3932.128944	22759.009177
27.036500	-0.000053	-0.000054	-0.001367	-0.000525	6909.305699	42690.043470	3935.964533	22847.739749
27.537000	0.000941	0.001109	0.001143	-0.001237	6925.889991	42862.992076	3945.394959	22880.849647
28.037000	-0.001245	0.000228	0.002443	0.002168	6871.810859	42468.765824	3939.226043	22723.126840
28.537500	-0.002891	0.000594	-0.001754	0.005743	6821.938462	42176.171492	3916.707231	22558.851717
29.034500	0.001135	0.000667	-0.001129	0.000634	6909.594293	42649.675950	3933.279443	22794.006273
29.535000	-0.000037	0.000808	0.000657	0.000532	6899.227214	42672.066595	3938.786748	22798.719998
30.035500	-0.000461	0.000208	-0.002833	0.001334	6887.391617	42543.347378	3926.307746	22761.648147
30.536000	-0.003776	0.000502	-0.004080	0.003234	6837.387991	42396.327938	3917.232337	22673.984208
31.036000	-0.002989	-0.001108	-0.003908	0.000926	6866.994820	42460.169290	3924.376912	22780.521667
31.536500	0.000125	0.000626	0.002561	0.000203	6903.975861	42685.540837	3945.330562	22813.966843
32.039500	-0.000374	0.000071	-0.000035	0.000708	6894.264876	42588.124183	3936.251314	22790.578794
32.537000	-0.003399	-0.000107	-0.004946	0.005119	6823.036466	42169.105163	3909.353542	22587.420402
33.037000	0.000488	0.000271	-0.002154	0.000356	6906.013169	42638.834361	3931.108115	22806.875936
33.535500	0.001347	0.000752	-0.005660	0.000259	6915.295238	42692.085184	3921.244488	22811.394320
34.035000	-0.002108	-0.000168	-0.002028	0.001935	6865.763710	42453.877100	3926.895579	22733.869262
34.535500	-0.001146	0.000664	0.001602	0.002219	6872.274064	42504.037318	3936.621273	22720.767347
35.036000	-0.003110	-0.000045	-0.000977	0.001997	6855.563878	42459.381565	3929.760759	22730.991838
35.536000	-0.001985	0.000340	-0.002902	0.001634	6869.834670	42527.873701	3925.238909	22747.765849
36.036500	-0.001939	0.000306	-0.004880	0.001877	6867.943512	42502.574697	3918.833630	22736.546107
36.539500	-0.000588	0.000111	0.001781	0.002014	6879.612306	42472.118216	3937.740822	22730.203573
37.037000	0.000447	0.000535	0.000010	0.002392	6885.941627	42476.318174	3931.481155	22712.761803
37.534500	-0.001565	0.000391	-0.002274	0.002071	6869.669646	42492.616545	3925.791436	22727.598445
38.034500	-0.000872	0.000125	0.000518	0.001786	6879.077311	42494.300102	3934.724470	22740.757367
38.535000	-0.000940	0.000253	0.000074	0.002019	6876.176393	42484.679507	3932.751118	22729.969701
39.035500	-0.000476	0.000129	-0.002930	0.002247	6878.446365	42452.469284	3923.386070	22719.484286
39.535500	-0.001276	0.000136	-0.000683	0.001979	6873.325920	42477.581720	3930.667994	22731.820590
40.036000	-0.001256	0.000713	-0.001620	0.002527	6868.259479	42480.320503	3926.362744	22706.552774
40.535500	-0.001606	0.001241	-0.001536	0.002760	6862.664564	42507.262506	3925.931109	22695.811942
41.039000	-0.001049	-0.000474	-0.003058	0.001403	6881.062246	42474.499795	3925.455819	22758.450637
41.536500	-0.002096	0.000251	0.000987	0.001895	6866.251816	42495.815219	3935.771670	22735.692991
42.037000	-0.001708	0.000477	-0.003797	0.001881	6870.120152	42517.865780	3921.940441	22736.381898
42.534000	-0.000428	0.000581	-0.002295	0.004015	6861.921708	42332.207732	3920.118018	22638.065051
43.035000	-0.000529	0.000201	0.000827	0.001582	6884.336940	42519.941936	3936.218935	22750.163065
43.535000	-0.000224	0.000608	-0.001942	0.002444	6878.974838	42478.234203	3925.672954	22710.383391
44.035500	0.000356	-0.000202	0.001685	-0.001527	6923.012394	42768.671629	3947.841948	22894.316984
44.535500	-0.005240	-0.000680	-0.004660	0.004313	6813.223898	42190.312591	3912.472385	22624.373733
45.036000	0.000361	-0.000232	-0.003359	-0.000050	6908.722333	42629.980855	3928.790419	22825.724312
45.536500	-0.000663	0.000373	-0.000569	0.000136	6897.001462	42668.473106	3936.363118	22817.083080
46.036500	0.000414	0.000059	-0.004219	0.000397	6904.901923	42615.636160	3925.006901	22805.000652
46.537000	-0.004202	-0.001012	-0.010999	0.004409	6822.153191	42151.406977	3894.192549	22619.981659
47.037500	-0.000136	0.000237	-0.000891	0.001240	6891.436737	42554.655247	3932.211140	22765.988124
47.537500	-0.004734	-0.000668	0.000881	0.001423	6845.526848	42454.945913	3936.839302	22757.502677
48.035000	-0.000854	0.000251	-0.000003	0.002550	6871.904933	42435.913207	3930.986620	22705.516104
48.535000	-0.004183	0.000154	-0.003095	0.005716	6809.949699	42138.617847	3912.938276	22560.080300
49.035500	-0.000056	0.000651	-0.005309	0.000820	6896.260583	42631.201464	3920.641249	22785.409469
49.535500	-0.000644	0.000195	-0.002795	-0.000110	6899.563686	42674.696869	3930.601652	22828.484270
50.036000	0.001074	0.000926	0.000596	-0.001019	6925.060522	42825.946973	3943.149165	22870.696836
50.536000	-0.002054	0.000745	-0.004127	0.017641	6718.242968	41123.245996	3876.387263	22021.757144
51.036500	0.000386	-0.001669	-0.007110	-0.022915	7136.583985	44648.464241	3985.450765	23914.499009
51.537000	-0.040461	-0.016551	0.024757	0.134367	5510.764582	30926.535731	3655.386955	17464.408138
52.037500	-0.036527	-0.015418	0.002271	-0.036546	6904.921291	44637.126744	4057.058342	24591.409876
52.534500	-0.024793	-0.013195	-0.013061	-0.101756	7720.301070	51677.828307	4225.926317	28140.452865
53.035000	-0.019345	-0.012021	-0.020927	-0.102837	7796.384700	51932.794306	4201.799894	28203.932555
53.535000	-0.008359	-0.008697	-0.015638	-0.099378	7885.502873	51917.378435	4208.269637	28001.461114
54.036000	-0.001065	-0.005532	-0.011448	-0.090339	7864.694257	51256.421575	4191.184644	27479.981305
54.536000	0.001020	-0.004247	-0.011322	-0.082168	7792.806985	50493.107565	4163.257489	27017.876866
55.038500	0.005619	-0.001597	-0.006269	-0.053667	7519.996290	47732.356848	4084.745451	25472.232084
55.536500	0.006139	-0.001137	-0.001333	-0.006872	7032.673317	43177.498540	3954.711619	23144.606187
56.037000	0.007059	-0.001434	0.003133	0.007063	6904.697866	41873.065494	3926.989876	22498.508651
56.539500	0.007599	-0.001237	0.009246	0.011126	6870.713547	41526.164143	3932.939471	22314.021397
57.034000	0.013356	0.001039	0.013114	0.020583	6835.320050	40889.837507	3916.788153	21891.231915
57.535000	0.011650	0.000401	0.020718	0.026010	6767.924945	40360.467646	3923.052777	21652.688595
58.035500	0.013123	0.001019	0.019433	0.035127	6696.921343	39631.047178	3893.385103	21258.651321
58.535500	0.018009	0.002413	0.019554	0.042031	6678.395100	39165.737774	3874.421416	20965.748790
59.036000	0.018769	0.002828	0.022940	0.046840	6641.448349	38798.817706	3870.478981	20764.417550
59.541500	0.022873	0.004738	0.029594	0.050794	6642.809305	38629.427250	3877.966695	20600.556730
60.036500	0.025308	0.005018	0.027462	0.054025	6635.588408	38386.287972	3863.135897	20467.777590
60.537000	0.030268	0.007319	0.033814	0.045838	6756.606259	39258.078196	3903.773527	20806.199812
61.039500	0.033753	0.009979	0.039633	0.067656	6588.856313	37681.309459	3859.130132	19918.300780
61.537500	0.041225	0.012771	0.050633	0.089245	6464.428439	36200.506603	3830.476074	19082.571418
62.037500	0.046002	0.014623	0.056441	0.097839	6431.474039	35684.772429	3823.054254	18761.300057
62.537500	0.053313	0.018512	0.058684	0.104009	6441.285026	35512.023171	3812.669496	18534.482916
63.035500	0.061318	0.022895	0.071706	0.111428	6446.346922	35283.616849	3827.512241	18266.042101
63.535500	0.068395	0.027168	0.077478	0.124327	6396.436529	34643.277319	3808.664937	17810.080817
64.036500	0.078751	0.031944	0.086542	0.134616	6397.009371	34240.582800	3805.456996	17455.956357
64.536000	0.087080	0.037073	0.096870	0.144399	6384.646981	33904.616934	3806.883914	17126.937939
65.036000	0.096013	0.042465	0.110678	0.155488	6366.391695	33498.253907	3814.025494	16762.851043
65.539500	0.104063	0.047691	0.115326	0.164603	6357.404791	33223.878645	3802.313004	16470.456904
66.037000	0.109491	0.051909	0.124734	0.177030	6298.908988	32652.714184	3794.465694	16081.588833
66.536500	0.121453	0.057443	0.137034	0.171439	6447.420815	33429.357050	3841.778032	16255.182272
67.035000	0.131038	0.064678	0.146358	0.203040	6262.094207	31753.927814	3783.161325	15302.807428
67.535000	0.137421	0.068577	0.151479	0.193732	6393.215889	32650.394368	3820.786666	15576.178578
68.035500	0.146343	0.072687	0.168158	0.216794	6274.850827	31372.378247	3803.988833	14909.475391
68.535500	0.157692	0.079179	0.178528	0.227452	6280.538580	31098.894403	3803.236522	14613.124781
69.036000	0.163670	0.084321	0.181652	0.229366	6314.223484	31310.577253	3806.397952	14560.667654
69.536000	0.170374	0.089166	0.191981	0.236510	6310.556142	31159.637973	3814.766977	14366.911951
70.036500	0.176090	0.095806	0.196555	0.243155	6302.838047	31159.269233	3809.319111	14189.532775
70.539000	0.185563	0.098242	0.204908	0.258467	6254.702851	30328.493392	3791.198710	13790.973602
71.037000	0.187499	0.099628	0.206935	0.268523	6188.824932	29782.897669	3770.655057	13536.782012
71.538500	0.192865	0.102555	0.211147	0.274381	6184.873738	29600.855284	3766.487758	13391.392859
72.035000	0.197626	0.104818	0.222358	0.281809	6163.530324	29283.076573	3776.086397	13209.838494
72.535000	0.202793	0.107705	0.225092	0.289265	6145.313675	29005.085044	3764.119952	13030.678062
73.035500	0.205902	0.109713	0.232762	0.295235	6122.680651	28766.407456	3768.412051	12889.438656
73.538500	0.211640	0.113126	0.231355	0.302037	6114.303497	28563.961538	3747.837895	12730.865468
74.036500	0.213370	0.115008	0.238495	0.306093	6096.054337	28434.892257	3755.520504	12637.471557
74.537000	0.217246	0.117383	0.241359	0.310279	6093.633076	28327.907120	3752.220762	12542.000095
75.037000	0.219921	0.118181	0.244684	0.313459	6089.687564	28187.819993	3752.580564	12470.087993
75.537000	0.222128	0.120029	0.245263	0.319494	6059.925247	27943.529816	3739.062332	12335.064237
76.037000	0.226501	0.122420	0.249381	0.319014	6097.698058	28110.773822	3750.442218	12345.719849
76.535000	0.228920	0.125012	0.249441	0.321910	6093.968214	28093.012354	3743.410410	12281.533411
77.035000	0.233799	0.127001	0.255849	0.325172	6106.634268	28018.741660	3751.217285	12209.719644
77.535000	0.236286	0.127563	0.257194	0.330791	6082.140720	27725.884808	3740.621487	12087.269951
78.038500	0.236998	0.128599	0.260745	0.330921	6086.678688	27778.097689	3749.092004	12084.451848
78.536000	0.242107	0.130882	0.262622	0.333928	6103.118412	27736.377266	3746.288363	12019.601112
79.036000	0.244137	0.133501	0.262638	0.337370	6092.066137	27689.030979	3737.826711	11945.917591
79.536500	0.244677	0.133135	0.265070	0.344213	6043.169260	27277.976152	3727.033832	11801.143619
80.037000	0.247761	0.135105	0.268002	0.344338	6066.036924	27382.560247	3733.888562	11798.518244
80.537000	0.250796	0.136019	0.269824	0.353318	6020.251742	26928.707835	3716.489435	11612.003398
81.037500	0.253921	0.137655	0.274660	0.351166	6060.858029	27140.766164	3733.471800	11656.339661
81.535000	0.254253	0.139226	0.275884	0.359199	6001.760580	26780.117687	3716.922344	11491.935462
82.035000	0.258868	0.140070	0.282143	0.358998	6038.599571	26838.102808	3732.617842	11496.008710
82.538500	0.261743	0.140785	0.279174	0.361811	6039.076066	26721.914742	3718.560320	11439.133464
83.035500	0.261005	0.142031	0.280839	0.365854	6002.498100	26567.792333	3712.831612	11358.012235
83.536000	0.262967	0.143227	0.285128	0.373138	5962.256842	26235.859431	3705.659977	11213.764976
84.036500	0.265255	0.144414	0.292056	0.372975	5980.728291	26309.009621	3722.714089	11216.949762
84.536500	0.267721	0.145716	0.294363	0.376650	5971.604378	26180.517474	3719.404879	11145.067531
85.037000	0.268851	0.146706	0.289090	0.379377	5959.583598	26086.864598	3700.239378	11092.099125
85.537500	0.270297	0.147615	0.295345	0.386986	5913.634528	25729.168609	3697.031747	10946.087336
86.034500	0.274503	0.150307	0.297324	0.386857	5945.887229	25879.085841	3702.032192	10948.545134
86.535000	0.273023	0.149646	0.296974	0.394083	5881.444180	25462.374352	3684.178139	10812.201740
87.038000	0.281317	0.152077	0.301236	0.393004	5950.882918	25646.873150	3696.731745	10832.406355
87.535500	0.280928	0.152308	0.299780	0.394680	5935.449051	25570.710707	3689.351014	10801.021522
88.036000	0.284437	0.154054	0.310655	0.399030	5929.194930	25434.129837	3704.788805	10720.142718
88.536000	0.285028	0.154649	0.311825	0.401467	5915.490557	25338.024648	3701.774639	10675.185776
89.036000	0.286459	0.155343	0.313604	0.403924	5907.890301	25246.351596	3700.160866	10630.093709
89.537000	0.287654	0.156832	0.313929	0.407617	5889.491879	25132.330196	3692.201167	10562.829214
90.037000	0.287748	0.156671	0.316743	0.409023	5879.862715	25051.620809	3695.520533	10537.360880
90.534500	0.287871	0.158208	0.311903	0.417711	5817.730746	24686.990693	3664.056808	10381.845418
91.035000	0.294005	0.159688	0.321995	0.415948	5874.971278	24851.615392	3691.577271	10413.152041
91.535500	0.295738	0.161393	0.319181	0.418954	5865.676856	24785.384570	3677.972041	10359.847213
92.035500	0.294646	0.162295	0.319639	0.421351	5840.334866	24709.581620	3673.479041	10317.601408
92.535500	0.293304	0.161569	0.328695	0.427891	5783.821182	24344.780062	3679.313080	10203.524087
93.036000	0.297696	0.163142	0.321198	0.426061	5828.344225	24514.893863	3666.222129	10235.275273
93.536500	0.300913	0.164479	0.328617	0.429455	5827.065189	24411.837044	3675.501452	10176.489603
94.036000	0.302076	0.165037	0.321501	0.431603	5819.981202	24332.632282	3654.270798	10139.533776
94.537000	0.303810	0.166503	0.331438	0.434109	5814.436784	24280.915144	3671.264954	10096.635946
95.037000	0.304534	0.166854	0.334350	0.436594	5801.830267	24175.239476	3672.250614	10054.358223
95.534500	0.306144	0.167483	0.335778	0.438708	5798.226216	24102.016099	3670.667877	10018.565255
96.034500	0.308471	0.169276	0.334536	0.441239	5796.776227	24065.687621	3662.009523	9975.958000
96.537500	0.310396	0.169634	0.336886	0.443358	5795.391110	23979.366981	3662.537624	9940.473027
97.035500	0.309504	0.171019	0.338808	0.445806	5771.654894	23927.323730	3661.332574	9899.676867
