sample name	sample
index	1241
start time	 04-29-2021  11:39:19 AM
880	0.457208
Peak Time (s)	91.037
Peak Height 	0.4572
calc peak height	90,93
Baseline Time (s)	11.037
Baseline Value 	-0.005382
subtract baseline	10,4
Abs	0.305103
Peak Time (s)	90.536
Peak Height 	0.3051
calc peak height	90,93
Baseline Time (s)	9.536
Baseline Value 	0.003256
subtract baseline	10,3
PK_550	0.158018
Peak Time (s)	91.537
Peak Height 	0.158
calc peak height	90,93
Baseline Time (s)	8.536
Baseline Value 	0.001043
subtract baseline	10,2
PK_880	0.286448
Peak Time (s)	91.537
Peak Height 	0.2864
calc peak height	90,93
Baseline Time (s)	11.037
Baseline Value 	0.001658
subtract baseline	10,1


Time (s)	A880-A510	A880-A775	A880-A975	A880	I510	I775	I975	I880	
0.036000	0.000747	-0.000795	-0.002278	0.003274	6203.685364	43933.349813	3888.246862	22702.833905
0.536500	-0.001336	-0.000635	-0.002285	0.004882	6175.543149	43796.674186	3884.414870	22629.532618
1.039500	-0.003690	-0.001041	-0.003476	0.004110	6163.558141	43831.257399	3883.426284	22664.729873
1.538000	-0.003090	-0.001181	-0.004459	0.006462	6150.324581	43596.972873	3875.565529	22557.789903
2.040500	0.000753	-0.000657	-0.004666	0.001139	6220.122024	44148.640307	3887.644828	22800.572635
2.538000	-0.001687	-0.000815	-0.002661	0.000579	6205.689123	44186.911254	3893.757833	22826.322041
3.035000	-0.000155	-0.000499	-0.001115	-0.000907	6228.892913	44358.531878	3901.024505	22894.689923
3.535500	-0.000988	-0.001461	-0.006739	0.002872	6193.499366	43908.403455	3878.646415	22721.220267
4.036000	-0.001216	-0.000540	-0.003243	0.002990	6190.854384	43984.251869	3886.628578	22715.805154
4.536000	0.000062	-0.000134	0.001534	0.000239	6221.730812	44284.113546	3904.647178	22841.918666
5.036000	0.000111	-0.000521	0.003198	-0.000226	6225.693864	44291.585676	3909.800447	22863.338932
5.536500	0.000529	-0.000624	0.003266	0.000097	6226.423627	44250.883271	3909.181043	22848.455548
6.037000	-0.001146	-0.000347	0.000276	0.000394	6211.258246	44249.065845	3901.241416	22834.800928
6.537000	-0.001487	-0.000684	-0.001911	-0.000349	6214.344743	44287.760593	3897.773220	22868.990871
7.037500	0.003635	0.000155	0.001858	0.000427	6247.899060	44293.698271	3904.975358	22833.294099
7.535000	-0.001801	-0.000566	0.003106	-0.000223	6210.967330	44286.957798	3909.567906	22863.191930
8.035500	-0.001444	-0.000070	-0.000686	0.000070	6211.454596	44306.330606	3899.706378	22849.691920
8.535500	0.002032	0.000000	-0.002384	0.000399	6235.692801	44281.590957	3894.847482	22834.560495
9.036000	-0.000775	-0.000300	-0.003205	-0.000208	6218.734980	44310.895073	3894.336508	22862.493966
9.536000	-0.001217	0.000719	0.000000	0.000340	6211.122472	44355.822758	3900.706395	22837.272802
10.036500	-0.001557	-0.001054	0.001345	-0.000740	6216.806173	44289.653899	3906.554343	22886.992320
10.536500	0.001046	0.000140	0.003929	0.000303	6228.817911	44304.112066	3910.287820	22838.970342
11.037000	0.000000	0.000674	-0.003550	0.000000	6223.096462	44384.026092	3893.014697	22852.924570
11.535000	0.001866	-0.000402	0.001276	-0.000662	6242.631131	44344.521078	3906.201822	22883.422383
12.035000	-0.000794	-0.000190	-0.004260	0.003417	6190.820984	43977.031237	3883.210870	22696.338595
12.538000	-0.002021	-0.000499	-0.001283	-0.001384	6218.192031	44404.105087	3901.768244	22916.683492
13.035500	0.000611	-0.000107	0.001363	-0.000957	6235.198321	44400.802592	3907.124756	22897.000268
13.536000	-0.001024	-0.000607	-0.001014	-0.000688	6220.506422	44327.348701	3900.740134	22884.594958
14.035500	-0.002604	-0.000507	-0.002102	0.002925	6180.782668	43993.586123	3889.495187	22718.799344
14.541000	-0.000010	0.000138	-0.000879	0.001825	6208.990744	44159.032276	3895.036661	22769.107303
15.039500	-0.000869	-0.000766	0.003520	-0.000734	6222.055377	44316.570413	3911.814148	22886.727973
15.539500	-0.001422	-0.000255	0.000074	-0.000764	6218.030465	44368.194460	3903.543483	22888.091046
16.040000	-0.004939	-0.000316	-0.002768	0.003775	6156.641402	43931.207666	3885.892587	22679.966071
16.537000	-0.000603	0.000237	-0.000850	-0.000753	6224.253213	44414.142086	3901.290854	22887.592729
17.035000	0.001823	0.000900	0.001124	-0.003045	6260.804844	44697.683069	3911.609028	22993.532819
17.535000	-0.002275	-0.000287	-0.000788	0.000197	6204.103408	44273.487895	3899.155279	22843.842685
18.036000	-0.000873	-0.001342	0.000589	0.001012	6208.605062	44095.673025	3900.507524	22806.398438
18.536000	-0.000658	-0.000451	0.001604	0.000578	6213.584050	44221.573350	3903.996756	22826.333803
19.036500	0.001132	-0.000120	0.004499	0.000761	6225.950591	44235.710952	3910.559660	22817.922869
19.539000	-0.003805	-0.001163	0.000458	-0.000327	6196.411797	44240.027584	3903.416806	22867.975678
20.036500	-0.001277	-0.000191	-0.000910	0.000445	6209.860185	44259.052745	3898.267221	22832.447842
20.536500	-0.000581	0.000229	0.001566	0.000893	6211.756284	44256.289133	3903.146171	22811.856687
21.037500	-0.000182	-0.000345	0.004213	0.000383	6218.748716	44250.288852	3910.783784	22835.298222
21.535000	0.000807	-0.000579	-0.006138	0.000697	6223.943669	44198.130189	3885.204139	22820.896909
22.035000	-0.002651	-0.000669	0.001358	0.000396	6199.711738	44218.168626	3903.843708	22834.720282
22.535500	-0.001567	0.000078	-0.000069	0.000540	6206.911538	44275.607302	3900.061843	22828.110820
23.038500	-0.000838	-0.000118	0.001726	0.000696	6211.304542	44242.093358	3904.007497	22820.942032
23.536000	0.000843	-0.000214	-0.000597	0.000583	6225.099975	44243.718468	3898.688184	22826.113854
24.036500	0.001614	0.000488	-0.002048	0.001175	6226.475901	44254.179981	3893.795101	22798.913773
24.536500	-0.000964	-0.000217	-0.002428	0.000439	6212.306990	44257.115750	3894.646201	22832.735712
25.037000	-0.001592	-0.000510	-0.002479	0.000373	6207.997140	44235.536634	3894.681817	22835.758092
25.537000	0.000527	-0.000085	-0.000845	0.000683	6221.900629	44246.503266	3897.853540	22821.538080
26.034500	-0.000850	0.000340	-0.000011	0.001112	6208.018188	44246.117185	3898.826651	22801.827323
26.535000	-0.002030	-0.001272	-0.005021	-0.000491	6211.259086	44245.206687	3890.678599	22875.517855
27.035000	0.001335	0.000405	0.004585	-0.001562	6245.484222	44507.712344	3916.426233	22924.914881
27.535000	0.001097	0.000214	-0.001560	-0.000659	6236.647076	44403.013313	3899.360020	22883.276161
28.036000	0.001129	-0.000797	0.001301	-0.001083	6240.174691	44346.997560	3907.278165	22902.818883
28.536500	0.000301	-0.000240	0.003688	-0.000991	6233.059775	44391.323172	3912.848799	22898.571107
29.036500	0.000685	-0.000145	0.002301	-0.000856	6234.985321	44387.515485	3909.150317	22892.330551
29.536500	-0.001635	-0.000473	0.005800	0.000112	6209.664923	44263.855874	3915.306150	22847.761256
30.037000	0.000705	-0.000317	-0.002032	-0.001250	6238.193116	44408.781598	3899.646130	22910.535076
30.536500	-0.001778	-0.000928	-0.005257	0.000884	6202.654555	44147.167121	3886.847968	22812.301220
31.037000	-0.001219	0.000111	0.000742	0.001061	6205.578201	44229.098526	3900.756143	22804.145008
31.536000	0.000002	0.000155	-0.000462	-0.000152	6224.278609	44348.956986	3900.779502	22859.912836
32.035000	-0.002688	-0.000636	-0.004509	0.004786	6166.021894	43805.675770	3879.390532	22633.913112
32.535500	-0.002313	-0.000344	0.003894	-0.001187	6214.435901	44400.231207	3913.826644	22907.634311
33.039000	0.000366	-0.000107	0.002815	-0.000631	6230.788123	44369.729242	3909.851985	22881.983927
33.542000	-0.001106	0.000243	0.002257	-0.000215	6216.244448	44363.345316	3907.491994	22862.822445
34.036500	-0.000861	-0.000013	-0.000835	0.001515	6204.842806	44174.110442	3895.884456	22783.323075
34.536500	-0.000786	-0.001118	0.000772	0.000918	6209.992797	44125.871766	3901.172148	22810.721116
35.037000	-0.001638	0.000202	-0.003307	0.001758	6197.040075	44171.494121	3889.404126	22772.194357
35.535000	-0.002229	0.000215	0.000889	0.001773	6192.417272	44171.312607	3899.400593	22771.533244
36.035000	-0.001141	-0.001094	-0.002381	0.000734	6208.681892	44145.686648	3894.055287	22819.179366
36.535000	-0.002570	-0.000742	0.003188	0.000602	6198.756179	44191.637497	3907.767879	22825.242386
37.035500	-0.000601	-0.000486	0.001073	0.001235	6208.984716	44155.767226	3901.135707	22796.173459
37.536000	0.000634	0.000138	-0.001715	0.001138	6219.217256	44224.378271	3894.681283	22800.640404
38.036500	-0.001210	-0.000099	-0.002150	0.001730	6200.521889	44145.545491	3892.226858	22773.468032
38.536500	0.000336	0.000196	0.002852	0.001390	6214.993476	44205.930849	3905.051615	22789.082284
39.036500	-0.000121	-0.000164	0.002118	0.001082	6213.844631	44201.010531	3904.022817	22803.202311
39.537000	-0.002330	-0.000500	0.003732	0.000557	6200.937809	44219.012052	3909.195245	22827.332599
40.036500	-0.001550	-0.000381	0.003687	0.001731	6197.916779	44118.701432	3906.244185	22773.432959
40.534500	-0.001289	-0.000432	-0.000813	0.000838	6206.754271	44198.710802	3897.558341	22814.408787
41.035000	-0.000588	0.000487	0.000676	0.002066	6202.717748	44169.353200	3898.185404	22758.105584
41.535500	0.000907	0.000002	-0.003301	0.001102	6221.593704	44214.831724	3890.981458	22802.281450
42.036000	-0.001042	-0.000794	-0.001975	0.001243	6205.540848	44125.820550	3893.809302	22795.817156
42.539000	0.000274	0.000316	0.001517	0.001481	6213.815875	44208.657766	3901.613251	22784.906943
43.036500	-0.000640	-0.001210	0.000936	0.000551	6213.936580	44152.022015	3902.454505	22827.610426
43.536500	0.000897	-0.000230	0.001958	-0.001035	6238.010502	44396.545158	3908.754297	22900.622003
44.037000	-0.002426	-0.000374	-0.002692	0.003822	6175.319032	43921.318709	3885.962457	22677.838890
44.537000	0.000611	0.000227	0.001551	-0.000583	6232.305308	44396.945448	3906.673049	22879.745238
45.037000	0.000261	0.000754	-0.001218	-0.000077	6225.702362	44398.969931	3898.781723	22856.453745
45.608500	0.001179	-0.000269	0.010135	-0.000937	6239.433021	44383.381501	3928.516944	22896.066323
46.035000	-0.002208	-0.001481	0.000587	0.002333	6188.301449	43957.484716	3897.332496	22745.876788
46.535000	-0.001311	-0.000088	0.000258	-0.000899	6219.925230	44397.165945	3904.313885	22894.352812
47.036000	-0.001181	-0.000215	-0.000731	0.000545	6209.834344	44247.270208	3898.458500	22827.883105
47.536000	-0.001290	-0.000438	0.002319	0.001322	6203.039249	44152.164435	3903.927848	22792.206190
48.036500	-0.003140	-0.000461	-0.000975	0.002484	6180.059230	44039.705558	3893.234534	22738.975898
48.536500	0.002008	0.000520	-0.000143	-0.000620	6243.399532	44428.510475	3902.673894	22881.452944
49.037000	0.000446	0.000222	0.001704	-0.000721	6232.094334	44409.635242	3907.377798	22886.104911
49.537500	0.001220	-0.000060	0.003072	-0.003468	6259.400805	44645.995228	3917.384627	23013.111101
50.034500	-0.003681	-0.001011	-0.002977	0.005287	6154.734681	43723.262794	3881.821822	22611.143789
50.535500	0.000182	-0.000824	0.001323	-0.000238	6226.332419	44263.821230	3905.288804	22863.891271
51.035500	0.042336	-0.032275	0.059310	0.612341	3778.324605	12282.875190	3148.768294	7749.057416
51.535500	0.008327	-0.031878	-0.007559	-0.002049	6303.984323	41569.834232	3888.346633	22947.436906
52.036000	0.008368	-0.103772	-0.015359	-0.281095	9392.374541	65209.471203	4783.661664	41042.550024
52.536500	0.008335	-0.098514	-0.008853	-0.275924	9314.772589	65222.042454	4789.598039	40590.723892
53.036500	0.012233	-0.062874	0.002798	-0.225087	8655.358198	63078.700659	4622.787264	36423.959232
53.536500	0.013373	-0.049811	0.008912	-0.208311	8451.054052	62566.338305	4579.947717	35152.557764
54.037000	0.019418	-0.027726	0.010163	-0.164807	7990.513967	59694.797492	4420.141483	32075.494863
54.537500	0.017739	-0.019458	0.010368	-0.148199	7779.707174	58614.290492	4362.173391	30979.716611
55.035000	0.024232	-0.018659	0.018411	-0.152345	7901.263182	59252.299256	4405.039533	31249.320676
55.538000	0.035443	-0.009888	0.027671	-0.119875	7661.299374	56259.317464	4324.439861	29204.968051
56.035500	0.050654	0.003422	0.042886	-0.057781	7171.827824	50589.151632	4174.209560	25696.518419
56.538500	0.063986	0.015493	0.061868	0.016303	6611.286466	44242.476436	4017.155722	22116.698194
57.036000	0.077794	0.024413	0.078433	0.061497	6351.006496	40929.156320	3943.095148	20214.561394
57.536500	0.093514	0.033508	0.095816	0.111222	6089.443833	37532.007446	3865.093102	18338.151261
58.036500	0.112820	0.047593	0.118540	0.157759	5894.265279	35038.055215	3811.265644	16766.414724
58.537000	0.132921	0.060988	0.134058	0.173805	5922.559622	34842.389796	3810.103267	16262.357254
59.037000	0.150008	0.071811	0.157553	0.202587	5841.667363	33548.165081	3798.561779	15403.594162
59.534500	0.160136	0.078931	0.163750	0.241782	5649.800608	31365.691077	3729.613591	14321.997603
60.035000	0.173502	0.085998	0.180977	0.282597	5480.038058	29236.922970	3683.442371	13294.804776
60.535500	0.186854	0.095971	0.198839	0.299705	5457.630831	28807.661781	3684.877775	12892.127110
61.038000	0.197398	0.100628	0.203869	0.317026	5417.685926	28062.917198	3661.755947	12500.294508
61.536000	0.207374	0.108347	0.216707	0.350162	5285.800834	26632.105112	3624.971189	11792.866244
62.036000	0.210546	0.115513	0.220083	0.349982	5304.454896	27037.039210	3631.291276	11796.557679
62.536500	0.214841	0.117848	0.225679	0.355410	5298.132838	26865.700259	3631.591501	11685.687674
63.036500	0.222033	0.120284	0.231209	0.358588	5320.604247	26824.756832	3635.802678	11621.420110
63.536500	0.222661	0.123243	0.233867	0.360382	5314.053575	26889.068970	3637.356049	11585.350972
64.034500	0.225226	0.126854	0.237003	0.371257	5267.883847	26491.042868	3623.558851	11369.823244
64.535000	0.231520	0.127241	0.240437	0.371238	5302.879755	26513.096176	3629.684181	11370.192723
65.035000	0.234296	0.130480	0.244885	0.377146	5285.452159	26368.367347	3627.087536	11255.346391
65.536000	0.242106	0.133545	0.250239	0.380323	5311.273559	26362.348059	3630.960841	11194.224782
66.035500	0.239223	0.133868	0.249705	0.388678	5249.116837	25932.269793	3615.265187	11035.621212
66.536000	0.243600	0.136382	0.258002	0.388584	5273.656533	26071.081105	3630.073815	11037.400092
67.036000	0.246810	0.137603	0.261275	0.395901	5251.105379	25747.978381	3622.901440	10900.941577
67.536500	0.248332	0.137216	0.259392	0.397589	5250.197845	25639.078606	3616.624266	10869.802233
68.036000	0.251375	0.138041	0.262337	0.400801	5249.274846	25514.375799	3616.155811	10810.850941
68.539500	0.250762	0.140709	0.264079	0.405424	5220.860835	25412.796157	3611.130939	10726.776125
69.037500	0.254309	0.140818	0.267049	0.410718	5211.453417	25145.495006	3607.101953	10631.587843
69.535000	0.258406	0.142602	0.267186	0.412310	5224.951015	25155.360854	3604.590654	10603.186858
70.035500	0.258350	0.142516	0.271879	0.415339	5208.337275	24996.243622	3607.463270	10549.440597
70.535500	0.261697	0.147080	0.278655	0.421493	5193.323380	24915.451141	3608.539544	10441.387343
71.036000	0.258277	0.146406	0.272567	0.426452	5149.082657	24631.653021	3589.644006	10355.430806
71.536000	0.262380	0.147013	0.267669	0.425543	5175.445377	24707.671927	3582.939777	10371.114064
72.036500	0.262662	0.147556	0.273922	0.433539	5135.001149	24336.511985	3580.028687	10234.285108
72.537000	0.260650	0.148331	0.278586	0.430161	5142.107419	24542.581660	3593.556610	10291.783355
73.037000	0.262370	0.149160	0.288404	0.436431	5118.508608	24272.988982	3599.604031	10185.397740
73.537500	0.265588	0.148337	0.282643	0.434496	5145.255479	24327.827926	3593.084849	10218.073394
74.034500	0.268537	0.149117	0.289270	0.435913	5153.268788	24296.439505	3601.979118	10194.138269
74.535000	0.268123	0.150549	0.285752	0.438127	5139.540452	24257.877582	3592.200165	10156.891982
75.038000	0.268975	0.151288	0.276805	0.443834	5114.398912	24014.915955	3567.780039	10061.773219
75.536000	0.270128	0.152173	0.286378	0.441883	5130.438773	24153.274279	3586.913610	10094.142412
76.036000	0.273699	0.153352	0.287869	0.443737	5139.362878	24120.247565	3586.303313	10063.370171
76.536000	0.274644	0.153876	0.290334	0.444783	5138.838605	24094.780158	3588.693204	10046.075914
77.036500	0.271960	0.154013	0.285920	0.445932	5118.964451	24045.366577	3579.369623	10027.100935
77.536500	0.274569	0.154590	0.295094	0.447326	5125.245599	24005.673567	3592.441484	10004.175284
78.037000	0.276576	0.156304	0.292890	0.449973	5121.933602	23960.301482	3584.263533	9960.816585
78.534500	0.276463	0.156128	0.296045	0.450478	5118.743348	23927.330176	3588.719575	9952.579666
79.035000	0.272980	0.154063	0.292802	0.453802	5083.896604	23667.929020	3577.726621	9898.581302
79.538000	0.275648	0.158027	0.291798	0.452556	5103.872540	23918.670836	3578.129337	9918.786307
80.035500	0.272575	0.154966	0.292719	0.455445	5073.525573	23632.561047	3574.865348	9872.049918
80.541000	0.278464	0.157162	0.294415	0.452359	5119.365993	23886.387370	3582.822792	9921.982251
81.036000	0.276607	0.158627	0.296786	0.459472	5073.546867	23615.096304	3574.930863	9807.417205
81.536500	0.277631	0.157831	0.290503	0.454175	5105.732719	23830.971659	3573.301236	9892.543365
82.037000	0.274381	0.157626	0.289410	0.459758	5060.884667	23553.791493	3562.363366	9802.860862
82.537000	0.280588	0.160276	0.294560	0.457032	5106.250964	23811.122920	3575.286018	9846.502741
83.037000	0.276575	0.157199	0.296744	0.461769	5061.805591	23438.109553	3571.070176	9770.823730
83.540000	0.278321	0.157763	0.297302	0.455946	5100.198824	23742.515481	3581.652755	9863.975466
84.037500	0.273531	0.156800	0.289708	0.458452	5063.180530	23576.662501	3564.976846	9823.741781
84.535500	0.278838	0.158306	0.296403	0.455569	5104.778345	23786.721798	3580.781135	9870.053074
85.035500	0.276293	0.158512	0.289230	0.461071	5063.897496	23533.461550	3559.939512	9781.924203
85.538500	0.280510	0.159173	0.301527	0.456286	5109.677144	23793.900024	3588.170129	9858.494473
86.036000	0.280143	0.159472	0.292794	0.459927	5089.183358	23633.727895	3567.610622	9800.165579
86.539500	0.281171	0.159458	0.304899	0.455927	5114.927632	23824.928677	3594.486222	9864.276390
87.036500	0.278920	0.158821	0.297587	0.455068	5107.768199	23835.674683	3583.596877	9878.125631
87.537000	0.281061	0.159346	0.302240	0.454776	5120.297589	23875.093985	3591.927964	9882.844771
88.034500	0.279544	0.158474	0.294602	0.459149	5090.091238	23623.227051	3571.858842	9812.587523
88.537500	0.282611	0.158079	0.302260	0.452782	5138.669134	23910.254845	3595.347169	9915.115118
89.035000	0.278192	0.156535	0.301076	0.451849	5120.596165	23880.737775	3594.919510	9930.269891
89.541000	0.282720	0.157022	0.295262	0.452047	5143.067129	23894.667661	3584.763317	9927.038989
90.036000	0.280370	0.157759	0.300492	0.456391	5108.420786	23720.971723	3586.251775	9856.817508
90.536000	0.283874	0.157421	0.305103	0.453285	5142.629864	23854.160833	3599.340764	9906.963176
91.036500	0.276466	0.155788	0.297173	0.457208	5084.305657	23587.670423	3579.332803	9843.682470
91.536500	0.286448	0.158018	0.296579	0.452829	5158.486518	23905.043956	3585.661824	9914.351882
92.037000	0.282435	0.156672	0.296593	0.452012	5141.762894	23879.413785	3587.059290	9927.610972
92.537000	0.281302	0.156415	0.294238	0.451310	5139.518515	23900.939965	3584.283225	9939.030362
93.034500	0.278569	0.154704	0.291191	0.456442	5098.932634	23572.532253	3570.698652	9855.991705
93.534500	0.282119	0.156815	0.304229	0.451756	5141.451818	23898.742739	3600.461518	9931.778820
94.035000	0.283150	0.154800	0.298262	0.450356	5154.153496	23869.027437	3592.675678	9954.574463
94.535500	0.282312	0.155413	0.303626	0.450872	5147.070251	23873.714770	3600.943194	9946.169486
95.036000	0.280269	0.154692	0.297168	0.455582	5112.060361	23612.964886	3582.036983	9869.839503
95.536000	0.282536	0.156315	0.303167	0.451776	5143.519908	23873.598936	3598.609351	9931.443635
96.037000	0.285478	0.157228	0.302265	0.451971	5157.896236	23908.316001	3596.735770	9928.274789
