sample name	sample
index	1430
start time	 05-10-2021  12:32:38 PM


Wavelength (nm)	Absorbance
494.344910	-0.006303
494.563924	-0.006303
494.782919	-0.006303
495.001897	-0.040258
495.220856	-0.000781
495.439797	-0.001448
495.658719	0.001203
495.877624	-0.000626
496.096510	0.001830
496.315378	0.009814
496.534227	0.013511
496.753059	0.018236
496.971872	0.017129
497.190667	0.083305
497.409444	0.122006
497.628203	0.134646
497.846943	0.138890
498.065665	0.142179
498.284369	0.145513
498.503055	0.147264
498.721723	0.148413
498.940372	0.150225
499.159003	0.150889
499.377616	0.149749
499.596210	0.149038
499.814787	0.150080
500.033345	0.150062
500.251885	0.148392
500.470406	0.148857
500.688910	0.149464
500.907395	0.150025
501.125862	0.150967
501.344311	0.150639
501.562742	0.151407
501.781154	0.151809
501.999548	0.153128
502.217924	0.155118
502.436282	0.154714
502.654621	0.155615
502.872942	0.154986
503.091245	0.154180
503.309530	0.155227
503.527797	0.154626
503.746045	0.153945
503.964275	0.154213
504.182487	0.152857
504.400681	0.154062
504.618856	0.153584
504.837013	0.153971
505.055152	0.154240
505.273273	0.154476
505.491376	0.154423
505.709460	0.154961
505.927526	0.154563
506.145574	0.155068
506.363604	0.154137
506.581615	0.154517
506.799608	0.154564
507.017583	0.155531
507.235540	0.155096
507.453478	0.156048
507.671399	0.156440
507.889301	0.156057
508.107185	0.156002
508.325050	0.156141
508.542898	0.155345
508.760727	0.156032
508.978538	0.156012
509.196330	0.157007
509.414105	0.158600
509.631861	0.158631
509.849599	0.159458
510.067319	0.160143
510.285021	0.160852
510.502704	0.161491
510.720369	0.161199
510.938016	0.159862
511.155645	0.159467
511.373255	0.158208
511.590848	0.159635
511.808422	0.159638
512.025977	0.160369
512.243515	0.160114
512.461034	0.160305
512.678536	0.160990
512.896018	0.161821
513.113483	0.162777
513.330930	0.162585
513.548358	0.162041
513.765768	0.162387
513.983160	0.163098
514.200533	0.164314
514.417889	0.165507
514.635226	0.165690
514.852545	0.165508
515.069845	0.165468
515.287128	0.166465
515.504392	0.165998
515.721638	0.166050
515.938866	0.165429
516.156075	0.164627
516.373267	0.163901
516.590440	0.163826
516.807594	0.164402
517.024731	0.163854
517.241850	0.163691
517.458950	0.164229
517.676032	0.164928
517.893095	0.165112
518.110141	0.165255
518.327168	0.165373
518.544177	0.166253
518.761168	0.166844
518.978141	0.166700
519.195095	0.166720
519.412031	0.167377
519.628949	0.167387
519.845849	0.168271
520.062731	0.169068
520.279594	0.169611
520.496439	0.169719
520.713266	0.170206
520.930074	0.171305
521.146865	0.172137
521.363637	0.172107
521.580391	0.172051
521.797127	0.172039
522.013844	0.171928
522.230543	0.171985
522.447224	0.172043
522.663887	0.171509
522.880532	0.172533
523.097158	0.172484
523.313766	0.173120
523.530356	0.173815
523.746928	0.173895
523.963481	0.173910
524.180017	0.174314
524.396534	0.175395
524.613032	0.176361
524.829513	0.176068
525.045975	0.176446
525.262420	0.176158
525.478845	0.176848
525.695253	0.177394
525.911643	0.177942
526.128014	0.178134
526.344367	0.177419
526.560702	0.176992
526.777018	0.177085
526.993316	0.177099
527.209597	0.177680
527.425858	0.177671
527.642102	0.177523
527.858328	0.178253
528.074535	0.178518
528.290724	0.179252
528.506894	0.180213
528.723047	0.181314
528.939181	0.182055
529.155297	0.182867
529.371395	0.183399
529.587475	0.183361
529.803536	0.183274
530.019579	0.183573
530.235604	0.182970
530.451611	0.183286
530.667600	0.182473
530.883570	0.182605
531.099522	0.182843
531.315456	0.182378
531.531372	0.183496
531.747269	0.183670
531.963148	0.184444
532.179009	0.185060
532.394852	0.185245
532.610676	0.186081
532.826482	0.185802
533.042271	0.186092
533.258040	0.186598
533.473792	0.186784
533.689525	0.187588
533.905240	0.187603
534.120937	0.188144
534.336616	0.188535
534.552277	0.188648
534.767919	0.189507
534.983543	0.189936
535.199149	0.190622
535.414736	0.190468
535.630306	0.190658
535.845857	0.190510
536.061390	0.190692
536.276904	0.190912
536.492401	0.191397
536.707879	0.191665
536.923339	0.191168
537.138781	0.191749
537.354204	0.192205
537.569610	0.192042
537.784997	0.193331
538.000366	0.194079
538.215716	0.194584
538.431049	0.195227
538.646363	0.195885
538.861659	0.196373
539.076937	0.195723
539.292196	0.196134
539.507438	0.196820
539.722661	0.196015
539.937866	0.195876
540.153052	0.195858
540.368221	0.195497
540.583371	0.195673
540.798503	0.195894
541.013617	0.197044
541.228712	0.197610
541.443789	0.197991
541.658848	0.199196
541.873889	0.199415
542.088912	0.200222
542.303916	0.200820
542.518902	0.200757
542.733870	0.201437
542.948820	0.201149
543.163752	0.200826
543.378665	0.201414
543.593560	0.201525
543.808437	0.201864
544.023295	0.201573
544.238136	0.201697
544.452958	0.202474
544.667762	0.202609
544.882548	0.203091
545.097315	0.203482
545.312064	0.203407
545.526795	0.202942
545.741508	0.203245
545.956203	0.203411
546.170879	0.203716
546.385537	0.203478
546.600177	0.203322
546.814799	0.203527
547.029402	0.203964
547.243988	0.203790
547.458555	0.204358
547.673103	0.204623
547.887634	0.204873
548.102146	0.204745
548.316640	0.204979
548.531116	0.205501
548.745574	0.205550
548.960013	0.205950
549.174435	0.206748
549.388838	0.206927
549.603222	0.207112
549.817589	0.207847
550.031937	0.208305
550.246267	0.208699
550.460579	0.208797
550.674873	0.209528
550.889148	0.209689
551.103405	0.209783
551.317644	0.210241
551.531865	0.210617
551.746068	0.210254
551.960252	0.210414
552.174418	0.210651
552.388566	0.211060
552.602696	0.211086
552.816807	0.211353
553.030900	0.211602
553.244975	0.211402
553.459032	0.211449
553.673070	0.212318
553.887091	0.212746
554.101093	0.213299
554.315077	0.213413
554.529042	0.213625
554.742990	0.213290
554.956919	0.213420
555.170830	0.213931
555.384722	0.213976
555.598597	0.213977
555.812453	0.213690
556.026291	0.213649
556.240111	0.213877
556.453913	0.213552
556.667696	0.213890
556.881461	0.213780
557.095208	0.213771
557.308937	0.213712
557.522647	0.213013
557.736339	0.213301
557.950013	0.213278
558.163669	0.213412
558.377307	0.213800
558.590926	0.214035
558.804527	0.214576
559.018110	0.214456
559.231675	0.214544
559.445221	0.215228
559.658749	0.215649
559.872259	0.215558
560.085751	0.215426
560.299225	0.215325
560.512680	0.215174
560.726117	0.214718
560.939536	0.215361
561.152937	0.215769
561.366319	0.215798
561.579683	0.215960
561.793029	0.216470
562.006357	0.216270
562.219667	0.217034
562.432958	0.217527
562.646231	0.218363
562.859486	0.218212
563.072723	0.218686
563.285941	0.218823
563.499141	0.218655
563.712323	0.218412
563.925487	0.219172
564.138632	0.218844
564.351760	0.219063
564.564869	0.218634
564.777960	0.219084
564.991032	0.219123
565.204087	0.219595
565.417123	0.220063
565.630141	0.220576
565.843140	0.220652
566.056122	0.221251
566.269085	0.221400
566.482030	0.221857
566.694957	0.222068
566.907866	0.222203
567.120756	0.221928
567.333628	0.221924
567.546482	0.221790
567.759318	0.221775
567.972135	0.221556
568.184935	0.221320
568.397716	0.221323
568.610478	0.221639
568.823223	0.221545
569.035949	0.222073
569.248657	0.222254
569.461347	0.222404
569.674019	0.222577
569.886672	0.222702
570.099308	0.223041
570.311925	0.223442
570.524523	0.223202
570.737104	0.223374
570.949666	0.223334
571.162210	0.223261
571.374736	0.223213
571.587244	0.223772
571.799733	0.223984
572.012205	0.223766
572.224658	0.223841
572.437092	0.223866
572.649509	0.224254
572.861907	0.224427
573.074287	0.224422
573.286649	0.224830
573.498993	0.224411
573.711318	0.224316
573.923625	0.224787
574.135914	0.224621
574.348185	0.225168
574.560438	0.225422
574.772672	0.225844
574.984888	0.226246
575.197086	0.226425
575.409266	0.227323
575.621427	0.227663
575.833570	0.228084
576.045695	0.228303
576.257802	0.228482
576.469890	0.228676
576.681961	0.228739
576.894013	0.229341
577.106046	0.229344
577.318062	0.229398
577.530059	0.229692
577.742039	0.229862
577.954000	0.229849
578.165942	0.230052
578.377867	0.230005
578.589773	0.230127
578.801661	0.230061
579.013531	0.230655
579.225382	0.230636
579.437216	0.230952
579.649031	0.231104
579.860828	0.231575
580.072606	0.231581
580.284367	0.231700
580.496109	0.231902
580.707833	0.231986
580.919539	0.231629
581.131227	0.231411
581.342896	0.231166
581.554547	0.230891
581.766180	0.231318
581.977795	0.231747
582.189391	0.232217
582.400969	0.232099
582.612529	0.232080
582.824071	0.232788
583.035595	0.233334
583.247100	0.233847
583.458587	0.234110
583.670056	0.234160
583.881506	0.233863
584.092939	0.233754
584.304353	0.234305
584.515749	0.234729
584.727127	0.234933
584.938486	0.234970
585.149828	0.235299
585.361151	0.236177
585.572456	0.236336
585.783742	0.236659
585.995011	0.237105
586.206261	0.237249
586.417493	0.237251
586.628706	0.237247
586.839902	0.238057
587.051079	0.238005
587.262238	0.237951
587.473379	0.238181
587.684502	0.238253
587.895606	0.238490
588.106692	0.238869
588.317760	0.239234
588.528810	0.239441
588.739841	0.239425
588.950855	0.239912
589.161850	0.240080
589.372827	0.240254
589.583785	0.240628
589.794726	0.240375
590.005648	0.240623
590.216552	0.240981
590.427437	0.241239
590.638305	0.241380
590.849154	0.241501
591.059985	0.241659
591.270798	0.242185
591.481592	0.242627
591.692369	0.242878
591.903127	0.242849
592.113867	0.243162
592.324588	0.243262
592.535292	0.243212
592.745977	0.242927
592.956644	0.243314
593.167293	0.243065
593.377923	0.243120
593.588536	0.243732
593.799130	0.243963
594.009706	0.243611
594.220263	0.243671
594.430803	0.244383
594.641324	0.245082
594.851827	0.244632
595.062312	0.244600
595.272778	0.244610
595.483227	0.244593
595.693657	0.244675
595.904069	0.245304
596.114462	0.245727
596.324838	0.245504
596.535195	0.245388
596.745534	0.245324
596.955855	0.245649
597.166157	0.245812
597.376441	0.246126
597.586707	0.246460
597.796955	0.246709
598.007185	0.246900
598.217396	0.246897
598.427589	0.247219
598.637764	0.247876
598.847921	0.247818
599.058060	0.248064
599.268180	0.247903
599.478282	0.247701
599.688366	0.247571
599.898431	0.247484
600.108479	0.247621
600.318508	0.247818
600.528519	0.248009
600.738511	0.248571
600.948486	0.248752
601.158442	0.249123
601.368380	0.249651
601.578300	0.249958
601.788202	0.249891
601.998085	0.249867
602.207950	0.249828
602.417797	0.250049
602.627626	0.250187
602.837436	0.250312
603.047228	0.250239
603.257002	0.249955
603.466758	0.249943
603.676496	0.250425
603.886215	0.250874
604.095916	0.250890
604.305599	0.251193
604.515264	0.251459
604.724910	0.251297
604.934538	0.251411
605.144148	0.251794
605.353740	0.252262
605.563314	0.252350
605.772869	0.252532
605.982406	0.253183
606.191925	0.253395
606.401425	0.253371
606.610908	0.253632
606.820372	0.254037
607.029818	0.254286
607.239246	0.254414
607.448655	0.255008
607.658047	0.255238
607.867420	0.255170
608.076775	0.254628
608.286111	0.254676
608.495430	0.255382
608.704730	0.255386
608.914012	0.255397
609.123275	0.255361
609.332521	0.255343
609.541748	0.255516
609.750957	0.255823
609.960148	0.256615
610.169321	0.256967
610.378475	0.257090
610.587611	0.257617
610.796729	0.257775
611.005829	0.258016
611.214910	0.257979
611.423974	0.257906
611.633019	0.258011
611.842045	0.258222
612.051054	0.258421
612.260044	0.258242
612.469017	0.258105
612.677970	0.258150
612.886906	0.258405
613.095824	0.258501
613.304723	0.259058
613.513604	0.259162
613.722467	0.258977
613.931311	0.259443
614.140138	0.259726
614.348946	0.259846
614.557736	0.260062
614.766507	0.260069
614.975261	0.260819
615.183996	0.260542
615.392713	0.260510
615.601412	0.260796
615.810092	0.260546
616.018754	0.260707
616.227399	0.261159
616.436024	0.261524
616.644632	0.261654
616.853222	0.261596
617.061793	0.262179
617.270346	0.262343
617.478880	0.262778
617.687397	0.262971
617.895895	0.263255
618.104375	0.263595
618.312837	0.263996
618.521281	0.264410
618.729706	0.264440
618.938113	0.264590
619.146502	0.264987
619.354873	0.264871
619.563226	0.265256
619.771560	0.265533
619.979876	0.265334
620.188174	0.265175
620.396453	0.265188
620.604715	0.265265
620.812958	0.264857
621.021183	0.265012
621.229390	0.265217
621.437578	0.265453
621.645748	0.265324
621.853900	0.265622
622.062034	0.265496
622.270150	0.265488
622.478247	0.265618
622.686326	0.266104
622.894387	0.266297
623.102430	0.266547
623.310454	0.266566
623.518461	0.266906
623.726449	0.267021
623.934418	0.267299
624.142370	0.267440
624.350303	0.267575
624.558218	0.267581
624.766115	0.267600
624.973994	0.267369
625.181855	0.267462
625.389697	0.267346
625.597521	0.267364
625.805327	0.267555
626.013114	0.267547
626.220883	0.267609
626.428634	0.267676
626.636367	0.267747
626.844082	0.267830
627.051778	0.267545
627.259457	0.267700
627.467117	0.267869
627.674758	0.267941
627.882382	0.268252
628.089987	0.268423
628.297574	0.268621
628.505143	0.268873
628.712694	0.269365
628.920226	0.269619
629.127740	0.269785
629.335236	0.269892
629.542714	0.270025
629.750174	0.270349
629.957615	0.270574
630.165038	0.270817
630.372443	0.270768
630.579829	0.270885
630.787198	0.271286
630.994548	0.271262
631.201880	0.271263
631.409194	0.271642
631.616489	0.271385
631.823766	0.271564
632.031025	0.271671
632.238266	0.272134
632.445489	0.272639
632.652693	0.272680
632.859879	0.272870
633.067047	0.273011
633.274197	0.273408
633.481329	0.273968
633.688442	0.273936
633.895537	0.273905
634.102614	0.273787
634.309672	0.273545
634.516713	0.273730
634.723735	0.274196
634.930739	0.274668
635.137724	0.274698
635.344692	0.274861
635.551641	0.275382
635.758572	0.275807
635.965485	0.276252
636.172379	0.276570
636.379256	0.276631
636.586114	0.276566
636.792954	0.276692
636.999775	0.276895
637.206579	0.276583
637.413364	0.276632
637.620131	0.277071
637.826880	0.277136
638.033610	0.277310
638.240323	0.277652
638.447017	0.278073
638.653692	0.278363
638.860350	0.278370
639.066990	0.278846
639.273611	0.279090
639.480214	0.279012
639.686798	0.279284
639.893365	0.279620
640.099913	0.280077
640.306443	0.280013
640.512955	0.279849
640.719449	0.280188
640.925924	0.280323
641.132381	0.280558
641.338820	0.280948
641.545241	0.281153
641.751644	0.281289
641.958028	0.281324
642.164394	0.281697
642.370742	0.281967
642.577071	0.281980
642.783383	0.282326
642.989676	0.282372
643.195951	0.282543
643.402207	0.282496
643.608446	0.282702
643.814666	0.282787
644.020868	0.283045
644.227052	0.283188
644.433218	0.283480
644.639365	0.283651
644.845494	0.283746
645.051605	0.283492
645.257698	0.283885
645.463772	0.283901
645.669828	0.283941
645.875866	0.284015
646.081886	0.284234
646.287888	0.284305
646.493871	0.284401
646.699836	0.284502
646.905783	0.284875
647.111712	0.284778
647.317622	0.284922
647.523514	0.285304
647.729388	0.285539
647.935244	0.285943
648.141082	0.286196
648.346901	0.286435
648.552702	0.286345
648.758485	0.286458
648.964250	0.286882
649.169996	0.286873
649.375724	0.286860
649.581434	0.286779
649.787126	0.286650
649.992800	0.286745
650.198455	0.286668
650.404092	0.287065
650.609711	0.287130
650.815311	0.287228
651.020894	0.287625
651.226458	0.287788
651.432004	0.288155
651.637532	0.288163
651.843041	0.288220
652.048532	0.288660
652.254006	0.288868
652.459460	0.289010
652.664897	0.289181
652.870315	0.289204
653.075716	0.289396
653.281097	0.289461
653.486461	0.290014
653.691807	0.290278
653.897134	0.290606
654.102443	0.290732
654.307734	0.291028
654.513006	0.290984
654.718261	0.291211
654.923497	0.291673
655.128715	0.292028
655.333915	0.292222
655.539096	0.292344
655.744259	0.292363
655.949404	0.292557
656.154531	0.292833
656.359640	0.293115
656.564730	0.293473
656.769802	0.293603
656.974856	0.293799
657.179892	0.293863
657.384909	0.293844
657.589908	0.293943
657.794889	0.294313
657.999852	0.294480
658.204797	0.294742
658.409723	0.294829
658.614631	0.295028
658.819521	0.295204
659.024393	0.295603
659.229246	0.295949
659.434081	0.296251
659.638898	0.296519
659.843697	0.296613
660.048478	0.296838
660.253240	0.297045
660.457984	0.297248
660.662710	0.297264
660.867417	0.297567
661.072107	0.297936
661.276778	0.298302
661.481431	0.298390
661.686066	0.298794
661.890682	0.298778
662.095281	0.298899
662.299861	0.299030
662.504422	0.299393
662.708966	0.299130
662.913491	0.299257
663.117999	0.299232
663.322488	0.299378
663.526958	0.299641
663.731411	0.300011
663.935845	0.300148
664.140261	0.300275
664.344659	0.300572
664.549038	0.301159
664.753400	0.301366
664.957743	0.301544
665.162068	0.302020
665.366375	0.302023
665.570663	0.301937
665.774933	0.302094
665.979185	0.302365
666.183419	0.302386
666.387635	0.302372
666.591832	0.302647
666.796011	0.302873
667.000172	0.302974
667.204315	0.303179
667.408439	0.303584
667.612545	0.304070
667.816634	0.304229
668.020703	0.304320
668.224755	0.304520
668.428788	0.304580
668.632803	0.304751
668.836800	0.304978
669.040779	0.305352
669.244739	0.305544
669.448681	0.305638
669.652605	0.305946
669.856511	0.306072
670.060399	0.306232
670.264268	0.306654
670.468119	0.307001
670.671952	0.307032
670.875767	0.307272
671.079563	0.307595
671.283341	0.307771
671.487101	0.307726
671.690843	0.308079
671.894567	0.308390
672.098272	0.308360
672.301959	0.308487
672.505628	0.308541
672.709278	0.308526
672.912911	0.308739
673.116525	0.309039
673.320121	0.309313
673.523699	0.309523
673.727258	0.309804
673.930799	0.310022
674.134322	0.310273
674.337827	0.310560
674.541314	0.310975
674.744782	0.311339
674.948232	0.311620
675.151664	0.312047
675.355078	0.311840
675.558474	0.311848
675.761851	0.312247
675.965210	0.312312
676.168551	0.312655
676.371873	0.312671
676.575178	0.312736
676.778464	0.312706
676.981732	0.312493
677.184981	0.312971
677.388213	0.313196
677.591426	0.313153
677.794621	0.313452
677.997798	0.313649
678.200956	0.313904
678.404097	0.314303
678.607219	0.314499
678.810323	0.314764
679.013408	0.315052
679.216476	0.315334
679.419525	0.315588
679.622556	0.316041
679.825569	0.316145
680.028563	0.316440
680.231540	0.316447
680.434498	0.316621
680.637438	0.316967
680.840359	0.317268
681.043263	0.317394
681.246148	0.317517
681.449015	0.317451
681.651864	0.317787
681.854694	0.317785
682.057506	0.317961
682.260301	0.318418
682.463076	0.318435
682.665834	0.318635
682.868573	0.318963
683.071295	0.319309
683.273998	0.319403
683.476682	0.319514
683.679349	0.319715
683.881997	0.319806
684.084627	0.319729
684.287239	0.320094
684.489833	0.320158
684.692408	0.320063
684.894965	0.320143
685.097504	0.320425
685.300025	0.320463
685.502527	0.320760
685.705012	0.321016
685.907478	0.321293
686.109925	0.321329
686.312355	0.321704
686.514766	0.322045
686.717159	0.322268
686.919534	0.322319
687.121891	0.322467
687.324230	0.322702
687.526550	0.322911
687.728852	0.323091
687.931136	0.323269
688.133401	0.323198
688.335649	0.323353
688.537878	0.323615
688.740089	0.323673
688.942281	0.323983
689.144456	0.323821
689.346612	0.323769
689.548750	0.323757
689.750870	0.324151
689.952971	0.324210
690.155055	0.324382
690.357120	0.324499
690.559167	0.324720
690.761195	0.324680
690.963206	0.325090
691.165198	0.325324
691.367172	0.325738
691.569128	0.325520
691.771065	0.325968
691.972984	0.326095
692.174885	0.326198
692.376768	0.326521
692.578633	0.326971
692.780479	0.327380
692.982308	0.327650
693.184118	0.327784
693.385909	0.328126
