sample name	sample
index	848
start time	 04-08-2021  10:37:27 AM


Wavelength (nm)	Absorbance
494.344910	-0.077146
494.563924	-0.077146
494.782919	-0.077146
495.001897	-0.104794
495.220856	-0.042152
495.439797	-0.030992
495.658719	-0.016976
495.877624	0.001654
496.096510	0.010899
496.315378	0.026009
496.534227	-0.003843
496.753059	0.013607
496.971872	0.006267
497.190667	0.073544
497.409444	0.093402
497.628203	0.097822
497.846943	0.099512
498.065665	0.102776
498.284369	0.102004
498.503055	0.105595
498.721723	0.105252
498.940372	0.106542
499.159003	0.106793
499.377616	0.105645
499.596210	0.105310
499.814787	0.105987
500.033345	0.104776
500.251885	0.104976
500.470406	0.103820
500.688910	0.103980
500.907395	0.103447
501.125862	0.102643
501.344311	0.102963
501.562742	0.102988
501.781154	0.102783
501.999548	0.102957
502.217924	0.102773
502.436282	0.103958
502.654621	0.103578
502.872942	0.103184
503.091245	0.103042
503.309530	0.103103
503.527797	0.103245
503.746045	0.102642
503.964275	0.103220
504.182487	0.104365
504.400681	0.103524
504.618856	0.103480
504.837013	0.104507
505.055152	0.105659
505.273273	0.106338
505.491376	0.107816
505.709460	0.108295
505.927526	0.108266
506.145574	0.108624
506.363604	0.108463
506.581615	0.109402
506.799608	0.108940
507.017583	0.108462
507.235540	0.108451
507.453478	0.107033
507.671399	0.107237
507.889301	0.107549
508.107185	0.107197
508.325050	0.108256
508.542898	0.107742
508.760727	0.108470
508.978538	0.108721
509.196330	0.109288
509.414105	0.109547
509.631861	0.109496
509.849599	0.109733
510.067319	0.109455
510.285021	0.109412
510.502704	0.109687
510.720369	0.108934
510.938016	0.109910
511.155645	0.108792
511.373255	0.109388
511.590848	0.109907
511.808422	0.109475
512.025977	0.110001
512.243515	0.110267
512.461034	0.110410
512.678536	0.111437
512.896018	0.110634
513.113483	0.111402
513.330930	0.110889
513.548358	0.110516
513.765768	0.110915
513.983160	0.111367
514.200533	0.111164
514.417889	0.111471
514.635226	0.111013
514.852545	0.111911
515.069845	0.112276
515.287128	0.113088
515.504392	0.112643
515.721638	0.112751
515.938866	0.112929
516.156075	0.112198
516.373267	0.112122
516.590440	0.112471
516.807594	0.112611
517.024731	0.113263
517.241850	0.113604
517.458950	0.115160
517.676032	0.115012
517.893095	0.115191
518.110141	0.117020
518.327168	0.116907
518.544177	0.117442
518.761168	0.117433
518.978141	0.117135
519.195095	0.117360
519.412031	0.117176
519.628949	0.118098
519.845849	0.117967
520.062731	0.117408
520.279594	0.118367
520.496439	0.118284
520.713266	0.118600
520.930074	0.119027
521.146865	0.119403
521.363637	0.119495
521.580391	0.119520
521.797127	0.119983
522.013844	0.120604
522.230543	0.120920
522.447224	0.120881
522.663887	0.121089
522.880532	0.120755
523.097158	0.120762
523.313766	0.120708
523.530356	0.120486
523.746928	0.121093
523.963481	0.120658
524.180017	0.120600
524.396534	0.121504
524.613032	0.121621
524.829513	0.122069
525.045975	0.121977
525.262420	0.122759
525.478845	0.123585
525.695253	0.123194
525.911643	0.124415
526.128014	0.124759
526.344367	0.125087
526.560702	0.125347
526.777018	0.126538
526.993316	0.126833
527.209597	0.127064
527.425858	0.127478
527.642102	0.128014
527.858328	0.127581
528.074535	0.128317
528.290724	0.128576
528.506894	0.128833
528.723047	0.128495
528.939181	0.129556
529.155297	0.129731
529.371395	0.129836
529.587475	0.130543
529.803536	0.131375
530.019579	0.131411
530.235604	0.131899
530.451611	0.132659
530.667600	0.133052
530.883570	0.133664
531.099522	0.133861
531.315456	0.134540
531.531372	0.134823
531.747269	0.134710
531.963148	0.135254
532.179009	0.135087
532.394852	0.134752
532.610676	0.135670
532.826482	0.135518
533.042271	0.135766
533.258040	0.135810
533.473792	0.136308
533.689525	0.136666
533.905240	0.136472
534.120937	0.137163
534.336616	0.137975
534.552277	0.137415
534.767919	0.137313
534.983543	0.138004
535.199149	0.137876
535.414736	0.137530
535.630306	0.137502
535.845857	0.137549
536.061390	0.137487
536.276904	0.137593
536.492401	0.138310
536.707879	0.138530
536.923339	0.138727
537.138781	0.139255
537.354204	0.139702
537.569610	0.140295
537.784997	0.140847
538.000366	0.140525
538.215716	0.140488
538.431049	0.140783
538.646363	0.141029
538.861659	0.141488
539.076937	0.142026
539.292196	0.142015
539.507438	0.142192
539.722661	0.142779
539.937866	0.143363
540.153052	0.143767
540.368221	0.143773
540.583371	0.144343
540.798503	0.144442
541.013617	0.144229
541.228712	0.144448
541.443789	0.144756
541.658848	0.144464
541.873889	0.144688
542.088912	0.144971
542.303916	0.144849
542.518902	0.144903
542.733870	0.145077
542.948820	0.145645
543.163752	0.146234
543.378665	0.146555
543.593560	0.146719
543.808437	0.147058
544.023295	0.147496
544.238136	0.147923
544.452958	0.148000
544.667762	0.148924
544.882548	0.148994
545.097315	0.148972
545.312064	0.149247
545.526795	0.149791
545.741508	0.150108
545.956203	0.150340
546.170879	0.150759
546.385537	0.151132
546.600177	0.150837
546.814799	0.151233
547.029402	0.151383
547.243988	0.151994
547.458555	0.152441
547.673103	0.152634
547.887634	0.152774
548.102146	0.153210
548.316640	0.153270
548.531116	0.152897
548.745574	0.153077
548.960013	0.153424
549.174435	0.153255
549.388838	0.153946
549.603222	0.153915
549.817589	0.154133
550.031937	0.154329
550.246267	0.155451
550.460579	0.156487
550.674873	0.156923
550.889148	0.157354
551.103405	0.157682
551.317644	0.157017
551.531865	0.157385
551.746068	0.157843
551.960252	0.157773
552.174418	0.157586
552.388566	0.157666
552.602696	0.157722
552.816807	0.157594
553.030900	0.157440
553.244975	0.157495
553.459032	0.157747
553.673070	0.158233
553.887091	0.158731
554.101093	0.159064
554.315077	0.159043
554.529042	0.159332
554.742990	0.159502
554.956919	0.160097
555.170830	0.160583
555.384722	0.160887
555.598597	0.160536
555.812453	0.160205
556.026291	0.159812
556.240111	0.159923
556.453913	0.159744
556.667696	0.159950
556.881461	0.160260
557.095208	0.160519
557.308937	0.160467
557.522647	0.160807
557.736339	0.161443
557.950013	0.162030
558.163669	0.162539
558.377307	0.163240
558.590926	0.163622
558.804527	0.163229
559.018110	0.163242
559.231675	0.163667
559.445221	0.163660
559.658749	0.163450
559.872259	0.163904
560.085751	0.163462
560.299225	0.163467
560.512680	0.163425
560.726117	0.163897
560.939536	0.164370
561.152937	0.164859
561.366319	0.164934
561.579683	0.165156
561.793029	0.165020
562.006357	0.165246
562.219667	0.165113
562.432958	0.165210
562.646231	0.165301
562.859486	0.165326
563.072723	0.165219
563.285941	0.165460
563.499141	0.166059
563.712323	0.166050
563.925487	0.166713
564.138632	0.166913
564.351760	0.167289
564.564869	0.167501
564.777960	0.167783
564.991032	0.168251
565.204087	0.168468
565.417123	0.168161
565.630141	0.168003
565.843140	0.168075
566.056122	0.168456
566.269085	0.168320
566.482030	0.168389
566.694957	0.168497
566.907866	0.168202
567.120756	0.168673
567.333628	0.168887
567.546482	0.169384
567.759318	0.169325
567.972135	0.169395
568.184935	0.169753
568.397716	0.169942
568.610478	0.170026
568.823223	0.170362
569.035949	0.170389
569.248657	0.170356
569.461347	0.170622
569.674019	0.170663
569.886672	0.170450
570.099308	0.170872
570.311925	0.171049
570.524523	0.171088
570.737104	0.171114
570.949666	0.171257
571.162210	0.171853
571.374736	0.171600
571.587244	0.172082
571.799733	0.172496
572.012205	0.172622
572.224658	0.172894
572.437092	0.173026
572.649509	0.172834
572.861907	0.173030
573.074287	0.173097
573.286649	0.173611
573.498993	0.173469
573.711318	0.173647
573.923625	0.173885
574.135914	0.173660
574.348185	0.174243
574.560438	0.174609
574.772672	0.174121
574.984888	0.173619
575.197086	0.173939
575.409266	0.174228
575.621427	0.174177
575.833570	0.174212
576.045695	0.174612
576.257802	0.174748
576.469890	0.174690
576.681961	0.175223
576.894013	0.176206
577.106046	0.176335
577.318062	0.176640
577.530059	0.176916
577.742039	0.177063
577.954000	0.177163
578.165942	0.176645
578.377867	0.177328
578.589773	0.177484
578.801661	0.176981
579.013531	0.177143
579.225382	0.177305
579.437216	0.177916
579.649031	0.177779
579.860828	0.177922
580.072606	0.178269
580.284367	0.178161
580.496109	0.178398
580.707833	0.178792
580.919539	0.178614
581.131227	0.178844
581.342896	0.178546
581.554547	0.178626
581.766180	0.178840
581.977795	0.179164
582.189391	0.179304
582.400969	0.179280
582.612529	0.179348
582.824071	0.179566
583.035595	0.179322
583.247100	0.179580
583.458587	0.179700
583.670056	0.179783
583.881506	0.179931
584.092939	0.180207
584.304353	0.180365
584.515749	0.180337
584.727127	0.180557
584.938486	0.180652
585.149828	0.180704
585.361151	0.180959
585.572456	0.180998
585.783742	0.181469
585.995011	0.181747
586.206261	0.181944
586.417493	0.182501
586.628706	0.182468
586.839902	0.182712
587.051079	0.182719
587.262238	0.182966
587.473379	0.183042
587.684502	0.182924
587.895606	0.183061
588.106692	0.183118
588.317760	0.183364
588.528810	0.183674
588.739841	0.183998
588.950855	0.184525
589.161850	0.184608
589.372827	0.184769
589.583785	0.184856
589.794726	0.184711
590.005648	0.184851
590.216552	0.184655
590.427437	0.184734
590.638305	0.184542
590.849154	0.184507
591.059985	0.184622
591.270798	0.185141
591.481592	0.185185
591.692369	0.185420
591.903127	0.185535
592.113867	0.185703
592.324588	0.185666
592.535292	0.185658
592.745977	0.185798
592.956644	0.186193
593.167293	0.186080
593.377923	0.186201
593.588536	0.186335
593.799130	0.186713
594.009706	0.186887
594.220263	0.187162
594.430803	0.187657
594.641324	0.187825
594.851827	0.187609
595.062312	0.187774
595.272778	0.187982
595.483227	0.188208
595.693657	0.188353
595.904069	0.188546
596.114462	0.188648
596.324838	0.188744
596.535195	0.189177
596.745534	0.189698
596.955855	0.189791
597.166157	0.190118
597.376441	0.190270
597.586707	0.190292
597.796955	0.190388
598.007185	0.191067
598.217396	0.191423
598.427589	0.191249
598.637764	0.191238
598.847921	0.191754
599.058060	0.191767
599.268180	0.191952
599.478282	0.191990
599.688366	0.192389
599.898431	0.192016
600.108479	0.192092
600.318508	0.192270
600.528519	0.192433
600.738511	0.192808
600.948486	0.193379
601.158442	0.193515
601.368380	0.194005
601.578300	0.194384
601.788202	0.194617
601.998085	0.194822
602.207950	0.195142
602.417797	0.195329
602.627626	0.194991
602.837436	0.194762
603.047228	0.194853
603.257002	0.194718
603.466758	0.194497
603.676496	0.194713
603.886215	0.194828
604.095916	0.194962
604.305599	0.195240
604.515264	0.195507
604.724910	0.195700
604.934538	0.195566
605.144148	0.195722
605.353740	0.196038
605.563314	0.195989
605.772869	0.196151
605.982406	0.196072
606.191925	0.196021
606.401425	0.196225
606.610908	0.196260
606.820372	0.196554
607.029818	0.196726
607.239246	0.196642
607.448655	0.196616
607.658047	0.196370
607.867420	0.196786
608.076775	0.196793
608.286111	0.196638
608.495430	0.196983
608.704730	0.197269
608.914012	0.197197
609.123275	0.197310
609.332521	0.197608
609.541748	0.198149
609.750957	0.197802
609.960148	0.197935
610.169321	0.197851
610.378475	0.197774
610.587611	0.197742
610.796729	0.197914
611.005829	0.197937
611.214910	0.198008
611.423974	0.197898
611.633019	0.198430
611.842045	0.198698
612.051054	0.199175
612.260044	0.199601
612.469017	0.200001
612.677970	0.200320
612.886906	0.200477
613.095824	0.200670
613.304723	0.201223
613.513604	0.201173
613.722467	0.201473
613.931311	0.201651
614.140138	0.201461
614.348946	0.201368
614.557736	0.201394
614.766507	0.202081
614.975261	0.202459
615.183996	0.202407
615.392713	0.202634
615.601412	0.202594
615.810092	0.202840
616.018754	0.202753
616.227399	0.203004
616.436024	0.203445
616.644632	0.203035
616.853222	0.203144
617.061793	0.203418
617.270346	0.203505
617.478880	0.203491
617.687397	0.203291
617.895895	0.203627
618.104375	0.203798
618.312837	0.203455
618.521281	0.203743
618.729706	0.203737
618.938113	0.203748
619.146502	0.203895
619.354873	0.204310
619.563226	0.204611
619.771560	0.204752
619.979876	0.204766
620.188174	0.205432
620.396453	0.205567
620.604715	0.205770
620.812958	0.205796
621.021183	0.206158
621.229390	0.206162
621.437578	0.206327
621.645748	0.206855
621.853900	0.206869
622.062034	0.206892
622.270150	0.206874
622.478247	0.206821
622.686326	0.206934
622.894387	0.206954
623.102430	0.206728
623.310454	0.206674
623.518461	0.206696
623.726449	0.206997
623.934418	0.206821
624.142370	0.207120
624.350303	0.207467
624.558218	0.207664
624.766115	0.207520
624.973994	0.207960
625.181855	0.208044
625.389697	0.207916
625.597521	0.207871
625.805327	0.208006
626.013114	0.208028
626.220883	0.208180
626.428634	0.208015
626.636367	0.208450
626.844082	0.208509
627.051778	0.208616
627.259457	0.208859
627.467117	0.209396
627.674758	0.209655
627.882382	0.209816
628.089987	0.209890
628.297574	0.210129
628.505143	0.209979
628.712694	0.210229
628.920226	0.210517
629.127740	0.210439
629.335236	0.210305
629.542714	0.210402
629.750174	0.210404
629.957615	0.210231
630.165038	0.210652
630.372443	0.210683
630.579829	0.210784
630.787198	0.210931
630.994548	0.210968
631.201880	0.211098
631.409194	0.211197
631.616489	0.211527
631.823766	0.211599
632.031025	0.211501
632.238266	0.211986
632.445489	0.212215
632.652693	0.212301
632.859879	0.212354
633.067047	0.212295
633.274197	0.212517
633.481329	0.212545
633.688442	0.213098
633.895537	0.213146
634.102614	0.213099
634.309672	0.213062
634.516713	0.213273
634.723735	0.213855
634.930739	0.214278
635.137724	0.214325
635.344692	0.214470
635.551641	0.214540
635.758572	0.215051
635.965485	0.215192
636.172379	0.215249
636.379256	0.215208
636.586114	0.215118
636.792954	0.215323
636.999775	0.215612
637.206579	0.215844
637.413364	0.215887
637.620131	0.215863
637.826880	0.215851
638.033610	0.216077
638.240323	0.216404
638.447017	0.216384
638.653692	0.216449
638.860350	0.216236
639.066990	0.216322
639.273611	0.216850
639.480214	0.216977
639.686798	0.217134
639.893365	0.217310
640.099913	0.217377
640.306443	0.217968
640.512955	0.218276
640.719449	0.218583
640.925924	0.218588
641.132381	0.218542
641.338820	0.218616
641.545241	0.219190
641.751644	0.219342
641.958028	0.219502
642.164394	0.219330
642.370742	0.219313
642.577071	0.219613
642.783383	0.220020
642.989676	0.220097
643.195951	0.220243
643.402207	0.220447
643.608446	0.220774
643.814666	0.221125
644.020868	0.221472
644.227052	0.221651
644.433218	0.221913
644.639365	0.221916
644.845494	0.222180
645.051605	0.222568
645.257698	0.222328
645.463772	0.222291
645.669828	0.222394
645.875866	0.222551
646.081886	0.222796
646.287888	0.222764
646.493871	0.222996
646.699836	0.223291
646.905783	0.223550
647.111712	0.223846
647.317622	0.224020
647.523514	0.224151
647.729388	0.224121
647.935244	0.223974
648.141082	0.224347
648.346901	0.224236
648.552702	0.224095
648.758485	0.223932
648.964250	0.224010
649.169996	0.224040
649.375724	0.224318
649.581434	0.224524
649.787126	0.225033
649.992800	0.225020
650.198455	0.225526
650.404092	0.225739
650.609711	0.226108
650.815311	0.226550
651.020894	0.227075
651.226458	0.227175
651.432004	0.227524
651.637532	0.227508
651.843041	0.227677
652.048532	0.227819
652.254006	0.228033
652.459460	0.228106
652.664897	0.228242
652.870315	0.228387
653.075716	0.228581
653.281097	0.228674
653.486461	0.228997
653.691807	0.229455
653.897134	0.229546
654.102443	0.229701
654.307734	0.229938
654.513006	0.229922
654.718261	0.230199
654.923497	0.230417
655.128715	0.230590
655.333915	0.230608
655.539096	0.230542
655.744259	0.230795
655.949404	0.230901
656.154531	0.231106
656.359640	0.231341
656.564730	0.231436
656.769802	0.231473
656.974856	0.231492
657.179892	0.231539
657.384909	0.231512
657.589908	0.231764
657.794889	0.231861
657.999852	0.231764
658.204797	0.231902
658.409723	0.231974
658.614631	0.232067
658.819521	0.232392
659.024393	0.232610
659.229246	0.233090
659.434081	0.233327
659.638898	0.233615
659.843697	0.233834
660.048478	0.234103
660.253240	0.234278
660.457984	0.234586
660.662710	0.234964
660.867417	0.235455
661.072107	0.235479
661.276778	0.235553
661.481431	0.235785
661.686066	0.236048
661.890682	0.236101
662.095281	0.236344
662.299861	0.236332
662.504422	0.236294
662.708966	0.236390
662.913491	0.236691
663.117999	0.236925
663.322488	0.237024
663.526958	0.237141
663.731411	0.237317
663.935845	0.237372
664.140261	0.237819
664.344659	0.237900
664.549038	0.237994
664.753400	0.238249
664.957743	0.238314
665.162068	0.238827
665.366375	0.239169
665.570663	0.239486
665.774933	0.239750
665.979185	0.239899
666.183419	0.240414
666.387635	0.240567
666.591832	0.240745
666.796011	0.240906
667.000172	0.240941
667.204315	0.241130
667.408439	0.241384
667.612545	0.241711
667.816634	0.241952
668.020703	0.242050
668.224755	0.242594
668.428788	0.242562
668.632803	0.243139
668.836800	0.243359
669.040779	0.243621
669.244739	0.243780
669.448681	0.244089
669.652605	0.244294
669.856511	0.244582
670.060399	0.244482
670.264268	0.244823
670.468119	0.244839
670.671952	0.244858
670.875767	0.245119
671.079563	0.245357
671.283341	0.245261
671.487101	0.245466
671.690843	0.245714
671.894567	0.245854
672.098272	0.246204
672.301959	0.246402
672.505628	0.246776
672.709278	0.246796
672.912911	0.246680
673.116525	0.247228
673.320121	0.247522
673.523699	0.247679
673.727258	0.247953
673.930799	0.248063
674.134322	0.248286
674.337827	0.248478
674.541314	0.248993
674.744782	0.249451
674.948232	0.249331
675.151664	0.249457
675.355078	0.249517
675.558474	0.249752
675.761851	0.249791
675.965210	0.249950
676.168551	0.249861
676.371873	0.249720
676.575178	0.249863
676.778464	0.250214
676.981732	0.250364
677.184981	0.250728
677.388213	0.250893
677.591426	0.251498
677.794621	0.251828
677.997798	0.252381
678.200956	0.252590
678.404097	0.252895
678.607219	0.253194
678.810323	0.253396
679.013408	0.253503
679.216476	0.253666
679.419525	0.253500
679.622556	0.253844
679.825569	0.253996
680.028563	0.254161
680.231540	0.254369
680.434498	0.254441
680.637438	0.254723
680.840359	0.254882
681.043263	0.255177
681.246148	0.255482
681.449015	0.255579
681.651864	0.255616
681.854694	0.255892
682.057506	0.255835
682.260301	0.255697
682.463076	0.255766
682.665834	0.255922
682.868573	0.255937
683.071295	0.256118
683.273998	0.256231
683.476682	0.256478
683.679349	0.256790
683.881997	0.257202
684.084627	0.257956
684.287239	0.258114
684.489833	0.258367
684.692408	0.258670
684.894965	0.258731
685.097504	0.258674
685.300025	0.259003
685.502527	0.259004
685.705012	0.259170
685.907478	0.259120
686.109925	0.259149
686.312355	0.259303
686.514766	0.259517
686.717159	0.259884
686.919534	0.260221
687.121891	0.260134
687.324230	0.260535
687.526550	0.260864
687.728852	0.261211
687.931136	0.261549
688.133401	0.261668
688.335649	0.262040
688.537878	0.261896
688.740089	0.261875
688.942281	0.262209
689.144456	0.262329
689.346612	0.262104
689.548750	0.261747
689.750870	0.261971
689.952971	0.261985
690.155055	0.261718
690.357120	0.262019
690.559167	0.262364
690.761195	0.262460
690.963206	0.262536
691.165198	0.262856
691.367172	0.263545
691.569128	0.263651
691.771065	0.263990
691.972984	0.264577
692.174885	0.265031
692.376768	0.265234
692.578633	0.265567
692.780479	0.265733
692.982308	0.266048
693.184118	0.266078
693.385909	0.266309
