sample name	sample
index	1155
start time	 04-22-2021  03:45:47 PM


Wavelength (nm)	Absorbance
494.344910	NaN
494.563924	NaN
494.782919	NaN
495.001897	0.756124
495.220856	0.077946
495.439797	-0.005610
495.658719	-0.055998
495.877624	-0.161483
496.096510	-0.210691
496.315378	-0.367942
496.534227	-0.403418
496.753059	-0.359404
496.971872	-0.264281
497.190667	0.085305
497.409444	0.091530
497.628203	0.090637
497.846943	0.091207
498.065665	0.091987
498.284369	0.095267
498.503055	0.094184
498.721723	0.094959
498.940372	0.094211
499.159003	0.092024
499.377616	0.090127
499.596210	0.089368
499.814787	0.088003
500.033345	0.087656
500.251885	0.086370
500.470406	0.086208
500.688910	0.086193
500.907395	0.087105
501.125862	0.087635
501.344311	0.088998
501.562742	0.088491
501.781154	0.089103
501.999548	0.088384
502.217924	0.088063
502.436282	0.088145
502.654621	0.087057
502.872942	0.086454
503.091245	0.086901
503.309530	0.085905
503.527797	0.085792
503.746045	0.084756
503.964275	0.084863
504.182487	0.085411
504.400681	0.085887
504.618856	0.086565
504.837013	0.085553
505.055152	0.085533
505.273273	0.086494
505.491376	0.086999
505.709460	0.088867
505.927526	0.088822
506.145574	0.087893
506.363604	0.086611
506.581615	0.086490
506.799608	0.088128
507.017583	0.087003
507.235540	0.087461
507.453478	0.088378
507.671399	0.088150
507.889301	0.089147
508.107185	0.089141
508.325050	0.089899
508.542898	0.090513
508.760727	0.090058
508.978538	0.091040
509.196330	0.090598
509.414105	0.090778
509.631861	0.090903
509.849599	0.089889
510.067319	0.090074
510.285021	0.090027
510.502704	0.088870
510.720369	0.087734
510.938016	0.087695
511.155645	0.088242
511.373255	0.088516
511.590848	0.088472
511.808422	0.088308
512.025977	0.087963
512.243515	0.088185
512.461034	0.088841
512.678536	0.090185
512.896018	0.090061
513.113483	0.089140
513.330930	0.088332
513.548358	0.088539
513.765768	0.089097
513.983160	0.090251
514.200533	0.090860
514.417889	0.091230
514.635226	0.091308
514.852545	0.091726
515.069845	0.093172
515.287128	0.094271
515.504392	0.093457
515.721638	0.094879
515.938866	0.094531
516.156075	0.094160
516.373267	0.094432
516.590440	0.094182
516.807594	0.093596
517.024731	0.093307
517.241850	0.093518
517.458950	0.094593
517.676032	0.094076
517.893095	0.094407
518.110141	0.094812
518.327168	0.094997
518.544177	0.095588
518.761168	0.096387
518.978141	0.096369
519.195095	0.096109
519.412031	0.096631
519.628949	0.096013
519.845849	0.096242
520.062731	0.095647
520.279594	0.094831
520.496439	0.094544
520.713266	0.094799
520.930074	0.094892
521.146865	0.094922
521.363637	0.094681
521.580391	0.095833
521.797127	0.096049
522.013844	0.096625
522.230543	0.096853
522.447224	0.097038
522.663887	0.096471
522.880532	0.096324
523.097158	0.096488
523.313766	0.097245
523.530356	0.096876
523.746928	0.096430
523.963481	0.096851
524.180017	0.096347
524.396534	0.096432
524.613032	0.096607
524.829513	0.096852
525.045975	0.096658
525.262420	0.096162
525.478845	0.096536
525.695253	0.097035
525.911643	0.097070
526.128014	0.098247
526.344367	0.098545
526.560702	0.098962
526.777018	0.099488
526.993316	0.100455
527.209597	0.100762
527.425858	0.100610
527.642102	0.101007
527.858328	0.100523
528.074535	0.101312
528.290724	0.101569
528.506894	0.101454
528.723047	0.101378
528.939181	0.101378
529.155297	0.101578
529.371395	0.101624
529.587475	0.101070
529.803536	0.102111
530.019579	0.101758
530.235604	0.101353
530.451611	0.101676
530.667600	0.101841
530.883570	0.101616
531.099522	0.101997
531.315456	0.102496
531.531372	0.102440
531.747269	0.101947
531.963148	0.101405
532.179009	0.102415
532.394852	0.102475
532.610676	0.102423
532.826482	0.102567
533.042271	0.102540
533.258040	0.103283
533.473792	0.104241
533.689525	0.104580
533.905240	0.105139
534.120937	0.104792
534.336616	0.105192
534.552277	0.105002
534.767919	0.105617
534.983543	0.105471
535.199149	0.104837
535.414736	0.104295
535.630306	0.104553
535.845857	0.104887
536.061390	0.104822
536.276904	0.105101
536.492401	0.105216
536.707879	0.104686
536.923339	0.105106
537.138781	0.105611
537.354204	0.106508
537.569610	0.107069
537.784997	0.107505
538.000366	0.107984
538.215716	0.107693
538.431049	0.108143
538.646363	0.108788
538.861659	0.108641
539.076937	0.108554
539.292196	0.108300
539.507438	0.108358
539.722661	0.107747
539.937866	0.107783
540.153052	0.108427
540.368221	0.108971
540.583371	0.108313
540.798503	0.108571
541.013617	0.108536
541.228712	0.108350
541.443789	0.108175
541.658848	0.108913
541.873889	0.109144
542.088912	0.109202
542.303916	0.109208
542.518902	0.109473
542.733870	0.109617
542.948820	0.109762
543.163752	0.110634
543.378665	0.111026
543.593560	0.111283
543.808437	0.111208
544.023295	0.110962
544.238136	0.111349
544.452958	0.111630
544.667762	0.111609
544.882548	0.112263
545.097315	0.111718
545.312064	0.111603
545.526795	0.111072
545.741508	0.110782
545.956203	0.111159
546.170879	0.110856
546.385537	0.110955
546.600177	0.111752
546.814799	0.111042
547.029402	0.111874
547.243988	0.111802
547.458555	0.111811
547.673103	0.112291
547.887634	0.111955
548.102146	0.112336
548.316640	0.112439
548.531116	0.112146
548.745574	0.112201
548.960013	0.111685
549.174435	0.112178
549.388838	0.112587
549.603222	0.112305
549.817589	0.112596
550.031937	0.112326
550.246267	0.112429
550.460579	0.112011
550.674873	0.112017
550.889148	0.112149
551.103405	0.111967
551.317644	0.112135
551.531865	0.112614
551.746068	0.113069
551.960252	0.113456
552.174418	0.113266
552.388566	0.113409
552.602696	0.113853
552.816807	0.114132
553.030900	0.113877
553.244975	0.113636
553.459032	0.113816
553.673070	0.113511
553.887091	0.113114
554.101093	0.113253
554.315077	0.113506
554.529042	0.113465
554.742990	0.113557
554.956919	0.113343
555.170830	0.113622
555.384722	0.113876
555.598597	0.114207
555.812453	0.114699
556.026291	0.114782
556.240111	0.115036
556.453913	0.114987
556.667696	0.114938
556.881461	0.115506
557.095208	0.115462
557.308937	0.115295
557.522647	0.114900
557.736339	0.114540
557.950013	0.114713
558.163669	0.114625
558.377307	0.114965
558.590926	0.114974
558.804527	0.115325
559.018110	0.115762
559.231675	0.115618
559.445221	0.115610
559.658749	0.116074
559.872259	0.115812
560.085751	0.115548
560.299225	0.115554
560.512680	0.115483
560.726117	0.115225
560.939536	0.115019
561.152937	0.115382
561.366319	0.115558
561.579683	0.115102
561.793029	0.115655
562.006357	0.116000
562.219667	0.115872
562.432958	0.115723
562.646231	0.115719
562.859486	0.115748
563.072723	0.115768
563.285941	0.115991
563.499141	0.116468
563.712323	0.116487
563.925487	0.116552
564.138632	0.116768
564.351760	0.117292
564.564869	0.117609
564.777960	0.117588
564.991032	0.117389
565.204087	0.117405
565.417123	0.117168
565.630141	0.117493
565.843140	0.117263
566.056122	0.116818
566.269085	0.116728
566.482030	0.116533
566.694957	0.116967
566.907866	0.116992
567.120756	0.117163
567.333628	0.117211
567.546482	0.117348
567.759318	0.117830
567.972135	0.118383
568.184935	0.118259
568.397716	0.118470
568.610478	0.117965
568.823223	0.117861
569.035949	0.117761
569.248657	0.117657
569.461347	0.117385
569.674019	0.117286
569.886672	0.117223
570.099308	0.117407
570.311925	0.117269
570.524523	0.117436
570.737104	0.117608
570.949666	0.117635
571.162210	0.118074
571.374736	0.117674
571.587244	0.117753
571.799733	0.117908
572.012205	0.117591
572.224658	0.117526
572.437092	0.117600
572.649509	0.117217
572.861907	0.117280
573.074287	0.116957
573.286649	0.117362
573.498993	0.117184
573.711318	0.116948
573.923625	0.117039
574.135914	0.116822
574.348185	0.116865
574.560438	0.117429
574.772672	0.117478
574.984888	0.117822
575.197086	0.117484
575.409266	0.117804
575.621427	0.118092
575.833570	0.118201
576.045695	0.118603
576.257802	0.118643
576.469890	0.118614
576.681961	0.118426
576.894013	0.118147
577.106046	0.118447
577.318062	0.118475
577.530059	0.118388
577.742039	0.118198
577.954000	0.118137
578.165942	0.117981
578.377867	0.117782
578.589773	0.117890
578.801661	0.118191
579.013531	0.118011
579.225382	0.117679
579.437216	0.117595
579.649031	0.117833
579.860828	0.118150
580.072606	0.118479
580.284367	0.118624
580.496109	0.118840
580.707833	0.118863
580.919539	0.119176
581.131227	0.119275
581.342896	0.119647
581.554547	0.119923
581.766180	0.119922
581.977795	0.119875
582.189391	0.120159
582.400969	0.120069
582.612529	0.120281
582.824071	0.120605
583.035595	0.120459
583.247100	0.120223
583.458587	0.120328
583.670056	0.120265
583.881506	0.120213
584.092939	0.120467
584.304353	0.120682
584.515749	0.120476
584.727127	0.120373
584.938486	0.120745
585.149828	0.120931
585.361151	0.120663
585.572456	0.120584
585.783742	0.120559
585.995011	0.120528
586.206261	0.120511
586.417493	0.120503
586.628706	0.120520
586.839902	0.120427
587.051079	0.120658
587.262238	0.120803
587.473379	0.121219
587.684502	0.121440
587.895606	0.121112
588.106692	0.120835
588.317760	0.120585
588.528810	0.120572
588.739841	0.120832
588.950855	0.120761
589.161850	0.120800
589.372827	0.120570
589.583785	0.120727
589.794726	0.120937
590.005648	0.121248
590.216552	0.121542
590.427437	0.121550
590.638305	0.121488
590.849154	0.121521
591.059985	0.121708
591.270798	0.121851
591.481592	0.121864
591.692369	0.121909
591.903127	0.122210
592.113867	0.122676
592.324588	0.122845
592.535292	0.122958
592.745977	0.122963
592.956644	0.123021
593.167293	0.123154
593.377923	0.123501
593.588536	0.123866
593.799130	0.123955
594.009706	0.124084
594.220263	0.124176
594.430803	0.124314
594.641324	0.124972
594.851827	0.125261
595.062312	0.125066
595.272778	0.125156
595.483227	0.125027
595.693657	0.124716
595.904069	0.124530
596.114462	0.124231
596.324838	0.124427
596.535195	0.123609
596.745534	0.123409
596.955855	0.123424
597.166157	0.123053
597.376441	0.123185
597.586707	0.123298
597.796955	0.123181
598.007185	0.123509
598.217396	0.123315
598.427589	0.123647
598.637764	0.123770
598.847921	0.124011
599.058060	0.124226
599.268180	0.124188
599.478282	0.124489
599.688366	0.124981
599.898431	0.124932
600.108479	0.124888
600.318508	0.125197
600.528519	0.125267
600.738511	0.125281
600.948486	0.125162
601.158442	0.125245
601.368380	0.124981
601.578300	0.124761
601.788202	0.124682
601.998085	0.124868
602.207950	0.124526
602.417797	0.124783
602.627626	0.124542
602.837436	0.124700
603.047228	0.124509
603.257002	0.124784
603.466758	0.124928
603.676496	0.125177
603.886215	0.125637
604.095916	0.125869
604.305599	0.125554
604.515264	0.125843
604.724910	0.125744
604.934538	0.125852
605.144148	0.125839
605.353740	0.125554
605.563314	0.125567
605.772869	0.125274
605.982406	0.125522
606.191925	0.125935
606.401425	0.126023
606.610908	0.126279
606.820372	0.126414
607.029818	0.126651
607.239246	0.126948
607.448655	0.127142
607.658047	0.127180
607.867420	0.127108
608.076775	0.126839
608.286111	0.127052
608.495430	0.126857
608.704730	0.126927
608.914012	0.126812
609.123275	0.126806
609.332521	0.126662
609.541748	0.126850
609.750957	0.126886
609.960148	0.127333
610.169321	0.127337
610.378475	0.127754
610.587611	0.127909
610.796729	0.128044
611.005829	0.128172
611.214910	0.128174
611.423974	0.127971
611.633019	0.128111
611.842045	0.127938
612.051054	0.128085
612.260044	0.127978
612.469017	0.127835
612.677970	0.127943
612.886906	0.127764
613.095824	0.127803
613.304723	0.128009
613.513604	0.127950
613.722467	0.127807
613.931311	0.127938
614.140138	0.127798
614.348946	0.127888
614.557736	0.127841
614.766507	0.128214
614.975261	0.128464
615.183996	0.128603
615.392713	0.128354
615.601412	0.128615
615.810092	0.128528
616.018754	0.128785
616.227399	0.128709
616.436024	0.128776
616.644632	0.128811
616.853222	0.128793
617.061793	0.128858
617.270346	0.129223
617.478880	0.129110
617.687397	0.129369
617.895895	0.129359
618.104375	0.129614
618.312837	0.129851
618.521281	0.130001
618.729706	0.130053
618.938113	0.130255
619.146502	0.130243
619.354873	0.130486
619.563226	0.130422
619.771560	0.130722
619.979876	0.130969
620.188174	0.130930
620.396453	0.130715
620.604715	0.130995
620.812958	0.130730
621.021183	0.130877
621.229390	0.130641
621.437578	0.130683
621.645748	0.130487
621.853900	0.130162
622.062034	0.130120
622.270150	0.130026
622.478247	0.130124
622.686326	0.130182
622.894387	0.130265
623.102430	0.130586
623.310454	0.130626
623.518461	0.130805
623.726449	0.131041
623.934418	0.131025
624.142370	0.131228
624.350303	0.130946
624.558218	0.131026
624.766115	0.131012
624.973994	0.130981
625.181855	0.130789
625.389697	0.130967
625.597521	0.131052
625.805327	0.131458
626.013114	0.131709
626.220883	0.131933
626.428634	0.132045
626.636367	0.132174
626.844082	0.132145
627.051778	0.132493
627.259457	0.132512
627.467117	0.132668
627.674758	0.132504
627.882382	0.132414
628.089987	0.132352
628.297574	0.132303
628.505143	0.132178
628.712694	0.132516
628.920226	0.132636
629.127740	0.132649
629.335236	0.132570
629.542714	0.132541
629.750174	0.132482
629.957615	0.132690
630.165038	0.132882
630.372443	0.133007
630.579829	0.132895
630.787198	0.132677
630.994548	0.132827
631.201880	0.132916
631.409194	0.133032
631.616489	0.133464
631.823766	0.133601
632.031025	0.133723
632.238266	0.133905
632.445489	0.134121
632.652693	0.134642
632.859879	0.134764
633.067047	0.134923
633.274197	0.135261
633.481329	0.135208
633.688442	0.135201
633.895537	0.135033
634.102614	0.135030
634.309672	0.135038
634.516713	0.134688
634.723735	0.134486
634.930739	0.134444
635.137724	0.134371
635.344692	0.134331
635.551641	0.134460
635.758572	0.134614
635.965485	0.134673
636.172379	0.134647
636.379256	0.134737
636.586114	0.134895
636.792954	0.135004
636.999775	0.134952
637.206579	0.135110
637.413364	0.135172
637.620131	0.135217
637.826880	0.135374
638.033610	0.135466
638.240323	0.135588
638.447017	0.135843
638.653692	0.136275
638.860350	0.136389
639.066990	0.136705
639.273611	0.136640
639.480214	0.136752
639.686798	0.136876
639.893365	0.137040
640.099913	0.137081
640.306443	0.136960
640.512955	0.136696
640.719449	0.136581
640.925924	0.136514
641.132381	0.136682
641.338820	0.136882
641.545241	0.137050
641.751644	0.137110
641.958028	0.137227
642.164394	0.137380
642.370742	0.137440
642.577071	0.137868
642.783383	0.137907
642.989676	0.138144
643.195951	0.138191
643.402207	0.138046
643.608446	0.138265
643.814666	0.138497
644.020868	0.138557
644.227052	0.138794
644.433218	0.138838
644.639365	0.138743
644.845494	0.138729
645.051605	0.138992
645.257698	0.139236
645.463772	0.139194
645.669828	0.139256
645.875866	0.139252
646.081886	0.139303
646.287888	0.139339
646.493871	0.139608
646.699836	0.139570
646.905783	0.139399
647.111712	0.139422
647.317622	0.139385
647.523514	0.139359
647.729388	0.139449
647.935244	0.139459
648.141082	0.139508
648.346901	0.139502
648.552702	0.139860
648.758485	0.139914
648.964250	0.139928
649.169996	0.140225
649.375724	0.140271
649.581434	0.140449
649.787126	0.140616
649.992800	0.140757
650.198455	0.140785
650.404092	0.140528
650.609711	0.140626
650.815311	0.140713
651.020894	0.140764
651.226458	0.141088
651.432004	0.141208
651.637532	0.141309
651.843041	0.141388
652.048532	0.141458
652.254006	0.141539
652.459460	0.141714
652.664897	0.141742
652.870315	0.141869
653.075716	0.141859
653.281097	0.141914
653.486461	0.141872
653.691807	0.142127
653.897134	0.142275
654.102443	0.142514
654.307734	0.142349
654.513006	0.142460
654.718261	0.142308
654.923497	0.142462
655.128715	0.142433
655.333915	0.142435
655.539096	0.142260
655.744259	0.142476
655.949404	0.142558
656.154531	0.143035
656.359640	0.143291
656.564730	0.143370
656.769802	0.143324
656.974856	0.143604
657.179892	0.143794
657.384909	0.144166
657.589908	0.144327
657.794889	0.144409
657.999852	0.144430
658.204797	0.144571
658.409723	0.144878
658.614631	0.145271
658.819521	0.145347
659.024393	0.145445
659.229246	0.145433
659.434081	0.145503
659.638898	0.145622
659.843697	0.145689
660.048478	0.145773
660.253240	0.146004
660.457984	0.145867
660.662710	0.146090
660.867417	0.146202
661.072107	0.146424
661.276778	0.146308
661.481431	0.146594
661.686066	0.146786
661.890682	0.146767
662.095281	0.146806
662.299861	0.146931
662.504422	0.146816
662.708966	0.146819
662.913491	0.146840
663.117999	0.146894
663.322488	0.146760
663.526958	0.146745
663.731411	0.146985
663.935845	0.147041
664.140261	0.147093
664.344659	0.147175
664.549038	0.147483
664.753400	0.147553
664.957743	0.147889
665.162068	0.148063
665.366375	0.148184
665.570663	0.148114
665.774933	0.148214
665.979185	0.148383
666.183419	0.148416
666.387635	0.148427
666.591832	0.148475
666.796011	0.148802
667.000172	0.148920
667.204315	0.149158
667.408439	0.149328
667.612545	0.149357
667.816634	0.149320
668.020703	0.149412
668.224755	0.149431
668.428788	0.149552
668.632803	0.149366
668.836800	0.149423
669.040779	0.149348
669.244739	0.149400
669.448681	0.149512
669.652605	0.149839
669.856511	0.150031
670.060399	0.150064
670.264268	0.150069
670.468119	0.149966
670.671952	0.149899
670.875767	0.150009
671.079563	0.150077
671.283341	0.150264
671.487101	0.150135
671.690843	0.150264
671.894567	0.150506
672.098272	0.150603
672.301959	0.151038
672.505628	0.151016
672.709278	0.151173
672.912911	0.151277
673.116525	0.151144
673.320121	0.151171
673.523699	0.151327
673.727258	0.151489
673.930799	0.151478
674.134322	0.151311
674.337827	0.151612
674.541314	0.151690
674.744782	0.151897
674.948232	0.152181
675.151664	0.152265
675.355078	0.152155
675.558474	0.152225
675.761851	0.152621
675.965210	0.152708
676.168551	0.152911
676.371873	0.153171
676.575178	0.153208
676.778464	0.153254
676.981732	0.153510
677.184981	0.153905
677.388213	0.154148
677.591426	0.154424
677.794621	0.154827
677.997798	0.155210
678.200956	0.155276
678.404097	0.155447
678.607219	0.155832
678.810323	0.156027
679.013408	0.155960
679.216476	0.155947
679.419525	0.155776
679.622556	0.155646
679.825569	0.155507
680.028563	0.155696
680.231540	0.155796
680.434498	0.155651
680.637438	0.155738
680.840359	0.155731
681.043263	0.155659
681.246148	0.155819
681.449015	0.156086
681.651864	0.156093
681.854694	0.155971
682.057506	0.156104
682.260301	0.156394
682.463076	0.156441
682.665834	0.156731
682.868573	0.157140
683.071295	0.157165
683.273998	0.157058
683.476682	0.157338
683.679349	0.157525
683.881997	0.157512
684.084627	0.157708
684.287239	0.157927
684.489833	0.157904
684.692408	0.157954
684.894965	0.157897
685.097504	0.157985
685.300025	0.157955
685.502527	0.157932
685.705012	0.158071
685.907478	0.157794
686.109925	0.157805
686.312355	0.158020
686.514766	0.157965
686.717159	0.158223
686.919534	0.158418
687.121891	0.158338
687.324230	0.158276
687.526550	0.158240
687.728852	0.158315
687.931136	0.158290
688.133401	0.158124
688.335649	0.158246
688.537878	0.158179
688.740089	0.158188
688.942281	0.158572
689.144456	0.158970
689.346612	0.159287
689.548750	0.159411
689.750870	0.159584
689.952971	0.159914
690.155055	0.159955
690.357120	0.160137
690.559167	0.160189
690.761195	0.160186
690.963206	0.159918
691.165198	0.159880
691.367172	0.160015
691.569128	0.160103
691.771065	0.160072
691.972984	0.160136
692.174885	0.160209
692.376768	0.160265
692.578633	0.160144
692.780479	0.160537
692.982308	0.160497
693.184118	0.160450
693.385909	0.160399
