sample name	sample
index	877
start time	 04-08-2021  01:50:56 PM
880	0.524674
Peak Time (s)	122.535
Peak Height 	0.5247
calc peak height	120,123
Baseline Time (s)	11.037
Baseline Value 	-0.003255
subtract baseline	10,4
Abs	0.388197
Peak Time (s)	120.037
Peak Height 	0.3882
calc peak height	120,123
Baseline Time (s)	11.037
Baseline Value 	0.003625
subtract baseline	10,3
PK_550	0.195440
Peak Time (s)	121.037
Peak Height 	0.1954
calc peak height	120,123
Baseline Time (s)	8.539
Baseline Value 	-1.2266E-4
subtract baseline	10,2
PK_880	0.355652
Peak Time (s)	122.535
Peak Height 	0.3557
calc peak height	120,123
Baseline Time (s)	10.036
Baseline Value 	3.2794E-4
subtract baseline	10,1


Time (s)	A880-A510	A880-A775	A880-A975	A880	I510	I775	I975	I880	
0.036000	-0.002740	-0.000670	-0.003655	0.007366	6804.814333	41911.712213	3907.527386	22497.394496
0.536500	-0.002037	-0.000824	-0.003767	0.004051	6842.985870	42198.002911	3916.690551	22649.198252
1.037000	-0.002086	-0.000301	-0.001587	0.003326	6849.435254	42311.528751	3925.061968	22682.540732
1.539500	-0.000972	-0.000375	-0.001063	0.001331	6879.258393	42487.094740	3932.364480	22774.605022
2.040500	-0.002712	-0.000089	-0.002418	0.005800	6819.915285	42105.876395	3915.541704	22568.949003
2.535500	-0.000224	0.000475	-0.003124	0.001496	6884.879840	42549.870703	3925.907887	22766.993626
3.035000	0.000837	0.000521	-0.002621	0.000683	6902.978699	42628.664409	3929.719963	22804.600249
3.535500	-0.000452	-0.000353	-0.001741	0.000545	6891.847914	42561.061421	3932.676135	22810.992687
4.036000	-0.001272	-0.001042	-0.006058	-0.000163	6890.778517	42562.857644	3922.226017	22843.861993
4.536000	0.000121	-0.000039	-0.002562	0.000124	6901.463589	42628.561741	3931.514584	22830.521838
5.036500	0.001758	0.000768	0.000155	0.001372	6905.234442	42588.124952	3935.791587	22772.736950
5.536500	-0.001462	0.000136	-0.002885	0.000330	6884.187825	42625.805417	3929.979546	22820.995572
6.037000	0.000856	0.000569	0.001238	0.000651	6903.476786	42636.083841	3941.062201	22806.115563
6.537500	0.000549	-0.000117	-0.001998	0.000230	6904.575185	42611.629729	3932.847137	22825.589309
7.037500	0.001138	-0.000385	-0.001410	0.000470	6907.959417	42564.982598	3933.858790	22814.461280
7.535000	-0.000607	0.000637	-0.000333	0.000521	6890.587850	42654.286597	3936.852454	22812.140891
8.035000	-0.000960	0.000667	-0.003172	0.000604	6886.376373	42649.307557	3928.350142	22808.251404
8.538500	0.000964	0.000000	0.000560	0.000533	6905.664394	42594.610082	3939.422211	22811.557896
9.036000	0.000762	0.000642	0.001646	0.000879	6900.357482	42621.793931	3941.591060	22795.548357
9.536000	-0.000498	-0.000149	-0.003315	-0.000289	6899.466747	42656.470475	3930.527340	22849.685214
10.036000	0.000000	-0.000304	-0.004266	-0.000135	6902.794455	42628.019874	3927.322257	22842.534840
10.537000	-0.000179	0.000797	0.002080	0.000134	6898.470425	42704.588539	3945.048291	22830.083445
11.037000	0.000631	0.000163	0.000000	0.000000	6907.603775	42658.570801	3939.344904	22836.280535
11.534500	-0.000526	-0.000685	-0.000107	-0.000490	6901.136505	42625.643239	3940.464901	22859.021974
12.073500	-0.001046	0.000115	-0.002470	-0.000509	6896.295416	42700.959509	3933.623254	22859.917021
12.535000	-0.000255	0.000787	0.002681	0.000543	6893.768321	42665.943394	3945.610957	22811.080879
13.090500	0.000765	0.000209	0.001552	-0.001659	6925.014375	42815.693139	3948.767274	22913.411507
13.551000	-0.002898	-0.000099	-0.001781	0.001998	6854.370022	42451.242834	3928.343532	22743.769130
14.036000	0.000807	0.000980	0.001605	0.000771	6901.833856	42662.823786	3941.786936	22800.535181
14.536500	-0.002031	-0.000143	-0.001168	0.001899	6863.630796	42456.313922	3930.409081	22748.364907
15.036500	0.001315	0.000319	-0.000233	0.000676	6907.679222	42610.733989	3936.689404	22804.924367
15.536500	-0.000120	0.000828	-0.002200	0.002472	6876.476549	42492.713354	3925.754995	22721.882525
16.037000	0.000920	0.000850	-0.001778	0.000912	6901.564728	42637.896049	3931.503619	22794.001431
16.535000	0.000169	0.000571	-0.002667	0.000242	6900.784717	42673.803949	3930.867846	22825.045961
17.035000	0.000006	0.000119	-0.000758	0.000179	6899.809394	42638.068499	3936.608122	22827.959000
17.541000	0.000702	0.000223	-0.002174	0.000432	6904.108819	42624.429662	3931.749673	22816.256131
18.060500	0.000331	0.000003	-0.004240	0.001150	6893.567921	42538.254391	3923.681046	22782.973210
18.570000	-0.001441	0.000272	0.002752	0.001397	6874.112552	42540.272649	3943.311525	22771.544257
19.036000	-0.001203	0.000546	-0.002201	0.001649	6873.985424	42542.330440	3928.139928	22759.933674
19.536500	-0.000864	0.000911	-0.002578	0.002112	6872.791519	42533.334660	3925.706538	22738.535580
20.037000	-0.001518	0.000503	-0.000809	0.001244	6874.837621	42575.547640	3933.354737	22778.628817
20.537000	-0.000358	0.001026	-0.001734	0.001726	6881.366553	42579.299241	3929.269392	22756.344094
21.037000	-0.000301	0.000983	-0.000853	0.001877	6880.460748	42561.478282	3931.388442	22749.377481
21.535000	-0.000278	0.000957	0.000060	0.002544	6874.267497	42497.974323	3932.102796	22718.566525
22.035000	-0.000664	-0.000158	-0.000269	0.001016	6885.267696	42535.856937	3935.592785	22789.208053
22.535500	-0.000849	0.001012	-0.001260	0.001716	6876.739056	42578.878590	3930.673175	22756.807935
23.035500	0.000267	0.000098	0.000411	0.001406	6890.480090	42523.472327	3936.439151	22771.138981
23.536000	-0.000702	0.000530	-0.003306	0.002252	6872.994983	42485.531045	3923.195152	22732.038467
24.036500	0.000012	0.000244	-0.002030	0.001139	6890.592988	42561.346775	3930.112609	22783.494478
24.536500	-0.001690	0.001120	0.003976	0.002235	6863.674720	42541.190307	3944.444897	22732.826756
25.037000	-0.001939	-0.000250	0.001070	0.000786	6875.193461	42548.447524	3940.174591	22799.830785
25.537500	-0.001968	-0.000297	0.002354	0.002203	6861.309340	42414.407701	3939.785473	22734.311236
26.037500	0.000151	0.000761	-0.001403	0.002196	6881.743441	42511.874600	3928.866160	22734.642755
26.535000	-0.002776	0.000632	-0.002383	0.001816	6857.275535	42534.904983	3927.126691	22752.179370
27.035500	-0.001993	-0.000430	0.000769	0.001160	6871.089842	42497.695414	3938.204681	22782.549916
27.536000	-0.001334	-0.000174	-0.000516	0.001495	6874.199067	42490.463905	3933.477797	22767.035953
28.036000	0.000261	0.000312	-0.000122	0.000227	6901.819873	42651.411344	3938.323250	22825.735891
28.536500	0.000898	0.001154	0.002906	0.000965	6900.837436	42660.924767	3945.033487	22791.549438
29.036500	0.002657	0.001370	0.000917	0.001103	6916.553523	42668.085689	3938.801776	22785.160192
29.537000	0.001569	0.000374	0.001989	0.000984	6907.154899	42587.552725	3942.286944	22790.667115
30.037000	0.000672	0.000095	0.004500	0.000566	6902.516780	42600.280020	3950.898097	22810.030735
30.534500	-0.001141	-0.000247	0.003962	-0.000060	6891.039937	42626.329212	3951.158818	22839.046542
31.037500	0.000556	0.000479	-0.002203	-0.000025	6907.122141	42689.991687	3932.991990	22837.450521
31.538000	-0.001729	0.000992	0.002475	0.003924	6847.139984	42375.022878	3935.116222	22655.048876
32.035000	0.000685	0.000514	-0.000105	0.000248	6905.723487	42668.035151	3938.314385	22824.785434
32.535500	-0.000283	0.000358	-0.003652	0.000235	6896.478919	42654.933513	3928.031068	22825.393030
33.036000	0.000310	0.000340	0.002732	0.000222	6902.343603	42654.469172	3946.706390	22826.003819
33.536000	-0.002507	-0.000037	-0.001194	-0.000308	6880.260248	42668.505113	3936.756659	22850.560501
34.037000	0.001981	0.000906	0.001253	0.001083	6910.193568	42627.394180	3939.844155	22786.111009
34.537000	0.000606	0.000152	-0.000211	0.002119	6886.867937	42463.150342	3932.548185	22738.179063
35.037000	-0.000100	0.001164	0.000037	0.002251	6878.803687	42543.808240	3932.888312	22732.126751
35.534500	-0.000653	0.000627	-0.003661	0.002098	6874.951804	42508.575290	3922.618818	22739.176361
36.038000	-0.000232	0.001096	0.000547	0.002588	6874.285927	42506.663747	3933.392676	22716.554070
36.535500	-0.001260	0.001053	0.001613	0.002369	6866.513878	42522.798933	3937.135104	22726.653402
37.035500	-0.000820	-0.000219	-0.001332	0.001900	6875.247761	42449.336125	3929.932518	22748.331729
37.536000	-0.000489	0.000930	0.001262	0.003615	6861.961631	42397.557244	3932.483496	22669.258904
38.036000	-0.001114	-0.000518	-0.004088	0.001389	6877.332600	42468.702286	3923.430843	22771.929201
38.536500	-0.001057	0.000572	0.000098	0.001990	6872.100788	42513.423207	3933.823106	22744.148774
39.037000	-0.000651	0.000232	-0.002702	0.001409	6881.600403	42535.545784	3927.381765	22771.001122
39.537000	-0.002735	0.000223	-0.001348	0.002884	6847.459608	42399.724020	3927.033152	22702.918224
40.037500	0.001224	0.000708	0.000039	0.002030	6893.692578	42522.227768	3933.535498	22742.287658
40.537500	-0.000149	0.000787	-0.001274	0.002562	6875.331508	42480.772264	3928.178625	22717.741745
41.035000	-0.000627	0.000642	-0.002111	0.002253	6873.706563	42495.761605	3926.648768	22732.019092
41.535500	-0.000999	0.000180	-0.000994	0.002843	6864.466688	42399.500464	3928.174270	22704.774917
42.035500	-0.001595	0.000303	-0.002542	0.002221	6864.722081	42467.661471	3925.492932	22733.485555
42.536000	-0.001625	0.000336	-0.002129	0.002458	6862.159907	42449.006551	3926.003234	22722.543394
43.036500	0.000066	0.000290	-0.000220	0.001949	6883.305291	42491.370302	3933.018517	22746.048215
43.539500	-0.002192	0.000309	-0.001478	0.002471	6856.610053	42445.362690	3927.850823	22721.970090
44.036500	-0.002550	0.000063	0.000537	0.002078	6856.932394	42458.800292	3934.846189	22740.083407
44.536500	0.002307	0.001794	-0.001603	-0.001065	6934.250544	42907.285222	3937.774027	22885.757903
45.034500	0.000875	0.001247	-0.000667	-0.000116	6911.089492	42769.067194	3937.733454	22841.642168
45.538000	-0.002584	0.000197	-0.003654	0.003141	6846.442139	42373.884851	3919.631764	22691.059624
46.035000	-0.003147	0.000227	-0.003335	0.005109	6822.344698	42197.346235	3914.895705	22600.621316
46.536000	-0.001368	0.000736	-0.005241	-0.000043	6888.687008	42715.199412	3924.235363	22838.263838
47.036000	-0.001724	0.000066	0.001991	0.000134	6883.543440	42637.291907	3944.786073	22830.048458
47.536000	-0.000568	-0.000012	0.000706	0.002620	6870.744329	42402.322232	3933.760826	22715.056537
48.036500	-0.002346	0.000981	-0.001922	0.004166	6838.932895	42351.838940	3921.668308	22643.879153
48.537000	-0.000717	0.000470	-0.002424	0.002560	6869.897666	42452.014355	3924.857314	22717.868263
49.034000	-0.001631	0.000105	-0.001156	0.000081	6884.953903	42645.798041	3935.735831	22832.543977
49.540000	0.001125	-0.000181	-0.004697	0.002614	6887.096451	42387.455316	3918.146319	22715.341971
50.035000	-0.000551	-0.000016	-0.001187	0.000384	6892.453266	42606.899770	3934.760912	22818.490307
50.534500	0.000473	0.001145	-0.001312	-0.001719	6922.758385	42907.763277	3940.536424	22916.204490
51.035500	0.000116	0.000325	-0.000546	0.002021	6883.088487	42487.961641	3931.859824	22742.704123
51.535500	-0.023779	-0.007119	0.008030	0.021268	6487.363645	40117.576826	3901.221276	21873.205346
52.036000	-0.050338	-0.017849	0.035981	0.175747	5195.743851	28284.666892	3589.924023	16129.832417
52.536500	-0.048266	-0.019639	-0.007972	-0.059888	7015.493207	46520.430173	4100.586474	25815.826129
53.036500	-0.032107	-0.021166	-0.012698	-0.140250	8089.943141	55238.291550	4372.838302	30517.526593
53.537000	-0.021682	-0.012500	-0.017989	-0.103560	7773.543173	51956.579492	4215.897403	28262.803956
54.037000	-0.006014	-0.009599	-0.015730	-0.120342	8167.274434	54239.223253	4285.200212	29270.488324
54.537500	0.003421	-0.005796	-0.013227	-0.109395	8148.274907	53398.727791	4254.090213	28608.748139
55.035000	0.005198	-0.002851	-0.009295	-0.070642	7703.467166	49387.925114	4132.000984	26395.697674
55.535000	0.008867	-0.001632	-0.003783	-0.051566	7529.020003	47508.033697	4087.031422	25376.777196
56.035500	0.000191	-0.004897	0.000832	-0.035000	7256.254171	45508.953607	4048.555962	24527.517090
56.536000	0.009285	-0.000887	-0.000511	-0.036181	7365.367451	46023.463401	4048.040702	24586.977620
57.036000	0.011922	-0.000306	-0.002528	-0.031691	7345.508168	45635.459393	4027.541237	24361.733573
57.536500	0.010840	0.001785	0.012436	0.018531	6827.710802	41133.573786	3921.649528	21994.535951
58.037000	0.018433	0.001578	0.015855	0.035168	6742.606424	39672.168494	3884.113664	21268.796647
58.537000	0.022024	0.004901	0.025904	0.044651	6688.108555	39151.812686	3885.695885	20867.402104
59.040000	0.021956	0.003308	0.020424	0.053493	6607.089909	38286.914419	3846.243766	20500.966843
59.534500	0.021733	0.004642	0.030952	0.065312	6500.199417	37438.554358	3842.753106	20022.678331
60.035000	0.028331	0.007267	0.029593	0.063359	6575.792372	37806.379760	3844.356363	20100.796008
60.535500	0.029522	0.008639	0.040177	0.067342	6550.951483	37596.157883	3862.351138	19941.824854
61.035500	0.036590	0.011511	0.042737	0.073363	6560.242347	37344.160155	3852.880828	19704.201251
61.536000	0.037386	0.012166	0.046923	0.083481	6478.236965	36597.858926	3836.828299	19312.281740
62.036000	0.045411	0.015387	0.050982	0.084397	6540.618495	36778.212773	3845.308973	19277.264434
62.536500	0.049391	0.018075	0.052649	0.075945	6652.196812	37663.103975	3873.024622	19603.336994
63.037000	0.054516	0.019642	0.062403	0.099289	6489.757929	35954.194378	3835.947901	18717.951554
63.537000	0.059077	0.023288	0.075924	0.128025	6284.470406	34088.589136	3795.790294	17691.415027
64.037500	0.069634	0.027357	0.085908	0.136340	6303.040820	33783.469768	3800.127991	17406.860650
64.537500	0.076215	0.032025	0.095083	0.143469	6298.483335	33607.882631	3805.466911	17167.145572
65.037500	0.089048	0.038332	0.099468	0.154990	6309.382296	33239.350289	3786.955068	16788.024197
65.535500	0.097792	0.042187	0.110580	0.167051	6281.909615	32668.075360	3784.515291	16401.747666
66.035500	0.109177	0.050397	0.119452	0.178864	6278.381753	32420.682677	3776.989414	16033.680564
66.536000	0.116867	0.054803	0.130372	0.190180	6248.611332	31951.867108	3775.980154	15690.355166
67.036500	0.125264	0.060105	0.143801	0.200567	6232.376012	31611.616251	3783.757507	15382.982134
67.536500	0.134917	0.065260	0.152743	0.210236	6232.252935	31312.910803	3781.893170	15103.407186
68.036500	0.143618	0.071898	0.160489	0.232401	6124.372001	30308.692260	3745.568742	14485.509880
68.537000	0.144920	0.072056	0.165837	0.228786	6163.388176	30549.452376	3768.008663	14584.162125
69.037500	0.154234	0.079005	0.173790	0.212653	6372.483114	32068.489357	3830.650759	15034.494696
69.535000	0.159576	0.085185	0.180755	0.226391	6302.131358	31562.194540	3812.682716	14649.959920
70.034500	0.169456	0.088202	0.184720	0.228991	6363.054154	31589.897442	3816.282546	14578.548901
70.535500	0.179698	0.095144	0.197181	0.252556	6252.338805	30505.788678	3787.333444	13950.390222
71.036000	0.183274	0.097483	0.201972	0.263235	6194.675189	29977.308789	3772.278901	13676.743078
71.538500	0.186867	0.099458	0.205890	0.274524	6133.268833	29398.969233	3753.720477	13394.716558
72.087000	0.193926	0.103148	0.210108	0.278955	6154.116779	29353.552562	3753.191997	13286.010524
72.536500	0.196445	0.105321	0.215087	0.284986	6126.281835	29117.928134	3750.567913	13139.798308
73.039500	0.200460	0.108101	0.220822	0.291007	6110.482692	28921.697995	3749.856038	12995.848757
73.540000	0.204580	0.110481	0.229478	0.299811	6073.881405	28537.003348	3749.489608	12788.949385
74.035000	0.209396	0.113071	0.230972	0.300012	6109.939298	28679.399031	3752.708893	12784.262613
74.535000	0.213409	0.114497	0.233896	0.303475	6114.259721	28557.930019	3751.364618	12704.045641
75.035500	0.215790	0.117288	0.231330	0.306518	6109.068672	28542.950437	3737.482677	12634.107730
75.535500	0.218866	0.119721	0.238201	0.315675	6061.641400	28146.278978	3731.875980	12426.526912
76.036000	0.221839	0.119707	0.242140	0.311853	6114.678903	28370.188765	3751.032082	12512.635958
76.539000	0.224650	0.121053	0.243396	0.314248	6117.947124	28308.222903	3748.198455	12458.573400
77.039000	0.231092	0.124594	0.246240	0.318671	6133.880411	28256.366146	3744.284130	12359.544001
77.537000	0.228436	0.124230	0.247210	0.326519	6051.784364	27778.029702	3727.396423	12186.291078
78.040000	0.232434	0.126582	0.255808	0.324197	6100.949085	28049.170419	3754.334837	12237.234305
78.536500	0.236298	0.127878	0.256310	0.327178	6107.866811	27951.094251	3748.157434	12171.884832
79.035000	0.239652	0.129151	0.255520	0.330464	6108.398249	27834.411723	3738.082164	12100.368291
79.535500	0.237836	0.130671	0.257471	0.340300	6018.123374	27358.115620	3718.855278	11889.521225
80.035000	0.242525	0.132213	0.261026	0.337584	6075.223833	27600.898845	3734.119141	11947.280336
80.535000	0.246335	0.134497	0.262471	0.342814	6064.195125	27432.637645	3724.880614	11836.396522
81.036000	0.249715	0.136906	0.267004	0.347068	6057.423055	27327.898441	3725.557631	11747.190645
81.536000	0.249815	0.136788	0.269772	0.355550	5993.222700	26845.420029	3711.756526	11571.926230
82.037000	0.254612	0.138817	0.270038	0.354030	6041.494066	27043.337900	3716.050811	11603.074418
82.537500	0.254981	0.139563	0.274303	0.356396	6026.154125	26952.848963	3720.637574	11554.632515
83.037500	0.258232	0.139388	0.282442	0.359995	6023.495605	26743.166133	3731.684167	11481.439247
83.537500	0.259241	0.140851	0.283342	0.362990	6008.321429	26658.576567	3726.571626	11420.976193
84.035500	0.263554	0.143103	0.282812	0.366694	6012.965675	26578.678215	3716.315576	11346.781662
84.535500	0.262322	0.143340	0.284929	0.368941	5986.515009	26468.506122	3716.001373	11302.081940
85.035500	0.265485	0.145187	0.293234	0.372761	5981.549657	26360.898128	3726.866136	11226.629528
85.538000	0.269102	0.146442	0.292056	0.376288	5982.232877	26237.511164	3715.474011	11157.539922
86.039500	0.271646	0.146776	0.287117	0.378760	5982.777951	26122.077772	3697.775864	11109.455468
86.539000	0.270766	0.149266	0.297496	0.382315	5949.405605	26064.734587	3714.061673	11040.774864
87.039500	0.271827	0.150390	0.298015	0.386053	5929.424037	25924.620598	3706.345481	10969.154184
87.536500	0.271918	0.150834	0.293537	0.392871	5879.768394	25586.581286	3679.728414	10840.129796
88.037500	0.279610	0.152981	0.303236	0.392989	5935.730828	25693.608776	3702.258570	10837.897575
88.540500	0.276983	0.153157	0.304728	0.394576	5904.475486	25619.182662	3702.034602	10808.176021
89.035500	0.279950	0.153255	0.304470	0.397476	5904.962604	25471.868841	3694.552069	10754.101067
89.535000	0.280941	0.154355	0.309581	0.405893	5850.600361	25091.776108	3686.779759	10599.217840
90.035500	0.284712	0.154396	0.311878	0.402547	5902.685269	25266.920219	3700.082354	10660.427374
90.536000	0.287315	0.157701	0.316957	0.407632	5884.426376	25174.701765	3700.069805	10567.590467
91.036500	0.283725	0.157042	0.310846	0.408391	5852.680358	25101.508472	3683.894973	10553.827225
91.538500	0.284480	0.157437	0.313258	0.418286	5786.988165	24617.261853	3666.566989	10376.569816
92.037000	0.290223	0.158787	0.323193	0.414983	5851.995607	24853.154680	3697.427767	10435.297608
92.534000	0.288514	0.158622	0.315488	0.416242	5830.517506	24780.688467	3676.429567	10412.866157
93.035000	0.294053	0.160574	0.318554	0.420102	5842.656569	24683.996769	3674.590999	10344.487354
93.535000	0.292617	0.161201	0.321819	0.426295	5787.898714	24404.268288	3667.835834	10236.026266
94.035000	0.295594	0.161487	0.322676	0.424059	5825.205109	24530.582837	3674.971543	10275.004532
94.535500	0.297216	0.161801	0.330101	0.427013	5815.631381	24398.407095	3685.375150	10223.559260
95.039000	0.300151	0.163442	0.326660	0.429665	5817.665379	24347.982801	3671.223555	10177.665004
95.538500	0.298083	0.164443	0.322296	0.435477	5761.578189	24109.730442	3648.025246	10078.064707
96.039500	0.302657	0.165733	0.332807	0.434757	5799.150402	24208.978458	3673.659802	10090.332791
96.536500	0.302753	0.167692	0.337025	0.438081	5776.184711	24141.513898	3675.728880	10033.866908
97.037000	0.303999	0.167033	0.332708	0.439354	5775.995723	24046.476826	3662.861071	10012.360344
97.537000	0.303976	0.166703	0.330547	0.445836	5730.236925	23714.558701	3643.287242	9903.797133
