sample name	sample
index	551
start time	 03-15-2021  11:36:31 AM


Wavelength (nm)	Absorbance
494.344910	-0.467541
494.563924	-0.467541
494.782919	-0.467541
495.001897	-0.103958
495.220856	-0.296947
495.439797	-0.210954
495.658719	-0.211851
495.877624	-0.182941
496.096510	-0.218911
496.315378	-0.220579
496.534227	-0.231462
496.753059	-0.235298
496.971872	-0.156080
497.190667	0.068417
497.409444	0.091230
497.628203	0.103700
497.846943	0.105659
498.065665	0.108094
498.284369	0.108103
498.503055	0.109852
498.721723	0.111405
498.940372	0.109546
499.159003	0.109460
499.377616	0.109476
499.596210	0.108792
499.814787	0.108389
500.033345	0.108685
500.251885	0.108591
500.470406	0.108750
500.688910	0.107404
500.907395	0.108920
501.125862	0.109204
501.344311	0.109977
501.562742	0.111028
501.781154	0.112543
501.999548	0.111547
502.217924	0.112984
502.436282	0.112751
502.654621	0.112591
502.872942	0.111903
503.091245	0.112359
503.309530	0.112503
503.527797	0.112939
503.746045	0.111943
503.964275	0.112339
504.182487	0.111172
504.400681	0.111089
504.618856	0.112655
504.837013	0.112968
505.055152	0.112366
505.273273	0.111212
505.491376	0.110337
505.709460	0.111194
505.927526	0.111955
506.145574	0.113288
506.363604	0.113271
506.581615	0.113067
506.799608	0.112084
507.017583	0.113198
507.235540	0.114484
507.453478	0.114473
507.671399	0.115162
507.889301	0.114732
508.107185	0.114849
508.325050	0.115388
508.542898	0.115778
508.760727	0.117009
508.978538	0.117103
509.196330	0.116751
509.414105	0.116778
509.631861	0.116656
509.849599	0.117354
510.067319	0.115914
510.285021	0.116762
510.502704	0.117166
510.720369	0.117577
510.938016	0.117471
511.155645	0.117646
511.373255	0.118145
511.590848	0.118211
511.808422	0.118638
512.025977	0.119750
512.243515	0.118614
512.461034	0.118654
512.678536	0.118370
512.896018	0.118439
513.113483	0.118133
513.330930	0.118778
513.548358	0.118919
513.765768	0.119115
513.983160	0.119443
514.200533	0.120657
514.417889	0.120518
514.635226	0.121123
514.852545	0.121443
515.069845	0.121933
515.287128	0.122310
515.504392	0.123017
515.721638	0.121986
515.938866	0.122690
516.156075	0.122740
516.373267	0.122893
516.590440	0.123334
516.807594	0.122931
517.024731	0.123731
517.241850	0.123588
517.458950	0.123586
517.676032	0.124466
517.893095	0.123986
518.110141	0.124086
518.327168	0.124785
518.544177	0.124823
518.761168	0.125572
518.978141	0.125183
519.195095	0.125665
519.412031	0.125124
519.628949	0.124802
519.845849	0.125605
520.062731	0.125655
520.279594	0.125597
520.496439	0.124561
520.713266	0.125195
520.930074	0.125899
521.146865	0.125581
521.363637	0.126567
521.580391	0.127758
521.797127	0.127430
522.013844	0.128016
522.230543	0.128098
522.447224	0.129064
522.663887	0.128909
522.880532	0.129100
523.097158	0.129428
523.313766	0.129478
523.530356	0.129416
523.746928	0.129799
523.963481	0.130313
524.180017	0.130288
524.396534	0.131319
524.613032	0.132119
524.829513	0.133212
525.045975	0.133536
525.262420	0.134512
525.478845	0.135832
525.695253	0.136424
525.911643	0.135874
526.128014	0.136562
526.344367	0.136658
526.560702	0.136323
526.777018	0.135652
526.993316	0.135887
527.209597	0.135227
527.425858	0.134963
527.642102	0.134402
527.858328	0.135073
528.074535	0.135442
528.290724	0.135882
528.506894	0.135789
528.723047	0.136291
528.939181	0.136510
529.155297	0.136805
529.371395	0.136958
529.587475	0.137781
529.803536	0.137754
530.019579	0.138540
530.235604	0.138714
530.451611	0.139152
530.667600	0.139811
530.883570	0.140337
531.099522	0.140949
531.315456	0.140835
531.531372	0.141075
531.747269	0.142102
531.963148	0.141732
532.179009	0.141235
532.394852	0.142922
532.610676	0.142719
532.826482	0.143036
533.042271	0.143161
533.258040	0.143755
533.473792	0.143564
533.689525	0.142805
533.905240	0.142798
534.120937	0.143687
534.336616	0.143739
534.552277	0.143863
534.767919	0.144184
534.983543	0.144579
535.199149	0.144850
535.414736	0.146208
535.630306	0.147250
535.845857	0.147684
536.061390	0.147663
536.276904	0.146800
536.492401	0.147725
536.707879	0.148240
536.923339	0.148476
537.138781	0.148365
537.354204	0.148087
537.569610	0.147930
537.784997	0.148693
538.000366	0.149501
538.215716	0.150192
538.431049	0.150039
538.646363	0.150140
538.861659	0.150729
539.076937	0.151725
539.292196	0.152256
539.507438	0.152735
539.722661	0.152251
539.937866	0.152046
540.153052	0.152540
540.368221	0.152936
540.583371	0.152781
540.798503	0.152702
541.013617	0.152795
541.228712	0.152864
541.443789	0.153340
541.658848	0.154576
541.873889	0.154729
542.088912	0.155153
542.303916	0.156036
542.518902	0.156760
542.733870	0.157149
542.948820	0.157239
543.163752	0.157941
543.378665	0.158099
543.593560	0.157694
543.808437	0.158552
544.023295	0.158555
544.238136	0.158179
544.452958	0.158068
544.667762	0.158373
544.882548	0.159029
545.097315	0.159020
545.312064	0.159928
545.526795	0.160646
545.741508	0.160138
545.956203	0.159949
546.170879	0.160706
546.385537	0.161903
546.600177	0.161887
546.814799	0.161491
547.029402	0.161584
547.243988	0.161141
547.458555	0.160481
547.673103	0.161072
547.887634	0.161525
548.102146	0.161180
548.316640	0.160394
548.531116	0.160276
548.745574	0.160963
548.960013	0.161467
549.174435	0.161766
549.388838	0.162726
549.603222	0.163286
549.817589	0.163635
550.031937	0.163777
550.246267	0.164162
550.460579	0.164785
550.674873	0.164823
550.889148	0.164660
551.103405	0.164783
551.317644	0.164897
551.531865	0.164755
551.746068	0.164938
551.960252	0.165629
552.174418	0.166104
552.388566	0.166370
552.602696	0.166622
552.816807	0.167124
553.030900	0.168017
553.244975	0.168173
553.459032	0.168623
553.673070	0.169188
553.887091	0.169271
554.101093	0.169330
554.315077	0.169558
554.529042	0.169854
554.742990	0.169681
554.956919	0.169096
555.170830	0.169246
555.384722	0.169566
555.598597	0.169075
555.812453	0.168930
556.026291	0.169199
556.240111	0.169190
556.453913	0.169404
556.667696	0.169934
556.881461	0.170313
557.095208	0.170741
557.308937	0.170850
557.522647	0.171485
557.736339	0.171835
557.950013	0.172205
558.163669	0.172219
558.377307	0.172190
558.590926	0.172368
558.804527	0.172487
559.018110	0.172263
559.231675	0.172267
559.445221	0.172242
559.658749	0.172154
559.872259	0.172332
560.085751	0.172884
560.299225	0.172586
560.512680	0.172864
560.726117	0.173054
560.939536	0.173349
561.152937	0.173619
561.366319	0.173790
561.579683	0.174063
561.793029	0.173822
562.006357	0.173852
562.219667	0.174479
562.432958	0.174346
562.646231	0.174452
562.859486	0.174867
563.072723	0.174926
563.285941	0.175307
563.499141	0.175367
563.712323	0.175846
563.925487	0.175984
564.138632	0.176254
564.351760	0.176116
564.564869	0.176326
564.777960	0.176278
564.991032	0.176039
565.204087	0.176098
565.417123	0.176327
565.630141	0.176358
565.843140	0.176718
566.056122	0.176931
566.269085	0.177283
566.482030	0.176669
566.694957	0.176532
566.907866	0.176948
567.120756	0.177059
567.333628	0.177477
567.546482	0.177672
567.759318	0.177562
567.972135	0.177491
568.184935	0.177858
568.397716	0.178635
568.610478	0.178678
568.823223	0.178815
569.035949	0.178902
569.248657	0.178634
569.461347	0.178469
569.674019	0.178654
569.886672	0.179116
570.099308	0.179035
570.311925	0.179530
570.524523	0.179650
570.737104	0.179976
570.949666	0.179982
571.162210	0.180095
571.374736	0.180485
571.587244	0.180733
571.799733	0.180369
572.012205	0.180642
572.224658	0.180745
572.437092	0.181141
572.649509	0.181238
572.861907	0.181682
573.074287	0.182091
573.286649	0.182065
573.498993	0.181934
573.711318	0.182378
573.923625	0.181796
574.135914	0.181412
574.348185	0.181396
574.560438	0.181796
574.772672	0.181444
574.984888	0.181635
575.197086	0.181835
575.409266	0.182312
575.621427	0.182257
575.833570	0.183240
576.045695	0.183780
576.257802	0.184421
576.469890	0.184046
576.681961	0.184689
576.894013	0.184625
577.106046	0.184704
577.318062	0.184829
577.530059	0.184726
577.742039	0.184540
577.954000	0.184659
578.165942	0.184915
578.377867	0.185104
578.589773	0.185050
578.801661	0.185056
579.013531	0.185499
579.225382	0.185407
579.437216	0.185690
579.649031	0.185992
579.860828	0.185914
580.072606	0.185657
580.284367	0.185929
580.496109	0.186075
580.707833	0.186544
580.919539	0.186322
581.131227	0.186603
581.342896	0.186568
581.554547	0.187184
581.766180	0.187166
581.977795	0.187065
582.189391	0.187302
582.400969	0.187319
582.612529	0.187374
582.824071	0.187308
583.035595	0.187467
583.247100	0.187614
583.458587	0.186985
583.670056	0.187507
583.881506	0.188237
584.092939	0.187937
584.304353	0.187803
584.515749	0.187682
584.727127	0.188448
584.938486	0.188542
585.149828	0.188831
585.361151	0.188833
585.572456	0.188860
585.783742	0.188897
585.995011	0.189439
586.206261	0.189685
586.417493	0.190235
586.628706	0.190195
586.839902	0.189820
587.051079	0.189997
587.262238	0.190230
587.473379	0.190212
587.684502	0.190083
587.895606	0.190408
588.106692	0.191319
588.317760	0.191170
588.528810	0.191219
588.739841	0.191787
588.950855	0.191960
589.161850	0.192416
589.372827	0.192691
589.583785	0.192624
589.794726	0.192269
590.005648	0.192086
590.216552	0.192159
590.427437	0.192330
590.638305	0.192650
590.849154	0.192997
591.059985	0.193297
591.270798	0.193147
591.481592	0.193447
591.692369	0.193834
591.903127	0.193923
592.113867	0.194117
592.324588	0.194353
592.535292	0.194183
592.745977	0.194536
592.956644	0.194359
593.167293	0.194354
593.377923	0.194174
593.588536	0.193870
593.799130	0.194193
594.009706	0.194319
594.220263	0.194165
594.430803	0.194816
594.641324	0.194864
594.851827	0.195236
595.062312	0.195161
595.272778	0.195510
595.483227	0.196254
595.693657	0.196002
595.904069	0.196441
596.114462	0.196740
596.324838	0.196401
596.535195	0.196380
596.745534	0.196470
596.955855	0.197104
597.166157	0.197564
597.376441	0.197678
597.586707	0.198099
597.796955	0.198323
598.007185	0.198668
598.217396	0.198749
598.427589	0.198754
598.637764	0.198842
598.847921	0.199252
599.058060	0.199414
599.268180	0.199495
599.478282	0.199594
599.688366	0.199476
599.898431	0.199365
600.108479	0.199642
600.318508	0.199468
600.528519	0.199710
600.738511	0.199501
600.948486	0.199374
601.158442	0.199583
601.368380	0.199599
601.578300	0.199691
601.788202	0.199860
601.998085	0.200190
602.207950	0.200662
602.417797	0.200836
602.627626	0.201298
602.837436	0.201299
603.047228	0.201481
603.257002	0.201628
603.466758	0.201750
603.676496	0.201874
603.886215	0.201909
604.095916	0.202249
604.305599	0.202024
604.515264	0.201950
604.724910	0.202562
604.934538	0.202357
605.144148	0.202386
605.353740	0.202885
605.563314	0.202974
605.772869	0.202956
605.982406	0.202894
606.191925	0.203372
606.401425	0.203600
606.610908	0.203564
606.820372	0.203805
607.029818	0.204107
607.239246	0.203875
607.448655	0.203963
607.658047	0.204107
607.867420	0.204239
608.076775	0.204249
608.286111	0.204362
608.495430	0.204419
608.704730	0.204733
608.914012	0.205057
609.123275	0.205669
609.332521	0.206323
609.541748	0.206682
609.750957	0.206818
609.960148	0.206932
610.169321	0.206928
610.378475	0.207317
610.587611	0.207176
610.796729	0.207033
611.005829	0.206697
611.214910	0.206172
611.423974	0.205909
611.633019	0.206297
611.842045	0.206650
612.051054	0.207214
612.260044	0.207092
612.469017	0.207421
612.677970	0.207659
612.886906	0.207889
613.095824	0.208282
613.304723	0.208749
613.513604	0.208617
613.722467	0.208824
613.931311	0.208456
614.140138	0.208842
614.348946	0.209362
614.557736	0.209079
614.766507	0.209205
614.975261	0.209586
615.183996	0.209803
615.392713	0.210034
615.601412	0.210113
615.810092	0.210470
616.018754	0.210409
616.227399	0.210040
616.436024	0.210544
616.644632	0.210602
616.853222	0.210592
617.061793	0.210514
617.270346	0.210556
617.478880	0.210826
617.687397	0.210850
617.895895	0.211053
618.104375	0.211122
618.312837	0.211345
618.521281	0.211693
618.729706	0.211576
618.938113	0.211886
619.146502	0.212192
619.354873	0.212153
619.563226	0.212454
619.771560	0.212657
619.979876	0.212812
620.188174	0.212667
620.396453	0.212345
620.604715	0.212874
620.812958	0.212920
621.021183	0.212802
621.229390	0.212736
621.437578	0.212714
621.645748	0.212715
621.853900	0.212919
622.062034	0.213329
622.270150	0.213726
622.478247	0.213724
622.686326	0.213710
622.894387	0.214004
623.102430	0.214006
623.310454	0.214071
623.518461	0.214134
623.726449	0.214268
623.934418	0.214387
624.142370	0.214589
624.350303	0.214800
624.558218	0.215195
624.766115	0.215270
624.973994	0.215698
625.181855	0.215752
625.389697	0.215931
625.597521	0.216370
625.805327	0.216482
626.013114	0.216615
626.220883	0.216493
626.428634	0.216482
626.636367	0.216614
626.844082	0.216429
627.051778	0.216743
627.259457	0.216836
627.467117	0.216901
627.674758	0.216909
627.882382	0.216758
628.089987	0.217185
628.297574	0.217201
628.505143	0.217493
628.712694	0.217931
628.920226	0.218041
629.127740	0.217858
629.335236	0.217903
629.542714	0.217845
629.750174	0.218137
629.957615	0.218216
630.165038	0.218296
630.372443	0.218253
630.579829	0.218249
630.787198	0.218549
630.994548	0.219093
631.201880	0.218982
631.409194	0.219518
631.616489	0.219954
631.823766	0.219904
632.031025	0.220307
632.238266	0.220326
632.445489	0.220608
632.652693	0.220736
632.859879	0.220902
633.067047	0.221009
633.274197	0.220879
633.481329	0.220822
633.688442	0.220903
633.895537	0.221046
634.102614	0.221115
634.309672	0.221197
634.516713	0.221258
634.723735	0.221573
634.930739	0.221854
635.137724	0.222345
635.344692	0.222576
635.551641	0.222685
635.758572	0.222847
635.965485	0.223337
636.172379	0.223378
636.379256	0.223338
636.586114	0.223441
636.792954	0.223457
636.999775	0.223302
637.206579	0.223403
637.413364	0.223490
637.620131	0.223572
637.826880	0.223629
638.033610	0.223906
638.240323	0.224051
638.447017	0.224006
638.653692	0.224309
638.860350	0.224624
639.066990	0.224668
639.273611	0.224923
639.480214	0.225119
639.686798	0.225372
639.893365	0.225754
640.099913	0.225955
640.306443	0.226396
640.512955	0.226584
640.719449	0.226771
640.925924	0.227081
641.132381	0.227351
641.338820	0.227704
641.545241	0.227502
641.751644	0.227460
641.958028	0.227592
642.164394	0.227581
642.370742	0.227515
642.577071	0.227781
642.783383	0.227666
642.989676	0.227747
643.195951	0.227766
643.402207	0.227901
643.608446	0.227923
643.814666	0.228320
644.020868	0.228206
644.227052	0.228649
644.433218	0.228509
644.639365	0.228710
644.845494	0.229219
645.051605	0.229288
645.257698	0.229820
645.463772	0.229941
645.669828	0.229961
645.875866	0.230115
646.081886	0.230007
646.287888	0.230094
646.493871	0.230226
646.699836	0.229964
646.905783	0.230000
647.111712	0.230005
647.317622	0.230242
647.523514	0.230751
647.729388	0.231115
647.935244	0.231316
648.141082	0.231638
648.346901	0.231651
648.552702	0.231719
648.758485	0.231939
648.964250	0.232217
649.169996	0.232300
649.375724	0.231989
649.581434	0.232066
649.787126	0.232384
649.992800	0.232338
650.198455	0.232867
650.404092	0.233201
650.609711	0.233286
650.815311	0.233260
651.020894	0.233478
651.226458	0.233874
651.432004	0.234096
651.637532	0.234400
651.843041	0.234991
652.048532	0.235231
652.254006	0.235525
652.459460	0.235821
652.664897	0.236112
652.870315	0.236550
653.075716	0.236848
653.281097	0.236753
653.486461	0.236930
653.691807	0.237080
653.897134	0.237072
654.102443	0.236900
654.307734	0.236915
654.513006	0.237197
654.718261	0.237039
654.923497	0.237270
655.128715	0.237576
655.333915	0.237461
655.539096	0.237291
655.744259	0.237434
655.949404	0.237789
656.154531	0.238016
656.359640	0.238065
656.564730	0.238350
656.769802	0.238225
656.974856	0.238467
657.179892	0.238827
657.384909	0.238939
657.589908	0.239050
657.794889	0.239065
657.999852	0.239250
658.204797	0.239283
658.409723	0.239463
658.614631	0.239644
658.819521	0.239855
659.024393	0.239783
659.229246	0.240278
659.434081	0.240490
659.638898	0.240779
659.843697	0.240854
660.048478	0.241074
660.253240	0.240926
660.457984	0.241451
660.662710	0.241793
660.867417	0.242224
661.072107	0.242417
661.276778	0.242924
661.481431	0.243215
661.686066	0.243354
661.890682	0.243671
662.095281	0.244089
662.299861	0.243955
662.504422	0.243998
662.708966	0.244135
662.913491	0.244075
663.117999	0.244212
663.322488	0.244169
663.526958	0.244749
663.731411	0.244950
663.935845	0.245154
664.140261	0.245615
664.344659	0.245847
664.549038	0.245957
664.753400	0.246287
664.957743	0.246332
665.162068	0.246781
665.366375	0.246791
665.570663	0.247158
665.774933	0.247550
665.979185	0.247602
666.183419	0.248031
666.387635	0.248072
666.591832	0.248177
666.796011	0.248378
667.000172	0.248606
667.204315	0.248899
667.408439	0.248879
667.612545	0.249043
667.816634	0.249304
668.020703	0.249139
668.224755	0.249537
668.428788	0.249701
668.632803	0.249887
668.836800	0.250018
669.040779	0.250292
669.244739	0.250483
669.448681	0.250782
669.652605	0.250725
669.856511	0.251264
670.060399	0.251659
670.264268	0.252085
670.468119	0.252354
670.671952	0.252700
670.875767	0.252750
671.079563	0.252858
671.283341	0.252856
671.487101	0.253353
671.690843	0.253411
671.894567	0.253552
672.098272	0.253621
672.301959	0.253780
672.505628	0.253810
672.709278	0.254068
672.912911	0.254270
673.116525	0.254396
673.320121	0.254341
673.523699	0.254585
673.727258	0.254748
673.930799	0.254921
674.134322	0.255006
674.337827	0.255237
674.541314	0.255438
674.744782	0.255794
674.948232	0.256200
675.151664	0.256607
675.355078	0.256693
675.558474	0.256767
675.761851	0.256853
675.965210	0.257009
676.168551	0.257104
676.371873	0.257182
676.575178	0.257203
676.778464	0.257426
676.981732	0.257415
677.184981	0.257587
677.388213	0.257856
677.591426	0.258344
677.794621	0.258618
677.997798	0.258863
678.200956	0.259017
678.404097	0.259231
678.607219	0.259347
678.810323	0.259594
679.013408	0.259704
679.216476	0.259696
679.419525	0.259530
679.622556	0.259712
679.825569	0.259681
680.028563	0.259876
680.231540	0.260258
680.434498	0.260212
680.637438	0.260318
680.840359	0.260569
681.043263	0.260733
681.246148	0.261275
681.449015	0.261262
681.651864	0.261602
681.854694	0.261952
682.057506	0.261972
682.260301	0.262296
682.463076	0.262265
682.665834	0.262416
682.868573	0.262806
683.071295	0.262804
683.273998	0.263035
683.476682	0.263376
683.679349	0.263389
683.881997	0.263671
684.084627	0.263978
684.287239	0.264331
684.489833	0.264229
684.692408	0.264391
684.894965	0.264595
685.097504	0.264996
685.300025	0.265160
685.502527	0.265363
685.705012	0.265658
685.907478	0.265705
686.109925	0.265948
686.312355	0.266474
686.514766	0.266743
686.717159	0.267131
686.919534	0.267283
687.121891	0.267223
687.324230	0.267538
687.526550	0.267576
687.728852	0.267721
687.931136	0.268172
688.133401	0.268195
688.335649	0.268434
688.537878	0.268688
688.740089	0.268777
688.942281	0.269306
689.144456	0.269242
689.346612	0.269375
689.548750	0.269535
689.750870	0.269403
689.952971	0.269756
690.155055	0.269788
690.357120	0.269685
690.559167	0.270050
690.761195	0.269965
690.963206	0.270215
691.165198	0.270377
691.367172	0.270552
691.569128	0.270742
691.771065	0.270669
691.972984	0.270853
692.174885	0.270929
692.376768	0.270961
692.578633	0.271331
692.780479	0.271504
692.982308	0.271800
693.184118	0.271916
693.385909	0.271876
