sample name	sample
index	835
start time	 04-05-2021  10:48:10 AM


Wavelength (nm)	Absorbance
494.344910	-0.015109
494.563924	-0.015109
494.782919	-0.015109
495.001897	0.024440
495.220856	0.002088
495.439797	0.011875
495.658719	0.006398
495.877624	0.009076
496.096510	0.004737
496.315378	-0.002387
496.534227	-0.001830
496.753059	-0.003206
496.971872	0.010276
497.190667	0.066187
497.409444	0.094819
497.628203	0.105624
497.846943	0.109225
498.065665	0.111225
498.284369	0.112811
498.503055	0.113271
498.721723	0.114668
498.940372	0.115445
499.159003	0.117322
499.377616	0.116765
499.596210	0.116132
499.814787	0.116225
500.033345	0.115849
500.251885	0.116464
500.470406	0.117090
500.688910	0.117903
500.907395	0.118040
501.125862	0.117473
501.344311	0.117441
501.562742	0.118557
501.781154	0.118914
501.999548	0.120519
502.217924	0.119602
502.436282	0.119708
502.654621	0.119023
502.872942	0.118652
503.091245	0.118770
503.309530	0.118611
503.527797	0.118391
503.746045	0.118469
503.964275	0.117908
504.182487	0.119088
504.400681	0.119509
504.618856	0.119338
504.837013	0.118960
505.055152	0.119340
505.273273	0.120540
505.491376	0.120707
505.709460	0.120974
505.927526	0.121674
506.145574	0.121177
506.363604	0.121116
506.581615	0.122596
506.799608	0.123424
507.017583	0.124426
507.235540	0.123757
507.453478	0.123508
507.671399	0.123136
507.889301	0.122953
508.107185	0.122463
508.325050	0.122068
508.542898	0.121078
508.760727	0.120768
508.978538	0.119705
509.196330	0.120129
509.414105	0.120600
509.631861	0.121057
509.849599	0.122185
510.067319	0.123349
510.285021	0.123477
510.502704	0.123338
510.720369	0.124429
510.938016	0.125119
511.155645	0.125305
511.373255	0.125740
511.590848	0.125642
511.808422	0.125408
512.025977	0.125521
512.243515	0.126108
512.461034	0.127066
512.678536	0.126933
512.896018	0.126944
513.113483	0.127752
513.330930	0.127406
513.548358	0.128537
513.765768	0.128438
513.983160	0.128947
514.200533	0.129088
514.417889	0.128829
514.635226	0.129350
514.852545	0.129540
515.069845	0.129893
515.287128	0.130900
515.504392	0.130457
515.721638	0.130605
515.938866	0.130738
516.156075	0.130880
516.373267	0.131141
516.590440	0.130663
516.807594	0.131065
517.024731	0.130562
517.241850	0.129719
517.458950	0.129706
517.676032	0.129653
517.893095	0.130133
518.110141	0.130214
518.327168	0.130487
518.544177	0.130760
518.761168	0.130412
518.978141	0.130239
519.195095	0.131154
519.412031	0.131003
519.628949	0.131976
519.845849	0.131968
520.062731	0.133062
520.279594	0.133041
520.496439	0.133585
520.713266	0.134270
520.930074	0.134878
521.146865	0.134659
521.363637	0.135327
521.580391	0.135504
521.797127	0.135613
522.013844	0.135553
522.230543	0.136040
522.447224	0.136070
522.663887	0.136280
522.880532	0.136320
523.097158	0.136985
523.313766	0.137640
523.530356	0.137795
523.746928	0.138084
523.963481	0.137799
524.180017	0.137923
524.396534	0.137676
524.613032	0.138205
524.829513	0.138943
525.045975	0.138565
525.262420	0.139360
525.478845	0.139027
525.695253	0.138963
525.911643	0.139630
526.128014	0.140623
526.344367	0.141138
526.560702	0.141206
526.777018	0.141553
526.993316	0.141861
527.209597	0.141765
527.425858	0.142446
527.642102	0.142774
527.858328	0.142783
528.074535	0.142946
528.290724	0.143266
528.506894	0.143383
528.723047	0.142596
528.939181	0.143327
529.155297	0.143339
529.371395	0.142885
529.587475	0.143435
529.803536	0.143069
530.019579	0.142647
530.235604	0.143254
530.451611	0.142907
530.667600	0.143700
530.883570	0.143661
531.099522	0.143854
531.315456	0.144305
531.531372	0.144919
531.747269	0.145636
531.963148	0.145785
532.179009	0.146123
532.394852	0.146763
532.610676	0.147490
532.826482	0.148253
533.042271	0.148703
533.258040	0.149459
533.473792	0.149505
533.689525	0.149894
533.905240	0.150664
534.120937	0.150460
534.336616	0.150781
534.552277	0.150770
534.767919	0.150712
534.983543	0.150883
535.199149	0.150762
535.414736	0.151167
535.630306	0.151010
535.845857	0.150885
536.061390	0.151458
536.276904	0.151761
536.492401	0.152157
536.707879	0.153248
536.923339	0.153395
537.138781	0.153851
537.354204	0.154320
537.569610	0.155255
537.784997	0.155691
538.000366	0.155417
538.215716	0.156407
538.431049	0.156539
538.646363	0.155599
538.861659	0.156295
539.076937	0.156934
539.292196	0.157428
539.507438	0.157525
539.722661	0.157888
539.937866	0.158804
540.153052	0.158791
540.368221	0.159077
540.583371	0.160134
540.798503	0.160416
541.013617	0.160167
541.228712	0.159602
541.443789	0.159643
541.658848	0.159697
541.873889	0.160264
542.088912	0.160218
542.303916	0.160791
542.518902	0.161152
542.733870	0.161319
542.948820	0.162080
543.163752	0.162283
543.378665	0.163151
543.593560	0.163618
543.808437	0.163519
544.023295	0.163748
544.238136	0.163429
544.452958	0.163584
544.667762	0.163799
544.882548	0.163362
545.097315	0.163829
545.312064	0.163515
545.526795	0.163840
545.741508	0.163945
545.956203	0.164372
546.170879	0.164714
546.385537	0.164339
546.600177	0.164614
546.814799	0.165182
547.029402	0.165386
547.243988	0.166046
547.458555	0.166244
547.673103	0.166562
547.887634	0.166593
548.102146	0.166910
548.316640	0.168007
548.531116	0.168297
548.745574	0.168623
548.960013	0.169080
549.174435	0.168999
549.388838	0.169425
549.603222	0.169668
549.817589	0.170343
550.031937	0.171160
550.246267	0.170858
550.460579	0.170666
550.674873	0.170664
550.889148	0.170689
551.103405	0.171242
551.317644	0.171374
551.531865	0.171680
551.746068	0.171523
551.960252	0.171073
552.174418	0.171246
552.388566	0.171251
552.602696	0.171571
552.816807	0.172116
553.030900	0.172453
553.244975	0.172565
553.459032	0.172588
553.673070	0.172733
553.887091	0.172950
554.101093	0.173175
554.315077	0.173456
554.529042	0.173490
554.742990	0.173383
554.956919	0.173197
555.170830	0.173639
555.384722	0.173787
555.598597	0.173823
555.812453	0.174232
556.026291	0.173905
556.240111	0.174314
556.453913	0.174320
556.667696	0.174344
556.881461	0.174481
557.095208	0.174335
557.308937	0.174735
557.522647	0.175075
557.736339	0.174932
557.950013	0.175603
558.163669	0.175966
558.377307	0.176368
558.590926	0.176619
558.804527	0.176923
559.018110	0.176987
559.231675	0.177305
559.445221	0.177420
559.658749	0.177894
559.872259	0.177968
560.085751	0.177888
560.299225	0.178037
560.512680	0.178309
560.726117	0.178322
560.939536	0.178671
561.152937	0.178481
561.366319	0.178628
561.579683	0.178752
561.793029	0.178761
562.006357	0.178941
562.219667	0.179297
562.432958	0.179251
562.646231	0.179366
562.859486	0.179394
563.072723	0.179340
563.285941	0.179827
563.499141	0.180328
563.712323	0.180476
563.925487	0.180015
564.138632	0.180015
564.351760	0.180268
564.564869	0.180149
564.777960	0.180366
564.991032	0.180738
565.204087	0.180382
565.417123	0.180275
565.630141	0.180438
565.843140	0.181095
566.056122	0.181051
566.269085	0.181155
566.482030	0.181492
566.694957	0.181284
566.907866	0.181789
567.120756	0.182264
567.333628	0.182578
567.546482	0.183016
567.759318	0.183345
567.972135	0.183448
568.184935	0.183539
568.397716	0.183803
568.610478	0.184228
568.823223	0.184053
569.035949	0.184295
569.248657	0.184656
569.461347	0.184993
569.674019	0.185411
569.886672	0.185723
570.099308	0.185887
570.311925	0.186166
570.524523	0.186266
570.737104	0.186577
570.949666	0.186413
571.162210	0.185486
571.374736	0.185193
571.587244	0.184831
571.799733	0.184575
572.012205	0.184803
572.224658	0.184976
572.437092	0.185280
572.649509	0.185522
572.861907	0.185985
573.074287	0.186135
573.286649	0.186258
573.498993	0.186560
573.711318	0.187089
573.923625	0.187267
574.135914	0.187302
574.348185	0.187335
574.560438	0.187252
574.772672	0.187350
574.984888	0.188087
575.197086	0.188298
575.409266	0.188696
575.621427	0.189041
575.833570	0.189019
576.045695	0.189042
576.257802	0.189463
576.469890	0.189770
576.681961	0.189854
576.894013	0.190119
577.106046	0.190395
577.318062	0.189959
577.530059	0.189872
577.742039	0.190026
577.954000	0.190201
578.165942	0.189956
578.377867	0.189987
578.589773	0.190130
578.801661	0.190025
579.013531	0.190075
579.225382	0.190231
579.437216	0.190601
579.649031	0.190481
579.860828	0.190603
580.072606	0.190903
580.284367	0.190890
580.496109	0.190878
580.707833	0.190827
580.919539	0.191023
581.131227	0.191721
581.342896	0.191868
581.554547	0.192283
581.766180	0.192271
581.977795	0.192265
582.189391	0.192868
582.400969	0.193314
582.612529	0.193697
582.824071	0.194177
583.035595	0.193726
583.247100	0.193902
583.458587	0.193809
583.670056	0.194064
583.881506	0.194336
584.092939	0.193815
584.304353	0.193500
584.515749	0.193520
584.727127	0.193304
584.938486	0.193697
585.149828	0.193515
585.361151	0.193896
585.572456	0.194310
585.783742	0.194278
585.995011	0.194475
586.206261	0.194959
586.417493	0.195093
586.628706	0.195209
586.839902	0.195325
587.051079	0.195591
587.262238	0.195786
587.473379	0.195503
587.684502	0.195758
587.895606	0.196033
588.106692	0.196282
588.317760	0.196482
588.528810	0.196645
588.739841	0.196993
588.950855	0.196686
589.161850	0.196764
589.372827	0.197078
589.583785	0.197480
589.794726	0.197730
590.005648	0.197549
590.216552	0.197885
590.427437	0.197990
590.638305	0.197621
590.849154	0.197942
591.059985	0.197814
591.270798	0.197978
591.481592	0.197991
591.692369	0.197713
591.903127	0.197872
592.113867	0.198017
592.324588	0.198032
592.535292	0.198638
592.745977	0.198458
592.956644	0.198947
593.167293	0.199140
593.377923	0.198912
593.588536	0.199030
593.799130	0.198900
594.009706	0.198678
594.220263	0.198880
594.430803	0.198844
594.641324	0.199501
594.851827	0.199737
595.062312	0.199758
595.272778	0.200169
595.483227	0.200600
595.693657	0.200765
595.904069	0.200810
596.114462	0.200778
596.324838	0.200812
596.535195	0.200709
596.745534	0.200934
596.955855	0.201161
597.166157	0.201031
597.376441	0.201180
597.586707	0.201473
597.796955	0.201881
598.007185	0.202087
598.217396	0.201977
598.427589	0.202403
598.637764	0.202158
598.847921	0.202311
599.058060	0.202419
599.268180	0.202358
599.478282	0.202393
599.688366	0.202647
599.898431	0.202690
600.108479	0.203175
600.318508	0.203130
600.528519	0.203526
600.738511	0.203476
600.948486	0.203782
601.158442	0.204016
601.368380	0.204142
601.578300	0.203855
601.788202	0.204113
601.998085	0.204245
602.207950	0.204290
602.417797	0.204145
602.627626	0.204274
602.837436	0.203921
603.047228	0.203833
603.257002	0.204216
603.466758	0.204209
603.676496	0.204232
603.886215	0.204332
604.095916	0.204522
604.305599	0.204617
604.515264	0.204701
604.724910	0.205159
604.934538	0.205602
605.144148	0.205762
605.353740	0.206059
605.563314	0.206042
605.772869	0.206001
605.982406	0.206250
606.191925	0.206477
606.401425	0.206446
606.610908	0.206740
606.820372	0.206964
607.029818	0.206519
607.239246	0.206633
607.448655	0.207106
607.658047	0.207276
607.867420	0.207267
608.076775	0.206844
608.286111	0.207095
608.495430	0.207023
608.704730	0.206922
608.914012	0.207142
609.123275	0.207065
609.332521	0.206928
609.541748	0.206882
609.750957	0.206627
609.960148	0.207363
610.169321	0.207440
610.378475	0.207668
610.587611	0.207669
610.796729	0.207813
611.005829	0.208210
611.214910	0.208398
611.423974	0.208600
611.633019	0.209284
611.842045	0.209301
612.051054	0.209554
612.260044	0.209521
612.469017	0.209814
612.677970	0.210237
612.886906	0.210362
613.095824	0.210462
613.304723	0.210616
613.513604	0.210492
613.722467	0.210581
613.931311	0.210601
614.140138	0.211039
614.348946	0.210883
614.557736	0.211096
614.766507	0.211146
614.975261	0.211149
615.183996	0.211367
615.392713	0.211290
615.601412	0.211365
615.810092	0.211333
616.018754	0.211108
616.227399	0.211587
616.436024	0.211269
616.644632	0.211453
616.853222	0.211483
617.061793	0.211522
617.270346	0.211879
617.478880	0.211899
617.687397	0.212065
617.895895	0.212282
618.104375	0.212177
618.312837	0.212513
618.521281	0.212512
618.729706	0.212710
618.938113	0.212830
619.146502	0.212992
619.354873	0.213160
619.563226	0.213344
619.771560	0.213530
619.979876	0.213870
620.188174	0.213931
620.396453	0.214321
620.604715	0.214653
620.812958	0.214997
621.021183	0.215028
621.229390	0.215064
621.437578	0.215139
621.645748	0.215104
621.853900	0.215155
622.062034	0.215176
622.270150	0.214977
622.478247	0.214736
622.686326	0.214728
622.894387	0.214779
623.102430	0.215088
623.310454	0.215247
623.518461	0.215376
623.726449	0.215412
623.934418	0.215739
624.142370	0.215933
624.350303	0.216324
624.558218	0.216361
624.766115	0.216611
624.973994	0.216698
625.181855	0.216943
625.389697	0.217194
625.597521	0.217277
625.805327	0.217300
626.013114	0.217637
626.220883	0.217895
626.428634	0.217970
626.636367	0.218244
626.844082	0.218413
627.051778	0.218418
627.259457	0.218597
627.467117	0.218435
627.674758	0.218807
627.882382	0.218573
628.089987	0.218251
628.297574	0.218285
628.505143	0.218346
628.712694	0.218505
628.920226	0.218778
629.127740	0.218893
629.335236	0.219313
629.542714	0.219407
629.750174	0.219523
629.957615	0.219902
630.165038	0.220295
630.372443	0.220391
630.579829	0.220308
630.787198	0.220532
630.994548	0.220659
631.201880	0.220821
631.409194	0.220880
631.616489	0.221056
631.823766	0.221306
632.031025	0.221255
632.238266	0.221278
632.445489	0.221302
632.652693	0.221459
632.859879	0.221361
633.067047	0.221777
633.274197	0.221661
633.481329	0.221901
633.688442	0.221989
633.895537	0.222231
634.102614	0.222603
634.309672	0.222875
634.516713	0.222744
634.723735	0.222997
634.930739	0.222727
635.137724	0.223094
635.344692	0.223174
635.551641	0.223486
635.758572	0.223859
635.965485	0.223817
636.172379	0.224365
636.379256	0.224698
636.586114	0.225086
636.792954	0.225515
636.999775	0.225480
637.206579	0.225889
637.413364	0.226000
637.620131	0.225932
637.826880	0.226083
638.033610	0.226067
638.240323	0.226287
638.447017	0.226316
638.653692	0.226463
638.860350	0.226892
639.066990	0.226949
639.273611	0.226922
639.480214	0.227092
639.686798	0.227307
639.893365	0.227292
640.099913	0.227046
640.306443	0.227094
640.512955	0.227236
640.719449	0.227122
640.925924	0.227182
641.132381	0.227443
641.338820	0.227847
641.545241	0.227869
641.751644	0.227996
641.958028	0.228182
642.164394	0.228126
642.370742	0.228406
642.577071	0.228592
642.783383	0.228741
642.989676	0.228796
643.195951	0.228651
643.402207	0.228763
643.608446	0.229090
643.814666	0.229404
644.020868	0.229805
644.227052	0.229935
644.433218	0.230254
644.639365	0.230402
644.845494	0.230508
645.051605	0.230762
645.257698	0.231248
645.463772	0.231220
645.669828	0.231356
645.875866	0.231429
646.081886	0.231564
646.287888	0.231840
646.493871	0.232149
646.699836	0.232593
646.905783	0.232662
647.111712	0.232836
647.317622	0.233140
647.523514	0.233270
647.729388	0.233550
647.935244	0.233591
648.141082	0.233626
648.346901	0.233672
648.552702	0.233676
648.758485	0.234005
648.964250	0.234038
649.169996	0.234109
649.375724	0.234346
649.581434	0.234355
649.787126	0.234417
649.992800	0.234472
650.198455	0.234833
650.404092	0.235075
650.609711	0.235043
650.815311	0.235103
651.020894	0.235125
651.226458	0.235331
651.432004	0.235768
651.637532	0.235937
651.843041	0.236160
652.048532	0.236200
652.254006	0.236505
652.459460	0.236865
652.664897	0.236965
652.870315	0.237083
653.075716	0.237067
653.281097	0.237232
653.486461	0.237549
653.691807	0.237730
653.897134	0.238011
654.102443	0.238277
654.307734	0.238287
654.513006	0.238473
654.718261	0.239068
654.923497	0.239557
655.128715	0.239508
655.333915	0.239966
655.539096	0.240072
655.744259	0.240345
655.949404	0.240126
656.154531	0.240280
656.359640	0.240546
656.564730	0.240491
656.769802	0.240545
656.974856	0.241047
657.179892	0.240957
657.384909	0.241572
657.589908	0.241568
657.794889	0.241831
657.999852	0.242207
658.204797	0.242449
658.409723	0.242788
658.614631	0.242961
658.819521	0.243076
659.024393	0.243143
659.229246	0.243070
659.434081	0.243243
659.638898	0.243549
659.843697	0.243471
660.048478	0.243777
660.253240	0.243986
660.457984	0.244219
660.662710	0.244205
660.867417	0.244325
661.072107	0.244656
661.276778	0.244904
661.481431	0.245089
661.686066	0.245466
661.890682	0.245478
662.095281	0.245678
662.299861	0.245746
662.504422	0.246174
662.708966	0.246431
662.913491	0.246497
663.117999	0.246742
663.322488	0.246872
663.526958	0.247141
663.731411	0.247422
663.935845	0.247316
664.140261	0.247672
664.344659	0.247932
664.549038	0.248342
664.753400	0.248441
664.957743	0.248843
665.162068	0.249039
665.366375	0.249007
665.570663	0.249242
665.774933	0.249632
665.979185	0.250040
666.183419	0.249965
666.387635	0.249886
666.591832	0.250393
666.796011	0.250327
667.000172	0.250400
667.204315	0.250730
667.408439	0.250964
667.612545	0.251177
667.816634	0.251015
668.020703	0.251345
668.224755	0.251664
668.428788	0.251613
668.632803	0.251953
668.836800	0.252101
669.040779	0.252362
669.244739	0.252449
669.448681	0.252529
669.652605	0.252730
669.856511	0.252913
670.060399	0.253352
670.264268	0.253662
670.468119	0.253536
670.671952	0.253942
670.875767	0.254205
671.079563	0.254216
671.283341	0.254651
671.487101	0.254947
671.690843	0.255009
671.894567	0.255043
672.098272	0.255159
672.301959	0.255662
672.505628	0.255665
672.709278	0.255821
672.912911	0.256067
673.116525	0.255976
673.320121	0.256129
673.523699	0.256288
673.727258	0.256736
673.930799	0.256572
674.134322	0.256749
674.337827	0.257109
674.541314	0.257407
674.744782	0.257523
674.948232	0.257795
675.151664	0.257957
675.355078	0.258157
675.558474	0.258259
675.761851	0.258793
675.965210	0.258668
676.168551	0.258884
676.371873	0.258707
676.575178	0.259272
676.778464	0.259786
676.981732	0.260125
677.184981	0.260288
677.388213	0.260174
677.591426	0.260403
677.794621	0.260739
677.997798	0.260774
678.200956	0.261044
678.404097	0.261187
678.607219	0.261153
678.810323	0.261103
679.013408	0.261395
679.216476	0.261637
679.419525	0.261618
679.622556	0.261735
679.825569	0.261916
680.028563	0.262384
680.231540	0.262342
680.434498	0.262278
680.637438	0.262628
680.840359	0.262617
681.043263	0.262751
681.246148	0.262990
681.449015	0.263112
681.651864	0.263371
681.854694	0.263385
682.057506	0.263525
682.260301	0.263664
682.463076	0.263779
682.665834	0.264097
682.868573	0.264174
683.071295	0.264344
683.273998	0.264809
683.476682	0.264836
683.679349	0.265052
683.881997	0.265336
684.084627	0.265646
684.287239	0.266039
684.489833	0.266319
684.692408	0.266557
684.894965	0.266607
685.097504	0.266718
685.300025	0.266992
685.502527	0.267255
685.705012	0.267643
685.907478	0.268031
686.109925	0.268049
686.312355	0.268240
686.514766	0.268599
686.717159	0.269014
686.919534	0.269237
687.121891	0.269745
687.324230	0.269739
687.526550	0.269647
687.728852	0.269762
687.931136	0.269960
688.133401	0.269995
688.335649	0.270061
688.537878	0.270011
688.740089	0.270107
688.942281	0.269943
689.144456	0.270095
689.346612	0.270360
689.548750	0.270592
689.750870	0.270465
689.952971	0.270549
690.155055	0.270867
690.357120	0.271387
690.559167	0.271432
690.761195	0.271558
690.963206	0.271795
691.165198	0.271987
691.367172	0.272079
691.569128	0.272332
691.771065	0.272630
691.972984	0.272626
692.174885	0.272621
692.376768	0.272900
692.578633	0.273169
692.780479	0.273359
692.982308	0.273402
693.184118	0.273594
693.385909	0.274132
