sample name	sample
index	1468
start time	 05-10-2021  02:14:48 PM


Wavelength (nm)	Absorbance
494.344910	0.056531
494.563924	0.056531
494.782919	0.056531
495.001897	-0.064741
495.220856	0.009101
495.439797	0.004359
495.658719	0.001776
495.877624	-0.007958
496.096510	0.001810
496.315378	0.008298
496.534227	0.004319
496.753059	0.015436
496.971872	0.018352
497.190667	0.065371
497.409444	0.082408
497.628203	0.087733
497.846943	0.094008
498.065665	0.098420
498.284369	0.101053
498.503055	0.102846
498.721723	0.103509
498.940372	0.104078
499.159003	0.104382
499.377616	0.105851
499.596210	0.107865
499.814787	0.108487
500.033345	0.109000
500.251885	0.108806
500.470406	0.109023
500.688910	0.108005
500.907395	0.108446
501.125862	0.107865
501.344311	0.107923
501.562742	0.107092
501.781154	0.106890
501.999548	0.105719
502.217924	0.105108
502.436282	0.104997
502.654621	0.106814
502.872942	0.106169
503.091245	0.106498
503.309530	0.106775
503.527797	0.106193
503.746045	0.105760
503.964275	0.106110
504.182487	0.105744
504.400681	0.106623
504.618856	0.105610
504.837013	0.106189
505.055152	0.106844
505.273273	0.107418
505.491376	0.108622
505.709460	0.109812
505.927526	0.109775
506.145574	0.110327
506.363604	0.109947
506.581615	0.111167
506.799608	0.111415
507.017583	0.111812
507.235540	0.111425
507.453478	0.111034
507.671399	0.110751
507.889301	0.111454
508.107185	0.112377
508.325050	0.112300
508.542898	0.111874
508.760727	0.112244
508.978538	0.111729
509.196330	0.110981
509.414105	0.110963
509.631861	0.110417
509.849599	0.110755
510.067319	0.110817
510.285021	0.110163
510.502704	0.110090
510.720369	0.109881
510.938016	0.109224
511.155645	0.109838
511.373255	0.109894
511.590848	0.110886
511.808422	0.110537
512.025977	0.110505
512.243515	0.111839
512.461034	0.112266
512.678536	0.113175
512.896018	0.114141
513.113483	0.113775
513.330930	0.113783
513.548358	0.113638
513.765768	0.114011
513.983160	0.114725
514.200533	0.115107
514.417889	0.115735
514.635226	0.115160
514.852545	0.115335
515.069845	0.115856
515.287128	0.116569
515.504392	0.116722
515.721638	0.115768
515.938866	0.116040
516.156075	0.115577
516.373267	0.114836
516.590440	0.115346
516.807594	0.115105
517.024731	0.115360
517.241850	0.115433
517.458950	0.116239
517.676032	0.117518
517.893095	0.116973
518.110141	0.117199
518.327168	0.117561
518.544177	0.117561
518.761168	0.117713
518.978141	0.117821
519.195095	0.117624
519.412031	0.116661
519.628949	0.116810
519.845849	0.117069
520.062731	0.116860
520.279594	0.117227
520.496439	0.116701
520.713266	0.117505
520.930074	0.118019
521.146865	0.118104
521.363637	0.118211
521.580391	0.118219
521.797127	0.117669
522.013844	0.117951
522.230543	0.118209
522.447224	0.118989
522.663887	0.119180
522.880532	0.118898
523.097158	0.119449
523.313766	0.120179
523.530356	0.120537
523.746928	0.121032
523.963481	0.121660
524.180017	0.122210
524.396534	0.122137
524.613032	0.122344
524.829513	0.123066
525.045975	0.123588
525.262420	0.123914
525.478845	0.123874
525.695253	0.124757
525.911643	0.124199
526.128014	0.124139
526.344367	0.124459
526.560702	0.124554
526.777018	0.124318
526.993316	0.123911
527.209597	0.123942
527.425858	0.124788
527.642102	0.125119
527.858328	0.125940
528.074535	0.126216
528.290724	0.126634
528.506894	0.126665
528.723047	0.127266
528.939181	0.128377
529.155297	0.128803
529.371395	0.128470
529.587475	0.127944
529.803536	0.128022
530.019579	0.127788
530.235604	0.127418
530.451611	0.127298
530.667600	0.127093
530.883570	0.126842
531.099522	0.127409
531.315456	0.127717
531.531372	0.128927
531.747269	0.128830
531.963148	0.129529
532.179009	0.130774
532.394852	0.131093
532.610676	0.131445
532.826482	0.131928
533.042271	0.131377
533.258040	0.131359
533.473792	0.130681
533.689525	0.131065
533.905240	0.131149
534.120937	0.131472
534.336616	0.132150
534.552277	0.132548
534.767919	0.132753
534.983543	0.132945
535.199149	0.133513
535.414736	0.134346
535.630306	0.134812
535.845857	0.135147
536.061390	0.134449
536.276904	0.134696
536.492401	0.134402
536.707879	0.134450
536.923339	0.135055
537.138781	0.135163
537.354204	0.134774
537.569610	0.135283
537.784997	0.135106
538.000366	0.135903
538.215716	0.136229
538.431049	0.136901
538.646363	0.136931
538.861659	0.137078
539.076937	0.137173
539.292196	0.137662
539.507438	0.137953
539.722661	0.138105
539.937866	0.138126
540.153052	0.137905
540.368221	0.138317
540.583371	0.139145
540.798503	0.139467
541.013617	0.139564
541.228712	0.139360
541.443789	0.138976
541.658848	0.139472
541.873889	0.139268
542.088912	0.140016
542.303916	0.139332
542.518902	0.138733
542.733870	0.139126
542.948820	0.139515
543.163752	0.139996
543.378665	0.140096
543.593560	0.140297
543.808437	0.140886
544.023295	0.140838
544.238136	0.141475
544.452958	0.141745
544.667762	0.141489
544.882548	0.141686
545.097315	0.142019
545.312064	0.142069
545.526795	0.142295
545.741508	0.142304
545.956203	0.142096
546.170879	0.142643
546.385537	0.142490
546.600177	0.142843
546.814799	0.142937
547.029402	0.142761
547.243988	0.143544
547.458555	0.143491
547.673103	0.143514
547.887634	0.144071
548.102146	0.144367
548.316640	0.145398
548.531116	0.145643
548.745574	0.146196
548.960013	0.146748
549.174435	0.146870
549.388838	0.147101
549.603222	0.147229
549.817589	0.147341
550.031937	0.146636
550.246267	0.146564
550.460579	0.146656
550.674873	0.146282
550.889148	0.146181
551.103405	0.146155
551.317644	0.146043
551.531865	0.146347
551.746068	0.146207
551.960252	0.146515
552.174418	0.146315
552.388566	0.146664
552.602696	0.147117
552.816807	0.147184
553.030900	0.147208
553.244975	0.147353
553.459032	0.147868
553.673070	0.148014
553.887091	0.148082
554.101093	0.148319
554.315077	0.148442
554.529042	0.148965
554.742990	0.149337
554.956919	0.149348
555.170830	0.149536
555.384722	0.149256
555.598597	0.150012
555.812453	0.150608
556.026291	0.150712
556.240111	0.150332
556.453913	0.149947
556.667696	0.149746
556.881461	0.149764
557.095208	0.150033
557.308937	0.149989
557.522647	0.149238
557.736339	0.149032
557.950013	0.149110
558.163669	0.149390
558.377307	0.149355
558.590926	0.149689
558.804527	0.149901
559.018110	0.149602
559.231675	0.149988
559.445221	0.150431
559.658749	0.150808
559.872259	0.150918
560.085751	0.150556
560.299225	0.150592
560.512680	0.150982
560.726117	0.151358
560.939536	0.151516
561.152937	0.151479
561.366319	0.151355
561.579683	0.151262
561.793029	0.151460
562.006357	0.151938
562.219667	0.152350
562.432958	0.152459
562.646231	0.152602
562.859486	0.152744
563.072723	0.153119
563.285941	0.153447
563.499141	0.153633
563.712323	0.153588
563.925487	0.153958
564.138632	0.153917
564.351760	0.153868
564.564869	0.153725
564.777960	0.153891
564.991032	0.154117
565.204087	0.154313
565.417123	0.153996
565.630141	0.154590
565.843140	0.154544
566.056122	0.154699
566.269085	0.154973
566.482030	0.155436
566.694957	0.155558
566.907866	0.155570
567.120756	0.155668
567.333628	0.156149
567.546482	0.155798
567.759318	0.156165
567.972135	0.156226
568.184935	0.156166
568.397716	0.156066
568.610478	0.156113
568.823223	0.156266
569.035949	0.156401
569.248657	0.156733
569.461347	0.156718
569.674019	0.156887
569.886672	0.156887
570.099308	0.157030
570.311925	0.157334
570.524523	0.157806
570.737104	0.157470
570.949666	0.157433
571.162210	0.157589
571.374736	0.157747
571.587244	0.157441
571.799733	0.157898
572.012205	0.158013
572.224658	0.157684
572.437092	0.157919
572.649509	0.158460
572.861907	0.158526
573.074287	0.158390
573.286649	0.158773
573.498993	0.159014
573.711318	0.158872
573.923625	0.158972
574.135914	0.159503
574.348185	0.159116
574.560438	0.159034
574.772672	0.159136
574.984888	0.159572
575.197086	0.159550
575.409266	0.159671
575.621427	0.159790
575.833570	0.159876
576.045695	0.159940
576.257802	0.160389
576.469890	0.160668
576.681961	0.161189
576.894013	0.161401
577.106046	0.161236
577.318062	0.161606
577.530059	0.161651
577.742039	0.161805
577.954000	0.161727
578.165942	0.161643
578.377867	0.161731
578.589773	0.161945
578.801661	0.161803
579.013531	0.162242
579.225382	0.162288
579.437216	0.162965
579.649031	0.162831
579.860828	0.163263
580.072606	0.163216
580.284367	0.163113
580.496109	0.163259
580.707833	0.163312
580.919539	0.163553
581.131227	0.163646
581.342896	0.163288
581.554547	0.163629
581.766180	0.163575
581.977795	0.164054
582.189391	0.164240
582.400969	0.163903
582.612529	0.164168
582.824071	0.163988
583.035595	0.164112
583.247100	0.164482
583.458587	0.164564
583.670056	0.164641
583.881506	0.164971
584.092939	0.165367
584.304353	0.165681
584.515749	0.165586
584.727127	0.166043
584.938486	0.165973
585.149828	0.166203
585.361151	0.166328
585.572456	0.166838
585.783742	0.166967
585.995011	0.167174
586.206261	0.167386
586.417493	0.168002
586.628706	0.168497
586.839902	0.168616
587.051079	0.168397
587.262238	0.168444
587.473379	0.168284
587.684502	0.168559
587.895606	0.168381
588.106692	0.168729
588.317760	0.168626
588.528810	0.168725
588.739841	0.168903
588.950855	0.169491
589.161850	0.169987
589.372827	0.169994
589.583785	0.170202
589.794726	0.170674
590.005648	0.170711
590.216552	0.170877
590.427437	0.170867
590.638305	0.171256
590.849154	0.171500
591.059985	0.171448
591.270798	0.171615
591.481592	0.171404
591.692369	0.171531
591.903127	0.171611
592.113867	0.171972
592.324588	0.172129
592.535292	0.172278
592.745977	0.171943
592.956644	0.171777
593.167293	0.172129
593.377923	0.172214
593.588536	0.171749
593.799130	0.171751
594.009706	0.171696
594.220263	0.171528
594.430803	0.171364
594.641324	0.171742
594.851827	0.172301
595.062312	0.172402
595.272778	0.173008
595.483227	0.173643
595.693657	0.173788
595.904069	0.174297
596.114462	0.174670
596.324838	0.174815
596.535195	0.174824
596.745534	0.174587
596.955855	0.174745
597.166157	0.174559
597.376441	0.174576
597.586707	0.175046
597.796955	0.174674
598.007185	0.174895
598.217396	0.175530
598.427589	0.175693
598.637764	0.176000
598.847921	0.175862
599.058060	0.176121
599.268180	0.176344
599.478282	0.176561
599.688366	0.176724
599.898431	0.176659
600.108479	0.176564
600.318508	0.176330
600.528519	0.176644
600.738511	0.176694
600.948486	0.176869
601.158442	0.177050
601.368380	0.176955
601.578300	0.177100
601.788202	0.177120
601.998085	0.176787
602.207950	0.177082
602.417797	0.177066
602.627626	0.177668
602.837436	0.177385
603.047228	0.177453
603.257002	0.177420
603.466758	0.177402
603.676496	0.178027
603.886215	0.178365
604.095916	0.178567
604.305599	0.178625
604.515264	0.178668
604.724910	0.179101
604.934538	0.179126
605.144148	0.179221
605.353740	0.179515
605.563314	0.179126
605.772869	0.179691
605.982406	0.179769
606.191925	0.180205
606.401425	0.180221
606.610908	0.180261
606.820372	0.180579
607.029818	0.180800
607.239246	0.180763
607.448655	0.181111
607.658047	0.180791
607.867420	0.180961
608.076775	0.180907
608.286111	0.181271
608.495430	0.181443
608.704730	0.181491
608.914012	0.181360
609.123275	0.181741
609.332521	0.181910
609.541748	0.182085
609.750957	0.182451
609.960148	0.182594
610.169321	0.182211
610.378475	0.182207
610.587611	0.182175
610.796729	0.182557
611.005829	0.182827
611.214910	0.182724
611.423974	0.182703
611.633019	0.182496
611.842045	0.182836
612.051054	0.183482
612.260044	0.183628
612.469017	0.183901
612.677970	0.183942
612.886906	0.183906
613.095824	0.184121
613.304723	0.184646
613.513604	0.184934
613.722467	0.184508
613.931311	0.184433
614.140138	0.184469
614.348946	0.184630
614.557736	0.184827
614.766507	0.184867
614.975261	0.184925
615.183996	0.184775
615.392713	0.184977
615.601412	0.185493
615.810092	0.185409
616.018754	0.185859
616.227399	0.186039
616.436024	0.186485
616.644632	0.186696
616.853222	0.187070
617.061793	0.187479
617.270346	0.187425
617.478880	0.187595
617.687397	0.187969
617.895895	0.187914
618.104375	0.187897
618.312837	0.187887
618.521281	0.187859
618.729706	0.188034
618.938113	0.188200
619.146502	0.188496
619.354873	0.188759
619.563226	0.188886
619.771560	0.188910
619.979876	0.188871
620.188174	0.188835
620.396453	0.188862
620.604715	0.188786
620.812958	0.188883
621.021183	0.188596
621.229390	0.188513
621.437578	0.188597
621.645748	0.188860
621.853900	0.188974
622.062034	0.189161
622.270150	0.189383
622.478247	0.189299
622.686326	0.189033
622.894387	0.189322
623.102430	0.189023
623.310454	0.188708
623.518461	0.188497
623.726449	0.188601
623.934418	0.188567
624.142370	0.188664
624.350303	0.188877
624.558218	0.189073
624.766115	0.189078
624.973994	0.189764
625.181855	0.190327
625.389697	0.190693
625.597521	0.190732
625.805327	0.190595
626.013114	0.190636
626.220883	0.190700
626.428634	0.190903
626.636367	0.191292
626.844082	0.190990
627.051778	0.190898
627.259457	0.190794
627.467117	0.191158
627.674758	0.191486
627.882382	0.191473
628.089987	0.191473
628.297574	0.191615
628.505143	0.191598
628.712694	0.191821
628.920226	0.191867
629.127740	0.191935
629.335236	0.192093
629.542714	0.192288
629.750174	0.192858
629.957615	0.193202
630.165038	0.193206
630.372443	0.193353
630.579829	0.193432
630.787198	0.193277
630.994548	0.193528
631.201880	0.193580
631.409194	0.193667
631.616489	0.193445
631.823766	0.193549
632.031025	0.193611
632.238266	0.193888
632.445489	0.193998
632.652693	0.194381
632.859879	0.194494
633.067047	0.194474
633.274197	0.194659
633.481329	0.194795
633.688442	0.194924
633.895537	0.194812
634.102614	0.194882
634.309672	0.195073
634.516713	0.195401
634.723735	0.195605
634.930739	0.195508
635.137724	0.195256
635.344692	0.195193
635.551641	0.195362
635.758572	0.195833
635.965485	0.195866
636.172379	0.195922
636.379256	0.195678
636.586114	0.195741
636.792954	0.195991
636.999775	0.196277
637.206579	0.196551
637.413364	0.196325
637.620131	0.196356
637.826880	0.196450
638.033610	0.196659
638.240323	0.197105
638.447017	0.197371
638.653692	0.197713
638.860350	0.198016
639.066990	0.198301
639.273611	0.198788
639.480214	0.199083
639.686798	0.199328
639.893365	0.199641
640.099913	0.199484
640.306443	0.199739
640.512955	0.199661
640.719449	0.199870
640.925924	0.199977
641.132381	0.200161
641.338820	0.200235
641.545241	0.200245
641.751644	0.200021
641.958028	0.200586
642.164394	0.200450
642.370742	0.200710
642.577071	0.200975
642.783383	0.201157
642.989676	0.201037
643.195951	0.201288
643.402207	0.201553
643.608446	0.202119
643.814666	0.202186
644.020868	0.202410
644.227052	0.202597
644.433218	0.202440
644.639365	0.202366
644.845494	0.202704
645.051605	0.202636
645.257698	0.202540
645.463772	0.202348
645.669828	0.202513
645.875866	0.202662
646.081886	0.202816
646.287888	0.202939
646.493871	0.202972
646.699836	0.203021
646.905783	0.203031
647.111712	0.203128
647.317622	0.203376
647.523514	0.203402
647.729388	0.203609
647.935244	0.203540
648.141082	0.203578
648.346901	0.203891
648.552702	0.203949
648.758485	0.203993
648.964250	0.204117
649.169996	0.204135
649.375724	0.204228
649.581434	0.204224
649.787126	0.204652
649.992800	0.204982
650.198455	0.205216
650.404092	0.205284
650.609711	0.205799
650.815311	0.206054
651.020894	0.205971
651.226458	0.206145
651.432004	0.206125
651.637532	0.206177
651.843041	0.206200
652.048532	0.206085
652.254006	0.206123
652.459460	0.206090
652.664897	0.206108
652.870315	0.206397
653.075716	0.206398
653.281097	0.207097
653.486461	0.207307
653.691807	0.207497
653.897134	0.207832
654.102443	0.208382
654.307734	0.208528
654.513006	0.208776
654.718261	0.209208
654.923497	0.209555
655.128715	0.209322
655.333915	0.209282
655.539096	0.209323
655.744259	0.209423
655.949404	0.209339
656.154531	0.209474
656.359640	0.209427
656.564730	0.209249
656.769802	0.209543
656.974856	0.209647
657.179892	0.209775
657.384909	0.209922
657.589908	0.210047
657.794889	0.210095
657.999852	0.210275
658.204797	0.210627
658.409723	0.210749
658.614631	0.210396
658.819521	0.210648
659.024393	0.210676
659.229246	0.210531
659.434081	0.210676
659.638898	0.210712
659.843697	0.210748
660.048478	0.210819
660.253240	0.210942
660.457984	0.211305
660.662710	0.211427
660.867417	0.211666
661.072107	0.212311
661.276778	0.212463
661.481431	0.212725
661.686066	0.213093
661.890682	0.213393
662.095281	0.213636
662.299861	0.213882
662.504422	0.213985
662.708966	0.214283
662.913491	0.214328
663.117999	0.214691
663.322488	0.214874
663.526958	0.214796
663.731411	0.214854
663.935845	0.214878
664.140261	0.214882
664.344659	0.214889
664.549038	0.215143
664.753400	0.215143
664.957743	0.215133
665.162068	0.215314
665.366375	0.215709
665.570663	0.215761
665.774933	0.215914
665.979185	0.215916
666.183419	0.216212
666.387635	0.216226
666.591832	0.216364
666.796011	0.216559
667.000172	0.216614
667.204315	0.216697
667.408439	0.217064
667.612545	0.217384
667.816634	0.217637
668.020703	0.217754
668.224755	0.217732
668.428788	0.217880
668.632803	0.217783
668.836800	0.218012
669.040779	0.218015
669.244739	0.217824
669.448681	0.217723
669.652605	0.217921
669.856511	0.217835
670.060399	0.218024
670.264268	0.218315
670.468119	0.218704
670.671952	0.219014
670.875767	0.219366
671.079563	0.219902
671.283341	0.220295
671.487101	0.220644
671.690843	0.220848
671.894567	0.221107
672.098272	0.220996
672.301959	0.221015
672.505628	0.220976
672.709278	0.221109
672.912911	0.221068
673.116525	0.221050
673.320121	0.221067
673.523699	0.221400
673.727258	0.221452
673.930799	0.221930
674.134322	0.222217
674.337827	0.222397
674.541314	0.222400
674.744782	0.222593
674.948232	0.222857
675.151664	0.222903
675.355078	0.223052
675.558474	0.223273
675.761851	0.223179
675.965210	0.223204
676.168551	0.223378
676.371873	0.223519
676.575178	0.223692
676.778464	0.223990
676.981732	0.224203
677.184981	0.224485
677.388213	0.224635
677.591426	0.224634
677.794621	0.224676
677.997798	0.224621
678.200956	0.224681
678.404097	0.224896
678.607219	0.224728
678.810323	0.224819
679.013408	0.224676
679.216476	0.224832
679.419525	0.225297
679.622556	0.225661
679.825569	0.226039
680.028563	0.226454
680.231540	0.226467
680.434498	0.226772
680.637438	0.226929
680.840359	0.227125
681.043263	0.227188
681.246148	0.227164
681.449015	0.227159
681.651864	0.227257
681.854694	0.227258
682.057506	0.227330
682.260301	0.227347
682.463076	0.227762
682.665834	0.228042
682.868573	0.228380
683.071295	0.228752
683.273998	0.228905
683.476682	0.228840
683.679349	0.229143
683.881997	0.229353
684.084627	0.229745
684.287239	0.229542
684.489833	0.229269
684.692408	0.229209
684.894965	0.229061
685.097504	0.229231
685.300025	0.229512
685.502527	0.229363
685.705012	0.229294
685.907478	0.229234
686.109925	0.229286
686.312355	0.229604
686.514766	0.229505
686.717159	0.229935
686.919534	0.230051
687.121891	0.230185
687.324230	0.230256
687.526550	0.230493
687.728852	0.230610
687.931136	0.230858
688.133401	0.231025
688.335649	0.231217
688.537878	0.231337
688.740089	0.231326
688.942281	0.231509
689.144456	0.231761
689.346612	0.232072
689.548750	0.232120
689.750870	0.232353
689.952971	0.232722
690.155055	0.233063
690.357120	0.233082
690.559167	0.233219
690.761195	0.233267
690.963206	0.233394
691.165198	0.233386
691.367172	0.233834
691.569128	0.234032
691.771065	0.234137
691.972984	0.234463
692.174885	0.234576
692.376768	0.234819
692.578633	0.234894
692.780479	0.235069
692.982308	0.235139
693.184118	0.235064
693.385909	0.234909
