sample name	sample
index	1148
start time	 04-22-2021  03:25:51 PM


Wavelength (nm)	Absorbance
494.344910	-0.866832
494.563924	-0.866832
494.782919	-0.866832
495.001897	-0.912411
495.220856	-0.501219
495.439797	-0.416760
495.658719	-0.290201
495.877624	-0.177668
496.096510	0.039389
496.315378	-0.136086
496.534227	-0.171099
496.753059	-0.085086
496.971872	0.074548
497.190667	0.176248
497.409444	0.183677
497.628203	0.182844
497.846943	0.184816
498.065665	0.185800
498.284369	0.187511
498.503055	0.187997
498.721723	0.187463
498.940372	0.185469
499.159003	0.186708
499.377616	0.186343
499.596210	0.186055
499.814787	0.186144
500.033345	0.185686
500.251885	0.185046
500.470406	0.183158
500.688910	0.183596
500.907395	0.184973
501.125862	0.183955
501.344311	0.183263
501.562742	0.183714
501.781154	0.184824
501.999548	0.185284
502.217924	0.186862
502.436282	0.187427
502.654621	0.187461
502.872942	0.186950
503.091245	0.185332
503.309530	0.186818
503.527797	0.187506
503.746045	0.186749
503.964275	0.186321
504.182487	0.186396
504.400681	0.187229
504.618856	0.187553
504.837013	0.188509
505.055152	0.190807
505.273273	0.189950
505.491376	0.189354
505.709460	0.188622
505.927526	0.188314
506.145574	0.188644
506.363604	0.188026
506.581615	0.188470
506.799608	0.189152
507.017583	0.188746
507.235540	0.187734
507.453478	0.187936
507.671399	0.189224
507.889301	0.190392
508.107185	0.189298
508.325050	0.189673
508.542898	0.189286
508.760727	0.188011
508.978538	0.187563
509.196330	0.188789
509.414105	0.188237
509.631861	0.188080
509.849599	0.187977
510.067319	0.189515
510.285021	0.189315
510.502704	0.188713
510.720369	0.189519
510.938016	0.190356
511.155645	0.190577
511.373255	0.190943
511.590848	0.190281
511.808422	0.190205
512.025977	0.189206
512.243515	0.190514
512.461034	0.190381
512.678536	0.189999
512.896018	0.189933
513.113483	0.190940
513.330930	0.190739
513.548358	0.191886
513.765768	0.192666
513.983160	0.193210
514.200533	0.193060
514.417889	0.195712
514.635226	0.195283
514.852545	0.196404
515.069845	0.196434
515.287128	0.197074
515.504392	0.197428
515.721638	0.196843
515.938866	0.196470
516.156075	0.195659
516.373267	0.194333
516.590440	0.195011
516.807594	0.194382
517.024731	0.193334
517.241850	0.193516
517.458950	0.192867
517.676032	0.193707
517.893095	0.194171
518.110141	0.195516
518.327168	0.195451
518.544177	0.196183
518.761168	0.197046
518.978141	0.198427
519.195095	0.198683
519.412031	0.199505
519.628949	0.200122
519.845849	0.200677
520.062731	0.199997
520.279594	0.200135
520.496439	0.199554
520.713266	0.199144
520.930074	0.198686
521.146865	0.199660
521.363637	0.200483
521.580391	0.200460
521.797127	0.200313
522.013844	0.201520
522.230543	0.202671
522.447224	0.203530
522.663887	0.203970
522.880532	0.203955
523.097158	0.203798
523.313766	0.203380
523.530356	0.203414
523.746928	0.204206
523.963481	0.204533
524.180017	0.204376
524.396534	0.204708
524.613032	0.205889
524.829513	0.207349
525.045975	0.207154
525.262420	0.207631
525.478845	0.207827
525.695253	0.208658
525.911643	0.208394
526.128014	0.208980
526.344367	0.209774
526.560702	0.209507
526.777018	0.209701
526.993316	0.210308
527.209597	0.210241
527.425858	0.211191
527.642102	0.210188
527.858328	0.210268
528.074535	0.210236
528.290724	0.210951
528.506894	0.211596
528.723047	0.211056
528.939181	0.211530
529.155297	0.212696
529.371395	0.212239
529.587475	0.213539
529.803536	0.214266
530.019579	0.214374
530.235604	0.215116
530.451611	0.215518
530.667600	0.216729
530.883570	0.217039
531.099522	0.216679
531.315456	0.217002
531.531372	0.216968
531.747269	0.217935
531.963148	0.219010
532.179009	0.218059
532.394852	0.217393
532.610676	0.217165
532.826482	0.217491
533.042271	0.217275
533.258040	0.218378
533.473792	0.218492
533.689525	0.218195
533.905240	0.218267
534.120937	0.218722
534.336616	0.219388
534.552277	0.219919
534.767919	0.220394
534.983543	0.221864
535.199149	0.221444
535.414736	0.221997
535.630306	0.221919
535.845857	0.222435
536.061390	0.222748
536.276904	0.222923
536.492401	0.223538
536.707879	0.223647
536.923339	0.223342
537.138781	0.223511
537.354204	0.224095
537.569610	0.224509
537.784997	0.224148
538.000366	0.224295
538.215716	0.225019
538.431049	0.224584
538.646363	0.224991
538.861659	0.225096
539.076937	0.225608
539.292196	0.225351
539.507438	0.226514
539.722661	0.227110
539.937866	0.227531
540.153052	0.227673
540.368221	0.228803
540.583371	0.228717
540.798503	0.229442
541.013617	0.229484
541.228712	0.230483
541.443789	0.230143
541.658848	0.230684
541.873889	0.230699
542.088912	0.231242
542.303916	0.230736
542.518902	0.231501
542.733870	0.232010
542.948820	0.232441
543.163752	0.232294
543.378665	0.232737
543.593560	0.233192
543.808437	0.233719
544.023295	0.233627
544.238136	0.233586
544.452958	0.234054
544.667762	0.234376
544.882548	0.234414
545.097315	0.234925
545.312064	0.234910
545.526795	0.234743
545.741508	0.235139
545.956203	0.235317
546.170879	0.236493
546.385537	0.236645
546.600177	0.235977
546.814799	0.236675
547.029402	0.236732
547.243988	0.236799
547.458555	0.237185
547.673103	0.237605
547.887634	0.238292
548.102146	0.238330
548.316640	0.238252
548.531116	0.238965
548.745574	0.238951
548.960013	0.239193
549.174435	0.239541
549.388838	0.239723
549.603222	0.239827
549.817589	0.240103
550.031937	0.239697
550.246267	0.240271
550.460579	0.240506
550.674873	0.240745
550.889148	0.240771
551.103405	0.241404
551.317644	0.241896
551.531865	0.241856
551.746068	0.242138
551.960252	0.243045
552.174418	0.242355
552.388566	0.242542
552.602696	0.243214
552.816807	0.243428
553.030900	0.243598
553.244975	0.243165
553.459032	0.243222
553.673070	0.243111
553.887091	0.242864
554.101093	0.243702
554.315077	0.243744
554.529042	0.243932
554.742990	0.244092
554.956919	0.244631
555.170830	0.245056
555.384722	0.245434
555.598597	0.245871
555.812453	0.246393
556.026291	0.246497
556.240111	0.247042
556.453913	0.246839
556.667696	0.246820
556.881461	0.246386
557.095208	0.246801
557.308937	0.247594
557.522647	0.247439
557.736339	0.247422
557.950013	0.247432
558.163669	0.247388
558.377307	0.247583
558.590926	0.247747
558.804527	0.248103
559.018110	0.248863
559.231675	0.248747
559.445221	0.249263
559.658749	0.249329
559.872259	0.249867
560.085751	0.250194
560.299225	0.250455
560.512680	0.250690
560.726117	0.251175
560.939536	0.250571
561.152937	0.250672
561.366319	0.250646
561.579683	0.250883
561.793029	0.250992
562.006357	0.251180
562.219667	0.251584
562.432958	0.251871
562.646231	0.251608
562.859486	0.251761
563.072723	0.252048
563.285941	0.252309
563.499141	0.252600
563.712323	0.252731
563.925487	0.252783
564.138632	0.252628
564.351760	0.253282
564.564869	0.253506
564.777960	0.253874
564.991032	0.253727
565.204087	0.253582
565.417123	0.253604
565.630141	0.254207
565.843140	0.254185
566.056122	0.254271
566.269085	0.254129
566.482030	0.254471
566.694957	0.254219
566.907866	0.254585
567.120756	0.254723
567.333628	0.254884
567.546482	0.254798
567.759318	0.254860
567.972135	0.254895
568.184935	0.255072
568.397716	0.254866
568.610478	0.255296
568.823223	0.255578
569.035949	0.255849
569.248657	0.256454
569.461347	0.256684
569.674019	0.257313
569.886672	0.257584
570.099308	0.257629
570.311925	0.257870
570.524523	0.258149
570.737104	0.257893
570.949666	0.257847
571.162210	0.258151
571.374736	0.258236
571.587244	0.257974
571.799733	0.257907
572.012205	0.258518
572.224658	0.258701
572.437092	0.258989
572.649509	0.259199
572.861907	0.259392
573.074287	0.259156
573.286649	0.258994
573.498993	0.259397
573.711318	0.259890
573.923625	0.259835
574.135914	0.260471
574.348185	0.260465
574.560438	0.261013
574.772672	0.261269
574.984888	0.261748
575.197086	0.262037
575.409266	0.262634
575.621427	0.262597
575.833570	0.262636
576.045695	0.262927
576.257802	0.262876
576.469890	0.262602
576.681961	0.263355
576.894013	0.263181
577.106046	0.263586
577.318062	0.263061
577.530059	0.263388
577.742039	0.263768
577.954000	0.263330
578.165942	0.263703
578.377867	0.264107
578.589773	0.263966
578.801661	0.264195
579.013531	0.264106
579.225382	0.264674
579.437216	0.265185
579.649031	0.265025
579.860828	0.265570
580.072606	0.265924
580.284367	0.265713
580.496109	0.265705
580.707833	0.265982
580.919539	0.266464
581.131227	0.266266
581.342896	0.266382
581.554547	0.266878
581.766180	0.266773
581.977795	0.266766
582.189391	0.267484
582.400969	0.267545
582.612529	0.267281
582.824071	0.267175
583.035595	0.267313
583.247100	0.267262
583.458587	0.267172
583.670056	0.267372
583.881506	0.267365
584.092939	0.267265
584.304353	0.267243
584.515749	0.267592
584.727127	0.267490
584.938486	0.267626
585.149828	0.267837
585.361151	0.267954
585.572456	0.268166
585.783742	0.268524
585.995011	0.268617
586.206261	0.268902
586.417493	0.269117
586.628706	0.269235
586.839902	0.269111
587.051079	0.269476
587.262238	0.269318
587.473379	0.269225
587.684502	0.269400
587.895606	0.269184
588.106692	0.269488
588.317760	0.269844
588.528810	0.270305
588.739841	0.270792
588.950855	0.270665
589.161850	0.271068
589.372827	0.271297
589.583785	0.270694
589.794726	0.271384
590.005648	0.271614
590.216552	0.271754
590.427437	0.271868
590.638305	0.272169
590.849154	0.272139
591.059985	0.272691
591.270798	0.272516
591.481592	0.273566
591.692369	0.273614
591.903127	0.274063
592.113867	0.273523
592.324588	0.273782
592.535292	0.274379
592.745977	0.274800
592.956644	0.274496
593.167293	0.275469
593.377923	0.275546
593.588536	0.275624
593.799130	0.275743
594.009706	0.276463
594.220263	0.276984
594.430803	0.277009
594.641324	0.277062
594.851827	0.277642
595.062312	0.277199
595.272778	0.277396
595.483227	0.277641
595.693657	0.277763
595.904069	0.278594
596.114462	0.278374
596.324838	0.278445
596.535195	0.278873
596.745534	0.278646
596.955855	0.278932
597.166157	0.278857
597.376441	0.279010
597.586707	0.278890
597.796955	0.278456
598.007185	0.278749
598.217396	0.278908
598.427589	0.279070
598.637764	0.279428
598.847921	0.279815
599.058060	0.280210
599.268180	0.280156
599.478282	0.280107
599.688366	0.280043
599.898431	0.280353
600.108479	0.280322
600.318508	0.280288
600.528519	0.280537
600.738511	0.280834
600.948486	0.280665
601.158442	0.280907
601.368380	0.281247
601.578300	0.281592
601.788202	0.281310
601.998085	0.281261
602.207950	0.281256
602.417797	0.281531
602.627626	0.281449
602.837436	0.281742
603.047228	0.281753
603.257002	0.282018
603.466758	0.281943
603.676496	0.282356
603.886215	0.282521
604.095916	0.282829
604.305599	0.282763
604.515264	0.282967
604.724910	0.283022
604.934538	0.283361
605.144148	0.283576
605.353740	0.283614
605.563314	0.283585
605.772869	0.283943
605.982406	0.284215
606.191925	0.284238
606.401425	0.284121
606.610908	0.284600
606.820372	0.284489
607.029818	0.284732
607.239246	0.285065
607.448655	0.285282
607.658047	0.285012
607.867420	0.284745
608.076775	0.285560
608.286111	0.285974
608.495430	0.285436
608.704730	0.286148
608.914012	0.285979
609.123275	0.286158
609.332521	0.286114
609.541748	0.286693
609.750957	0.286989
609.960148	0.286664
610.169321	0.286614
610.378475	0.287515
610.587611	0.287380
610.796729	0.287487
611.005829	0.287526
611.214910	0.287674
611.423974	0.287283
611.633019	0.287570
611.842045	0.287709
612.051054	0.287716
612.260044	0.287665
612.469017	0.287798
612.677970	0.288195
612.886906	0.288461
613.095824	0.289030
613.304723	0.289738
613.513604	0.289562
613.722467	0.289839
613.931311	0.290036
614.140138	0.290015
614.348946	0.290182
614.557736	0.290258
614.766507	0.290583
614.975261	0.290494
615.183996	0.290653
615.392713	0.290825
615.601412	0.290777
615.810092	0.291276
616.018754	0.291197
616.227399	0.291145
616.436024	0.291161
616.644632	0.291355
616.853222	0.291387
617.061793	0.291411
617.270346	0.291612
617.478880	0.291757
617.687397	0.291567
617.895895	0.291726
618.104375	0.291840
618.312837	0.292238
618.521281	0.291884
618.729706	0.292015
618.938113	0.292269
619.146502	0.292382
619.354873	0.292614
619.563226	0.292811
619.771560	0.292937
619.979876	0.292868
620.188174	0.292692
620.396453	0.292825
620.604715	0.292923
620.812958	0.293071
621.021183	0.293126
621.229390	0.293033
621.437578	0.293048
621.645748	0.293292
621.853900	0.293571
622.062034	0.293609
622.270150	0.293602
622.478247	0.293600
622.686326	0.293340
622.894387	0.293449
623.102430	0.293451
623.310454	0.293333
623.518461	0.293473
623.726449	0.293881
623.934418	0.294077
624.142370	0.294525
624.350303	0.294902
624.558218	0.294993
624.766115	0.295394
624.973994	0.295567
625.181855	0.295689
625.389697	0.295832
625.597521	0.296136
625.805327	0.296428
626.013114	0.296343
626.220883	0.296193
626.428634	0.296688
626.636367	0.296869
626.844082	0.297056
627.051778	0.297551
627.259457	0.297726
627.467117	0.297615
627.674758	0.297544
627.882382	0.298024
628.089987	0.298395
628.297574	0.298625
628.505143	0.299001
628.712694	0.299295
628.920226	0.299461
629.127740	0.299745
629.335236	0.299836
629.542714	0.300371
629.750174	0.300507
629.957615	0.300801
630.165038	0.300776
630.372443	0.300661
630.579829	0.300673
630.787198	0.300852
630.994548	0.300923
631.201880	0.300941
631.409194	0.300799
631.616489	0.300681
631.823766	0.300520
632.031025	0.300631
632.238266	0.300784
632.445489	0.300914
632.652693	0.300836
632.859879	0.301248
633.067047	0.301589
633.274197	0.302017
633.481329	0.302341
633.688442	0.302626
633.895537	0.302817
634.102614	0.302732
634.309672	0.303074
634.516713	0.303205
634.723735	0.303044
634.930739	0.303472
635.137724	0.303320
635.344692	0.303269
635.551641	0.303560
635.758572	0.303691
635.965485	0.303875
636.172379	0.304145
636.379256	0.304352
636.586114	0.304653
636.792954	0.304793
636.999775	0.305076
637.206579	0.305292
637.413364	0.305659
637.620131	0.305727
637.826880	0.306151
638.033610	0.306122
638.240323	0.306207
638.447017	0.306636
638.653692	0.307019
638.860350	0.307228
639.066990	0.307734
639.273611	0.307580
639.480214	0.307908
639.686798	0.308074
639.893365	0.308565
640.099913	0.309142
640.306443	0.308965
640.512955	0.309031
640.719449	0.309248
640.925924	0.309297
641.132381	0.309319
641.338820	0.309503
641.545241	0.309739
641.751644	0.309471
641.958028	0.309712
642.164394	0.309982
642.370742	0.310196
642.577071	0.310353
642.783383	0.310472
642.989676	0.311272
643.195951	0.311618
643.402207	0.311695
643.608446	0.312006
643.814666	0.311934
644.020868	0.312248
644.227052	0.312288
644.433218	0.312310
644.639365	0.312365
644.845494	0.312115
645.051605	0.312409
645.257698	0.312771
645.463772	0.313197
645.669828	0.313736
645.875866	0.313650
646.081886	0.313915
646.287888	0.314431
646.493871	0.314688
646.699836	0.314899
646.905783	0.314556
647.111712	0.314585
647.317622	0.314748
647.523514	0.314663
647.729388	0.314976
647.935244	0.314934
648.141082	0.314812
648.346901	0.315365
648.552702	0.315466
648.758485	0.315943
648.964250	0.316307
649.169996	0.316430
649.375724	0.316757
649.581434	0.317172
649.787126	0.317492
649.992800	0.318184
650.198455	0.317860
650.404092	0.318240
650.609711	0.318521
650.815311	0.318556
651.020894	0.318632
651.226458	0.318804
651.432004	0.318915
651.637532	0.319258
651.843041	0.319176
652.048532	0.319697
652.254006	0.320069
652.459460	0.320271
652.664897	0.320577
652.870315	0.320791
653.075716	0.320903
653.281097	0.320922
653.486461	0.320939
653.691807	0.320998
653.897134	0.321350
654.102443	0.321218
654.307734	0.321165
654.513006	0.321272
654.718261	0.321511
654.923497	0.321902
655.128715	0.322360
655.333915	0.322398
655.539096	0.322600
655.744259	0.322882
655.949404	0.323278
656.154531	0.323421
656.359640	0.323693
656.564730	0.323917
656.769802	0.323934
656.974856	0.324122
657.179892	0.324571
657.384909	0.324677
657.589908	0.324671
657.794889	0.324740
657.999852	0.325283
658.204797	0.325436
658.409723	0.325871
658.614631	0.326451
658.819521	0.326757
659.024393	0.326746
659.229246	0.327261
659.434081	0.327209
659.638898	0.327392
659.843697	0.327783
660.048478	0.327918
660.253240	0.327894
660.457984	0.327791
660.662710	0.327581
660.867417	0.327964
661.072107	0.327971
661.276778	0.328343
661.481431	0.329230
661.686066	0.329263
661.890682	0.329657
662.095281	0.330193
662.299861	0.330415
662.504422	0.330810
662.708966	0.330953
662.913491	0.331789
663.117999	0.331813
663.322488	0.331680
663.526958	0.331921
663.731411	0.332123
663.935845	0.332217
664.140261	0.332540
664.344659	0.332746
664.549038	0.332866
664.753400	0.332724
664.957743	0.332997
665.162068	0.333160
665.366375	0.333570
665.570663	0.333570
665.774933	0.333649
665.979185	0.333692
666.183419	0.334069
666.387635	0.334609
666.591832	0.334733
666.796011	0.335368
667.000172	0.335571
667.204315	0.335758
667.408439	0.336408
667.612545	0.336598
667.816634	0.337429
668.020703	0.337920
668.224755	0.338041
668.428788	0.338486
668.632803	0.338847
668.836800	0.338846
669.040779	0.338922
669.244739	0.338992
669.448681	0.339288
669.652605	0.339151
669.856511	0.339056
670.060399	0.339371
670.264268	0.339346
670.468119	0.339496
670.671952	0.339912
670.875767	0.340144
671.079563	0.340442
671.283341	0.340922
671.487101	0.341100
671.690843	0.341391
671.894567	0.341550
672.098272	0.341674
672.301959	0.341704
672.505628	0.341959
672.709278	0.342103
672.912911	0.342359
673.116525	0.342660
673.320121	0.343120
673.523699	0.343305
673.727258	0.343518
673.930799	0.344022
674.134322	0.344330
674.337827	0.344771
674.541314	0.345387
674.744782	0.345365
674.948232	0.345446
675.151664	0.345329
675.355078	0.345473
675.558474	0.345868
675.761851	0.345950
675.965210	0.346085
676.168551	0.346133
676.371873	0.346212
676.575178	0.346749
676.778464	0.347054
676.981732	0.347539
677.184981	0.347765
677.388213	0.347924
677.591426	0.348372
677.794621	0.348828
677.997798	0.349164
678.200956	0.349087
678.404097	0.349124
678.607219	0.349208
678.810323	0.349423
679.013408	0.349807
679.216476	0.349951
679.419525	0.350251
679.622556	0.350474
679.825569	0.350771
680.028563	0.351250
680.231540	0.351609
680.434498	0.351910
680.637438	0.352337
680.840359	0.352724
681.043263	0.353141
681.246148	0.353438
681.449015	0.353804
681.651864	0.353912
681.854694	0.353998
682.057506	0.354439
682.260301	0.354836
682.463076	0.355012
682.665834	0.355059
682.868573	0.355070
683.071295	0.354872
683.273998	0.354955
683.476682	0.355120
683.679349	0.355318
683.881997	0.355029
684.084627	0.354808
684.287239	0.354802
684.489833	0.355077
684.692408	0.355206
684.894965	0.355478
685.097504	0.355531
685.300025	0.355615
685.502527	0.355760
685.705012	0.355743
685.907478	0.356245
686.109925	0.356549
686.312355	0.356536
686.514766	0.356791
686.717159	0.357022
686.919534	0.357293
687.121891	0.357677
687.324230	0.358062
687.526550	0.358681
687.728852	0.358714
687.931136	0.358561
688.133401	0.358773
688.335649	0.358879
688.537878	0.359014
688.740089	0.359075
688.942281	0.359290
689.144456	0.359204
689.346612	0.359283
689.548750	0.359431
689.750870	0.359850
689.952971	0.360277
690.155055	0.360693
690.357120	0.360728
690.559167	0.360903
690.761195	0.361056
690.963206	0.361183
691.165198	0.361293
691.367172	0.361715
691.569128	0.361742
691.771065	0.361835
691.972984	0.361804
692.174885	0.362346
692.376768	0.362389
692.578633	0.362552
692.780479	0.362929
692.982308	0.363078
693.184118	0.363174
693.385909	0.363431
