sample name	sample
index	1052
start time	 04-19-2021  02:38:54 PM
880	0.526475
Peak Time (s)	102.536
Peak Height 	0.5265
calc peak height	100,103
Baseline Time (s)	11.536
Baseline Value 	-0.003304
subtract baseline	10,4
Abs	0.359707
Peak Time (s)	102.038
Peak Height 	0.3597
calc peak height	100,103
Baseline Time (s)	10.535
Baseline Value 	0.001802
subtract baseline	10,3
PK_550	0.206740
Peak Time (s)	102.536
Peak Height 	0.2067
calc peak height	100,103
Baseline Time (s)	8.537
Baseline Value 	5.482E-4
subtract baseline	10,2
PK_880	0.343307
Peak Time (s)	102.536
Peak Height 	0.3433
calc peak height	100,103
Baseline Time (s)	10.535
Baseline Value 	2.4795E-4
subtract baseline	10,1


Time (s)	A880-A510	A880-A775	A880-A975	A880	I510	I775	I975	I880	
0.034500	-0.002685	-0.000573	-0.007229	0.005742	6534.903222	45626.062224	3980.641065	24188.274174
0.535000	-0.000598	-0.000360	-0.004912	0.005073	6557.875484	45712.622661	3988.202489	24221.026776
1.035000	-0.000669	-0.000727	-0.002162	0.004146	6565.048159	45767.707004	3997.587677	24266.537111
1.537500	-0.001631	-0.000512	-0.003392	0.001587	6578.454203	46041.793415	4000.998999	24392.676072
2.036000	-0.000107	-0.000405	-0.008340	0.004969	6562.859315	45718.474057	3979.785988	24226.127516
2.536000	-0.000188	0.001107	-0.000503	0.003162	6577.350369	46046.185488	4004.382296	24314.954345
3.036500	0.002394	0.000170	0.001952	-0.000725	6632.163266	46339.572764	4020.858111	24507.304593
3.537000	0.002770	0.000024	-0.003865	0.000938	6621.195677	46159.486308	4001.453924	24424.818427
4.037000	-0.001835	-0.000100	-0.004337	0.004992	6548.225273	45746.209114	3989.872018	24225.026986
4.537500	-0.001283	-0.000081	0.000348	0.001080	6585.654991	46134.875364	4011.972415	24417.752335
5.035000	0.000095	-0.000345	-0.001284	0.000412	6602.946220	46175.066900	4009.471771	24450.866716
5.537500	-0.000721	-0.000327	0.001547	0.000292	6597.058759	46188.792091	4017.144086	24456.820517
6.035500	0.001238	0.000874	-0.001416	0.001042	6607.285863	46233.588287	4007.499245	24419.630603
6.535500	0.002321	0.000403	0.002989	0.001652	6611.301881	46126.081295	4017.355281	24389.461025
7.036000	0.000626	-0.000073	0.001715	0.000126	6609.866022	46230.484590	4018.013295	24465.015231
7.536000	0.000929	-0.000063	-0.000238	-0.000175	6615.007614	46261.526097	4013.711729	24479.997790
8.036500	0.002126	0.000569	-0.000813	0.000724	6617.539254	46234.893893	4009.884023	24435.407950
8.537000	0.001194	0.000000	0.002430	0.001134	6606.142354	46137.594958	4017.250019	24415.119199
9.037000	-0.001479	-0.000092	-0.000239	0.000204	6591.390522	46220.818255	4012.723142	24461.159105
9.535000	-0.001524	-0.001025	-0.002107	-0.000947	6600.748730	46242.602963	4010.861645	24518.342681
10.037500	-0.000605	0.000157	0.000447	-0.000045	6600.893151	46270.487929	4015.155327	24473.529732
10.535000	0.000000	0.000492	0.000000	0.000428	6602.005384	46256.727289	4012.761442	24450.057578
11.035500	0.000233	-0.000254	-0.000541	-0.000638	6613.022382	46288.670103	4014.128336	24502.988140
11.535500	0.001102	0.000103	0.000161	0.000000	6614.985924	46260.567148	4014.291747	24471.288454
12.036000	0.000528	0.000013	0.002067	-0.000096	6610.926673	46261.167977	4019.512339	24476.058101
12.536500	0.001171	0.000723	-0.000362	0.001284	6604.671761	46194.474938	4009.602131	24407.659021
13.036500	0.003166	-0.000576	-0.004139	0.000168	6631.127270	46176.313199	4002.729378	24462.961174
13.540000	-0.000887	-0.000007	-0.000603	0.000493	6593.954672	46200.645802	4011.029720	24446.861840
14.037500	-0.001923	-0.000504	-0.001625	0.002315	6569.889001	45970.490498	4003.675223	24356.729694
14.537500	-0.001007	0.000026	0.001312	0.002122	6579.208522	46042.159592	4011.769551	24366.273129
15.035000	-0.000811	0.000459	-0.000163	0.000672	6593.088147	46229.119090	4011.704638	24437.981558
15.534500	0.001351	0.000280	0.002299	0.000876	6609.655641	46190.980034	4017.580678	24427.857143
16.035500	-0.000093	-0.000117	-0.003466	-0.000122	6605.878365	46250.837825	4005.212430	24477.352381
16.537000	-0.000414	0.000246	-0.001034	0.001424	6590.089548	46133.144657	4007.500140	24400.746612
17.036500	0.001545	0.000252	-0.001257	-0.002513	6640.181912	46526.559489	4017.144533	24596.327938
17.539000	0.001743	-0.000216	0.003117	0.000992	6612.000220	46130.143427	4019.414289	24422.119051
18.036500	-0.002034	-0.000047	0.000346	0.003000	6563.217823	45948.006285	4006.994124	24322.955612
18.537500	-0.000444	-0.000182	0.002248	0.001973	6585.202558	46036.248978	4014.589872	24373.629559
19.039500	0.001535	-0.000488	-0.005566	0.001352	6607.185169	46067.420601	3996.024770	24404.301632
19.535000	-0.000009	0.000168	-0.004867	0.001904	6589.451191	46077.789536	3996.402078	24377.006804
20.035000	0.002557	-0.000023	-0.001025	0.001941	6610.850881	46055.167956	4006.187125	24375.177027
20.535500	-0.001734	0.000201	0.002587	0.002136	6572.977128	46058.075399	4015.048034	24365.579173
21.035500	0.000813	0.000333	-0.001368	0.001911	6596.335468	46093.481714	4005.378027	24376.665899
21.536500	-0.001031	0.000280	0.002149	0.001903	6580.848537	46089.053569	4014.513615	24377.075146
22.036500	0.001189	0.000127	0.001227	0.002034	6598.477473	46060.873874	4011.778416	24370.608593
22.537000	-0.000660	0.000104	-0.000617	0.001692	6585.753462	46092.524120	4007.885574	24387.521158
23.036500	0.000274	-0.000166	-0.001118	0.001421	6595.920832	46092.570940	4007.289478	24400.894553
23.542000	-0.000340	0.000337	-0.001420	0.002099	6585.021031	46075.179055	4004.760139	24367.394387
24.034500	-0.001695	-0.000126	0.003411	0.001296	6580.367793	46108.977070	4019.387918	24407.080813
24.535000	0.000540	0.000582	0.001244	0.002521	6588.874545	46057.621550	4010.556083	24346.544392
25.035500	-0.000764	0.000229	-0.001886	0.001623	6585.456221	46111.674233	4004.784995	24390.904141
25.535500	-0.000575	-0.000779	-0.006427	0.001005	6592.270931	46073.077795	3994.711824	24421.501136
26.036000	0.001077	0.000278	-0.000697	0.001826	6599.281694	46096.359310	4007.329965	24380.857905
26.536000	0.000574	0.000175	0.004937	0.001913	6594.296085	46077.593611	4021.765260	24376.573430
27.036500	0.000730	-0.000421	-0.000539	-0.001734	6626.578925	46381.294212	4016.987578	24557.511689
27.539500	0.002206	0.000271	0.002446	0.000208	6622.603373	46256.649451	4019.709488	24460.980155
28.039500	-0.001436	0.000045	-0.007902	0.006056	6542.684856	45655.885265	3978.151782	24172.892266
28.537500	-0.000871	-0.000248	0.001034	0.000774	6591.716667	46148.673687	4014.549988	24432.902807
29.035000	0.000709	-0.000500	0.003157	0.000361	6608.580019	46164.718273	4021.170059	24453.387837
29.536000	-0.000043	-0.000406	-0.001384	0.000526	6600.805648	46157.574929	4008.916385	24445.187373
30.036000	-0.001838	0.000600	-0.000925	0.006628	6534.581475	45654.222802	3994.403405	24144.945559
30.537500	-0.001616	-0.000081	-0.001633	0.003802	6559.993279	45865.377463	3999.828359	24283.455780
31.036000	0.001224	0.000041	-0.001448	0.002628	6593.756742	45993.542379	4003.323598	24341.307444
31.536000	0.004152	0.001150	-0.000397	0.001865	6625.067026	46179.150493	4008.006982	24378.949528
32.037000	-0.001058	0.000284	-0.004516	0.006455	6542.507331	45640.146688	3985.699073	24153.375863
32.540500	0.001886	0.000043	0.002986	0.000750	6615.273332	46180.049896	4019.706028	24434.129495
33.034000	-0.000474	-0.000191	0.003932	0.000496	6597.424628	46181.983393	4022.847093	24446.708851
33.537000	0.000636	0.000296	-0.000077	0.000351	6608.041516	46244.844263	4012.761976	24453.862928
34.035000	0.000067	0.000349	-0.003545	0.003179	6579.350769	45969.495075	3996.522523	24314.143464
34.535000	-0.000248	0.000420	-0.004036	0.002227	6584.712525	46070.758492	3997.702786	24361.073093
35.035500	-0.001064	0.000333	-0.002092	0.001513	6583.854943	46132.906985	4004.536755	24396.337064
35.536000	0.000597	0.000538	0.002712	0.001899	6594.615313	46114.989180	4015.989971	24377.272113
36.036500	-0.001393	0.000174	0.002838	0.002354	6574.007986	46033.784013	4015.132261	24354.804353
36.536000	0.001318	0.000205	0.002751	0.001862	6601.023095	46085.604350	4016.188773	24379.108238
37.039500	-0.001569	-0.000583	0.001014	0.002208	6573.766280	45973.320175	4010.774268	24362.031402
37.537000	0.001370	-0.000280	0.003548	0.002232	6598.335028	46000.879523	4017.301178	24360.828329
38.037000	0.000988	0.000148	0.000520	0.002401	6593.679714	46026.548530	4008.995208	24352.504174
38.534500	-0.000404	0.000547	0.001008	0.002893	6577.796972	46017.359554	4008.982211	24328.231817
39.035000	0.003190	0.000126	-0.001239	0.002291	6613.255590	46035.262637	4004.730531	24357.898473
39.535500	0.000002	0.000302	0.002837	0.002215	6586.921873	46060.264495	4015.493647	24361.666315
40.036000	0.000979	0.000383	-0.001128	0.001990	6597.079164	46090.653867	4005.796287	24372.789618
40.536500	0.000529	0.000074	0.000578	0.001830	6594.619117	46075.799091	4010.623785	24380.680216
41.036500	0.001150	0.000647	-0.000105	0.001841	6599.782498	46131.622069	4008.824498	24380.145054
41.539500	0.000475	0.000130	0.003970	0.001995	6592.773712	46065.084726	4019.022245	24372.552614
42.037000	-0.000549	-0.000059	0.002206	0.001212	6590.740999	46123.947020	4016.462179	24411.248242
42.537500	0.000036	-0.000309	-0.001140	0.001579	6592.575287	46062.643034	4006.824104	24393.061825
43.035000	0.000920	0.000400	-0.004169	0.002155	6595.186376	46076.000143	3997.549135	24364.652179
43.535000	-0.000839	0.000765	-0.002517	0.002125	6580.600951	46115.098550	4001.868724	24366.130428
44.035000	-0.000647	0.000247	-0.005066	0.000729	6593.990098	46202.339264	3998.905357	24435.154190
44.535500	-0.000941	0.000377	-0.000814	0.004708	6558.069808	45821.170889	3999.604907	24238.952123
45.036000	0.001439	0.000181	0.005510	0.000121	6616.820114	46256.230759	4027.976625	24465.273498
45.536000	0.000433	0.000457	-0.003921	0.000250	6607.179487	46270.909789	4003.079713	24458.882693
46.039000	-0.000006	-0.000093	-0.000337	0.004141	6570.653992	45830.776396	4002.289170	24266.804375
46.536500	-0.002937	-0.000894	-0.006651	0.005792	6532.392730	45589.670611	3981.974151	24185.827718
47.034000	0.000897	0.000214	0.000153	0.001012	6604.651405	46170.936561	4011.642427	24421.111112
47.537000	-0.000733	0.000191	-0.001735	0.002745	6576.274352	45996.709082	4002.282560	24335.519089
48.034500	-0.000021	-0.000479	-0.001460	0.002870	6581.211936	45918.186173	4002.671746	24329.376294
48.535000	-0.004244	-0.000396	-0.007715	0.005769	6521.748123	45640.769709	3979.347967	24186.965848
49.035500	0.000656	-0.000057	0.001977	0.000425	6607.592739	46202.413532	4017.918240	24450.222146
49.535000	0.001667	0.000347	0.003958	0.000747	6613.443243	46210.494895	4022.257161	24434.270692
50.036000	0.000160	0.000306	-0.000859	0.002863	6582.796614	45996.424022	4004.236461	24329.710310
50.539000	-0.001313	0.000277	0.006726	0.019318	6434.867313	44395.090173	3981.598185	23533.785621
51.036500	0.012325	-0.004130	0.019823	0.116129	5823.134400	35789.678187	3789.249990	19415.449872
51.536500	0.027102	-0.010082	-0.003498	0.195700	5421.452332	29929.022321	3598.389514	16654.404696
52.034000	-0.011021	-0.024550	-0.023163	-0.041923	6877.066881	48015.406245	4063.728609	26655.052693
52.537500	-0.003765	-0.107371	-0.022220	-0.267511	9680.688423	65535.000000	4871.215080	42818.329292
53.034500	-0.003196	-0.122720	-0.017870	-0.282861	9932.894657	65535.000000	4963.409070	44253.574197
53.535000	-0.002447	-0.087719	-0.017482	-0.247845	9401.216135	65533.001774	4804.084201	41052.081370
54.035500	-0.004119	-0.076503	-0.012808	-0.234299	9178.207480	65198.315825	4765.263570	39881.113128
54.535500	0.002936	-0.070751	-0.010099	-0.228021	9189.409561	65123.117256	4749.872739	39350.731078
55.039000	-0.005067	-0.044962	-0.009539	-0.191506	8579.068930	63607.528982	4601.655847	36413.146514
55.536500	0.004016	-0.063036	-0.007186	-0.218650	9070.947215	64886.720373	4722.340932	38573.166218
56.036500	0.004550	-0.047026	-0.005571	-0.194427	8744.679490	63727.318282	4629.111173	36639.151178
56.536500	0.011670	-0.022988	0.005404	-0.147162	8230.849721	60564.922175	4489.253907	33162.432181
57.034500	0.014328	-0.010865	0.005414	-0.109825	7823.644183	57318.209257	4357.086240	30671.349747
57.534500	0.022833	-0.004182	0.017903	-0.055214	7330.233150	51642.758048	4220.962090	27392.548741
58.035000	0.026284	0.001461	0.018102	-0.017143	6992.707511	48143.275645	4109.353619	25338.874164
58.535500	0.036381	0.008804	0.032953	0.014859	6792.627590	45651.575921	4061.923624	23746.503487
59.035500	0.054779	0.020016	0.051209	0.045607	6684.193479	43775.542106	4028.536813	22323.211867
59.538500	0.072590	0.031537	0.068077	0.089048	6468.761017	40886.255188	3960.634017	20476.577470
60.036000	0.086823	0.041292	0.088680	0.129153	6263.811793	38329.153804	3913.376384	18928.186234
60.536500	0.105313	0.051513	0.102081	0.170495	6092.671884	35886.214043	3849.264920	17474.900594
61.036500	0.122612	0.060739	0.128013	0.199528	6008.233680	34420.181899	3842.401033	16533.920982
61.537000	0.142713	0.069249	0.137800	0.224564	5973.393656	33247.111033	3809.350062	15771.481298
62.035000	0.157100	0.080430	0.158589	0.264655	5798.206799	31299.359363	3769.143085	14638.516556
62.535000	0.172092	0.091475	0.180141	0.303096	5647.186456	29569.424511	3735.397969	13646.102258
63.034500	0.195407	0.103592	0.200809	0.330602	5621.043999	28644.471723	3722.105065	12988.028815
63.535500	0.210535	0.113761	0.218994	0.360246	5532.417539	27519.978373	3700.293102	12323.940843
64.041000	0.227860	0.124695	0.233586	0.392405	5444.857215	26350.544685	3667.950856	11652.975383
64.536000	0.246341	0.137441	0.249316	0.422126	5380.480670	25455.564647	3643.112626	11075.543198
65.041500	0.263554	0.147606	0.274251	0.442590	5362.169354	24929.353268	3650.964360	10700.314319
65.537000	0.275456	0.156947	0.285789	0.467866	5288.259399	24139.424302	3627.096693	10260.601477
66.042500	0.283524	0.163069	0.292972	0.492844	5198.009673	23241.320389	3597.283253	9850.510772
66.534500	0.292377	0.169308	0.307835	0.490865	5255.412363	23627.942252	3625.469097	9882.141758
67.034000	0.301165	0.175233	0.313352	0.491796	5297.956351	23866.486446	3633.334946	9867.236476
67.535000	0.308759	0.177506	0.319507	0.498815	5301.106288	23639.716732	3631.846420	9755.916645
68.035500	0.309321	0.181027	0.316926	0.491108	5346.776200	24180.251804	3640.719653	9878.251308
68.538000	0.318780	0.184182	0.324078	0.484998	5435.174986	24636.913423	3664.171004	9976.799415
69.041000	0.320541	0.185774	0.334812	0.485738	5441.081865	24679.390736	3682.322443	9964.790659
69.535500	0.321162	0.186890	0.336584	0.484290	5453.099928	24807.755458	3688.258887	9988.304866
70.036000	0.323502	0.189702	0.335654	0.487354	5448.890525	24795.109096	3680.901532	9938.639613
70.536500	0.324504	0.188578	0.336876	0.485788	5463.853480	24817.271481	3686.030685	9963.973310
71.036500	0.326699	0.191426	0.339449	0.487751	5465.214040	24861.784191	3687.156396	9932.225973
71.537000	0.324148	0.190663	0.333873	0.487048	5454.420072	24858.749599	3678.198867	9943.571934
72.040500	0.326150	0.191550	0.337137	0.486930	5466.797828	24909.347991	3684.404965	9945.478532
72.535000	0.326612	0.193185	0.336384	0.487186	5468.005173	24979.072655	3682.548735	9941.346810
73.038000	0.325229	0.192484	0.335941	0.487398	5458.686640	24932.892484	3681.345269	9937.917467
73.535500	0.328839	0.194358	0.337593	0.489889	5465.218388	24901.775793	3679.808355	9897.794932
74.041500	0.326530	0.193558	0.341448	0.489273	5455.339020	24892.492608	3688.037621	9907.699313
74.536000	0.330373	0.196255	0.343488	0.489787	5474.808421	25002.789818	3690.867341	9899.438749
75.042000	0.330399	0.197046	0.343495	0.488846	5480.495531	25090.745070	3692.631081	9914.578720
75.537000	0.330109	0.195411	0.342670	0.487482	5486.823617	25076.955482	3693.633353	9936.567539
76.036500	0.334521	0.197285	0.347581	0.490221	5496.713065	25033.048581	3697.691034	9892.480469
76.535000	0.332575	0.198430	0.348074	0.490893	5481.252024	25057.032749	3697.355038	9881.696713
77.035000	0.334563	0.196973	0.340943	0.487980	5510.264420	25131.080034	3689.497607	9928.529786
77.538000	0.333233	0.198641	0.345625	0.488916	5496.807633	25168.415416	3696.471559	9913.447327
78.035000	0.334525	0.200333	0.350434	0.491158	5491.191868	25140.352873	3701.284993	9877.452366
78.535500	0.332802	0.197989	0.350250	0.490404	5485.471110	25059.499491	3702.358565	9889.539545
79.036000	0.336824	0.199879	0.342460	0.491210	5504.501418	25114.593191	3686.329636	9876.621873
79.536500	0.337246	0.199629	0.350230	0.492337	5500.318993	25044.592145	3698.688882	9858.596657
80.036500	0.334264	0.198486	0.352359	0.492817	5479.866957	24962.362092	3701.784933	9850.931873
80.537000	0.337903	0.200540	0.351169	0.495979	5482.676964	24906.413577	3693.636503	9800.684228
81.040000	0.337533	0.200541	0.349182	0.494844	5487.188005	24963.784722	3692.051511	9818.681498
81.535000	0.335485	0.201967	0.356564	0.497523	5459.448420	24900.520486	3700.842996	9776.271965
82.038000	0.337353	0.202083	0.346466	0.497735	5469.137022	24895.672862	3681.692230	9772.935031
82.535500	0.339412	0.202803	0.346713	0.499092	5473.245483	24863.548901	3679.655909	9751.553029
83.035500	0.333288	0.200817	0.349027	0.497351	5447.659958	24851.265164	3687.115600	9778.988396
83.536000	0.336206	0.201856	0.353306	0.499117	5454.356385	24814.686544	3691.772837	9751.161440
84.042000	0.335040	0.202249	0.346724	0.500266	5440.913383	24776.754674	3677.528839	9733.124042
84.536500	0.338040	0.203774	0.351787	0.502433	5445.746666	24744.619726	3682.837324	9699.239298
85.036500	0.338177	0.203124	0.356164	0.503465	5440.554776	24660.585010	3689.008942	9683.153803
85.537000	0.336858	0.201155	0.351487	0.502123	5440.685807	24629.348018	3682.854383	9704.072834
86.034500	0.339700	0.202452	0.350401	0.505046	5440.221318	24548.536036	3675.518511	9658.592729
86.537500	0.337821	0.202635	0.357145	0.505387	5427.394538	24540.669476	3687.268269	9653.297513
87.038000	0.337122	0.201096	0.352004	0.504784	5426.842399	24494.327492	3678.924118	9662.657103
87.535500	0.337924	0.202669	0.354347	0.506347	5422.457794	24494.756933	3680.350365	9638.436331
88.038000	0.340845	0.201688	0.354119	0.508086	5429.270083	24360.583111	3676.754666	9611.604200
88.536000	0.337682	0.200505	0.349917	0.507346	5415.337888	24338.835079	3670.464497	9623.016189
89.036000	0.340291	0.202116	0.350222	0.509607	5417.332062	24306.889390	3666.930854	9588.216724
89.536500	0.341050	0.203299	0.357662	0.511963	5408.181667	24249.423944	3676.145196	9552.157722
90.037000	0.339885	0.202776	0.357265	0.512971	5395.788001	24174.666535	3673.588658	9536.794762
90.537000	0.342629	0.202228	0.355915	0.513294	5409.600084	24132.255012	3670.553595	9531.870865
91.039500	0.342935	0.202821	0.356161	0.514089	5406.801491	24122.391159	3669.560343	9519.782151
91.535000	0.340177	0.201214	0.352773	0.513792	5392.783275	24058.848070	3663.992498	9524.302941
92.038000	0.341105	0.202576	0.358205	0.515974	5385.665593	24019.094580	3669.847727	9491.212626
92.535500	0.342186	0.203443	0.357787	0.517729	5381.849333	23976.151645	3665.928135	9464.731566
93.038500	0.343979	0.203971	0.358308	0.518485	5387.724888	23965.134530	3665.504986	9453.351158
93.536000	0.340334	0.202630	0.355524	0.517697	5371.577118	23938.493757	3661.925899	9465.220435
94.036500	0.343752	0.204530	0.359905	0.520405	5375.576634	23899.538429	3664.923831	9424.544416
94.536500	0.341657	0.205061	0.354620	0.521351	5358.478790	23879.594383	3653.806095	9410.397589
95.037000	0.339712	0.202569	0.354207	0.518657	5362.678211	23889.311110	3657.858974	9450.771235
95.540000	0.343232	0.203234	0.355173	0.519906	5375.459684	23861.266969	3657.355213	9432.019153
96.037500	0.340228	0.203671	0.350120	0.520576	5354.818364	23850.065796	3647.237785	9421.994753
96.535500	0.344834	0.204101	0.350294	0.522707	5368.704610	23768.601039	3643.808131	9390.183588
97.037500	0.344768	0.205019	0.352791	0.522021	5372.195465	23845.419956	3649.394085	9400.403419
97.536000	0.341280	0.204232	0.351446	0.521500	5355.531872	23832.631137	3647.942224	9408.169906
