sample name	sample
index	1379
start time	 05-03-2021  02:50:00 PM


Wavelength (nm)	Absorbance
494.344910	-0.220738
494.563924	-0.220738
494.782919	-0.220738
495.001897	0.048628
495.220856	-0.109355
495.439797	-0.096944
495.658719	-0.069370
495.877624	-0.090290
496.096510	-0.090656
496.315378	-0.082738
496.534227	-0.108974
496.753059	-0.123822
496.971872	-0.141200
497.190667	0.020874
497.409444	0.048152
497.628203	0.054440
497.846943	0.059828
498.065665	0.059344
498.284369	0.060199
498.503055	0.061549
498.721723	0.063160
498.940372	0.062301
499.159003	0.062221
499.377616	0.061008
499.596210	0.061351
499.814787	0.059946
500.033345	0.060558
500.251885	0.060504
500.470406	0.059928
500.688910	0.058703
500.907395	0.060011
501.125862	0.060528
501.344311	0.061355
501.562742	0.059523
501.781154	0.060473
501.999548	0.060199
502.217924	0.059349
502.436282	0.059182
502.654621	0.059238
502.872942	0.058032
503.091245	0.057108
503.309530	0.057478
503.527797	0.057993
503.746045	0.057466
503.964275	0.057777
504.182487	0.059437
504.400681	0.059527
504.618856	0.060639
504.837013	0.061596
505.055152	0.062103
505.273273	0.061212
505.491376	0.062351
505.709460	0.061695
505.927526	0.061563
506.145574	0.060841
506.363604	0.060257
506.581615	0.059322
506.799608	0.058696
507.017583	0.058806
507.235540	0.058808
507.453478	0.057972
507.671399	0.058365
507.889301	0.057601
508.107185	0.058032
508.325050	0.057738
508.542898	0.057110
508.760727	0.057097
508.978538	0.057138
509.196330	0.057148
509.414105	0.057830
509.631861	0.058904
509.849599	0.059678
510.067319	0.058657
510.285021	0.059687
510.502704	0.060375
510.720369	0.060700
510.938016	0.060300
511.155645	0.060212
511.373255	0.060291
511.590848	0.060486
511.808422	0.059804
512.025977	0.059731
512.243515	0.059755
512.461034	0.059050
512.678536	0.059643
512.896018	0.060870
513.113483	0.061149
513.330930	0.060837
513.548358	0.059967
513.765768	0.060208
513.983160	0.060722
514.200533	0.060223
514.417889	0.061044
514.635226	0.060789
514.852545	0.059547
515.069845	0.059734
515.287128	0.059693
515.504392	0.059943
515.721638	0.060434
515.938866	0.060988
516.156075	0.060545
516.373267	0.060670
516.590440	0.060338
516.807594	0.061057
517.024731	0.060359
517.241850	0.060482
517.458950	0.060689
517.676032	0.060533
517.893095	0.059664
518.110141	0.059038
518.327168	0.059176
518.544177	0.059077
518.761168	0.058435
518.978141	0.057693
519.195095	0.056977
519.412031	0.056885
519.628949	0.056819
519.845849	0.057502
520.062731	0.058362
520.279594	0.058644
520.496439	0.058566
520.713266	0.058537
520.930074	0.059415
521.146865	0.060205
521.363637	0.059839
521.580391	0.060374
521.797127	0.059756
522.013844	0.059297
522.230543	0.057978
522.447224	0.057903
522.663887	0.058547
522.880532	0.058554
523.097158	0.058566
523.313766	0.058977
523.530356	0.058366
523.746928	0.058519
523.963481	0.059412
524.180017	0.059799
524.396534	0.060554
524.613032	0.060399
524.829513	0.061216
525.045975	0.061065
525.262420	0.060519
525.478845	0.060493
525.695253	0.060380
525.911643	0.060703
526.128014	0.061223
526.344367	0.060916
526.560702	0.061111
526.777018	0.060999
526.993316	0.061085
527.209597	0.061529
527.425858	0.062065
527.642102	0.062735
527.858328	0.062702
528.074535	0.062762
528.290724	0.062764
528.506894	0.062464
528.723047	0.062903
528.939181	0.062927
529.155297	0.063889
529.371395	0.063370
529.587475	0.063628
529.803536	0.063862
530.019579	0.063830
530.235604	0.063672
530.451611	0.064275
530.667600	0.064271
530.883570	0.064638
531.099522	0.064010
531.315456	0.064945
531.531372	0.065265
531.747269	0.065215
531.963148	0.064859
532.179009	0.065304
532.394852	0.065461
532.610676	0.065473
532.826482	0.065295
533.042271	0.065157
533.258040	0.064833
533.473792	0.064476
533.689525	0.064382
533.905240	0.064826
534.120937	0.064720
534.336616	0.064879
534.552277	0.064771
534.767919	0.064841
534.983543	0.065370
535.199149	0.065768
535.414736	0.065397
535.630306	0.065640
535.845857	0.065705
536.061390	0.065556
536.276904	0.065843
536.492401	0.065787
536.707879	0.066159
536.923339	0.066274
537.138781	0.066274
537.354204	0.066497
537.569610	0.066175
537.784997	0.066486
538.000366	0.067279
538.215716	0.067122
538.431049	0.067718
538.646363	0.067841
538.861659	0.068086
539.076937	0.067771
539.292196	0.068311
539.507438	0.068939
539.722661	0.068784
539.937866	0.068657
540.153052	0.068699
540.368221	0.068221
540.583371	0.068439
540.798503	0.068097
541.013617	0.068488
541.228712	0.068472
541.443789	0.068568
541.658848	0.069220
541.873889	0.069526
542.088912	0.069934
542.303916	0.070326
542.518902	0.070340
542.733870	0.070382
542.948820	0.070176
543.163752	0.070053
543.378665	0.069877
543.593560	0.069511
543.808437	0.069464
544.023295	0.068997
544.238136	0.068972
544.452958	0.069059
544.667762	0.069167
544.882548	0.069636
545.097315	0.070292
545.312064	0.070325
545.526795	0.070662
545.741508	0.070504
545.956203	0.070895
546.170879	0.071155
546.385537	0.070842
546.600177	0.070985
546.814799	0.070589
547.029402	0.069942
547.243988	0.070299
547.458555	0.069979
547.673103	0.069782
547.887634	0.069716
548.102146	0.069412
548.316640	0.069931
548.531116	0.070351
548.745574	0.070763
548.960013	0.071154
549.174435	0.070700
549.388838	0.070742
549.603222	0.070983
549.817589	0.071198
550.031937	0.071772
550.246267	0.071624
550.460579	0.071658
550.674873	0.071619
550.889148	0.071833
551.103405	0.072482
551.317644	0.072803
551.531865	0.073134
551.746068	0.073218
551.960252	0.073077
552.174418	0.073219
552.388566	0.072937
552.602696	0.073364
552.816807	0.072956
553.030900	0.073320
553.244975	0.073301
553.459032	0.073298
553.673070	0.073462
553.887091	0.073277
554.101093	0.073482
554.315077	0.073989
554.529042	0.073831
554.742990	0.074215
554.956919	0.074009
555.170830	0.074407
555.384722	0.074283
555.598597	0.074193
555.812453	0.074447
556.026291	0.074214
556.240111	0.073837
556.453913	0.073920
556.667696	0.074033
556.881461	0.074265
557.095208	0.074032
557.308937	0.074383
557.522647	0.074169
557.736339	0.074095
557.950013	0.074514
558.163669	0.074871
558.377307	0.074720
558.590926	0.074776
558.804527	0.074657
559.018110	0.074310
559.231675	0.074482
559.445221	0.074641
559.658749	0.074303
559.872259	0.074010
560.085751	0.074082
560.299225	0.074204
560.512680	0.073975
560.726117	0.073650
560.939536	0.074031
561.152937	0.073889
561.366319	0.073934
561.579683	0.074346
561.793029	0.074225
562.006357	0.073759
562.219667	0.073744
562.432958	0.073659
562.646231	0.073727
562.859486	0.073954
563.072723	0.074079
563.285941	0.074277
563.499141	0.074483
563.712323	0.074596
563.925487	0.074986
564.138632	0.075231
564.351760	0.075491
564.564869	0.075751
564.777960	0.075879
564.991032	0.075812
565.204087	0.075598
565.417123	0.075518
565.630141	0.075696
565.843140	0.075612
566.056122	0.075316
566.269085	0.075388
566.482030	0.075557
566.694957	0.074863
566.907866	0.074924
567.120756	0.074955
567.333628	0.074863
567.546482	0.074535
567.759318	0.074802
567.972135	0.074806
568.184935	0.074688
568.397716	0.074427
568.610478	0.074836
568.823223	0.074802
569.035949	0.074970
569.248657	0.075035
569.461347	0.075225
569.674019	0.075000
569.886672	0.075197
570.099308	0.075436
570.311925	0.075276
570.524523	0.075262
570.737104	0.075177
570.949666	0.075188
571.162210	0.075108
571.374736	0.075238
571.587244	0.075344
571.799733	0.075493
572.012205	0.075204
572.224658	0.075576
572.437092	0.075652
572.649509	0.075577
572.861907	0.075646
573.074287	0.075676
573.286649	0.075318
573.498993	0.075046
573.711318	0.074857
573.923625	0.074906
574.135914	0.074530
574.348185	0.074566
574.560438	0.074584
574.772672	0.074359
574.984888	0.074637
575.197086	0.075166
575.409266	0.075385
575.621427	0.075304
575.833570	0.075386
576.045695	0.075541
576.257802	0.075561
576.469890	0.075732
576.681961	0.075750
576.894013	0.075558
577.106046	0.075454
577.318062	0.075447
577.530059	0.075860
577.742039	0.076153
577.954000	0.075894
578.165942	0.075921
578.377867	0.076056
578.589773	0.075952
578.801661	0.076159
579.013531	0.076303
579.225382	0.076349
579.437216	0.076378
579.649031	0.076144
579.860828	0.076514
580.072606	0.076561
580.284367	0.076497
580.496109	0.076804
580.707833	0.077182
580.919539	0.077236
581.131227	0.077508
581.342896	0.077492
581.554547	0.077723
581.766180	0.078053
581.977795	0.078159
582.189391	0.078121
582.400969	0.078426
582.612529	0.078241
582.824071	0.078172
583.035595	0.078166
583.247100	0.078025
583.458587	0.078284
583.670056	0.078183
583.881506	0.078196
584.092939	0.078318
584.304353	0.077689
584.515749	0.077388
584.727127	0.077619
584.938486	0.077701
585.149828	0.077782
585.361151	0.077609
585.572456	0.077843
585.783742	0.077890
585.995011	0.078176
586.206261	0.078613
586.417493	0.078884
586.628706	0.078556
586.839902	0.078435
587.051079	0.078737
587.262238	0.078766
587.473379	0.078854
587.684502	0.078776
587.895606	0.079158
588.106692	0.078914
588.317760	0.078935
588.528810	0.079003
588.739841	0.078740
588.950855	0.078287
589.161850	0.078266
589.372827	0.078168
589.583785	0.078604
589.794726	0.078091
590.005648	0.078381
590.216552	0.078360
590.427437	0.078837
590.638305	0.078969
590.849154	0.079214
591.059985	0.079369
591.270798	0.079586
591.481592	0.079286
591.692369	0.079446
591.903127	0.079462
592.113867	0.079725
592.324588	0.079482
592.535292	0.079683
592.745977	0.079705
592.956644	0.079769
593.167293	0.079545
593.377923	0.079752
593.588536	0.079803
593.799130	0.080142
594.009706	0.080186
594.220263	0.080137
594.430803	0.080109
594.641324	0.080556
594.851827	0.080608
595.062312	0.080584
595.272778	0.080562
595.483227	0.080680
595.693657	0.080467
595.904069	0.080449
596.114462	0.080145
596.324838	0.080473
596.535195	0.080344
596.745534	0.080426
596.955855	0.080524
597.166157	0.080390
597.376441	0.080336
597.586707	0.080530
597.796955	0.080480
598.007185	0.081169
598.217396	0.081062
598.427589	0.081148
598.637764	0.081269
598.847921	0.081238
599.058060	0.081480
599.268180	0.081488
599.478282	0.081736
599.688366	0.082183
599.898431	0.082202
600.108479	0.082383
600.318508	0.082556
600.528519	0.082831
600.738511	0.083205
600.948486	0.083274
601.158442	0.083820
601.368380	0.083921
601.578300	0.083858
601.788202	0.084009
601.998085	0.083970
602.207950	0.083754
602.417797	0.083607
602.627626	0.083784
602.837436	0.084068
603.047228	0.083977
603.257002	0.083942
603.466758	0.083960
603.676496	0.083643
603.886215	0.083950
604.095916	0.084387
604.305599	0.084239
604.515264	0.083786
604.724910	0.083840
604.934538	0.083625
605.144148	0.083618
605.353740	0.083405
605.563314	0.083645
605.772869	0.083581
605.982406	0.083454
606.191925	0.083724
606.401425	0.083887
606.610908	0.083942
606.820372	0.083938
607.029818	0.083747
607.239246	0.084213
607.448655	0.084327
607.658047	0.084516
607.867420	0.084442
608.076775	0.084554
608.286111	0.084692
608.495430	0.084766
608.704730	0.084535
608.914012	0.084787
609.123275	0.084512
609.332521	0.084401
609.541748	0.084433
609.750957	0.084333
609.960148	0.084350
610.169321	0.084251
610.378475	0.084246
610.587611	0.084602
610.796729	0.084729
611.005829	0.084837
611.214910	0.085153
611.423974	0.085269
611.633019	0.085473
611.842045	0.085303
612.051054	0.085476
612.260044	0.085272
612.469017	0.085451
612.677970	0.085519
612.886906	0.085675
613.095824	0.085732
613.304723	0.085684
613.513604	0.085628
613.722467	0.085972
613.931311	0.086136
614.140138	0.086268
614.348946	0.086198
614.557736	0.086306
614.766507	0.086097
614.975261	0.085976
615.183996	0.085826
615.392713	0.085912
615.601412	0.085738
615.810092	0.085662
616.018754	0.085944
616.227399	0.086106
616.436024	0.085772
616.644632	0.085694
616.853222	0.085999
617.061793	0.086067
617.270346	0.086304
617.478880	0.086340
617.687397	0.086363
617.895895	0.086106
618.104375	0.085927
618.312837	0.086324
618.521281	0.086617
618.729706	0.086410
618.938113	0.086529
619.146502	0.086557
619.354873	0.086583
619.563226	0.086697
619.771560	0.087279
619.979876	0.087651
620.188174	0.087832
620.396453	0.088066
620.604715	0.088211
620.812958	0.088404
621.021183	0.088523
621.229390	0.088557
621.437578	0.088623
621.645748	0.088273
621.853900	0.088066
622.062034	0.087858
622.270150	0.087818
622.478247	0.087939
622.686326	0.087816
622.894387	0.087684
623.102430	0.087770
623.310454	0.087887
623.518461	0.088072
623.726449	0.088324
623.934418	0.088344
624.142370	0.088350
624.350303	0.088362
624.558218	0.088390
624.766115	0.088674
624.973994	0.088835
625.181855	0.088795
625.389697	0.088808
625.597521	0.088794
625.805327	0.088835
626.013114	0.089009
626.220883	0.088882
626.428634	0.089050
626.636367	0.089023
626.844082	0.089105
627.051778	0.089238
627.259457	0.089438
627.467117	0.089280
627.674758	0.089367
627.882382	0.089079
628.089987	0.089404
628.297574	0.089415
628.505143	0.089456
628.712694	0.089429
628.920226	0.089560
629.127740	0.089563
629.335236	0.089811
629.542714	0.090039
629.750174	0.090495
629.957615	0.090471
630.165038	0.090466
630.372443	0.090340
630.579829	0.090498
630.787198	0.090514
630.994548	0.090388
631.201880	0.090443
631.409194	0.090267
631.616489	0.090328
631.823766	0.090216
632.031025	0.090476
632.238266	0.090573
632.445489	0.090663
632.652693	0.090303
632.859879	0.090411
633.067047	0.090400
633.274197	0.090624
633.481329	0.090391
633.688442	0.090408
633.895537	0.090244
634.102614	0.090191
634.309672	0.089918
634.516713	0.090248
634.723735	0.090011
634.930739	0.090024
635.137724	0.089966
635.344692	0.090060
635.551641	0.090028
635.758572	0.089965
635.965485	0.090198
636.172379	0.090166
636.379256	0.089996
636.586114	0.090243
636.792954	0.090385
636.999775	0.090384
637.206579	0.090334
637.413364	0.090333
637.620131	0.090305
637.826880	0.090143
638.033610	0.090204
638.240323	0.090244
638.447017	0.090341
638.653692	0.090230
638.860350	0.090119
639.066990	0.090263
639.273611	0.090364
639.480214	0.090595
639.686798	0.090463
639.893365	0.090667
640.099913	0.090694
640.306443	0.090674
640.512955	0.090558
640.719449	0.090791
640.925924	0.090773
641.132381	0.090809
641.338820	0.091025
641.545241	0.091454
641.751644	0.091675
641.958028	0.091836
642.164394	0.091944
642.370742	0.092366
642.577071	0.092544
642.783383	0.092788
642.989676	0.093178
643.195951	0.093105
643.402207	0.092990
643.608446	0.092999
643.814666	0.093174
644.020868	0.093251
644.227052	0.093353
644.433218	0.093279
644.639365	0.093325
644.845494	0.093365
645.051605	0.093518
645.257698	0.093582
645.463772	0.093687
645.669828	0.093804
645.875866	0.093635
646.081886	0.093687
646.287888	0.093884
646.493871	0.093908
646.699836	0.093668
646.905783	0.093588
647.111712	0.093764
647.317622	0.093758
647.523514	0.093786
647.729388	0.093989
647.935244	0.094091
648.141082	0.093935
648.346901	0.094070
648.552702	0.094371
648.758485	0.094586
648.964250	0.094637
649.169996	0.094586
649.375724	0.094639
649.581434	0.094840
649.787126	0.094708
649.992800	0.094855
650.198455	0.094933
650.404092	0.094911
650.609711	0.094807
650.815311	0.095131
651.020894	0.095235
651.226458	0.095357
651.432004	0.095213
651.637532	0.095386
651.843041	0.095454
652.048532	0.095585
652.254006	0.095695
652.459460	0.095801
652.664897	0.095841
652.870315	0.095874
653.075716	0.096205
653.281097	0.096425
653.486461	0.096408
653.691807	0.096416
653.897134	0.096346
654.102443	0.096301
654.307734	0.096449
654.513006	0.096376
654.718261	0.096618
654.923497	0.096533
655.128715	0.096675
655.333915	0.096725
655.539096	0.096808
655.744259	0.096839
655.949404	0.096875
656.154531	0.096910
656.359640	0.096811
656.564730	0.096603
656.769802	0.096576
656.974856	0.096284
657.179892	0.096428
657.384909	0.096511
657.589908	0.096300
657.794889	0.096349
657.999852	0.096310
658.204797	0.096562
658.409723	0.096652
658.614631	0.096495
658.819521	0.096668
659.024393	0.096447
659.229246	0.096338
659.434081	0.096369
659.638898	0.096439
659.843697	0.096211
660.048478	0.096037
660.253240	0.096048
660.457984	0.096092
660.662710	0.096071
660.867417	0.096233
661.072107	0.096278
661.276778	0.096378
661.481431	0.096283
661.686066	0.096501
661.890682	0.096456
662.095281	0.096463
662.299861	0.096508
662.504422	0.096555
662.708966	0.096606
662.913491	0.096788
663.117999	0.096817
663.322488	0.096879
663.526958	0.097055
663.731411	0.097249
663.935845	0.097390
664.140261	0.097463
664.344659	0.097778
664.549038	0.097841
664.753400	0.097868
664.957743	0.098145
665.162068	0.098419
665.366375	0.098442
665.570663	0.098579
665.774933	0.098628
665.979185	0.098895
666.183419	0.098940
666.387635	0.098954
666.591832	0.099061
666.796011	0.099230
667.000172	0.099226
667.204315	0.099364
667.408439	0.099423
667.612545	0.099626
667.816634	0.099515
668.020703	0.099707
668.224755	0.099899
668.428788	0.099877
668.632803	0.099853
668.836800	0.099871
669.040779	0.099757
669.244739	0.099751
669.448681	0.099712
669.652605	0.099654
669.856511	0.099574
670.060399	0.099784
670.264268	0.099887
670.468119	0.099888
670.671952	0.100196
670.875767	0.100374
671.079563	0.100561
671.283341	0.100591
671.487101	0.100820
671.690843	0.100904
671.894567	0.100804
672.098272	0.100883
672.301959	0.101020
672.505628	0.100846
672.709278	0.100947
672.912911	0.100962
673.116525	0.101070
673.320121	0.101126
673.523699	0.100952
673.727258	0.100942
673.930799	0.101159
674.134322	0.101367
674.337827	0.101561
674.541314	0.101731
674.744782	0.101876
674.948232	0.101834
675.151664	0.102106
675.355078	0.102514
675.558474	0.102761
675.761851	0.102679
675.965210	0.102507
676.168551	0.102452
676.371873	0.102478
676.575178	0.102638
676.778464	0.102775
676.981732	0.102763
677.184981	0.102527
677.388213	0.102480
677.591426	0.102673
677.794621	0.102835
677.997798	0.102994
678.200956	0.103088
678.404097	0.102777
678.607219	0.103104
678.810323	0.102883
679.013408	0.103163
679.216476	0.103212
679.419525	0.103247
679.622556	0.103333
679.825569	0.103443
680.028563	0.103425
680.231540	0.103720
680.434498	0.103560
680.637438	0.103899
680.840359	0.104029
681.043263	0.104132
681.246148	0.104357
681.449015	0.104325
681.651864	0.104370
681.854694	0.104557
682.057506	0.104697
682.260301	0.104973
682.463076	0.104986
682.665834	0.104890
682.868573	0.105086
683.071295	0.104949
683.273998	0.105138
683.476682	0.105165
683.679349	0.105331
683.881997	0.105366
684.084627	0.105343
684.287239	0.105603
684.489833	0.105762
684.692408	0.105972
684.894965	0.106014
685.097504	0.106003
685.300025	0.106254
685.502527	0.106136
685.705012	0.106100
685.907478	0.106092
686.109925	0.105976
686.312355	0.106135
686.514766	0.105966
686.717159	0.106199
686.919534	0.106339
687.121891	0.106178
687.324230	0.105987
687.526550	0.105892
687.728852	0.105943
687.931136	0.105747
688.133401	0.105556
688.335649	0.105497
688.537878	0.105325
688.740089	0.105323
688.942281	0.105502
689.144456	0.105612
689.346612	0.105758
689.548750	0.105754
689.750870	0.106023
689.952971	0.106090
690.155055	0.106276
690.357120	0.106437
690.559167	0.106480
690.761195	0.106332
690.963206	0.106591
691.165198	0.106715
691.367172	0.106742
691.569128	0.106755
691.771065	0.107027
691.972984	0.106916
692.174885	0.106936
692.376768	0.106982
692.578633	0.106893
692.780479	0.106820
692.982308	0.106814
693.184118	0.106980
693.385909	0.107047
