sample name	sample
index	1016
start time	 04-19-2021  11:49:02 AM


Wavelength (nm)	Absorbance
494.344910	0.004891
494.563924	0.004891
494.782919	0.004891
495.001897	0.107148
495.220856	0.004419
495.439797	0.015209
495.658719	0.004949
495.877624	0.001445
496.096510	-0.016353
496.315378	-0.008165
496.534227	-0.014306
496.753059	-0.010183
496.971872	-0.007166
497.190667	0.108447
497.409444	0.152884
497.628203	0.169859
497.846943	0.175255
498.065665	0.178313
498.284369	0.182003
498.503055	0.185101
498.721723	0.186555
498.940372	0.188270
499.159003	0.188612
499.377616	0.188146
499.596210	0.188133
499.814787	0.187838
500.033345	0.189023
500.251885	0.189595
500.470406	0.190362
500.688910	0.189905
500.907395	0.190560
501.125862	0.190905
501.344311	0.190719
501.562742	0.189866
501.781154	0.191709
501.999548	0.192257
502.217924	0.191633
502.436282	0.190751
502.654621	0.190292
502.872942	0.189949
503.091245	0.189268
503.309530	0.189984
503.527797	0.191606
503.746045	0.191212
503.964275	0.192438
504.182487	0.192223
504.400681	0.192631
504.618856	0.192972
504.837013	0.192777
505.055152	0.193528
505.273273	0.194116
505.491376	0.194258
505.709460	0.194987
505.927526	0.194375
506.145574	0.194390
506.363604	0.193999
506.581615	0.194500
506.799608	0.195811
507.017583	0.195909
507.235540	0.195125
507.453478	0.194016
507.671399	0.193658
507.889301	0.193242
508.107185	0.193647
508.325050	0.194464
508.542898	0.195820
508.760727	0.196103
508.978538	0.196856
509.196330	0.197033
509.414105	0.197933
509.631861	0.197808
509.849599	0.197888
510.067319	0.197606
510.285021	0.197906
510.502704	0.196556
510.720369	0.195919
510.938016	0.195917
511.155645	0.196031
511.373255	0.196851
511.590848	0.197445
511.808422	0.198242
512.025977	0.199173
512.243515	0.198465
512.461034	0.199861
512.678536	0.200024
512.896018	0.199766
513.113483	0.201064
513.330930	0.201459
513.548358	0.201435
513.765768	0.201464
513.983160	0.202306
514.200533	0.203405
514.417889	0.202430
514.635226	0.203353
514.852545	0.203338
515.069845	0.203492
515.287128	0.202839
515.504392	0.203019
515.721638	0.202353
515.938866	0.201428
516.156075	0.201599
516.373267	0.202116
516.590440	0.201666
516.807594	0.202236
517.024731	0.201694
517.241850	0.202022
517.458950	0.202543
517.676032	0.203851
517.893095	0.204519
518.110141	0.205198
518.327168	0.206031
518.544177	0.206041
518.761168	0.206872
518.978141	0.206381
519.195095	0.206389
519.412031	0.206378
519.628949	0.206660
519.845849	0.207005
520.062731	0.206648
520.279594	0.206759
520.496439	0.207214
520.713266	0.207579
520.930074	0.208521
521.146865	0.209654
521.363637	0.210491
521.580391	0.210819
521.797127	0.211498
522.013844	0.212739
522.230543	0.212929
522.447224	0.213271
522.663887	0.213391
522.880532	0.213442
523.097158	0.212485
523.313766	0.212583
523.530356	0.212682
523.746928	0.212065
523.963481	0.211428
524.180017	0.212639
524.396534	0.212871
524.613032	0.213718
524.829513	0.214822
525.045975	0.215785
525.262420	0.216131
525.478845	0.216021
525.695253	0.216852
525.911643	0.217534
526.128014	0.216762
526.344367	0.217416
526.560702	0.217578
526.777018	0.217956
526.993316	0.218252
527.209597	0.218163
527.425858	0.219373
527.642102	0.219859
527.858328	0.219419
528.074535	0.220546
528.290724	0.220566
528.506894	0.220988
528.723047	0.221246
528.939181	0.221732
529.155297	0.222526
529.371395	0.221835
529.587475	0.222708
529.803536	0.223920
530.019579	0.223407
530.235604	0.223879
530.451611	0.224081
530.667600	0.223966
530.883570	0.224719
531.099522	0.224894
531.315456	0.225540
531.531372	0.225375
531.747269	0.225683
531.963148	0.226126
532.179009	0.226505
532.394852	0.226539
532.610676	0.226568
532.826482	0.227209
533.042271	0.227697
533.258040	0.228075
533.473792	0.228252
533.689525	0.228878
533.905240	0.229966
534.120937	0.230516
534.336616	0.230705
534.552277	0.231389
534.767919	0.231520
534.983543	0.232713
535.199149	0.232708
535.414736	0.233949
535.630306	0.234042
535.845857	0.233959
536.061390	0.234024
536.276904	0.234459
536.492401	0.234633
536.707879	0.235079
536.923339	0.234798
537.138781	0.235790
537.354204	0.235353
537.569610	0.235321
537.784997	0.235869
538.000366	0.236007
538.215716	0.236539
538.431049	0.237501
538.646363	0.236933
538.861659	0.236994
539.076937	0.237467
539.292196	0.238120
539.507438	0.238852
539.722661	0.239097
539.937866	0.239919
540.153052	0.239959
540.368221	0.240570
540.583371	0.241395
540.798503	0.241434
541.013617	0.241539
541.228712	0.242004
541.443789	0.242072
541.658848	0.242452
541.873889	0.242898
542.088912	0.243781
542.303916	0.243922
542.518902	0.244200
542.733870	0.245491
542.948820	0.245409
543.163752	0.245081
543.378665	0.245874
543.593560	0.245945
543.808437	0.246233
544.023295	0.246208
544.238136	0.246054
544.452958	0.246285
544.667762	0.246290
544.882548	0.247440
545.097315	0.247887
545.312064	0.248007
545.526795	0.248957
545.741508	0.249361
545.956203	0.249615
546.170879	0.249729
546.385537	0.249676
546.600177	0.249492
546.814799	0.249399
547.029402	0.249842
547.243988	0.249698
547.458555	0.249931
547.673103	0.250379
547.887634	0.250426
548.102146	0.251036
548.316640	0.251834
548.531116	0.252069
548.745574	0.252154
548.960013	0.252571
549.174435	0.252875
549.388838	0.252896
549.603222	0.252785
549.817589	0.253109
550.031937	0.253388
550.246267	0.253738
550.460579	0.254340
550.674873	0.254752
550.889148	0.254238
551.103405	0.255041
551.317644	0.255209
551.531865	0.255467
551.746068	0.256031
551.960252	0.256156
552.174418	0.256190
552.388566	0.256583
552.602696	0.257044
552.816807	0.257704
553.030900	0.257622
553.244975	0.257393
553.459032	0.257838
553.673070	0.258377
553.887091	0.259262
554.101093	0.259665
554.315077	0.259875
554.529042	0.260045
554.742990	0.260396
554.956919	0.260912
555.170830	0.261578
555.384722	0.261854
555.598597	0.261824
555.812453	0.261298
556.026291	0.261225
556.240111	0.261378
556.453913	0.261830
556.667696	0.262212
556.881461	0.262462
557.095208	0.262583
557.308937	0.262032
557.522647	0.262917
557.736339	0.263624
557.950013	0.264165
558.163669	0.264414
558.377307	0.264315
558.590926	0.264476
558.804527	0.264518
559.018110	0.264564
559.231675	0.265421
559.445221	0.264456
559.658749	0.264120
559.872259	0.264239
560.085751	0.264499
560.299225	0.264866
560.512680	0.264968
560.726117	0.265432
560.939536	0.265850
561.152937	0.265739
561.366319	0.266400
561.579683	0.266921
561.793029	0.267122
562.006357	0.267213
562.219667	0.267350
562.432958	0.267967
562.646231	0.268027
562.859486	0.268368
563.072723	0.268982
563.285941	0.268819
563.499141	0.269154
563.712323	0.269265
563.925487	0.269399
564.138632	0.269815
564.351760	0.270012
564.564869	0.269911
564.777960	0.270291
564.991032	0.270240
565.204087	0.270678
565.417123	0.271065
565.630141	0.271336
565.843140	0.271353
566.056122	0.271384
566.269085	0.271270
566.482030	0.271326
566.694957	0.271172
566.907866	0.271352
567.120756	0.272094
567.333628	0.271607
567.546482	0.271957
567.759318	0.272189
567.972135	0.272286
568.184935	0.272216
568.397716	0.272808
568.610478	0.273201
568.823223	0.273232
569.035949	0.272875
569.248657	0.273276
569.461347	0.273020
569.674019	0.273375
569.886672	0.273834
570.099308	0.274361
570.311925	0.274810
570.524523	0.274616
570.737104	0.275182
570.949666	0.275485
571.162210	0.275940
571.374736	0.276644
571.587244	0.276909
571.799733	0.276337
572.012205	0.276600
572.224658	0.276346
572.437092	0.277096
572.649509	0.277208
572.861907	0.277120
573.074287	0.277011
573.286649	0.276869
573.498993	0.277249
573.711318	0.277751
573.923625	0.278018
574.135914	0.278095
574.348185	0.278064
574.560438	0.278049
574.772672	0.278260
574.984888	0.278585
575.197086	0.278938
575.409266	0.278793
575.621427	0.279243
575.833570	0.279581
576.045695	0.280172
576.257802	0.280468
576.469890	0.280756
576.681961	0.281349
576.894013	0.281841
577.106046	0.282035
577.318062	0.282351
577.530059	0.282633
577.742039	0.282297
577.954000	0.282107
578.165942	0.282032
578.377867	0.281901
578.589773	0.282006
578.801661	0.282340
579.013531	0.282745
579.225382	0.283458
579.437216	0.283307
579.649031	0.283583
579.860828	0.284375
580.072606	0.284651
580.284367	0.284899
580.496109	0.285237
580.707833	0.284621
580.919539	0.284550
581.131227	0.284004
581.342896	0.284828
581.554547	0.285346
581.766180	0.285007
581.977795	0.285541
582.189391	0.285559
582.400969	0.285282
582.612529	0.285983
582.824071	0.286119
583.035595	0.286078
583.247100	0.285061
583.458587	0.284669
583.670056	0.284670
583.881506	0.284121
584.092939	0.284698
584.304353	0.285296
584.515749	0.285168
584.727127	0.285203
584.938486	0.285879
585.149828	0.286603
585.361151	0.287020
585.572456	0.287449
585.783742	0.288171
585.995011	0.288627
586.206261	0.288858
586.417493	0.289080
586.628706	0.289505
586.839902	0.289496
587.051079	0.289977
587.262238	0.290368
587.473379	0.290723
587.684502	0.290786
587.895606	0.290921
588.106692	0.291250
588.317760	0.291611
588.528810	0.291384
588.739841	0.291818
588.950855	0.291691
589.161850	0.291579
589.372827	0.291436
589.583785	0.291440
589.794726	0.291657
590.005648	0.291595
590.216552	0.291711
590.427437	0.292206
590.638305	0.292094
590.849154	0.292575
591.059985	0.292879
591.270798	0.293274
591.481592	0.293779
591.692369	0.293405
591.903127	0.293500
592.113867	0.294053
592.324588	0.294042
592.535292	0.294516
592.745977	0.294737
592.956644	0.295157
593.167293	0.295275
593.377923	0.295086
593.588536	0.295656
593.799130	0.295606
594.009706	0.295348
594.220263	0.295647
594.430803	0.295576
594.641324	0.295250
594.851827	0.295202
595.062312	0.295165
595.272778	0.295345
595.483227	0.295293
595.693657	0.295460
595.904069	0.295713
596.114462	0.295940
596.324838	0.296004
596.535195	0.296687
596.745534	0.296844
596.955855	0.297523
597.166157	0.297819
597.376441	0.298074
597.586707	0.298520
597.796955	0.298458
598.007185	0.298784
598.217396	0.298827
598.427589	0.298704
598.637764	0.298960
598.847921	0.298965
599.058060	0.299173
599.268180	0.299465
599.478282	0.299671
599.688366	0.300056
599.898431	0.299992
600.108479	0.300316
600.318508	0.300598
600.528519	0.300557
600.738511	0.300313
600.948486	0.300615
601.158442	0.300280
601.368380	0.300269
601.578300	0.300378
601.788202	0.300795
601.998085	0.301186
602.207950	0.301130
602.417797	0.301480
602.627626	0.302183
602.837436	0.302035
603.047228	0.302552
603.257002	0.302575
603.466758	0.302683
603.676496	0.302788
603.886215	0.302826
604.095916	0.303548
604.305599	0.303550
604.515264	0.303585
604.724910	0.303751
604.934538	0.304064
605.144148	0.304466
605.353740	0.304930
605.563314	0.305186
605.772869	0.305327
605.982406	0.305309
606.191925	0.305489
606.401425	0.305239
606.610908	0.305291
606.820372	0.305101
607.029818	0.304974
607.239246	0.304962
607.448655	0.304837
607.658047	0.305375
607.867420	0.305106
608.076775	0.305341
608.286111	0.305981
608.495430	0.306471
608.704730	0.306962
608.914012	0.307384
609.123275	0.307632
609.332521	0.307937
609.541748	0.307802
609.750957	0.308361
609.960148	0.308636
610.169321	0.308918
610.378475	0.309132
610.587611	0.309585
610.796729	0.309693
611.005829	0.309831
611.214910	0.309714
611.423974	0.309622
611.633019	0.309285
611.842045	0.309415
612.051054	0.309113
612.260044	0.309126
612.469017	0.308829
612.677970	0.309092
612.886906	0.309127
613.095824	0.309376
613.304723	0.309649
613.513604	0.309897
613.722467	0.309869
613.931311	0.310138
614.140138	0.310374
614.348946	0.310691
614.557736	0.310721
614.766507	0.310857
614.975261	0.311041
615.183996	0.311416
615.392713	0.311825
615.601412	0.311984
615.810092	0.311965
616.018754	0.312052
616.227399	0.312454
616.436024	0.312877
616.644632	0.313135
616.853222	0.313475
617.061793	0.313587
617.270346	0.313771
617.478880	0.313989
617.687397	0.314445
617.895895	0.314773
618.104375	0.314446
618.312837	0.314386
618.521281	0.314157
618.729706	0.314633
618.938113	0.314719
619.146502	0.314597
619.354873	0.314939
619.563226	0.315036
619.771560	0.314974
619.979876	0.315543
620.188174	0.315563
620.396453	0.315940
620.604715	0.315400
620.812958	0.315470
621.021183	0.315815
621.229390	0.315784
621.437578	0.316060
621.645748	0.316357
621.853900	0.316431
622.062034	0.316649
622.270150	0.316958
622.478247	0.317335
622.686326	0.317649
622.894387	0.317924
623.102430	0.318228
623.310454	0.318309
623.518461	0.318373
623.726449	0.318616
623.934418	0.318994
624.142370	0.319061
624.350303	0.319383
624.558218	0.319594
624.766115	0.319494
624.973994	0.319630
625.181855	0.319952
625.389697	0.320390
625.597521	0.320326
625.805327	0.320340
626.013114	0.320398
626.220883	0.320520
626.428634	0.320327
626.636367	0.320545
626.844082	0.320472
627.051778	0.320574
627.259457	0.320419
627.467117	0.320677
627.674758	0.320902
627.882382	0.321218
628.089987	0.321291
628.297574	0.321602
628.505143	0.321623
628.712694	0.321854
628.920226	0.321653
629.127740	0.321351
629.335236	0.321339
629.542714	0.321250
629.750174	0.321437
629.957615	0.321583
630.165038	0.321986
630.372443	0.322241
630.579829	0.322495
630.787198	0.322682
630.994548	0.323617
631.201880	0.324024
631.409194	0.324299
631.616489	0.324491
631.823766	0.324684
632.031025	0.324731
632.238266	0.325103
632.445489	0.325617
632.652693	0.326039
632.859879	0.326012
633.067047	0.326067
633.274197	0.326425
633.481329	0.326654
633.688442	0.326904
633.895537	0.327262
634.102614	0.327446
634.309672	0.327225
634.516713	0.327267
634.723735	0.327497
634.930739	0.327637
635.137724	0.327654
635.344692	0.327536
635.551641	0.327707
635.758572	0.327648
635.965485	0.328074
636.172379	0.328073
636.379256	0.328387
636.586114	0.328419
636.792954	0.328849
636.999775	0.328902
637.206579	0.329224
637.413364	0.329512
637.620131	0.329858
637.826880	0.329757
638.033610	0.330234
638.240323	0.330205
638.447017	0.330316
638.653692	0.329939
638.860350	0.330531
639.066990	0.330963
639.273611	0.330733
639.480214	0.330546
639.686798	0.330758
639.893365	0.330773
640.099913	0.331160
640.306443	0.331285
640.512955	0.331581
640.719449	0.331523
640.925924	0.331448
641.132381	0.331900
641.338820	0.332245
641.545241	0.332282
641.751644	0.332593
641.958028	0.332908
642.164394	0.333106
642.370742	0.333466
642.577071	0.333591
642.783383	0.333761
642.989676	0.334153
643.195951	0.334437
643.402207	0.334813
643.608446	0.335235
643.814666	0.335178
644.020868	0.335587
644.227052	0.335839
644.433218	0.335818
644.639365	0.335975
644.845494	0.335969
645.051605	0.335968
645.257698	0.336153
645.463772	0.335797
645.669828	0.335913
645.875866	0.336019
646.081886	0.336395
646.287888	0.336915
646.493871	0.336975
646.699836	0.336970
646.905783	0.337286
647.111712	0.337184
647.317622	0.337775
647.523514	0.337874
647.729388	0.338177
647.935244	0.338192
648.141082	0.338283
648.346901	0.338582
648.552702	0.338820
648.758485	0.338904
648.964250	0.339374
649.169996	0.339461
649.375724	0.339832
649.581434	0.339813
649.787126	0.339952
649.992800	0.339957
650.198455	0.340162
650.404092	0.340422
650.609711	0.340714
650.815311	0.340728
651.020894	0.340701
651.226458	0.340773
651.432004	0.341103
651.637532	0.341138
651.843041	0.341441
652.048532	0.341631
652.254006	0.341822
652.459460	0.342066
652.664897	0.342435
652.870315	0.342678
653.075716	0.342873
653.281097	0.343104
653.486461	0.343396
653.691807	0.343705
653.897134	0.344116
654.102443	0.344475
654.307734	0.344406
654.513006	0.344668
654.718261	0.344895
654.923497	0.345338
655.128715	0.345413
655.333915	0.345666
655.539096	0.345974
655.744259	0.346119
655.949404	0.346374
656.154531	0.346970
656.359640	0.346926
656.564730	0.347099
656.769802	0.347350
656.974856	0.347690
657.179892	0.347806
657.384909	0.347849
657.589908	0.347940
657.794889	0.348066
657.999852	0.348172
658.204797	0.348510
658.409723	0.348897
658.614631	0.348882
658.819521	0.349115
659.024393	0.349333
659.229246	0.349713
659.434081	0.349941
659.638898	0.350030
659.843697	0.350236
660.048478	0.350430
660.253240	0.350663
660.457984	0.350865
660.662710	0.350742
660.867417	0.351099
661.072107	0.351260
661.276778	0.351903
661.481431	0.352290
661.686066	0.352528
661.890682	0.352554
662.095281	0.352635
662.299861	0.352890
662.504422	0.353442
662.708966	0.353649
662.913491	0.353822
663.117999	0.353661
663.322488	0.353589
663.526958	0.353618
663.731411	0.354154
663.935845	0.354339
664.140261	0.354739
664.344659	0.355132
664.549038	0.355501
664.753400	0.355589
664.957743	0.355770
665.162068	0.356315
665.366375	0.356699
665.570663	0.356859
665.774933	0.357149
665.979185	0.357352
666.183419	0.357528
666.387635	0.357730
666.591832	0.358399
666.796011	0.358535
667.000172	0.358428
667.204315	0.358755
667.408439	0.359027
667.612545	0.359455
667.816634	0.359874
668.020703	0.359815
668.224755	0.359773
668.428788	0.359471
668.632803	0.359905
668.836800	0.360295
669.040779	0.360468
669.244739	0.360583
669.448681	0.360726
669.652605	0.360597
669.856511	0.361024
670.060399	0.361483
670.264268	0.361745
670.468119	0.361683
670.671952	0.362110
670.875767	0.362559
671.079563	0.362876
671.283341	0.363052
671.487101	0.363349
671.690843	0.363576
671.894567	0.363582
672.098272	0.364002
672.301959	0.364449
672.505628	0.364593
672.709278	0.364488
672.912911	0.364613
673.116525	0.364988
673.320121	0.365087
673.523699	0.365304
673.727258	0.365545
673.930799	0.365770
674.134322	0.366237
674.337827	0.366306
674.541314	0.366690
674.744782	0.366939
674.948232	0.367126
675.151664	0.367510
675.355078	0.367495
675.558474	0.367742
675.761851	0.367895
675.965210	0.367892
676.168551	0.368191
676.371873	0.368128
676.575178	0.368515
676.778464	0.368611
676.981732	0.368736
677.184981	0.369085
677.388213	0.369534
677.591426	0.369830
677.794621	0.369955
677.997798	0.370356
678.200956	0.370732
678.404097	0.370931
678.607219	0.371323
678.810323	0.371523
679.013408	0.371873
679.216476	0.372076
679.419525	0.372420
679.622556	0.372855
679.825569	0.373030
680.028563	0.373193
680.231540	0.373549
680.434498	0.373716
680.637438	0.374330
680.840359	0.374323
681.043263	0.374508
681.246148	0.374454
681.449015	0.374489
681.651864	0.374491
681.854694	0.374978
682.057506	0.374890
682.260301	0.375069
682.463076	0.374866
682.665834	0.375163
682.868573	0.375449
683.071295	0.375602
683.273998	0.375680
683.476682	0.376042
683.679349	0.376046
683.881997	0.376287
684.084627	0.376296
684.287239	0.376650
684.489833	0.376799
684.692408	0.376968
684.894965	0.377503
685.097504	0.378049
685.300025	0.378277
685.502527	0.378413
685.705012	0.378431
685.907478	0.378982
686.109925	0.379347
686.312355	0.379621
686.514766	0.379817
686.717159	0.380058
686.919534	0.380096
687.121891	0.380270
687.324230	0.380337
687.526550	0.380710
687.728852	0.380900
687.931136	0.380957
688.133401	0.381336
688.335649	0.381319
688.537878	0.381320
688.740089	0.381487
688.942281	0.381540
689.144456	0.382131
689.346612	0.382337
689.548750	0.382261
689.750870	0.382336
689.952971	0.382042
690.155055	0.382419
690.357120	0.382727
690.559167	0.382874
690.761195	0.383096
690.963206	0.382876
691.165198	0.383007
691.367172	0.382996
691.569128	0.382922
691.771065	0.383442
691.972984	0.383511
692.174885	0.383568
692.376768	0.383996
692.578633	0.384231
692.780479	0.384778
692.982308	0.385069
693.184118	0.385581
693.385909	0.385986
