sample name	sample
index	577
start time	 03-16-2021  03:29:04 PM


Wavelength (nm)	Absorbance
494.344910	0.176318
494.563924	0.176318
494.782919	0.176318
495.001897	-0.005857
495.220856	-0.081810
495.439797	-0.082177
495.658719	-0.109090
495.877624	-0.112434
496.096510	-0.124768
496.315378	-0.053700
496.534227	-0.067265
496.753059	-0.012943
496.971872	-0.019266
497.190667	0.043782
497.409444	0.049243
497.628203	0.054458
497.846943	0.056464
498.065665	0.058292
498.284369	0.057631
498.503055	0.059000
498.721723	0.059855
498.940372	0.060945
499.159003	0.060470
499.377616	0.060941
499.596210	0.060722
499.814787	0.059472
500.033345	0.059214
500.251885	0.059059
500.470406	0.057572
500.688910	0.055501
500.907395	0.054722
501.125862	0.055472
501.344311	0.056077
501.562742	0.055875
501.781154	0.056816
501.999548	0.057438
502.217924	0.057543
502.436282	0.059230
502.654621	0.061108
502.872942	0.061213
503.091245	0.061029
503.309530	0.059659
503.527797	0.060419
503.746045	0.060660
503.964275	0.059690
504.182487	0.059807
504.400681	0.059849
504.618856	0.058986
504.837013	0.058830
505.055152	0.058974
505.273273	0.060357
505.491376	0.059992
505.709460	0.060499
505.927526	0.060163
506.145574	0.060515
506.363604	0.059703
506.581615	0.060469
506.799608	0.060886
507.017583	0.061442
507.235540	0.062370
507.453478	0.063245
507.671399	0.062217
507.889301	0.062180
508.107185	0.061534
508.325050	0.063156
508.542898	0.062807
508.760727	0.061800
508.978538	0.061568
509.196330	0.061438
509.414105	0.060636
509.631861	0.060768
509.849599	0.060988
510.067319	0.061871
510.285021	0.061981
510.502704	0.061707
510.720369	0.062119
510.938016	0.061749
511.155645	0.061071
511.373255	0.061007
511.590848	0.060741
511.808422	0.060644
512.025977	0.060128
512.243515	0.059612
512.461034	0.059865
512.678536	0.060911
512.896018	0.060812
513.113483	0.060817
513.330930	0.060259
513.548358	0.060898
513.765768	0.060833
513.983160	0.061436
514.200533	0.061944
514.417889	0.062342
514.635226	0.062006
514.852545	0.062582
515.069845	0.062381
515.287128	0.063457
515.504392	0.064091
515.721638	0.065644
515.938866	0.065541
516.156075	0.065401
516.373267	0.065593
516.590440	0.066361
516.807594	0.066624
517.024731	0.067166
517.241850	0.067748
517.458950	0.068110
517.676032	0.067912
517.893095	0.067432
518.110141	0.067825
518.327168	0.066907
518.544177	0.066321
518.761168	0.066256
518.978141	0.066089
519.195095	0.066043
519.412031	0.066132
519.628949	0.066461
519.845849	0.067676
520.062731	0.066973
520.279594	0.068464
520.496439	0.067881
520.713266	0.068091
520.930074	0.067970
521.146865	0.067908
521.363637	0.067269
521.580391	0.066754
521.797127	0.066624
522.013844	0.066745
522.230543	0.066243
522.447224	0.066900
522.663887	0.067229
522.880532	0.067239
523.097158	0.067574
523.313766	0.068346
523.530356	0.068960
523.746928	0.069463
523.963481	0.070396
524.180017	0.070118
524.396534	0.070180
524.613032	0.070418
524.829513	0.070684
525.045975	0.069711
525.262420	0.069450
525.478845	0.069317
525.695253	0.069094
525.911643	0.068792
526.128014	0.069092
526.344367	0.069557
526.560702	0.069271
526.777018	0.069241
526.993316	0.069750
527.209597	0.070025
527.425858	0.070276
527.642102	0.070316
527.858328	0.070310
528.074535	0.070427
528.290724	0.070597
528.506894	0.070435
528.723047	0.070727
528.939181	0.071837
529.155297	0.071844
529.371395	0.071745
529.587475	0.071691
529.803536	0.072434
530.019579	0.072356
530.235604	0.072642
530.451611	0.073471
530.667600	0.073929
530.883570	0.072677
531.099522	0.072438
531.315456	0.072629
531.531372	0.072788
531.747269	0.072362
531.963148	0.073159
532.179009	0.073642
532.394852	0.073311
532.610676	0.073203
532.826482	0.073971
533.042271	0.074668
533.258040	0.074448
533.473792	0.074670
533.689525	0.074708
533.905240	0.075245
534.120937	0.074163
534.336616	0.074912
534.552277	0.075988
534.767919	0.075885
534.983543	0.075794
535.199149	0.076228
535.414736	0.077090
535.630306	0.076808
535.845857	0.076229
536.061390	0.076995
536.276904	0.077385
536.492401	0.076641
536.707879	0.077321
536.923339	0.077564
537.138781	0.077806
537.354204	0.077492
537.569610	0.078351
537.784997	0.078560
538.000366	0.079198
538.215716	0.078811
538.431049	0.079451
538.646363	0.079654
538.861659	0.079186
539.076937	0.079240
539.292196	0.078937
539.507438	0.078845
539.722661	0.078554
539.937866	0.078641
540.153052	0.078946
540.368221	0.078800
540.583371	0.078935
540.798503	0.079996
541.013617	0.080482
541.228712	0.081345
541.443789	0.081309
541.658848	0.081728
541.873889	0.081959
542.088912	0.081755
542.303916	0.082048
542.518902	0.082043
542.733870	0.081891
542.948820	0.081782
543.163752	0.081345
543.378665	0.081635
543.593560	0.081560
543.808437	0.081013
544.023295	0.080972
544.238136	0.081348
544.452958	0.081537
544.667762	0.081123
544.882548	0.081462
545.097315	0.081403
545.312064	0.081529
545.526795	0.082010
545.741508	0.082500
545.956203	0.083016
546.170879	0.082579
546.385537	0.082517
546.600177	0.083651
546.814799	0.084194
547.029402	0.084987
547.243988	0.084892
547.458555	0.085190
547.673103	0.085474
547.887634	0.085504
548.102146	0.085905
548.316640	0.086292
548.531116	0.085880
548.745574	0.085517
548.960013	0.085365
549.174435	0.086145
549.388838	0.086435
549.603222	0.086355
549.817589	0.086611
550.031937	0.086780
550.246267	0.086631
550.460579	0.087499
550.674873	0.087678
550.889148	0.087870
551.103405	0.087905
551.317644	0.088130
551.531865	0.088237
551.746068	0.088513
551.960252	0.088591
552.174418	0.088849
552.388566	0.088049
552.602696	0.088048
552.816807	0.087975
553.030900	0.087877
553.244975	0.087960
553.459032	0.088211
553.673070	0.087810
553.887091	0.087794
554.101093	0.088008
554.315077	0.088249
554.529042	0.088261
554.742990	0.088420
554.956919	0.088258
555.170830	0.087793
555.384722	0.087741
555.598597	0.088022
555.812453	0.088324
556.026291	0.088554
556.240111	0.088894
556.453913	0.088772
556.667696	0.088657
556.881461	0.089144
557.095208	0.089405
557.308937	0.089038
557.522647	0.089193
557.736339	0.088826
557.950013	0.088707
558.163669	0.088444
558.377307	0.089324
558.590926	0.089584
558.804527	0.089109
559.018110	0.088971
559.231675	0.089744
559.445221	0.089702
559.658749	0.089724
559.872259	0.089392
560.085751	0.090201
560.299225	0.089838
560.512680	0.089847
560.726117	0.090292
560.939536	0.090590
561.152937	0.090317
561.366319	0.090212
561.579683	0.090908
561.793029	0.091196
562.006357	0.090303
562.219667	0.090090
562.432958	0.090247
562.646231	0.090524
562.859486	0.090648
563.072723	0.091010
563.285941	0.091184
563.499141	0.091400
563.712323	0.091268
563.925487	0.091893
564.138632	0.092418
564.351760	0.092530
564.564869	0.092612
564.777960	0.092342
564.991032	0.092183
565.204087	0.091904
565.417123	0.091742
565.630141	0.092108
565.843140	0.091460
566.056122	0.091496
566.269085	0.091450
566.482030	0.091616
566.694957	0.092069
566.907866	0.092304
567.120756	0.093122
567.333628	0.093011
567.546482	0.093159
567.759318	0.093785
567.972135	0.093687
568.184935	0.094002
568.397716	0.093782
568.610478	0.093757
568.823223	0.093808
569.035949	0.093632
569.248657	0.093986
569.461347	0.094295
569.674019	0.094259
569.886672	0.094510
570.099308	0.094832
570.311925	0.094451
570.524523	0.094648
570.737104	0.094735
570.949666	0.095124
571.162210	0.095172
571.374736	0.094989
571.587244	0.095349
571.799733	0.095299
572.012205	0.095214
572.224658	0.095643
572.437092	0.095532
572.649509	0.095504
572.861907	0.095300
573.074287	0.095194
573.286649	0.095113
573.498993	0.094640
573.711318	0.094335
573.923625	0.094273
574.135914	0.094106
574.348185	0.094210
574.560438	0.094095
574.772672	0.093913
574.984888	0.093865
575.197086	0.094060
575.409266	0.094612
575.621427	0.094900
575.833570	0.094760
576.045695	0.095472
576.257802	0.095703
576.469890	0.096212
576.681961	0.096691
576.894013	0.096609
577.106046	0.096339
577.318062	0.096556
577.530059	0.096421
577.742039	0.096436
577.954000	0.095896
578.165942	0.095565
578.377867	0.095245
578.589773	0.094841
578.801661	0.094897
579.013531	0.095576
579.225382	0.094916
579.437216	0.094957
579.649031	0.095040
579.860828	0.095330
580.072606	0.095254
580.284367	0.095298
580.496109	0.095354
580.707833	0.095494
580.919539	0.094647
581.131227	0.094988
581.342896	0.094873
581.554547	0.094667
581.766180	0.094848
581.977795	0.095126
582.189391	0.095356
582.400969	0.096091
582.612529	0.096595
582.824071	0.096900
583.035595	0.096818
583.247100	0.097170
583.458587	0.097518
583.670056	0.097430
583.881506	0.097146
584.092939	0.097032
584.304353	0.096589
584.515749	0.096214
584.727127	0.097155
584.938486	0.097215
585.149828	0.097458
585.361151	0.097804
585.572456	0.097814
585.783742	0.098608
585.995011	0.098783
586.206261	0.098896
586.417493	0.098839
586.628706	0.098503
586.839902	0.099292
587.051079	0.098828
587.262238	0.099005
587.473379	0.099104
587.684502	0.099043
587.895606	0.099197
588.106692	0.099315
588.317760	0.099231
588.528810	0.099028
588.739841	0.098417
588.950855	0.099171
589.161850	0.098996
589.372827	0.099347
589.583785	0.099582
589.794726	0.099183
590.005648	0.099217
590.216552	0.099794
590.427437	0.099868
590.638305	0.099898
590.849154	0.099424
591.059985	0.099491
591.270798	0.099549
591.481592	0.099490
591.692369	0.099884
591.903127	0.099706
592.113867	0.099359
592.324588	0.099457
592.535292	0.099849
592.745977	0.100126
592.956644	0.100211
593.167293	0.099829
593.377923	0.099445
593.588536	0.099321
593.799130	0.099712
594.009706	0.099935
594.220263	0.099968
594.430803	0.099828
594.641324	0.099781
594.851827	0.099555
595.062312	0.099553
595.272778	0.099944
595.483227	0.100062
595.693657	0.100108
595.904069	0.100400
596.114462	0.100514
596.324838	0.100983
596.535195	0.101310
596.745534	0.101495
596.955855	0.101680
597.166157	0.101612
597.376441	0.102028
597.586707	0.101803
597.796955	0.101791
598.007185	0.101817
598.217396	0.101559
598.427589	0.101480
598.637764	0.101609
598.847921	0.101945
599.058060	0.102290
599.268180	0.102220
599.478282	0.102691
599.688366	0.102945
599.898431	0.103081
600.108479	0.103277
600.318508	0.103330
600.528519	0.103252
600.738511	0.103321
600.948486	0.103357
601.158442	0.103329
601.368380	0.103129
601.578300	0.103100
601.788202	0.103122
601.998085	0.103166
602.207950	0.103253
602.417797	0.103510
602.627626	0.103395
602.837436	0.103109
603.047228	0.103069
603.257002	0.103133
603.466758	0.103086
603.676496	0.103716
603.886215	0.103696
604.095916	0.103909
604.305599	0.103631
604.515264	0.103866
604.724910	0.104260
604.934538	0.104349
605.144148	0.104753
605.353740	0.104377
605.563314	0.103995
605.772869	0.104564
605.982406	0.104492
606.191925	0.104928
606.401425	0.104935
606.610908	0.104924
606.820372	0.104980
607.029818	0.104994
607.239246	0.105565
607.448655	0.105732
607.658047	0.105285
607.867420	0.105257
608.076775	0.105189
608.286111	0.105354
608.495430	0.105540
608.704730	0.105632
608.914012	0.105401
609.123275	0.105314
609.332521	0.105338
609.541748	0.105553
609.750957	0.105809
609.960148	0.105876
610.169321	0.105885
610.378475	0.105936
610.587611	0.105844
610.796729	0.105950
611.005829	0.106093
611.214910	0.106123
611.423974	0.106319
611.633019	0.106445
611.842045	0.106563
612.051054	0.106638
612.260044	0.106323
612.469017	0.106634
612.677970	0.106601
612.886906	0.106534
613.095824	0.106709
613.304723	0.106516
613.513604	0.106250
613.722467	0.106254
613.931311	0.106594
614.140138	0.106804
614.348946	0.107157
614.557736	0.107313
614.766507	0.107247
614.975261	0.107378
615.183996	0.107291
615.392713	0.107736
615.601412	0.107754
615.810092	0.107301
616.018754	0.107623
616.227399	0.107703
616.436024	0.107817
616.644632	0.108119
616.853222	0.107805
617.061793	0.108098
617.270346	0.107979
617.478880	0.108077
617.687397	0.108139
617.895895	0.108212
618.104375	0.108060
618.312837	0.108339
618.521281	0.108363
618.729706	0.108837
618.938113	0.109292
619.146502	0.109208
619.354873	0.109182
619.563226	0.109663
619.771560	0.109461
619.979876	0.109384
620.188174	0.109405
620.396453	0.109578
620.604715	0.109323
620.812958	0.109196
621.021183	0.109335
621.229390	0.109624
621.437578	0.109494
621.645748	0.109396
621.853900	0.109765
622.062034	0.109652
622.270150	0.109750
622.478247	0.110026
622.686326	0.109934
622.894387	0.110073
623.102430	0.110062
623.310454	0.110160
623.518461	0.110595
623.726449	0.110209
623.934418	0.110376
624.142370	0.110537
624.350303	0.110422
624.558218	0.110309
624.766115	0.110491
624.973994	0.110641
625.181855	0.110528
625.389697	0.110470
625.597521	0.110683
625.805327	0.110643
626.013114	0.110566
626.220883	0.110588
626.428634	0.110872
626.636367	0.111058
626.844082	0.110994
627.051778	0.111397
627.259457	0.111271
627.467117	0.111357
627.674758	0.111520
627.882382	0.111309
628.089987	0.111146
628.297574	0.111020
628.505143	0.111016
628.712694	0.111012
628.920226	0.110785
629.127740	0.110951
629.335236	0.110919
629.542714	0.111063
629.750174	0.111326
629.957615	0.111636
630.165038	0.111801
630.372443	0.111762
630.579829	0.111927
630.787198	0.111992
630.994548	0.111991
631.201880	0.112004
631.409194	0.111961
631.616489	0.112332
631.823766	0.112371
632.031025	0.112327
632.238266	0.112370
632.445489	0.112819
632.652693	0.112833
632.859879	0.113117
633.067047	0.113260
633.274197	0.113358
633.481329	0.113334
633.688442	0.113602
633.895537	0.113893
634.102614	0.114020
634.309672	0.113937
634.516713	0.114187
634.723735	0.114389
634.930739	0.114581
635.137724	0.114475
635.344692	0.114205
635.551641	0.114052
635.758572	0.114018
635.965485	0.113965
636.172379	0.113924
636.379256	0.114028
636.586114	0.113875
636.792954	0.114130
636.999775	0.114240
637.206579	0.114632
637.413364	0.114970
637.620131	0.115046
637.826880	0.115222
638.033610	0.115208
638.240323	0.115281
638.447017	0.115662
638.653692	0.115604
638.860350	0.115895
639.066990	0.116060
639.273611	0.115804
639.480214	0.115918
639.686798	0.116093
639.893365	0.116096
640.099913	0.116230
640.306443	0.116117
640.512955	0.116178
640.719449	0.116381
640.925924	0.116295
641.132381	0.116681
641.338820	0.116791
641.545241	0.116963
641.751644	0.117112
641.958028	0.117084
642.164394	0.116949
642.370742	0.117121
642.577071	0.117220
642.783383	0.117490
642.989676	0.117473
643.195951	0.117568
643.402207	0.117719
643.608446	0.117872
643.814666	0.118061
644.020868	0.118421
644.227052	0.118508
644.433218	0.118518
644.639365	0.118646
644.845494	0.118708
645.051605	0.118867
645.257698	0.118740
645.463772	0.118894
645.669828	0.119057
645.875866	0.119269
646.081886	0.119279
646.287888	0.119506
646.493871	0.119327
646.699836	0.119663
646.905783	0.119721
647.111712	0.119989
647.317622	0.120153
647.523514	0.120036
647.729388	0.119856
647.935244	0.119888
648.141082	0.119876
648.346901	0.119817
648.552702	0.119631
648.758485	0.119909
648.964250	0.119897
649.169996	0.119836
649.375724	0.119842
649.581434	0.119888
649.787126	0.119990
649.992800	0.119804
650.198455	0.120021
650.404092	0.120028
650.609711	0.119835
650.815311	0.119702
651.020894	0.119719
651.226458	0.119914
651.432004	0.120111
651.637532	0.120075
651.843041	0.120275
652.048532	0.120545
652.254006	0.120448
652.459460	0.120668
652.664897	0.120923
652.870315	0.120924
653.075716	0.120833
653.281097	0.120864
653.486461	0.121232
653.691807	0.121349
653.897134	0.121187
654.102443	0.121497
654.307734	0.121528
654.513006	0.121668
654.718261	0.121822
654.923497	0.122326
655.128715	0.122161
655.333915	0.121958
655.539096	0.122035
655.744259	0.122296
655.949404	0.122433
656.154531	0.122370
656.359640	0.122497
656.564730	0.122745
656.769802	0.122454
656.974856	0.122671
657.179892	0.122751
657.384909	0.122788
657.589908	0.122599
657.794889	0.122670
657.999852	0.122969
658.204797	0.122887
658.409723	0.122766
658.614631	0.123035
658.819521	0.123468
659.024393	0.123858
659.229246	0.124056
659.434081	0.124225
659.638898	0.124672
659.843697	0.124655
660.048478	0.124939
660.253240	0.125232
660.457984	0.125431
660.662710	0.125408
660.867417	0.125348
661.072107	0.125178
661.276778	0.125276
661.481431	0.125011
661.686066	0.124913
661.890682	0.124960
662.095281	0.125231
662.299861	0.125211
662.504422	0.125285
662.708966	0.125400
662.913491	0.125590
663.117999	0.125599
663.322488	0.125859
663.526958	0.126166
663.731411	0.126164
663.935845	0.126136
664.140261	0.126142
664.344659	0.126109
664.549038	0.126296
664.753400	0.126391
664.957743	0.126758
665.162068	0.126772
665.366375	0.126948
665.570663	0.127053
665.774933	0.127210
665.979185	0.127492
666.183419	0.127612
666.387635	0.127688
666.591832	0.127919
666.796011	0.127801
667.000172	0.127834
667.204315	0.127961
667.408439	0.128186
667.612545	0.128141
667.816634	0.127828
668.020703	0.127865
668.224755	0.128064
668.428788	0.128183
668.632803	0.128658
668.836800	0.128984
669.040779	0.128848
669.244739	0.128704
669.448681	0.128693
669.652605	0.129046
669.856511	0.129345
670.060399	0.129152
670.264268	0.129224
670.468119	0.129157
670.671952	0.129119
670.875767	0.129296
671.079563	0.129484
671.283341	0.129728
671.487101	0.130022
671.690843	0.130093
671.894567	0.130472
672.098272	0.130614
672.301959	0.130777
672.505628	0.130873
672.709278	0.131016
672.912911	0.131280
673.116525	0.131226
673.320121	0.131168
673.523699	0.131076
673.727258	0.130977
673.930799	0.131334
674.134322	0.131163
674.337827	0.131171
674.541314	0.131202
674.744782	0.131144
674.948232	0.131243
675.151664	0.131463
675.355078	0.131533
675.558474	0.131864
675.761851	0.131749
675.965210	0.132020
676.168551	0.132244
676.371873	0.132355
676.575178	0.132681
676.778464	0.133022
676.981732	0.133113
677.184981	0.133587
677.388213	0.133594
677.591426	0.133586
677.794621	0.133885
677.997798	0.134085
678.200956	0.134312
678.404097	0.134461
678.607219	0.134345
678.810323	0.134358
679.013408	0.134309
679.216476	0.134380
679.419525	0.134525
679.622556	0.134405
679.825569	0.134564
680.028563	0.134877
680.231540	0.134953
680.434498	0.135293
680.637438	0.135519
680.840359	0.135614
681.043263	0.135825
681.246148	0.136225
681.449015	0.136387
681.651864	0.136431
681.854694	0.136256
682.057506	0.136266
682.260301	0.136178
682.463076	0.136325
682.665834	0.136482
682.868573	0.136549
683.071295	0.136209
683.273998	0.136196
683.476682	0.136046
683.679349	0.136269
683.881997	0.136138
684.084627	0.136315
684.287239	0.136190
684.489833	0.136342
684.692408	0.136274
684.894965	0.136515
685.097504	0.136773
685.300025	0.136922
685.502527	0.136913
685.705012	0.137259
685.907478	0.137289
686.109925	0.137397
686.312355	0.137419
686.514766	0.137901
686.717159	0.137973
686.919534	0.137912
687.121891	0.138083
687.324230	0.138295
687.526550	0.138203
687.728852	0.138148
687.931136	0.138487
688.133401	0.138500
688.335649	0.138254
688.537878	0.138273
688.740089	0.138412
688.942281	0.138592
689.144456	0.138618
689.346612	0.138916
689.548750	0.139412
689.750870	0.139453
689.952971	0.139915
690.155055	0.139812
690.357120	0.140096
690.559167	0.140434
690.761195	0.140560
690.963206	0.140516
691.165198	0.140366
691.367172	0.140292
691.569128	0.140251
691.771065	0.140086
691.972984	0.140561
692.174885	0.140622
692.376768	0.140534
692.578633	0.140556
692.780479	0.140718
692.982308	0.141020
693.184118	0.141067
693.385909	0.141301
