sample name	sample
index	48
start time	 02-11-2021  02:14:30 PM


Wavelength (nm)	Absorbance
494.344910	-0.234926
494.563924	-0.234926
494.782919	-0.234926
495.001897	1.123198
495.220856	-0.107531
495.439797	-0.113383
495.658719	-0.046615
495.877624	-0.057535
496.096510	-0.168043
496.315378	-0.140563
496.534227	-0.105044
496.753059	-0.092950
496.971872	-0.124385
497.190667	0.023458
497.409444	0.074882
497.628203	0.086138
497.846943	0.099217
498.065665	0.104222
498.284369	0.101768
498.503055	0.103499
498.721723	0.106979
498.940372	0.108141
499.159003	0.111886
499.377616	0.111261
499.596210	0.111268
499.814787	0.110058
500.033345	0.111471
500.251885	0.114994
500.470406	0.113723
500.688910	0.111130
500.907395	0.110190
501.125862	0.107822
501.344311	0.108738
501.562742	0.107282
501.781154	0.109177
501.999548	0.109830
502.217924	0.108414
502.436282	0.108768
502.654621	0.110411
502.872942	0.111367
503.091245	0.110746
503.309530	0.110960
503.527797	0.109908
503.746045	0.106602
503.964275	0.105272
504.182487	0.106028
504.400681	0.105315
504.618856	0.104038
504.837013	0.104338
505.055152	0.106450
505.273273	0.105534
505.491376	0.106733
505.709460	0.107853
505.927526	0.106273
506.145574	0.105570
506.363604	0.105530
506.581615	0.106493
506.799608	0.106062
507.017583	0.104346
507.235540	0.105244
507.453478	0.104832
507.671399	0.103495
507.889301	0.104145
508.107185	0.105083
508.325050	0.106453
508.542898	0.106332
508.760727	0.105004
508.978538	0.106701
509.196330	0.107399
509.414105	0.107642
509.631861	0.108601
509.849599	0.109613
510.067319	0.109290
510.285021	0.109195
510.502704	0.109021
510.720369	0.108791
510.938016	0.108851
511.155645	0.106388
511.373255	0.106926
511.590848	0.107871
511.808422	0.107106
512.025977	0.106958
512.243515	0.105709
512.461034	0.105245
512.678536	0.105623
512.896018	0.104904
513.113483	0.105747
513.330930	0.105877
513.548358	0.103294
513.765768	0.103637
513.983160	0.103708
514.200533	0.105993
514.417889	0.106539
514.635226	0.106801
514.852545	0.105918
515.069845	0.106354
515.287128	0.106747
515.504392	0.108651
515.721638	0.109735
515.938866	0.109985
516.156075	0.109125
516.373267	0.108873
516.590440	0.109679
516.807594	0.110297
517.024731	0.109899
517.241850	0.110215
517.458950	0.109431
517.676032	0.109260
517.893095	0.110690
518.110141	0.111080
518.327168	0.111268
518.544177	0.111216
518.761168	0.111290
518.978141	0.110947
519.195095	0.109023
519.412031	0.110123
519.628949	0.109684
519.845849	0.109577
520.062731	0.110240
520.279594	0.108687
520.496439	0.110539
520.713266	0.111080
520.930074	0.111683
521.146865	0.113361
521.363637	0.113327
521.580391	0.113868
521.797127	0.112511
522.013844	0.111496
522.230543	0.113411
522.447224	0.110396
522.663887	0.110074
522.880532	0.110596
523.097158	0.110118
523.313766	0.110535
523.530356	0.110160
523.746928	0.110647
523.963481	0.110992
524.180017	0.110773
524.396534	0.112313
524.613032	0.113398
524.829513	0.113900
525.045975	0.113467
525.262420	0.114002
525.478845	0.115352
525.695253	0.115781
525.911643	0.116171
526.128014	0.116355
526.344367	0.115952
526.560702	0.115994
526.777018	0.116016
526.993316	0.117059
527.209597	0.116547
527.425858	0.115313
527.642102	0.115262
527.858328	0.114410
528.074535	0.113444
528.290724	0.114586
528.506894	0.114324
528.723047	0.114423
528.939181	0.114279
529.155297	0.113284
529.371395	0.113869
529.587475	0.113228
529.803536	0.113660
530.019579	0.114388
530.235604	0.113459
530.451611	0.112793
530.667600	0.112161
530.883570	0.112519
531.099522	0.113332
531.315456	0.113562
531.531372	0.113457
531.747269	0.112846
531.963148	0.112810
532.179009	0.112952
532.394852	0.113925
532.610676	0.114505
532.826482	0.114781
533.042271	0.115517
533.258040	0.114864
533.473792	0.115557
533.689525	0.116649
533.905240	0.117662
534.120937	0.118434
534.336616	0.118573
534.552277	0.117793
534.767919	0.117664
534.983543	0.116541
535.199149	0.118236
535.414736	0.118611
535.630306	0.117920
535.845857	0.117914
536.061390	0.117666
536.276904	0.118196
536.492401	0.118858
536.707879	0.119404
536.923339	0.120434
537.138781	0.119529
537.354204	0.119966
537.569610	0.120894
537.784997	0.121093
538.000366	0.121302
538.215716	0.121156
538.431049	0.121340
538.646363	0.120555
538.861659	0.120640
539.076937	0.120993
539.292196	0.120288
539.507438	0.120956
539.722661	0.121418
539.937866	0.121646
540.153052	0.122122
540.368221	0.123219
540.583371	0.124305
540.798503	0.124351
541.013617	0.124607
541.228712	0.124835
541.443789	0.125000
541.658848	0.124445
541.873889	0.124787
542.088912	0.124094
542.303916	0.123362
542.518902	0.122361
542.733870	0.122263
542.948820	0.121895
543.163752	0.122796
543.378665	0.122406
543.593560	0.122841
543.808437	0.122776
544.023295	0.122902
544.238136	0.123255
544.452958	0.123485
544.667762	0.123759
544.882548	0.123889
545.097315	0.124028
545.312064	0.124179
545.526795	0.123938
545.741508	0.123506
545.956203	0.123877
546.170879	0.123694
546.385537	0.124759
546.600177	0.124897
546.814799	0.124678
547.029402	0.124076
547.243988	0.124331
547.458555	0.124434
547.673103	0.125050
547.887634	0.125289
548.102146	0.125438
548.316640	0.124938
548.531116	0.125343
548.745574	0.126117
548.960013	0.126548
549.174435	0.126340
549.388838	0.126206
549.603222	0.126069
549.817589	0.125964
550.031937	0.126177
550.246267	0.126298
550.460579	0.125759
550.674873	0.125243
550.889148	0.125325
551.103405	0.124917
551.317644	0.124796
551.531865	0.124695
551.746068	0.124808
551.960252	0.124635
552.174418	0.124245
552.388566	0.124659
552.602696	0.125289
552.816807	0.124290
553.030900	0.124690
553.244975	0.125044
553.459032	0.125179
553.673070	0.124450
553.887091	0.124571
554.101093	0.124777
554.315077	0.125155
554.529042	0.124465
554.742990	0.125428
554.956919	0.125638
555.170830	0.125604
555.384722	0.125853
555.598597	0.125574
555.812453	0.126676
556.026291	0.126736
556.240111	0.126647
556.453913	0.127151
556.667696	0.127493
556.881461	0.127509
557.095208	0.127441
557.308937	0.127480
557.522647	0.128549
557.736339	0.127288
557.950013	0.127591
558.163669	0.127010
558.377307	0.126971
558.590926	0.126586
558.804527	0.126469
559.018110	0.126998
559.231675	0.126748
559.445221	0.126904
559.658749	0.126903
559.872259	0.127352
560.085751	0.127772
560.299225	0.128256
560.512680	0.128029
560.726117	0.127731
560.939536	0.127977
561.152937	0.127778
561.366319	0.127453
561.579683	0.128028
561.793029	0.127505
562.006357	0.127080
562.219667	0.126732
562.432958	0.126499
562.646231	0.126470
562.859486	0.126155
563.072723	0.125854
563.285941	0.126145
563.499141	0.126543
563.712323	0.126757
563.925487	0.127757
564.138632	0.127676
564.351760	0.128960
564.564869	0.129608
564.777960	0.129152
564.991032	0.130316
565.204087	0.130795
565.417123	0.130278
565.630141	0.130552
565.843140	0.130193
566.056122	0.130261
566.269085	0.130456
566.482030	0.130183
566.694957	0.130909
566.907866	0.131030
567.120756	0.131194
567.333628	0.131947
567.546482	0.132070
567.759318	0.132534
567.972135	0.132582
568.184935	0.131921
568.397716	0.132297
568.610478	0.132641
568.823223	0.132696
569.035949	0.132444
569.248657	0.131725
569.461347	0.131604
569.674019	0.131233
569.886672	0.131752
570.099308	0.131442
570.311925	0.131765
570.524523	0.131386
570.737104	0.131157
570.949666	0.131017
571.162210	0.131032
571.374736	0.131069
571.587244	0.130673
571.799733	0.130529
572.012205	0.130492
572.224658	0.130387
572.437092	0.130119
572.649509	0.129658
572.861907	0.129592
573.074287	0.129403
573.286649	0.129746
573.498993	0.129995
573.711318	0.129663
573.923625	0.129673
574.135914	0.129468
574.348185	0.129663
574.560438	0.129768
574.772672	0.129618
574.984888	0.130295
575.197086	0.129552
575.409266	0.129978
575.621427	0.130135
575.833570	0.130715
576.045695	0.129999
576.257802	0.129656
576.469890	0.130131
576.681961	0.129416
576.894013	0.128902
577.106046	0.128825
577.318062	0.128373
577.530059	0.128408
577.742039	0.127999
577.954000	0.128935
578.165942	0.128768
578.377867	0.128202
578.589773	0.129424
578.801661	0.129639
579.013531	0.130407
579.225382	0.130755
579.437216	0.131040
579.649031	0.131438
579.860828	0.132018
580.072606	0.132342
580.284367	0.133159
580.496109	0.132879
580.707833	0.132371
580.919539	0.132162
581.131227	0.132182
581.342896	0.131829
581.554547	0.131602
581.766180	0.130879
581.977795	0.131224
582.189391	0.131397
582.400969	0.131329
582.612529	0.131500
582.824071	0.131511
583.035595	0.131110
583.247100	0.131518
583.458587	0.131556
583.670056	0.132043
583.881506	0.131967
584.092939	0.131679
584.304353	0.132153
584.515749	0.132519
584.727127	0.133370
584.938486	0.133994
585.149828	0.134170
585.361151	0.134355
585.572456	0.134379
585.783742	0.134110
585.995011	0.134253
586.206261	0.133889
586.417493	0.134119
586.628706	0.133155
586.839902	0.132953
587.051079	0.132947
587.262238	0.133132
587.473379	0.133011
587.684502	0.133376
587.895606	0.133488
588.106692	0.133479
588.317760	0.133463
588.528810	0.133640
588.739841	0.133765
588.950855	0.134207
589.161850	0.134631
589.372827	0.134469
589.583785	0.134360
589.794726	0.134493
590.005648	0.134598
590.216552	0.135202
590.427437	0.136135
590.638305	0.136420
590.849154	0.135948
591.059985	0.135423
591.270798	0.136004
591.481592	0.136232
591.692369	0.136221
591.903127	0.136607
592.113867	0.136324
592.324588	0.134962
592.535292	0.134873
592.745977	0.134764
592.956644	0.134901
593.167293	0.134517
593.377923	0.134282
593.588536	0.134192
593.799130	0.134339
594.009706	0.134320
594.220263	0.135002
594.430803	0.134991
594.641324	0.134901
594.851827	0.135324
595.062312	0.135102
595.272778	0.135538
595.483227	0.135550
595.693657	0.135337
595.904069	0.135371
596.114462	0.135621
596.324838	0.135249
596.535195	0.135034
596.745534	0.134527
596.955855	0.134423
597.166157	0.134637
597.376441	0.134490
597.586707	0.134145
597.796955	0.134440
598.007185	0.134517
598.217396	0.135112
598.427589	0.135802
598.637764	0.136462
598.847921	0.136823
599.058060	0.136665
599.268180	0.136568
599.478282	0.136712
599.688366	0.136371
599.898431	0.136096
600.108479	0.135858
600.318508	0.135582
600.528519	0.135623
600.738511	0.135439
600.948486	0.135359
601.158442	0.136094
601.368380	0.136434
601.578300	0.136314
601.788202	0.136609
601.998085	0.136923
602.207950	0.136965
602.417797	0.136178
602.627626	0.136153
602.837436	0.136265
603.047228	0.136166
603.257002	0.136530
603.466758	0.136402
603.676496	0.136248
603.886215	0.135872
604.095916	0.136091
604.305599	0.136229
604.515264	0.136981
604.724910	0.136965
604.934538	0.136569
605.144148	0.135683
605.353740	0.136039
605.563314	0.136947
605.772869	0.136992
605.982406	0.137067
606.191925	0.137540
606.401425	0.136828
606.610908	0.136895
606.820372	0.137002
607.029818	0.137011
607.239246	0.136940
607.448655	0.136019
607.658047	0.136265
607.867420	0.136311
608.076775	0.136190
608.286111	0.136205
608.495430	0.136325
608.704730	0.136478
608.914012	0.136686
609.123275	0.136637
609.332521	0.136614
609.541748	0.137077
609.750957	0.136725
609.960148	0.136917
610.169321	0.137347
610.378475	0.137202
610.587611	0.137149
610.796729	0.137513
611.005829	0.137953
611.214910	0.138263
611.423974	0.137912
611.633019	0.138343
611.842045	0.138348
612.051054	0.138091
612.260044	0.138212
612.469017	0.138588
612.677970	0.138149
612.886906	0.138139
613.095824	0.138114
613.304723	0.138149
613.513604	0.137884
613.722467	0.137833
613.931311	0.138085
614.140138	0.138488
614.348946	0.138202
614.557736	0.138879
614.766507	0.138844
614.975261	0.139098
615.183996	0.138962
615.392713	0.139327
615.601412	0.139218
615.810092	0.139546
616.018754	0.139343
616.227399	0.139406
616.436024	0.139094
616.644632	0.138956
616.853222	0.138827
617.061793	0.139284
617.270346	0.139010
617.478880	0.139392
617.687397	0.139196
617.895895	0.139037
618.104375	0.139210
618.312837	0.139558
618.521281	0.139979
618.729706	0.140044
618.938113	0.139466
619.146502	0.139690
619.354873	0.139450
619.563226	0.139864
619.771560	0.139916
619.979876	0.139906
620.188174	0.140434
620.396453	0.140325
620.604715	0.140265
620.812958	0.140904
621.021183	0.141031
621.229390	0.141540
621.437578	0.141538
621.645748	0.142080
621.853900	0.142285
622.062034	0.141753
622.270150	0.141756
622.478247	0.141951
622.686326	0.142238
622.894387	0.142481
623.102430	0.142248
623.310454	0.142308
623.518461	0.142255
623.726449	0.142392
623.934418	0.142641
624.142370	0.142889
624.350303	0.143100
624.558218	0.142851
624.766115	0.142556
624.973994	0.143001
625.181855	0.143278
625.389697	0.143653
625.597521	0.144037
625.805327	0.144514
626.013114	0.144838
626.220883	0.145252
626.428634	0.145601
626.636367	0.146530
626.844082	0.146307
627.051778	0.145811
627.259457	0.146008
627.467117	0.146182
627.674758	0.145910
627.882382	0.145815
628.089987	0.145814
628.297574	0.145723
628.505143	0.145405
628.712694	0.145976
628.920226	0.146052
629.127740	0.145617
629.335236	0.145098
629.542714	0.145420
629.750174	0.145313
629.957615	0.145105
630.165038	0.145123
630.372443	0.145055
630.579829	0.144932
630.787198	0.145123
630.994548	0.145249
631.201880	0.145511
631.409194	0.144993
631.616489	0.145245
631.823766	0.145311
632.031025	0.145333
632.238266	0.145672
632.445489	0.145534
632.652693	0.145562
632.859879	0.146122
633.067047	0.146058
633.274197	0.146325
633.481329	0.146210
633.688442	0.146446
633.895537	0.146690
634.102614	0.146723
634.309672	0.146656
634.516713	0.146726
634.723735	0.146584
634.930739	0.146582
635.137724	0.146750
635.344692	0.147097
635.551641	0.146927
635.758572	0.146832
635.965485	0.146826
636.172379	0.147051
636.379256	0.146984
636.586114	0.146960
636.792954	0.146960
636.999775	0.147020
637.206579	0.146606
637.413364	0.146658
637.620131	0.146968
637.826880	0.146803
638.033610	0.146422
638.240323	0.146772
638.447017	0.146505
638.653692	0.146768
638.860350	0.146971
639.066990	0.147409
639.273611	0.147172
639.480214	0.146930
639.686798	0.147255
639.893365	0.147837
640.099913	0.148008
640.306443	0.148401
640.512955	0.148489
640.719449	0.148181
640.925924	0.147877
641.132381	0.147892
641.338820	0.147988
641.545241	0.147976
641.751644	0.147758
641.958028	0.147715
642.164394	0.147621
642.370742	0.147953
642.577071	0.148338
642.783383	0.148634
642.989676	0.149444
643.195951	0.149508
643.402207	0.149593
643.608446	0.150159
643.814666	0.150023
644.020868	0.149943
644.227052	0.149953
644.433218	0.149663
644.639365	0.150010
644.845494	0.149802
645.051605	0.149919
645.257698	0.149486
645.463772	0.149056
645.669828	0.149200
645.875866	0.149236
646.081886	0.148858
646.287888	0.149092
646.493871	0.148451
646.699836	0.148272
646.905783	0.148605
647.111712	0.148915
647.317622	0.148713
647.523514	0.148792
647.729388	0.149130
647.935244	0.149003
648.141082	0.148741
648.346901	0.149288
648.552702	0.149563
648.758485	0.149047
648.964250	0.148978
649.169996	0.148903
649.375724	0.148880
649.581434	0.148709
649.787126	0.149173
649.992800	0.149716
650.198455	0.149632
650.404092	0.149672
650.609711	0.150327
650.815311	0.150534
651.020894	0.151123
651.226458	0.151294
651.432004	0.151217
651.637532	0.150995
651.843041	0.151147
652.048532	0.151470
652.254006	0.151318
652.459460	0.151204
652.664897	0.150987
652.870315	0.150893
653.075716	0.150928
653.281097	0.151304
653.486461	0.151908
653.691807	0.151926
653.897134	0.151774
654.102443	0.151871
654.307734	0.152161
654.513006	0.152643
654.718261	0.153208
654.923497	0.153461
655.128715	0.153716
655.333915	0.153707
655.539096	0.153386
655.744259	0.153403
655.949404	0.153675
656.154531	0.153279
656.359640	0.153316
656.564730	0.153016
656.769802	0.152819
656.974856	0.152301
657.179892	0.152102
657.384909	0.152286
657.589908	0.152402
657.794889	0.152525
657.999852	0.152443
658.204797	0.152757
658.409723	0.153042
658.614631	0.153143
658.819521	0.153452
659.024393	0.153716
659.229246	0.153985
659.434081	0.154289
659.638898	0.154480
659.843697	0.155022
660.048478	0.155006
660.253240	0.155438
660.457984	0.155816
660.662710	0.156060
660.867417	0.156352
661.072107	0.156649
661.276778	0.156559
661.481431	0.156701
661.686066	0.156723
661.890682	0.156438
662.095281	0.156029
662.299861	0.155825
662.504422	0.155837
662.708966	0.155582
662.913491	0.155366
663.117999	0.155826
663.322488	0.155739
663.526958	0.155917
663.731411	0.155985
663.935845	0.155718
664.140261	0.155785
664.344659	0.155740
664.549038	0.155989
664.753400	0.156062
664.957743	0.155669
665.162068	0.155684
665.366375	0.155506
665.570663	0.155673
665.774933	0.156079
665.979185	0.156070
666.183419	0.156402
666.387635	0.156599
666.591832	0.156899
666.796011	0.157138
667.000172	0.157324
667.204315	0.157768
667.408439	0.158353
667.612545	0.158698
667.816634	0.159354
668.020703	0.159217
668.224755	0.159299
668.428788	0.159479
668.632803	0.159884
668.836800	0.159632
669.040779	0.159625
669.244739	0.159615
669.448681	0.159548
669.652605	0.159339
669.856511	0.159529
670.060399	0.159576
670.264268	0.159567
670.468119	0.159415
670.671952	0.159624
670.875767	0.159492
671.079563	0.159183
671.283341	0.159531
671.487101	0.159485
671.690843	0.159763
671.894567	0.159459
672.098272	0.159642
672.301959	0.159693
672.505628	0.159785
672.709278	0.159948
672.912911	0.159945
673.116525	0.160231
673.320121	0.160190
673.523699	0.160303
673.727258	0.160492
673.930799	0.160619
674.134322	0.160827
674.337827	0.161315
674.541314	0.161403
674.744782	0.162024
674.948232	0.161937
675.151664	0.162286
675.355078	0.162475
675.558474	0.162932
675.761851	0.163057
675.965210	0.163161
676.168551	0.163195
676.371873	0.163332
676.575178	0.163372
676.778464	0.163406
676.981732	0.163677
677.184981	0.163500
677.388213	0.163448
677.591426	0.163501
677.794621	0.163629
677.997798	0.163805
678.200956	0.164109
678.404097	0.164067
678.607219	0.164216
678.810323	0.164503
679.013408	0.164903
679.216476	0.165024
679.419525	0.164763
679.622556	0.164542
679.825569	0.164363
680.028563	0.164317
680.231540	0.164600
680.434498	0.164536
680.637438	0.164274
680.840359	0.164230
681.043263	0.164105
681.246148	0.164496
681.449015	0.164682
681.651864	0.164845
681.854694	0.164949
682.057506	0.164428
682.260301	0.164286
682.463076	0.164486
682.665834	0.164637
682.868573	0.164772
683.071295	0.164648
683.273998	0.164624
683.476682	0.164931
683.679349	0.164912
683.881997	0.165609
684.084627	0.165901
684.287239	0.166077
684.489833	0.166083
684.692408	0.166010
684.894965	0.166236
685.097504	0.166590
685.300025	0.166435
685.502527	0.166204
685.705012	0.166135
685.907478	0.166329
686.109925	0.166176
686.312355	0.166019
686.514766	0.166531
686.717159	0.166512
686.919534	0.166459
687.121891	0.166630
687.324230	0.167053
687.526550	0.167098
687.728852	0.167140
687.931136	0.167719
688.133401	0.167947
688.335649	0.167770
688.537878	0.167965
688.740089	0.168481
688.942281	0.168596
689.144456	0.169038
689.346612	0.169255
689.548750	0.169238
689.750870	0.169095
689.952971	0.169153
690.155055	0.169179
690.357120	0.169415
690.559167	0.168927
690.761195	0.168644
690.963206	0.168171
691.165198	0.168102
691.367172	0.168268
691.569128	0.168420
691.771065	0.168332
691.972984	0.168295
692.174885	0.168310
692.376768	0.168512
692.578633	0.168656
692.780479	0.168667
692.982308	0.168902
693.184118	0.168594
693.385909	0.168016
