sample name	sample
index	111
start time	 02-15-2021  11:48:46 AM


Wavelength (nm)	Absorbance
494.344910	-1.093310
494.563924	-1.093310
494.782919	-1.093310
495.001897	NaN
495.220856	-0.313315
495.439797	-0.275019
495.658719	-0.045847
495.877624	-0.065679
496.096510	-0.293581
496.315378	-0.459546
496.534227	-0.395034
496.753059	-0.430917
496.971872	-0.268475
497.190667	0.015933
497.409444	0.070824
497.628203	0.077457
497.846943	0.088644
498.065665	0.089190
498.284369	0.091052
498.503055	0.090035
498.721723	0.088026
498.940372	0.084453
499.159003	0.084130
499.377616	0.083094
499.596210	0.080528
499.814787	0.079592
500.033345	0.080348
500.251885	0.079887
500.470406	0.084689
500.688910	0.082863
500.907395	0.083359
501.125862	0.084117
501.344311	0.085157
501.562742	0.085058
501.781154	0.084067
501.999548	0.081889
502.217924	0.084381
502.436282	0.080909
502.654621	0.084156
502.872942	0.083427
503.091245	0.084659
503.309530	0.083786
503.527797	0.084952
503.746045	0.084803
503.964275	0.086971
504.182487	0.084289
504.400681	0.084225
504.618856	0.084573
504.837013	0.085893
505.055152	0.084426
505.273273	0.083187
505.491376	0.082815
505.709460	0.081287
505.927526	0.081719
506.145574	0.081133
506.363604	0.080763
506.581615	0.079150
506.799608	0.078948
507.017583	0.080320
507.235540	0.081191
507.453478	0.081405
507.671399	0.083003
507.889301	0.082851
508.107185	0.082934
508.325050	0.083707
508.542898	0.085093
508.760727	0.085357
508.978538	0.084418
509.196330	0.084942
509.414105	0.083266
509.631861	0.084492
509.849599	0.085836
510.067319	0.088031
510.285021	0.088292
510.502704	0.087952
510.720369	0.087807
510.938016	0.086973
511.155645	0.086225
511.373255	0.088216
511.590848	0.089038
511.808422	0.087838
512.025977	0.086987
512.243515	0.085833
512.461034	0.085131
512.678536	0.085607
512.896018	0.087041
513.113483	0.087708
513.330930	0.088796
513.548358	0.087577
513.765768	0.089071
513.983160	0.089346
514.200533	0.092918
514.417889	0.093117
514.635226	0.092209
514.852545	0.091800
515.069845	0.092760
515.287128	0.093770
515.504392	0.093927
515.721638	0.092526
515.938866	0.093207
516.156075	0.090621
516.373267	0.092331
516.590440	0.094483
516.807594	0.095241
517.024731	0.094578
517.241850	0.094885
517.458950	0.095819
517.676032	0.096757
517.893095	0.094974
518.110141	0.094450
518.327168	0.094807
518.544177	0.093908
518.761168	0.092714
518.978141	0.093768
519.195095	0.093258
519.412031	0.095098
519.628949	0.094423
519.845849	0.095739
520.062731	0.097501
520.279594	0.095381
520.496439	0.095135
520.713266	0.095652
520.930074	0.094894
521.146865	0.094381
521.363637	0.091766
521.580391	0.092857
521.797127	0.094126
522.013844	0.093704
522.230543	0.095466
522.447224	0.096402
522.663887	0.097590
522.880532	0.097331
523.097158	0.098070
523.313766	0.099354
523.530356	0.098357
523.746928	0.098327
523.963481	0.098580
524.180017	0.098778
524.396534	0.098316
524.613032	0.098966
524.829513	0.100188
525.045975	0.099561
525.262420	0.098793
525.478845	0.099461
525.695253	0.099991
525.911643	0.101482
526.128014	0.100651
526.344367	0.102525
526.560702	0.101138
526.777018	0.100828
526.993316	0.100581
527.209597	0.102587
527.425858	0.104340
527.642102	0.103208
527.858328	0.101781
528.074535	0.103112
528.290724	0.102090
528.506894	0.102752
528.723047	0.104207
528.939181	0.105864
529.155297	0.106161
529.371395	0.105408
529.587475	0.106294
529.803536	0.106645
530.019579	0.107189
530.235604	0.107428
530.451611	0.108259
530.667600	0.107196
530.883570	0.106345
531.099522	0.106263
531.315456	0.106208
531.531372	0.106589
531.747269	0.107818
531.963148	0.107304
532.179009	0.108387
532.394852	0.107621
532.610676	0.108880
532.826482	0.109557
533.042271	0.110451
533.258040	0.111657
533.473792	0.111043
533.689525	0.111681
533.905240	0.112562
534.120937	0.111687
534.336616	0.112624
534.552277	0.112846
534.767919	0.112914
534.983543	0.112021
535.199149	0.111742
535.414736	0.113397
535.630306	0.112476
535.845857	0.112084
536.061390	0.113104
536.276904	0.113889
536.492401	0.114391
536.707879	0.114725
536.923339	0.115734
537.138781	0.116302
537.354204	0.116145
537.569610	0.117541
537.784997	0.118095
538.000366	0.119580
538.215716	0.118932
538.431049	0.119275
538.646363	0.119905
538.861659	0.120034
539.076937	0.120440
539.292196	0.120593
539.507438	0.120900
539.722661	0.121539
539.937866	0.121646
540.153052	0.122258
540.368221	0.122895
540.583371	0.123200
540.798503	0.123789
541.013617	0.123777
541.228712	0.124605
541.443789	0.124442
541.658848	0.124166
541.873889	0.123606
542.088912	0.123551
542.303916	0.122717
542.518902	0.123700
542.733870	0.123865
542.948820	0.124334
543.163752	0.125123
543.378665	0.126327
543.593560	0.127164
543.808437	0.127092
544.023295	0.127920
544.238136	0.128550
544.452958	0.128178
544.667762	0.127857
544.882548	0.128095
545.097315	0.127538
545.312064	0.127626
545.526795	0.127550
545.741508	0.128025
545.956203	0.128088
546.170879	0.128275
546.385537	0.128493
546.600177	0.128614
546.814799	0.129009
547.029402	0.128607
547.243988	0.128863
547.458555	0.130028
547.673103	0.130734
547.887634	0.131161
548.102146	0.130815
548.316640	0.131660
548.531116	0.132794
548.745574	0.133491
548.960013	0.134375
549.174435	0.133738
549.388838	0.133173
549.603222	0.133641
549.817589	0.133990
550.031937	0.134609
550.246267	0.135174
550.460579	0.134624
550.674873	0.134015
550.889148	0.134596
551.103405	0.135985
551.317644	0.136943
551.531865	0.136992
551.746068	0.137525
551.960252	0.137550
552.174418	0.137191
552.388566	0.137831
552.602696	0.139159
552.816807	0.139901
553.030900	0.139819
553.244975	0.140364
553.459032	0.140901
553.673070	0.140782
553.887091	0.141466
554.101093	0.141598
554.315077	0.142432
554.529042	0.142160
554.742990	0.141185
554.956919	0.141144
555.170830	0.140193
555.384722	0.139426
555.598597	0.139401
555.812453	0.139991
556.026291	0.140682
556.240111	0.139973
556.453913	0.139445
556.667696	0.140340
556.881461	0.140221
557.095208	0.140706
557.308937	0.141022
557.522647	0.141505
557.736339	0.141073
557.950013	0.141144
558.163669	0.142051
558.377307	0.143109
558.590926	0.143811
558.804527	0.144498
559.018110	0.144448
559.231675	0.144198
559.445221	0.144267
559.658749	0.144898
559.872259	0.144997
560.085751	0.144848
560.299225	0.144279
560.512680	0.144126
560.726117	0.143994
560.939536	0.144487
561.152937	0.145316
561.366319	0.145740
561.579683	0.145985
561.793029	0.146213
562.006357	0.145785
562.219667	0.145888
562.432958	0.146071
562.646231	0.146710
562.859486	0.146660
563.072723	0.146725
563.285941	0.146612
563.499141	0.147331
563.712323	0.148118
563.925487	0.148491
564.138632	0.149220
564.351760	0.149103
564.564869	0.149216
564.777960	0.149444
564.991032	0.149739
565.204087	0.150078
565.417123	0.148990
565.630141	0.149224
565.843140	0.150349
566.056122	0.150977
566.269085	0.150589
566.482030	0.150182
566.694957	0.150616
566.907866	0.150208
567.120756	0.149937
567.333628	0.150831
567.546482	0.150025
567.759318	0.149372
567.972135	0.148389
568.184935	0.148583
568.397716	0.149252
568.610478	0.149600
568.823223	0.151340
569.035949	0.152242
569.248657	0.152227
569.461347	0.152369
569.674019	0.153377
569.886672	0.154304
570.099308	0.154476
570.311925	0.154651
570.524523	0.154140
570.737104	0.153414
570.949666	0.152997
571.162210	0.153205
571.374736	0.153621
571.587244	0.153528
571.799733	0.153358
572.012205	0.153778
572.224658	0.153533
572.437092	0.154468
572.649509	0.154577
572.861907	0.155040
573.074287	0.154914
573.286649	0.154831
573.498993	0.155017
573.711318	0.155230
573.923625	0.155317
574.135914	0.155140
574.348185	0.155057
574.560438	0.155098
574.772672	0.155190
574.984888	0.156133
575.197086	0.155837
575.409266	0.155715
575.621427	0.156321
575.833570	0.156875
576.045695	0.157607
576.257802	0.157548
576.469890	0.157696
576.681961	0.158509
576.894013	0.158534
577.106046	0.158876
577.318062	0.158416
577.530059	0.157931
577.742039	0.157517
577.954000	0.157317
578.165942	0.158191
578.377867	0.158581
578.589773	0.158620
578.801661	0.158745
579.013531	0.159075
579.225382	0.159516
579.437216	0.160239
579.649031	0.160817
579.860828	0.161554
580.072606	0.161530
580.284367	0.162037
580.496109	0.161800
580.707833	0.162503
580.919539	0.163267
581.131227	0.164530
581.342896	0.163969
581.554547	0.164647
581.766180	0.164231
581.977795	0.164073
582.189391	0.164081
582.400969	0.163563
582.612529	0.163153
582.824071	0.162788
583.035595	0.162506
583.247100	0.163259
583.458587	0.162934
583.670056	0.162634
583.881506	0.162178
584.092939	0.162618
584.304353	0.164256
584.515749	0.164004
584.727127	0.164560
584.938486	0.165048
585.149828	0.165503
585.361151	0.166009
585.572456	0.167540
585.783742	0.168400
585.995011	0.167637
586.206261	0.167541
586.417493	0.168104
586.628706	0.168723
586.839902	0.168479
587.051079	0.168422
587.262238	0.167818
587.473379	0.167288
587.684502	0.167520
587.895606	0.168428
588.106692	0.168493
588.317760	0.168154
588.528810	0.168679
588.739841	0.168684
588.950855	0.169115
589.161850	0.170064
589.372827	0.170384
589.583785	0.170580
589.794726	0.170821
590.005648	0.169778
590.216552	0.170612
590.427437	0.170188
590.638305	0.170103
590.849154	0.169912
591.059985	0.169654
591.270798	0.170079
591.481592	0.169929
591.692369	0.170530
591.903127	0.171376
592.113867	0.171445
592.324588	0.171565
592.535292	0.172124
592.745977	0.172392
592.956644	0.173310
593.167293	0.173057
593.377923	0.173727
593.588536	0.173141
593.799130	0.173478
594.009706	0.173825
594.220263	0.173660
594.430803	0.173560
594.641324	0.173651
594.851827	0.173193
595.062312	0.173398
595.272778	0.173629
595.483227	0.173949
595.693657	0.173772
595.904069	0.173474
596.114462	0.173981
596.324838	0.174877
596.535195	0.175099
596.745534	0.175402
596.955855	0.176455
597.166157	0.176452
597.376441	0.176651
597.586707	0.177539
597.796955	0.177638
598.007185	0.176955
598.217396	0.176308
598.427589	0.176685
598.637764	0.176686
598.847921	0.175716
599.058060	0.176218
599.268180	0.176404
599.478282	0.176272
599.688366	0.177149
599.898431	0.178367
600.108479	0.178537
600.318508	0.178243
600.528519	0.178920
600.738511	0.178895
600.948486	0.178710
601.158442	0.178974
601.368380	0.179477
601.578300	0.179725
601.788202	0.180082
601.998085	0.180162
602.207950	0.180321
602.417797	0.180338
602.627626	0.180956
602.837436	0.180858
603.047228	0.180990
603.257002	0.180492
603.466758	0.179811
603.676496	0.179471
603.886215	0.180082
604.095916	0.180477
604.305599	0.180080
604.515264	0.180591
604.724910	0.181155
604.934538	0.180928
605.144148	0.181775
605.353740	0.181952
605.563314	0.182318
605.772869	0.182366
605.982406	0.182277
606.191925	0.183237
606.401425	0.183286
606.610908	0.183414
606.820372	0.184070
607.029818	0.184074
607.239246	0.184847
607.448655	0.184531
607.658047	0.184598
607.867420	0.185215
608.076775	0.184619
608.286111	0.184417
608.495430	0.184605
608.704730	0.184559
608.914012	0.184433
609.123275	0.184002
609.332521	0.184847
609.541748	0.184913
609.750957	0.184487
609.960148	0.185253
610.169321	0.185353
610.378475	0.185673
610.587611	0.185811
610.796729	0.186274
611.005829	0.186613
611.214910	0.186373
611.423974	0.186180
611.633019	0.186600
611.842045	0.185952
612.051054	0.185994
612.260044	0.186312
612.469017	0.186431
612.677970	0.186541
612.886906	0.187263
613.095824	0.187765
613.304723	0.188114
613.513604	0.188297
613.722467	0.189213
613.931311	0.189723
614.140138	0.189356
614.348946	0.189858
614.557736	0.189761
614.766507	0.189585
614.975261	0.189370
615.183996	0.190365
615.392713	0.190614
615.601412	0.190759
615.810092	0.191522
616.018754	0.192250
616.227399	0.192423
616.436024	0.193115
616.644632	0.193143
616.853222	0.193470
617.061793	0.192684
617.270346	0.193101
617.478880	0.192964
617.687397	0.192706
617.895895	0.192269
618.104375	0.191845
618.312837	0.191353
618.521281	0.191176
618.729706	0.191887
618.938113	0.192411
619.146502	0.191851
619.354873	0.191777
619.563226	0.191915
619.771560	0.191830
619.979876	0.192159
620.188174	0.192421
620.396453	0.193197
620.604715	0.192660
620.812958	0.192723
621.021183	0.193346
621.229390	0.193903
621.437578	0.193678
621.645748	0.194079
621.853900	0.194354
622.062034	0.194244
622.270150	0.194251
622.478247	0.194673
622.686326	0.194901
622.894387	0.194555
623.102430	0.194398
623.310454	0.194971
623.518461	0.195134
623.726449	0.195226
623.934418	0.196193
624.142370	0.196410
624.350303	0.196470
624.558218	0.196586
624.766115	0.197535
624.973994	0.198412
625.181855	0.198148
625.389697	0.198640
625.597521	0.198433
625.805327	0.198391
626.013114	0.198686
626.220883	0.198404
626.428634	0.198269
626.636367	0.198582
626.844082	0.198432
627.051778	0.198668
627.259457	0.198794
627.467117	0.199293
627.674758	0.199144
627.882382	0.199174
628.089987	0.199778
628.297574	0.200150
628.505143	0.200055
628.712694	0.200171
628.920226	0.200339
629.127740	0.200519
629.335236	0.200585
629.542714	0.201216
629.750174	0.200915
629.957615	0.200717
630.165038	0.201313
630.372443	0.201110
630.579829	0.200930
630.787198	0.201559
630.994548	0.201291
631.201880	0.201880
631.409194	0.201673
631.616489	0.202153
631.823766	0.202498
632.031025	0.202258
632.238266	0.202495
632.445489	0.202847
632.652693	0.202647
632.859879	0.202968
633.067047	0.202698
633.274197	0.202364
633.481329	0.202908
633.688442	0.202409
633.895537	0.202694
634.102614	0.203311
634.309672	0.203486
634.516713	0.203893
634.723735	0.203972
634.930739	0.204652
635.137724	0.205560
635.344692	0.205733
635.551641	0.206964
635.758572	0.207570
635.965485	0.207275
636.172379	0.207683
636.379256	0.207521
636.586114	0.207761
636.792954	0.207632
636.999775	0.207514
637.206579	0.207473
637.413364	0.207835
637.620131	0.207505
637.826880	0.207878
638.033610	0.207652
638.240323	0.208015
638.447017	0.208733
638.653692	0.208689
638.860350	0.209272
639.066990	0.209483
639.273611	0.209402
639.480214	0.209749
639.686798	0.209967
639.893365	0.210874
640.099913	0.211305
640.306443	0.211453
640.512955	0.211542
640.719449	0.211633
640.925924	0.211871
641.132381	0.211779
641.338820	0.211791
641.545241	0.211928
641.751644	0.211390
641.958028	0.211305
642.164394	0.211085
642.370742	0.211492
642.577071	0.211866
642.783383	0.211786
642.989676	0.212005
643.195951	0.212478
643.402207	0.212711
643.608446	0.213086
643.814666	0.213312
644.020868	0.213684
644.227052	0.213648
644.433218	0.213833
644.639365	0.213692
644.845494	0.213916
645.051605	0.213525
645.257698	0.213133
645.463772	0.213230
645.669828	0.213148
645.875866	0.213003
646.081886	0.213332
646.287888	0.213133
646.493871	0.213446
646.699836	0.213357
646.905783	0.213676
647.111712	0.213874
647.317622	0.213917
647.523514	0.214428
647.729388	0.214856
647.935244	0.215100
648.141082	0.215288
648.346901	0.216214
648.552702	0.216850
648.758485	0.216550
648.964250	0.217332
649.169996	0.217806
649.375724	0.218158
649.581434	0.218568
649.787126	0.218755
649.992800	0.219039
650.198455	0.218573
650.404092	0.218620
650.609711	0.219697
650.815311	0.219858
651.020894	0.219664
651.226458	0.219644
651.432004	0.219569
651.637532	0.219690
651.843041	0.219690
652.048532	0.220363
652.254006	0.219890
652.459460	0.219737
652.664897	0.220221
652.870315	0.220601
653.075716	0.220934
653.281097	0.221136
653.486461	0.221556
653.691807	0.221871
653.897134	0.221899
654.102443	0.222548
654.307734	0.223079
654.513006	0.222965
654.718261	0.223293
654.923497	0.223844
655.128715	0.224201
655.333915	0.223978
655.539096	0.224237
655.744259	0.224141
655.949404	0.224742
656.154531	0.225043
656.359640	0.225585
656.564730	0.225741
656.769802	0.226104
656.974856	0.225928
657.179892	0.226417
657.384909	0.227036
657.589908	0.227281
657.794889	0.227410
657.999852	0.227412
658.204797	0.227444
658.409723	0.228169
658.614631	0.228505
658.819521	0.229173
659.024393	0.229517
659.229246	0.229535
659.434081	0.230089
659.638898	0.230293
659.843697	0.230843
660.048478	0.230757
660.253240	0.230642
660.457984	0.230295
660.662710	0.230317
660.867417	0.231015
661.072107	0.231141
661.276778	0.231565
661.481431	0.231774
661.686066	0.231495
661.890682	0.231672
662.095281	0.232313
662.299861	0.232528
662.504422	0.232959
662.708966	0.233270
662.913491	0.233532
663.117999	0.233576
663.322488	0.233619
663.526958	0.234302
663.731411	0.234827
663.935845	0.235013
664.140261	0.235314
664.344659	0.235417
664.549038	0.234961
664.753400	0.235254
664.957743	0.235421
665.162068	0.235787
665.366375	0.235593
665.570663	0.235835
665.774933	0.235690
665.979185	0.235906
666.183419	0.236141
666.387635	0.236468
666.591832	0.236782
666.796011	0.236991
667.000172	0.237309
667.204315	0.238139
667.408439	0.238228
667.612545	0.238513
667.816634	0.238880
668.020703	0.239332
668.224755	0.239203
668.428788	0.239279
668.632803	0.239608
668.836800	0.240024
669.040779	0.239967
669.244739	0.240474
669.448681	0.240692
669.652605	0.240751
669.856511	0.240512
670.060399	0.241230
670.264268	0.241461
670.468119	0.241727
670.671952	0.242061
670.875767	0.241990
671.079563	0.242078
671.283341	0.242387
671.487101	0.242890
671.690843	0.243453
671.894567	0.243633
672.098272	0.243606
672.301959	0.243606
672.505628	0.243359
672.709278	0.244020
672.912911	0.243881
673.116525	0.243802
673.320121	0.243463
673.523699	0.243571
673.727258	0.243642
673.930799	0.244243
674.134322	0.244902
674.337827	0.245191
674.541314	0.245382
674.744782	0.245792
674.948232	0.246440
675.151664	0.246861
675.355078	0.246810
675.558474	0.247360
675.761851	0.247149
675.965210	0.247213
676.168551	0.247859
676.371873	0.247738
676.575178	0.248155
676.778464	0.248211
676.981732	0.248636
677.184981	0.249770
677.388213	0.250138
677.591426	0.251337
677.794621	0.251450
677.997798	0.251277
678.200956	0.251591
678.404097	0.251690
678.607219	0.251602
678.810323	0.251654
679.013408	0.251428
679.216476	0.251286
679.419525	0.251067
679.622556	0.251400
679.825569	0.251974
680.028563	0.252430
680.231540	0.252952
680.434498	0.253506
680.637438	0.253941
680.840359	0.253966
681.043263	0.254687
681.246148	0.254851
681.449015	0.254692
681.651864	0.254499
681.854694	0.254677
682.057506	0.254614
682.260301	0.254554
682.463076	0.255057
682.665834	0.255524
682.868573	0.255605
683.071295	0.255624
683.273998	0.256654
683.476682	0.257066
683.679349	0.257102
683.881997	0.257509
684.084627	0.258008
684.287239	0.258071
684.489833	0.258351
684.692408	0.258535
684.894965	0.258891
685.097504	0.258316
685.300025	0.259110
685.502527	0.259127
685.705012	0.259074
685.907478	0.259526
686.109925	0.259227
686.312355	0.259228
686.514766	0.259098
686.717159	0.259600
686.919534	0.259909
687.121891	0.259519
687.324230	0.260047
687.526550	0.260575
687.728852	0.260964
687.931136	0.261044
688.133401	0.261329
688.335649	0.261700
688.537878	0.261290
688.740089	0.261620
688.942281	0.261608
689.144456	0.261666
689.346612	0.262076
689.548750	0.262160
689.750870	0.263028
689.952971	0.263138
690.155055	0.263535
690.357120	0.264246
690.559167	0.263864
690.761195	0.264723
690.963206	0.264889
691.165198	0.264878
691.367172	0.264953
691.569128	0.265165
691.771065	0.265192
691.972984	0.265331
692.174885	0.265065
692.376768	0.266043
692.578633	0.266148
692.780479	0.266464
692.982308	0.266591
693.184118	0.266830
693.385909	0.266493
