sample name	sample
index	885
start time	 04-08-2021  02:26:49 PM
880	0.481997
Peak Time (s)	121.535
Peak Height 	0.482
calc peak height	120,123
Baseline Time (s)	9.036
Baseline Value 	-0.005617
subtract baseline	10,4
Abs	0.371044
Peak Time (s)	122.535
Peak Height 	0.371
calc peak height	120,123
Baseline Time (s)	9.036
Baseline Value 	0.004515
subtract baseline	10,3
PK_550	0.190654
Peak Time (s)	122.535
Peak Height 	0.1907
calc peak height	120,123
Baseline Time (s)	8.536
Baseline Value 	3.8507E-4
subtract baseline	10,2
PK_880	0.340415
Peak Time (s)	120.537
Peak Height 	0.3404
calc peak height	120,123
Baseline Time (s)	11.037
Baseline Value 	7.8356E-4
subtract baseline	10,1


Time (s)	A880-A510	A880-A775	A880-A975	A880	I510	I775	I975	I880	
0.037000	0.001418	0.000692	0.000292	0.003600	6866.932615	42372.639578	3934.168035	22670.359580
0.536500	-0.000014	-0.000001	-0.005451	0.004967	6840.153926	42185.032652	3913.631302	22607.533633
1.037000	-0.000867	-0.000411	-0.004903	0.004035	6840.909331	42232.521579	3917.881709	22650.362548
1.534500	-0.002555	-0.000151	-0.004265	0.007076	6796.044283	41980.371196	3910.991743	22511.054622
2.035000	0.000758	-0.000272	-0.000439	0.000920	6886.374594	42529.713888	3939.857909	22794.083069
2.534500	0.001501	-0.000711	-0.002288	0.000449	6898.093883	42532.560118	3935.833502	22815.897933
3.038000	0.002056	-0.000459	-0.002305	-0.001602	6923.364923	42744.291601	3941.778226	22911.178439
3.536000	-0.001078	-0.000043	-0.001422	0.003028	6848.500495	42357.810364	3930.846208	22696.689758
4.036000	0.000141	0.000285	0.000581	0.000767	6881.894779	42594.779455	3943.293347	22801.158694
4.536500	0.000495	-0.000218	-0.001720	0.000530	6887.594834	42570.372511	3937.253139	22812.124378
5.036500	0.002467	-0.000046	-0.001307	0.000641	6905.581240	42575.979186	3938.135345	22806.989285
5.536000	0.002350	-0.000085	-0.002721	0.000698	6903.898734	42567.150509	3933.844675	22804.359000
6.037500	0.002407	0.000759	-0.003255	0.001016	6901.372727	42615.471035	3931.369575	22789.638838
6.534500	0.001324	0.000452	-0.004274	0.000695	6894.001974	42616.734472	3929.338815	22804.464918
7.035000	-0.000322	0.000515	0.001175	0.000531	6879.706182	42637.548275	3945.730266	22812.087076
7.535500	0.002074	0.000312	-0.002794	0.000428	6903.845274	42628.432322	3934.419580	22816.875344
8.035500	-0.000051	0.000519	-0.003905	0.000195	6885.558168	42668.785395	3931.862750	22827.646162
8.536000	0.002339	0.000000	-0.001154	-0.000016	6910.715371	42640.548772	3940.504940	22837.460420
9.036000	-0.000182	0.000487	0.000000	0.000000	6886.176910	42683.841588	3943.838129	22836.710718
9.539500	0.000070	0.000481	-0.000132	0.000326	6885.459549	42653.307690	3942.495059	22821.576460
10.037000	0.002597	0.000377	0.002254	0.000478	6908.419311	42629.750526	3949.058789	22814.543881
10.537000	-0.001091	-0.001337	-0.003188	-0.001141	6888.413236	42621.047991	3937.845705	22889.706107
11.037500	0.000000	-0.000428	0.000905	-0.000317	6890.990183	42628.877033	3947.429764	22851.429077
11.535000	-0.001785	-0.000662	0.000392	0.003836	6834.056923	42227.773676	3933.773220	22659.512507
12.035000	-0.001732	-0.000740	-0.003343	-0.000473	6875.808003	42614.533931	3935.444850	22858.687714
12.535500	0.002969	0.000463	0.000611	0.000269	6914.056667	42656.866168	3944.841003	22824.224129
13.038500	0.001447	0.000040	0.000382	-0.000534	6907.078020	42691.789759	3946.527126	22861.489419
13.536000	0.001003	0.000112	-0.000886	-0.000084	6898.430552	42657.035323	3941.486779	22840.594789
14.039500	0.000791	0.000689	-0.000198	0.002938	6867.269976	42432.835696	3934.670298	22700.836702
14.536000	0.001795	-0.000296	-0.009642	0.001674	6889.101249	42458.396926	3911.063421	22759.187195
15.042500	0.001798	0.000614	0.000837	-0.000371	6908.909789	42729.719762	3947.385818	22853.925620
15.537500	0.002853	0.000390	-0.001644	0.000099	6914.583411	42665.840049	3938.734366	22832.116353
16.034500	0.002311	0.000542	0.001058	-0.000025	6910.526581	42691.277902	3947.020369	22837.891412
16.535000	-0.000063	0.000113	0.005741	-0.000412	6891.290241	42687.300109	3962.018262	22855.819286
17.034500	0.001745	-0.000568	0.001734	-0.004013	6943.847938	42956.921516	3960.812989	23023.778657
17.539000	0.001408	-0.000071	-0.002175	0.002249	6879.824565	42426.361113	3930.923068	22732.609427
18.041500	0.001162	0.000616	0.000003	0.001082	6888.698471	42596.238487	3940.673997	22786.546308
18.538000	0.000624	0.000431	-0.002451	0.001190	6882.473697	42569.309485	3933.200036	22781.565800
19.039000	0.000144	0.000116	0.000434	0.001053	6879.168914	42553.056542	3942.024658	22787.921234
19.537000	-0.000513	-0.000512	-0.006815	0.001976	6863.988069	42411.000505	3918.300640	22745.211466
20.036000	0.001726	0.000617	-0.003098	0.001412	6890.960093	42566.012922	3930.673399	22771.277803
20.534500	-0.001423	-0.000694	0.001458	0.000660	6867.887334	42514.843585	3946.182781	22806.128256
21.034500	0.000748	-0.000917	-0.000929	0.000636	6889.012412	42496.553084	3939.252794	22807.215672
21.535500	-0.001149	0.000621	-0.001556	0.002449	6853.369155	42471.366197	3932.141716	22723.399069
22.035500	0.001234	-0.000701	-0.001674	0.000638	6893.681560	42516.199948	3937.073720	22807.134752
22.535500	0.000446	0.000791	-0.001525	0.001495	6877.819174	42574.390533	3935.006673	22767.462584
23.036000	0.000806	0.000204	0.004484	0.001535	6880.899100	42516.935653	3952.518723	22765.603600
23.536500	-0.001414	-0.000108	-0.002839	0.002312	6852.133005	42417.244848	3928.812746	22729.700359
24.036500	-0.000294	0.000945	-0.003674	0.001600	6869.698945	42578.959817	3928.458796	22762.625832
24.536500	-0.000423	-0.000058	-0.005140	0.000900	6875.188866	42551.118668	3926.236447	22794.985097
25.037500	0.001552	0.000697	-0.001577	0.001554	6887.912926	42560.367172	3934.685258	22764.735567
25.534500	-0.000593	-0.000179	-0.003680	0.002695	6856.323039	42375.757557	3925.267759	22712.026398
26.035000	-0.000010	-0.000917	-0.002545	0.000642	6881.640523	42496.009386	3934.520040	22806.930116
26.535500	-0.000292	-0.000113	-0.001494	0.000861	6876.827398	42549.672893	3936.949230	22796.816074
27.035500	0.003289	0.000357	0.000089	-0.001026	6929.762329	42766.372466	3947.113306	22884.368266
27.536000	0.003114	0.000232	-0.000194	-0.001131	6929.083013	42764.540685	3946.590989	22889.280134
28.036000	0.001333	0.001153	-0.000431	0.000078	6900.049915	42738.008475	3942.344490	22833.088258
28.536500	0.002224	-0.000106	-0.000942	0.000051	6908.950254	42624.656037	3940.929225	22834.355829
29.037000	0.001838	-0.000434	0.000617	-0.000915	6914.576394	42683.339912	3948.340975	22879.222977
29.537000	0.001338	0.000407	-0.003797	0.000551	6895.535217	42625.909806	3931.143576	22811.177350
30.034500	0.000689	0.000067	-0.001726	-0.000383	6898.281635	42680.415331	3939.902011	22854.471100
30.535000	0.000047	0.000760	-0.005885	0.002140	6867.789259	42512.436792	3920.506310	22737.651929
31.035000	0.002835	0.000973	-0.000799	0.002763	6888.627619	42474.909698	3933.430838	22708.931881
31.535000	0.001976	0.000624	-0.000877	0.000488	6902.308375	42651.545616	3939.838905	22814.064757
32.035500	0.000861	-0.000033	0.000301	-0.000482	6900.907102	42680.348460	3946.135306	22859.072146
32.538500	0.001859	0.000113	0.001867	-0.000406	6909.837976	42686.799147	3950.524852	22855.545462
33.036500	0.002084	0.000074	-0.000580	-0.000980	6917.596634	42736.101583	3945.014776	22882.252940
33.537000	0.000745	0.001325	0.000984	0.002218	6873.750932	42557.123582	3940.224476	22734.069780
34.037000	0.001603	0.000463	-0.001502	0.001782	6886.206852	42517.981724	3934.238818	22754.195437
34.537000	0.001112	0.000601	0.000408	0.002102	6878.390287	42501.315765	3938.875175	22739.391705
35.034500	0.000697	0.001055	-0.001133	0.002312	6872.383158	42523.715621	3933.771636	22729.727160
35.534500	-0.001758	0.000148	-0.000024	0.003348	6838.960415	42345.994154	3933.982763	22681.967756
36.035000	-0.000580	0.000252	0.001626	0.001790	6865.127675	42497.978314	3943.356298	22753.820421
36.535000	0.000104	-0.000218	-0.003060	0.001626	6873.269644	42469.893890	3930.159723	22761.383831
37.038500	-0.001387	-0.000725	-0.003751	0.001208	6862.978160	42461.773965	3929.370523	22780.747787
37.536500	0.001072	0.000103	-0.002316	0.003454	6865.007464	42332.198577	3927.019174	22677.061907
38.036500	0.001456	0.000214	-0.002173	0.001921	6883.443240	42482.457176	3931.879430	22747.751743
38.536500	-0.001356	-0.000785	-0.001696	0.000962	6865.627392	42478.815255	3936.063409	22792.140552
39.034000	-0.001375	0.000707	0.001415	0.001902	6856.435888	42529.298071	3942.408060	22748.629497
39.537000	-0.000273	0.000538	-0.001117	0.003607	6850.664734	42357.943702	3930.050485	22670.020063
40.035000	0.001001	-0.000509	-0.004271	0.001062	6887.344630	42494.898843	3928.284937	22787.490930
40.534500	0.000753	0.000410	-0.002532	0.001930	6876.591473	42499.669599	3930.814122	22747.371434
41.035500	0.001111	0.001122	0.000339	0.002726	6872.383998	42491.917883	3936.853883	22710.638716
41.536000	0.000123	0.000937	0.000192	0.003269	6857.693333	42425.291971	3934.841300	22685.608386
42.036000	0.001623	0.000863	-0.000498	0.002145	6882.891891	42521.404905	3936.104137	22737.406563
42.536500	0.001141	0.000266	0.001604	0.002104	6878.653683	42470.452073	3942.371619	22739.315512
43.036500	0.000567	0.000647	-0.002794	0.001977	6874.353715	42517.043649	3929.918162	22745.205990
43.538500	-0.000219	0.000132	-0.001078	0.003487	6852.329057	42331.833426	3930.511486	22675.546295
44.037000	0.001921	0.000931	-0.003560	0.000174	6904.816990	42708.646753	3932.926922	22828.624535
44.534500	-0.000280	-0.000015	0.001648	-0.000255	6887.691823	42661.105951	3949.435513	22848.554363
45.035000	0.002307	0.000497	-0.003010	0.000227	6908.038767	42663.907338	3934.376012	22826.172633
45.535000	0.000093	0.000091	0.001003	0.005349	6837.537304	42158.749632	3931.150788	22590.050230
46.035500	0.001957	0.001333	-0.001736	0.001147	6895.758889	42656.218391	3935.408855	22783.579393
46.535500	0.001832	0.001462	-0.002637	0.001032	6895.646979	42678.524368	3933.115809	22788.860892
47.035500	0.000461	0.000242	-0.002369	0.002537	6867.956753	42428.688730	3929.524397	22719.341042
47.536000	-0.001479	-0.000679	-0.005410	0.004811	6827.683084	42137.658917	3914.198479	22614.700374
48.036500	0.003114	0.001185	-0.002425	0.000738	6910.907570	42680.111208	3934.590513	22802.473757
48.537000	0.000060	0.000640	0.000439	-0.000037	6888.867398	42701.377963	3945.235749	22838.426756
49.034500	0.001954	0.000881	0.000069	0.000647	6900.551805	42660.532882	3942.141935	22806.697559
49.537000	-0.003677	0.000953	-0.003100	0.005109	6804.026614	42258.884635	3919.978054	22601.031885
50.035000	0.003388	0.000745	0.002561	0.002081	6900.562626	42516.444579	3945.247540	22740.384032
50.538000	-0.024519	-0.008434	0.025924	0.110161	5770.834665	33100.053818	3719.160237	18321.889284
51.038500	-0.064095	-0.019318	0.025992	0.137797	5330.293541	30521.609214	3654.604073	17357.847995
51.536000	-0.046257	-0.017603	-0.025415	-0.100656	7447.002812	51051.635131	4184.891841	28092.881377
52.035500	-0.030285	-0.044442	-0.028761	-0.224792	9254.953678	63188.219738	4670.806005	36499.618844
52.536000	-0.019724	-0.013456	-0.011811	-0.089234	7615.122976	50248.769232	4192.520123	27433.317137
53.037000	-0.011918	-0.010952	-0.017014	-0.117627	8042.510286	53753.171714	4276.054554	29105.373108
53.537000	-0.000251	-0.009437	-0.019918	-0.136918	8437.374778	56257.527889	4337.835014	30305.411360
54.037000	0.009209	-0.005118	-0.008458	-0.117803	8311.198438	54464.307633	4308.686283	29116.087376
54.535000	0.013806	-0.000668	-0.003691	-0.084890	7956.910538	51181.846778	4205.819344	27187.003031
55.035000	0.014508	-0.000459	0.003650	-0.052980	7592.299087	47770.555707	4121.323661	25451.286581
55.538000	0.016231	0.001190	0.010315	-0.030493	7363.809948	45660.049719	4069.384589	24302.484299
56.036000	0.020477	0.004069	0.018036	-0.011536	7208.423479	44099.528522	4033.630884	23379.174172
56.536000	0.028809	0.008344	0.027104	0.013106	7042.183208	42203.739299	3985.578714	22237.645238
57.036500	0.035381	0.011915	0.035659	0.039777	6845.734413	40158.607193	3931.812865	21073.021242
57.536500	0.044658	0.015877	0.047330	0.055029	6789.069242	39197.855308	3921.445011	20438.443805
58.036500	0.054796	0.020084	0.055663	0.084013	6615.347050	37175.050786	3863.309085	19292.278728
58.537500	0.061043	0.027014	0.070405	0.097348	6551.939355	36670.623987	3867.182768	18790.098290
59.037500	0.064454	0.027480	0.076150	0.075376	6783.881009	38470.813177	3946.110587	19625.869430
59.534500	0.079367	0.035771	0.088085	0.084597	6837.773673	38394.312298	3954.111754	19269.957306
60.038000	0.089106	0.041935	0.102508	0.112408	6669.067674	36659.813509	3915.119157	18241.221042
60.535500	0.098481	0.048545	0.113224	0.121439	6672.209706	36471.136379	3919.960392	17921.067295
61.036000	0.103318	0.054070	0.120734	0.138280	6563.873077	35603.079062	3893.381351	17341.542613
61.536000	0.111419	0.058882	0.136452	0.168130	6375.059073	33760.974276	3854.196321	16367.994221
62.036000	0.119716	0.064252	0.147815	0.180139	6343.770430	33290.110456	3852.437091	15994.832032
62.537000	0.123415	0.067256	0.149957	0.189181	6299.188739	32868.028536	3833.791222	15720.581476
63.061500	0.135026	0.072176	0.157682	0.195872	6340.214850	32745.377258	3836.566168	15521.287207
63.537000	0.139775	0.074630	0.160620	0.203441	6316.651119	32393.865260	3824.187626	15299.524728
64.035000	0.146601	0.078978	0.165679	0.212168	6300.844416	32096.125792	3814.477493	15048.554500
64.535000	0.150355	0.080963	0.171557	0.218471	6279.756494	31805.532176	3813.355310	14870.416059
65.037500	0.155213	0.084065	0.180672	0.224655	6268.846811	31599.884636	3821.102901	14698.147039
65.536000	0.157910	0.087051	0.175391	0.234270	6212.419098	31162.344109	3782.272665	14435.088822
66.039000	0.164084	0.090368	0.183614	0.233440	6269.550091	31435.249518	3805.713722	14457.571414
66.536000	0.171858	0.093405	0.186864	0.238282	6293.745113	31316.167229	3801.556562	14327.054006
67.039500	0.175732	0.094880	0.190832	0.243434	6283.175262	31075.043793	3798.471924	14189.747400
67.537000	0.175163	0.096931	0.195508	0.254775	6186.201541	30474.984514	3781.280239	13893.207187
68.037000	0.180436	0.098759	0.197984	0.254139	6233.980749	30632.916550	3789.275535	13909.639934
68.537500	0.188856	0.101162	0.203477	0.261216	6244.931095	30334.135626	3785.197577	13728.205557
69.035000	0.188118	0.102413	0.206279	0.271626	6155.050994	29757.927855	3765.824029	13466.655192
69.535000	0.191354	0.104985	0.206972	0.279777	6116.152510	29412.828678	3747.158399	13266.190249
70.035500	0.200207	0.107964	0.214138	0.281276	6174.519406	29503.908794	3761.313075	13229.731624
70.535500	0.200706	0.108610	0.216525	0.286254	6138.851395	29238.082220	3754.815686	13109.533978
71.039000	0.203627	0.109617	0.225299	0.296841	6078.652038	28659.555621	3750.296985	12858.484066
71.536500	0.206763	0.112393	0.228244	0.303591	6050.643919	28423.284386	3740.870106	12701.590730
72.037000	0.214113	0.114967	0.228741	0.303899	6105.445550	28557.763154	3741.335996	12694.498471
72.537000	0.217544	0.117226	0.231592	0.308953	6092.727913	28391.968786	3735.911060	12578.677975
73.034500	0.219409	0.118468	0.233673	0.318827	6030.713537	27886.799343	3716.948802	12356.286269
73.535000	0.216998	0.118311	0.239299	0.321858	5989.210684	27702.750053	3723.223341	12289.011065
74.043500	0.225967	0.122231	0.247931	0.322514	6052.806774	27891.193705	3742.755925	12274.515871
74.535000	0.230009	0.124067	0.246612	0.325987	6057.211735	27796.509021	3730.979349	12198.146784
75.035500	0.229854	0.124160	0.252188	0.334596	5990.105916	27309.639508	3723.591560	12011.424897
75.535500	0.230150	0.124983	0.248867	0.337596	5969.673001	27186.616176	3708.360766	11947.207358
76.036000	0.237585	0.128405	0.257900	0.336297	6036.125442	27454.027887	3733.371874	11974.954570
76.536000	0.241213	0.130519	0.262725	0.340104	6034.756927	27357.866210	3735.870177	11893.891730
77.036500	0.242359	0.132429	0.259480	0.349049	5975.376763	26961.929851	3706.354277	11706.147944
77.537000	0.238549	0.132451	0.258553	0.349888	5940.477448	26916.404872	3702.145872	11688.733967
78.037000	0.246826	0.134906	0.267686	0.347245	6023.037835	27202.056765	3730.529002	11743.696177
78.540500	0.247892	0.134719	0.264471	0.347999	6025.429402	27149.153699	3720.878378	11727.994603
79.034500	0.248865	0.136423	0.269973	0.356844	5965.661430	26750.699641	3712.814019	11545.668876
79.535500	0.249540	0.137353	0.274872	0.358473	5958.493153	26712.039372	3720.698511	11512.491660
80.035500	0.255216	0.138925	0.279418	0.354777	6029.610345	27004.857387	3740.839516	11587.939832
80.536000	0.256140	0.138383	0.273303	0.355662	6029.908624	26925.164627	3723.710198	11569.817396
81.035500	0.260597	0.143258	0.287023	0.360713	6025.356080	26915.382184	3744.964452	11467.085043
81.536500	0.262998	0.143170	0.277111	0.361010	6041.514126	26893.966106	3719.979871	11461.088800
82.036500	0.266026	0.145541	0.286258	0.364416	6038.604067	26836.440418	3733.956178	11392.526266
82.537000	0.267014	0.146526	0.286652	0.365657	6036.655595	26822.165999	3731.882521	11367.672059
83.035000	0.265834	0.145886	0.284680	0.371844	5980.505903	26446.287194	3712.110407	11244.854721
83.534500	0.270471	0.148028	0.293240	0.368961	6037.840756	26722.385857	3739.947998	11301.873180
84.037500	0.273696	0.150449	0.293350	0.371890	6040.118238	26694.378393	3733.022055	11243.959850
84.535500	0.272288	0.150801	0.293098	0.373464	6017.251562	26627.017069	3728.560453	11212.995844
85.039000	0.276547	0.151421	0.296832	0.380182	5998.505106	26293.667067	3721.306329	11082.083990
85.536000	0.271419	0.151034	0.298294	0.380560	5956.932587	26252.164083	3723.935147	11074.779121
86.039500	0.282332	0.155096	0.305322	0.380511	6040.223874	26475.962084	3741.258397	11075.720071
86.536500	0.282638	0.154471	0.302092	0.381744	6033.102238	26374.559890	3730.302555	11051.938027
87.036500	0.281290	0.157215	0.307493	0.390154	5959.016636	26067.990500	3722.977580	10891.482484
87.537500	0.285572	0.157758	0.305711	0.386449	6019.532355	26297.431907	3727.651652	10961.777691
88.037500	0.284350	0.156621	0.308435	0.387673	6000.880912	26169.632673	3731.312642	10938.489542
88.535500	0.287397	0.158244	0.307502	0.389862	6007.405050	26139.071254	3723.705911	10896.986367
89.035000	0.287752	0.160490	0.310828	0.398935	5941.647688	25773.850692	3709.849137	10727.214761
89.535500	0.293001	0.160418	0.312731	0.394223	6016.894882	26021.488390	3725.816767	10814.951051
90.036000	0.294976	0.162060	0.315750	0.398014	6003.049992	25906.427237	3723.940397	10744.282540
90.536500	0.294702	0.162776	0.313907	0.399999	5985.901010	25838.812530	3714.685724	10707.525908
91.039500	0.300185	0.162958	0.316617	0.401875	6013.322997	25748.850464	3716.697102	10672.959689
91.536500	0.296121	0.164557	0.316132	0.410059	5921.140413	25402.289783	3696.000780	10523.836689
92.039500	0.300471	0.164987	0.318891	0.405910	5984.824103	25642.680279	3712.459399	10599.079951
92.537500	0.301334	0.165615	0.317640	0.407957	5975.884533	25567.944458	3704.570552	10561.871538
93.037500	0.302671	0.165940	0.320961	0.410131	5969.572554	25470.878105	3707.307180	10522.533174
93.535500	0.304990	0.168197	0.321539	0.412666	5967.940988	25456.305350	3702.641146	10476.916294
94.035500	0.307047	0.168191	0.327307	0.415178	5964.522714	25324.870660	3710.416090	10431.981943
94.536000	0.306452	0.168258	0.332523	0.415526	5957.432354	25310.243889	3722.147136	10425.768760
95.036000	0.304518	0.168640	0.326359	0.422780	5889.207039	24955.613948	3690.123379	10297.554144
95.536500	0.307833	0.169658	0.326522	0.425200	5895.788294	24883.948095	3684.833295	10255.249712
96.037000	0.309899	0.171173	0.329483	0.421048	5941.899868	25175.078361	3701.600867	10327.980698
96.537000	0.312005	0.170690	0.328827	0.422933	5943.557719	25052.957653	3695.579283	10294.879163
97.040500	0.309555	0.172237	0.336325	0.430829	5867.159654	24728.903726	3694.638998	10157.772624
97.534500	0.311308	0.172437	0.331739	0.431972	5871.613183	24681.119209	3681.205441	10138.126037
