sample name	sample
index	774
start time	 03-31-2021  01:22:15 PM


Wavelength (nm)	Absorbance
494.344910	-0.225246
494.563924	-0.225246
494.782919	-0.225246
495.001897	-0.004496
495.220856	-0.082147
495.439797	-0.053079
495.658719	-0.009643
495.877624	0.043460
496.096510	0.043292
496.315378	0.044381
496.534227	0.064992
496.753059	0.051487
496.971872	0.054842
497.190667	0.112730
497.409444	0.136488
497.628203	0.137981
497.846943	0.138119
498.065665	0.139186
498.284369	0.139301
498.503055	0.139192
498.721723	0.141068
498.940372	0.142288
499.159003	0.142933
499.377616	0.142331
499.596210	0.141671
499.814787	0.141843
500.033345	0.142470
500.251885	0.144103
500.470406	0.144970
500.688910	0.144402
500.907395	0.144272
501.125862	0.143937
501.344311	0.143996
501.562742	0.145336
501.781154	0.144864
501.999548	0.144909
502.217924	0.145442
502.436282	0.144060
502.654621	0.143254
502.872942	0.142969
503.091245	0.143168
503.309530	0.142778
503.527797	0.141305
503.746045	0.141992
503.964275	0.142523
504.182487	0.142181
504.400681	0.143802
504.618856	0.145362
504.837013	0.145674
505.055152	0.145466
505.273273	0.146239
505.491376	0.148095
505.709460	0.148771
505.927526	0.149135
506.145574	0.148461
506.363604	0.147403
506.581615	0.146827
506.799608	0.146633
507.017583	0.147620
507.235540	0.147231
507.453478	0.147293
507.671399	0.148040
507.889301	0.147365
508.107185	0.148957
508.325050	0.150580
508.542898	0.150528
508.760727	0.150828
508.978538	0.150907
509.196330	0.151558
509.414105	0.150964
509.631861	0.150116
509.849599	0.150435
510.067319	0.149820
510.285021	0.149563
510.502704	0.149651
510.720369	0.151066
510.938016	0.150154
511.155645	0.150026
511.373255	0.150290
511.590848	0.150228
511.808422	0.150542
512.025977	0.150329
512.243515	0.150247
512.461034	0.150872
512.678536	0.149005
512.896018	0.150422
513.113483	0.150373
513.330930	0.150597
513.548358	0.150656
513.765768	0.151010
513.983160	0.151176
514.200533	0.151886
514.417889	0.151291
514.635226	0.152646
514.852545	0.152672
515.069845	0.152494
515.287128	0.153024
515.504392	0.153615
515.721638	0.153615
515.938866	0.154198
516.156075	0.154212
516.373267	0.155377
516.590440	0.155120
516.807594	0.155345
517.024731	0.157051
517.241850	0.156767
517.458950	0.157434
517.676032	0.158215
517.893095	0.158588
518.110141	0.158420
518.327168	0.158277
518.544177	0.158912
518.761168	0.159272
518.978141	0.158532
519.195095	0.158987
519.412031	0.159132
519.628949	0.158388
519.845849	0.158087
520.062731	0.158706
520.279594	0.159221
520.496439	0.159361
520.713266	0.159693
520.930074	0.160478
521.146865	0.160958
521.363637	0.160935
521.580391	0.161530
521.797127	0.161804
522.013844	0.161791
522.230543	0.161829
522.447224	0.162533
522.663887	0.162086
522.880532	0.162556
523.097158	0.163297
523.313766	0.163685
523.530356	0.164339
523.746928	0.164825
523.963481	0.165364
524.180017	0.165811
524.396534	0.165846
524.613032	0.166857
524.829513	0.166612
525.045975	0.165293
525.262420	0.165611
525.478845	0.166488
525.695253	0.166852
525.911643	0.167184
526.128014	0.167324
526.344367	0.167528
526.560702	0.168014
526.777018	0.168325
526.993316	0.169817
527.209597	0.170103
527.425858	0.169303
527.642102	0.169223
527.858328	0.169047
528.074535	0.170018
528.290724	0.170196
528.506894	0.169973
528.723047	0.170309
528.939181	0.170665
529.155297	0.171638
529.371395	0.172538
529.587475	0.173532
529.803536	0.174823
530.019579	0.174194
530.235604	0.173755
530.451611	0.174121
530.667600	0.174426
530.883570	0.173824
531.099522	0.173815
531.315456	0.174190
531.531372	0.174226
531.747269	0.174476
531.963148	0.175192
532.179009	0.176510
532.394852	0.176808
532.610676	0.176824
532.826482	0.177709
533.042271	0.177199
533.258040	0.177212
533.473792	0.177834
533.689525	0.177355
533.905240	0.177727
534.120937	0.177614
534.336616	0.177945
534.552277	0.178313
534.767919	0.178296
534.983543	0.178333
535.199149	0.178454
535.414736	0.178677
535.630306	0.179338
535.845857	0.179563
536.061390	0.180182
536.276904	0.181084
536.492401	0.181663
536.707879	0.182258
536.923339	0.183292
537.138781	0.183660
537.354204	0.183686
537.569610	0.184890
537.784997	0.185122
538.000366	0.185033
538.215716	0.184671
538.431049	0.184530
538.646363	0.185166
538.861659	0.185534
539.076937	0.185663
539.292196	0.185822
539.507438	0.185658
539.722661	0.185650
539.937866	0.185917
540.153052	0.186202
540.368221	0.186551
540.583371	0.186246
540.798503	0.186601
541.013617	0.186723
541.228712	0.187087
541.443789	0.186625
541.658848	0.187444
541.873889	0.187950
542.088912	0.188574
542.303916	0.189297
542.518902	0.189889
542.733870	0.189891
542.948820	0.190141
543.163752	0.190896
543.378665	0.191207
543.593560	0.191394
543.808437	0.191782
544.023295	0.192073
544.238136	0.192371
544.452958	0.192437
544.667762	0.193039
544.882548	0.194070
545.097315	0.193966
545.312064	0.194672
545.526795	0.194975
545.741508	0.195412
545.956203	0.196001
546.170879	0.196175
546.385537	0.197027
546.600177	0.197019
546.814799	0.197062
547.029402	0.197643
547.243988	0.198009
547.458555	0.198400
547.673103	0.198462
547.887634	0.198271
548.102146	0.198181
548.316640	0.198102
548.531116	0.198636
548.745574	0.198671
548.960013	0.198386
549.174435	0.198692
549.388838	0.198748
549.603222	0.199268
549.817589	0.199829
550.031937	0.200259
550.246267	0.200448
550.460579	0.200182
550.674873	0.200483
550.889148	0.201162
551.103405	0.200914
551.317644	0.200961
551.531865	0.200896
551.746068	0.200702
551.960252	0.200854
552.174418	0.201557
552.388566	0.202056
552.602696	0.202402
552.816807	0.202766
553.030900	0.202692
553.244975	0.202602
553.459032	0.203239
553.673070	0.203487
553.887091	0.203761
554.101093	0.203284
554.315077	0.203557
554.529042	0.203648
554.742990	0.203579
554.956919	0.203921
555.170830	0.204866
555.384722	0.204865
555.598597	0.205393
555.812453	0.205733
556.026291	0.206806
556.240111	0.207136
556.453913	0.207383
556.667696	0.207347
556.881461	0.207798
557.095208	0.207577
557.308937	0.207521
557.522647	0.207926
557.736339	0.207821
557.950013	0.207413
558.163669	0.207215
558.377307	0.207367
558.590926	0.208346
558.804527	0.208339
559.018110	0.208310
559.231675	0.208544
559.445221	0.208547
559.658749	0.209003
559.872259	0.208825
560.085751	0.209363
560.299225	0.209705
560.512680	0.209000
560.726117	0.209184
560.939536	0.209649
561.152937	0.209685
561.366319	0.209681
561.579683	0.209898
561.793029	0.210527
562.006357	0.210141
562.219667	0.210523
562.432958	0.210863
562.646231	0.210944
562.859486	0.210780
563.072723	0.210407
563.285941	0.210513
563.499141	0.210543
563.712323	0.211096
563.925487	0.211853
564.138632	0.211672
564.351760	0.211878
564.564869	0.212284
564.777960	0.212844
564.991032	0.213623
565.204087	0.213737
565.417123	0.214200
565.630141	0.213877
565.843140	0.213699
566.056122	0.214115
566.269085	0.214214
566.482030	0.214678
566.694957	0.215301
566.907866	0.215930
567.120756	0.216278
567.333628	0.216360
567.546482	0.216907
567.759318	0.217312
567.972135	0.217403
568.184935	0.217455
568.397716	0.217390
568.610478	0.217245
568.823223	0.216861
569.035949	0.216808
569.248657	0.216592
569.461347	0.216587
569.674019	0.216852
569.886672	0.216805
570.099308	0.216867
570.311925	0.217134
570.524523	0.217083
570.737104	0.217188
570.949666	0.217514
571.162210	0.217986
571.374736	0.217777
571.587244	0.217994
571.799733	0.218002
572.012205	0.218644
572.224658	0.218634
572.437092	0.218806
572.649509	0.219306
572.861907	0.219362
573.074287	0.219748
573.286649	0.219964
573.498993	0.219580
573.711318	0.220120
573.923625	0.220152
574.135914	0.220427
574.348185	0.221126
574.560438	0.221341
574.772672	0.221627
574.984888	0.221411
575.197086	0.221532
575.409266	0.221989
575.621427	0.221949
575.833570	0.222035
576.045695	0.222336
576.257802	0.222222
576.469890	0.222300
576.681961	0.222567
576.894013	0.222322
577.106046	0.222660
577.318062	0.223054
577.530059	0.223133
577.742039	0.223013
577.954000	0.222859
578.165942	0.222581
578.377867	0.222759
578.589773	0.222919
578.801661	0.223219
579.013531	0.223414
579.225382	0.222975
579.437216	0.223304
579.649031	0.223840
579.860828	0.223944
580.072606	0.224842
580.284367	0.224992
580.496109	0.225143
580.707833	0.225876
580.919539	0.226144
581.131227	0.226877
581.342896	0.226722
581.554547	0.226549
581.766180	0.227061
581.977795	0.226765
582.189391	0.226905
582.400969	0.227046
582.612529	0.226752
582.824071	0.226516
583.035595	0.226448
583.247100	0.226684
583.458587	0.227173
583.670056	0.227282
583.881506	0.227195
584.092939	0.227146
584.304353	0.227065
584.515749	0.227523
584.727127	0.228029
584.938486	0.228360
585.149828	0.228741
585.361151	0.228731
585.572456	0.228815
585.783742	0.229336
585.995011	0.229545
586.206261	0.229870
586.417493	0.229773
586.628706	0.230044
586.839902	0.230104
587.051079	0.230089
587.262238	0.230244
587.473379	0.230336
587.684502	0.230298
587.895606	0.230671
588.106692	0.230206
588.317760	0.230423
588.528810	0.230042
588.739841	0.230274
588.950855	0.230944
589.161850	0.231188
589.372827	0.231323
589.583785	0.231822
589.794726	0.232053
590.005648	0.232253
590.216552	0.232378
590.427437	0.232581
590.638305	0.232756
590.849154	0.232589
591.059985	0.233237
591.270798	0.233267
591.481592	0.233094
591.692369	0.233128
591.903127	0.233561
592.113867	0.233626
592.324588	0.234189
592.535292	0.233911
592.745977	0.233772
592.956644	0.233566
593.167293	0.233689
593.377923	0.233942
593.588536	0.234157
593.799130	0.234671
594.009706	0.235127
594.220263	0.234795
594.430803	0.235361
594.641324	0.235668
594.851827	0.235731
595.062312	0.236168
595.272778	0.236218
595.483227	0.236080
595.693657	0.235837
595.904069	0.235857
596.114462	0.236099
596.324838	0.236186
596.535195	0.236526
596.745534	0.237037
596.955855	0.237114
597.166157	0.237089
597.376441	0.237361
597.586707	0.237667
597.796955	0.237942
598.007185	0.238183
598.217396	0.238361
598.427589	0.237942
598.637764	0.237619
598.847921	0.237546
599.058060	0.237623
599.268180	0.238369
599.478282	0.238688
599.688366	0.238934
599.898431	0.239062
600.108479	0.239315
600.318508	0.239775
600.528519	0.240258
600.738511	0.240815
600.948486	0.241073
601.158442	0.240588
601.368380	0.240771
601.578300	0.240626
601.788202	0.240901
601.998085	0.240912
602.207950	0.241185
602.417797	0.241123
602.627626	0.241014
602.837436	0.241348
603.047228	0.241602
603.257002	0.241239
603.466758	0.241541
603.676496	0.241543
603.886215	0.241829
604.095916	0.241919
604.305599	0.241724
604.515264	0.241920
604.724910	0.241711
604.934538	0.242012
605.144148	0.242414
605.353740	0.242642
605.563314	0.242826
605.772869	0.242553
605.982406	0.242684
606.191925	0.243189
606.401425	0.243620
606.610908	0.244211
606.820372	0.244219
607.029818	0.244487
607.239246	0.244632
607.448655	0.245105
607.658047	0.245362
607.867420	0.245711
608.076775	0.245688
608.286111	0.245607
608.495430	0.245700
608.704730	0.245707
608.914012	0.245800
609.123275	0.245875
609.332521	0.245905
609.541748	0.246252
609.750957	0.246431
609.960148	0.246565
610.169321	0.246456
610.378475	0.246662
610.587611	0.247117
610.796729	0.247352
611.005829	0.247393
611.214910	0.247296
611.423974	0.247556
611.633019	0.247554
611.842045	0.247866
612.051054	0.248143
612.260044	0.248184
612.469017	0.248177
612.677970	0.247996
612.886906	0.248325
613.095824	0.248695
613.304723	0.248632
613.513604	0.248679
613.722467	0.248844
613.931311	0.249019
614.140138	0.249174
614.348946	0.249183
614.557736	0.249505
614.766507	0.249225
614.975261	0.249048
615.183996	0.249395
615.392713	0.249701
615.601412	0.249998
615.810092	0.250148
616.018754	0.250522
616.227399	0.250663
616.436024	0.250560
616.644632	0.251060
616.853222	0.251268
617.061793	0.251085
617.270346	0.251130
617.478880	0.250941
617.687397	0.251303
617.895895	0.251214
618.104375	0.251290
618.312837	0.251774
618.521281	0.251694
618.729706	0.252148
618.938113	0.252135
619.146502	0.252320
619.354873	0.252726
619.563226	0.252638
619.771560	0.252801
619.979876	0.252688
620.188174	0.252483
620.396453	0.252937
620.604715	0.252699
620.812958	0.253056
621.021183	0.253161
621.229390	0.253112
621.437578	0.253139
621.645748	0.253400
621.853900	0.254123
622.062034	0.254484
622.270150	0.254446
622.478247	0.254700
622.686326	0.254860
622.894387	0.255148
623.102430	0.255204
623.310454	0.255483
623.518461	0.255336
623.726449	0.255070
623.934418	0.255147
624.142370	0.255450
624.350303	0.255694
624.558218	0.255612
624.766115	0.255475
624.973994	0.255736
625.181855	0.255651
625.389697	0.255756
625.597521	0.256277
625.805327	0.256252
626.013114	0.256384
626.220883	0.256373
626.428634	0.257019
626.636367	0.257389
626.844082	0.257479
627.051778	0.257905
627.259457	0.258379
627.467117	0.258265
627.674758	0.258836
627.882382	0.258901
628.089987	0.258997
628.297574	0.258858
628.505143	0.258776
628.712694	0.258857
628.920226	0.258950
629.127740	0.258598
629.335236	0.258624
629.542714	0.258632
629.750174	0.258788
629.957615	0.259237
630.165038	0.259408
630.372443	0.259818
630.579829	0.260166
630.787198	0.260493
630.994548	0.261206
631.201880	0.261259
631.409194	0.261541
631.616489	0.261485
631.823766	0.261711
632.031025	0.261744
632.238266	0.261675
632.445489	0.261734
632.652693	0.261762
632.859879	0.261659
633.067047	0.261980
633.274197	0.261920
633.481329	0.262068
633.688442	0.261993
633.895537	0.262114
634.102614	0.262552
634.309672	0.262797
634.516713	0.262860
634.723735	0.263081
634.930739	0.263267
635.137724	0.263413
635.344692	0.263777
635.551641	0.264032
635.758572	0.264355
635.965485	0.264298
636.172379	0.264293
636.379256	0.264406
636.586114	0.264344
636.792954	0.264603
636.999775	0.264835
637.206579	0.264799
637.413364	0.265101
637.620131	0.265328
637.826880	0.265440
638.033610	0.265864
638.240323	0.266140
638.447017	0.266732
638.653692	0.266866
638.860350	0.267130
639.066990	0.267368
639.273611	0.267421
639.480214	0.267354
639.686798	0.267462
639.893365	0.267480
640.099913	0.267814
640.306443	0.267804
640.512955	0.267608
640.719449	0.267558
640.925924	0.267774
641.132381	0.267888
641.338820	0.268376
641.545241	0.268817
641.751644	0.268834
641.958028	0.268743
642.164394	0.268553
642.370742	0.269081
642.577071	0.269293
642.783383	0.269759
642.989676	0.269991
643.195951	0.270251
643.402207	0.270156
643.608446	0.270635
643.814666	0.271008
644.020868	0.271339
644.227052	0.271491
644.433218	0.271837
644.639365	0.271876
644.845494	0.271849
645.051605	0.271683
645.257698	0.271959
645.463772	0.272075
645.669828	0.272064
645.875866	0.272210
646.081886	0.272323
646.287888	0.272142
646.493871	0.272183
646.699836	0.272581
646.905783	0.272982
647.111712	0.273160
647.317622	0.273269
647.523514	0.273493
647.729388	0.273987
647.935244	0.274038
648.141082	0.274477
648.346901	0.274863
648.552702	0.274970
648.758485	0.274860
648.964250	0.275062
649.169996	0.275196
649.375724	0.275446
649.581434	0.275661
649.787126	0.276147
649.992800	0.276349
650.198455	0.276407
650.404092	0.276570
650.609711	0.276816
650.815311	0.277153
651.020894	0.277258
651.226458	0.277514
651.432004	0.277587
651.637532	0.277728
651.843041	0.277890
652.048532	0.278041
652.254006	0.278396
652.459460	0.278637
652.664897	0.278837
652.870315	0.279125
653.075716	0.278901
653.281097	0.279019
653.486461	0.279071
653.691807	0.279301
653.897134	0.279228
654.102443	0.279395
654.307734	0.279826
654.513006	0.279581
654.718261	0.279823
654.923497	0.280459
655.128715	0.280358
655.333915	0.280243
655.539096	0.280200
655.744259	0.280467
655.949404	0.280153
656.154531	0.280163
656.359640	0.280461
656.564730	0.280521
656.769802	0.280608
656.974856	0.280773
657.179892	0.281303
657.384909	0.281593
657.589908	0.281945
657.794889	0.282628
657.999852	0.282787
658.204797	0.283368
658.409723	0.283686
658.614631	0.284108
658.819521	0.284689
659.024393	0.285121
659.229246	0.285530
659.434081	0.285542
659.638898	0.285659
659.843697	0.285831
660.048478	0.286040
660.253240	0.286184
660.457984	0.286001
660.662710	0.286104
660.867417	0.286325
661.072107	0.286418
661.276778	0.286824
661.481431	0.286917
661.686066	0.287281
661.890682	0.287232
662.095281	0.287297
662.299861	0.287587
662.504422	0.287900
662.708966	0.288109
662.913491	0.288564
663.117999	0.288817
663.322488	0.288944
663.526958	0.288920
663.731411	0.289384
663.935845	0.289715
664.140261	0.290210
664.344659	0.290672
664.549038	0.290516
664.753400	0.290510
664.957743	0.290730
665.162068	0.291101
665.366375	0.291484
665.570663	0.291318
665.774933	0.291406
665.979185	0.291216
666.183419	0.290963
666.387635	0.291396
666.591832	0.291538
666.796011	0.291459
667.000172	0.291478
667.204315	0.291646
667.408439	0.292065
667.612545	0.292387
667.816634	0.292772
668.020703	0.293291
668.224755	0.293531
668.428788	0.293638
668.632803	0.293947
668.836800	0.294341
669.040779	0.294475
669.244739	0.294554
669.448681	0.294861
669.652605	0.294978
669.856511	0.294919
670.060399	0.295040
670.264268	0.295414
670.468119	0.295886
670.671952	0.296098
670.875767	0.296311
671.079563	0.296489
671.283341	0.296381
671.487101	0.296549
671.690843	0.296833
671.894567	0.296892
672.098272	0.297088
672.301959	0.297086
672.505628	0.297282
672.709278	0.297570
672.912911	0.297894
673.116525	0.298516
673.320121	0.298923
673.523699	0.299239
673.727258	0.299582
673.930799	0.299802
674.134322	0.300395
674.337827	0.300465
674.541314	0.300852
674.744782	0.301121
674.948232	0.301159
675.151664	0.301212
675.355078	0.301130
675.558474	0.301378
675.761851	0.301552
675.965210	0.301232
676.168551	0.301485
676.371873	0.301614
676.575178	0.301632
676.778464	0.301829
676.981732	0.301979
677.184981	0.302405
677.388213	0.302699
677.591426	0.303156
677.794621	0.303540
677.997798	0.303814
678.200956	0.303944
678.404097	0.304116
678.607219	0.304366
678.810323	0.304500
679.013408	0.304471
679.216476	0.304830
679.419525	0.304825
679.622556	0.305253
679.825569	0.305418
680.028563	0.305493
680.231540	0.305695
680.434498	0.305995
680.637438	0.306506
680.840359	0.306943
681.043263	0.306881
681.246148	0.307146
681.449015	0.306905
681.651864	0.307214
681.854694	0.307604
682.057506	0.307723
682.260301	0.307669
682.463076	0.307914
682.665834	0.307925
682.868573	0.308343
683.071295	0.308314
683.273998	0.308953
683.476682	0.309254
683.679349	0.309334
683.881997	0.309741
684.084627	0.310251
684.287239	0.310340
684.489833	0.310855
684.692408	0.310770
684.894965	0.311358
685.097504	0.311063
685.300025	0.311085
685.502527	0.311105
685.705012	0.311261
685.907478	0.311206
686.109925	0.311213
686.312355	0.311459
686.514766	0.311843
686.717159	0.311760
686.919534	0.312125
687.121891	0.312248
687.324230	0.312491
687.526550	0.312871
687.728852	0.313217
687.931136	0.313583
688.133401	0.313527
688.335649	0.313625
688.537878	0.313828
688.740089	0.314040
688.942281	0.314369
689.144456	0.314758
689.346612	0.314769
689.548750	0.314867
689.750870	0.315058
689.952971	0.315336
690.155055	0.315618
690.357120	0.316012
690.559167	0.316335
690.761195	0.316315
690.963206	0.316376
691.165198	0.316625
691.367172	0.316918
691.569128	0.317039
691.771065	0.317126
691.972984	0.317102
692.174885	0.317123
692.376768	0.317516
692.578633	0.317646
692.780479	0.317848
692.982308	0.317882
693.184118	0.317802
693.385909	0.317885
