sample name	sample
index	91
start time	 02-15-2021  10:32:02 AM
880	0.318160
Peak Time (s)	92.537
Peak Height 	0.3182
calc peak height	90,93
Baseline Time (s)	10.037
Baseline Value 	-0.003062
subtract baseline	10,4
Abs	0.233684
Peak Time (s)	92.537
Peak Height 	0.2337
calc peak height	90,93
Baseline Time (s)	10.537
Baseline Value 	0.006654
subtract baseline	10,3
PK_550	0.105503
Peak Time (s)	91.535
Peak Height 	0.1055
calc peak height	90,93
Baseline Time (s)	11.037
Baseline Value 	0.001534
subtract baseline	10,2
PK_880	0.208598
Peak Time (s)	91.535
Peak Height 	0.2086
calc peak height	90,93
Baseline Time (s)	11.037
Baseline Value 	0.004446
subtract baseline	10,1


Time (s)	A880-A510	A880-A775	A880-A975	A880	I510	I775	I975	I880	
0.035500	-0.003346	-0.001367	0.002342	-0.000954	4251.553521	16022.343955	3180.409251	9015.462558
0.536000	-0.006335	-0.002255	-0.006020	0.001232	4235.090377	15929.834782	3171.561942	8984.470368
1.036500	-0.004039	-0.001662	-0.008975	0.002817	4237.339895	15900.154985	3167.819961	8962.102654
1.537000	-0.001412	-0.001055	-0.000306	-0.000475	4256.215505	16017.308537	3177.763529	9008.654983
2.037000	0.000046	-0.000988	0.004168	-0.001662	4264.735103	16055.206331	3182.566309	9025.531477
2.537000	-0.001832	-0.001773	-0.014260	-0.002766	4262.235381	16064.852470	3168.064293	9041.261149
3.040000	-0.009253	-0.002800	-0.002837	0.000559	4228.009059	15933.691377	3174.770778	8993.991608
3.535000	-0.001659	-0.000451	0.000349	-0.000131	4254.320048	16025.133660	3178.025746	9003.767991
4.035500	-0.001930	-0.002071	0.006435	-0.001541	4257.976916	16018.812796	3184.403827	9023.811918
4.536000	-0.001347	-0.001519	-0.001957	-0.000582	4256.769719	16006.549402	3176.465318	9010.179890
5.036000	-0.003054	-0.000921	-0.010696	0.003506	4238.278655	15901.683872	3165.849466	8952.399394
5.536000	-0.002740	-0.000263	-0.005669	-0.000934	4253.427435	16055.099635	3173.653260	9015.168761
6.037000	-0.004753	-0.000537	0.004596	-0.001047	4247.353852	16050.254080	3182.407098	9016.786167
6.536500	-0.003370	-0.000916	0.000357	-0.001004	4251.636329	16037.464401	3178.769932	9016.171017
7.037500	-0.003725	-0.000681	-0.011489	-0.000622	4249.278163	16033.035890	3168.578950	9010.744502
7.534500	-0.001838	0.000826	-0.003155	0.000592	4251.430691	16041.870609	3174.477386	8993.520786
8.035500	0.000338	-0.000742	0.002142	-0.000789	4262.857927	16036.218158	3180.098801	9013.112420
8.535000	0.000372	0.001761	0.008705	0.001127	4256.800847	16053.981640	3184.062047	8985.948709
9.035500	-0.003809	0.000363	0.011159	0.000432	4245.648717	16032.742846	3186.772080	8995.799092
9.535500	-0.001114	-0.000268	-0.004453	-0.000211	4256.326476	16033.086666	3174.064755	9004.910756
10.036500	0.002862	0.000680	0.002639	0.000000	4268.468603	16055.385135	3179.851766	9001.916018
10.536500	0.000643	-0.000014	0.000000	0.000359	4260.142340	16023.552936	3177.318897	8996.824299
11.036500	0.000000	0.000000	-0.002394	-0.000056	4259.409810	16036.518416	3175.657114	9002.714930
11.537000	-0.000767	-0.000086	-0.008897	-0.000380	4257.983586	16043.714092	3170.515121	9007.306468
12.037000	0.000537	0.000770	0.006455	0.000705	4258.688496	16036.765519	3182.498246	8991.922872
12.535000	0.001637	-0.000245	0.003248	-0.000052	4264.676257	16029.007138	3180.413159	9002.659702
13.037500	0.002701	0.000406	-0.007257	-0.000665	4270.100465	16067.217239	3172.109357	9011.346958
13.535000	-0.000051	-0.000651	-0.000071	-0.002117	4265.890915	16079.203079	3179.349434	9032.005852
14.035500	-0.003143	0.000537	-0.012008	0.004165	4235.910360	15925.631328	3164.245986	8943.138773
14.536000	-0.001681	-0.001273	-0.005741	0.001532	4248.926374	15950.324267	3171.544883	8980.229780
15.041500	-0.002063	-0.000253	-0.004540	-0.000239	4253.371208	16034.389873	3174.015472	9005.304843
15.536500	-0.000045	0.000875	0.004225	-0.000575	4260.936235	16078.724676	3181.687855	9010.074185
16.037000	0.001286	-0.000527	0.002544	0.000362	4262.205390	16007.949162	3179.464008	8996.779963
16.537000	-0.000779	-0.000578	-0.002292	-0.001452	4261.395289	16061.242886	3176.914460	9022.538785
17.035000	-0.005366	-0.000102	-0.004773	0.003603	4230.661651	15923.314588	3170.631950	8951.031448
17.538000	0.003124	0.001794	0.002925	0.001895	4263.187037	16031.744932	3178.490295	8975.098146
18.035000	-0.000690	0.002625	0.002838	0.003434	4246.021108	16010.386203	3177.119872	8953.414435
18.535000	-0.001558	-0.000169	0.002517	0.000942	4251.208897	16001.283764	3178.951004	8988.578689
19.035500	0.000989	0.000700	-0.007557	0.001492	4257.609861	16010.902967	3170.075963	8980.791115
19.536000	-0.002341	0.000159	0.004527	0.001749	4246.129263	15986.852605	3179.969577	8977.163812
20.036500	-0.001189	0.000070	0.003102	0.002038	4248.883587	15975.472372	3178.518990	8973.087646
20.536500	-0.000395	-0.000616	-0.005722	0.000937	4254.950401	15987.964228	3172.054066	8988.646221
21.037000	-0.001762	0.000110	-0.000891	0.002244	4246.396365	15970.463889	3174.989565	8970.170247
21.537000	0.004857	0.000679	0.004494	0.002634	4266.398784	15975.841680	3179.192100	8964.674214
22.037500	0.000924	-0.000118	0.002175	0.002549	4254.008775	15954.456364	3177.306211	8965.874071
22.537500	0.000812	-0.001171	-0.003886	0.002014	4255.367211	15938.905618	3172.684348	8973.423527
23.038500	-0.000209	0.002457	0.005090	0.003457	4247.482758	16004.627422	3179.000218	8953.087308
23.535500	0.003052	0.003351	0.009397	0.004819	4253.553031	15990.496778	3181.498900	8933.948869
24.036000	0.004399	0.002198	0.000648	0.004288	4259.588274	15971.795057	3174.567242	8941.411453
24.536000	-0.004212	0.001968	-0.006284	0.003390	4234.979801	15991.930211	3169.561237	8954.034970
25.109000	0.001153	0.000114	0.005894	0.001564	4257.905076	15991.068474	3181.288152	8979.776195
25.536500	-0.000568	-0.000064	0.002147	0.002779	4248.499288	15949.150131	3177.089145	8962.631140
26.034000	0.005352	-0.000128	-0.004580	0.002444	4268.616927	15957.287708	3171.750518	8967.352625
26.536000	0.000385	0.002375	-0.002364	0.004291	4246.717471	15977.042898	3172.057595	8941.371685
27.034500	-0.001849	-0.000866	-0.013056	-0.000649	4255.373881	16028.271891	3167.316647	9011.132272
27.535000	-0.000408	0.001792	0.019181	0.001174	4254.148700	16053.518801	3193.112669	8985.297043
28.035500	0.001662	0.000314	0.002162	0.001465	4259.862639	16000.088461	3178.209452	8981.179007
28.536000	0.000188	0.001633	0.001484	0.001362	4255.455356	16043.008764	3177.724092	8982.626124
29.036000	-0.001253	0.000116	-0.003690	0.006848	4233.402436	15832.913322	3168.850033	8905.572339
29.536000	0.002923	0.001432	0.000251	0.002079	4261.948565	16015.294747	3176.084618	8972.507934
30.037000	0.000452	0.000618	-0.003335	0.001953	4254.403894	15994.509582	3173.193067	8974.276253
30.537000	-0.002377	0.000452	0.006378	0.003763	4239.609027	15935.124499	3179.831781	8948.786710
31.037000	0.001731	0.000661	-0.002328	0.004621	4249.957480	15915.671729	3171.812660	8936.727477
31.537500	-0.000423	-0.000460	-0.002151	0.000239	4257.100311	16013.723599	3175.613168	8998.531768
32.038000	-0.001646	0.000357	-0.004970	0.003260	4243.529835	15947.344625	3170.752309	8955.853612
32.535000	0.004227	0.001095	-0.004762	0.001686	4267.427271	16016.961934	3172.228665	8978.051763
33.035500	-0.004565	0.000399	0.002270	0.006480	4224.137611	15852.328189	3174.092108	8910.712366
33.536000	0.003625	0.002854	0.008862	0.005481	4253.270069	15955.641175	3180.481084	8924.677868
34.036000	-0.002034	0.000426	-0.003254	0.004310	4238.962666	15917.956590	3171.303632	8941.104299
34.536500	0.000680	0.000767	-0.005634	0.004416	4247.259037	15924.991297	3169.251165	8939.610615
35.037000	0.002550	0.000591	-0.006761	0.005556	4249.588942	15885.622624	3167.389754	8923.634704
35.537000	0.000288	0.000719	0.005867	0.004553	4245.570454	15919.424850	3178.729962	8937.680402
36.037000	-0.000295	0.000465	-0.001034	0.004273	4244.605309	15920.203439	3173.177213	8941.615699
36.537500	0.003625	0.000603	-0.002356	0.004444	4256.594961	15919.227553	3171.936858	8939.218995
37.034500	0.000130	0.001102	0.008226	0.005038	4243.524795	15916.399304	3180.317811	8930.889730
37.535500	-0.001274	0.000570	-0.011230	0.004569	4240.552037	15914.517680	3164.549672	8937.464302
38.035500	0.000819	0.000123	0.001442	0.003971	4249.122773	15919.037122	3175.497009	8945.864017
38.535500	0.000300	0.001049	0.006601	0.004920	4244.440976	15918.344301	3179.040860	8932.546179
39.036000	0.002651	0.000821	0.001825	0.005030	4251.594876	15908.215529	3174.931485	8931.001690
39.536500	0.001125	0.003527	0.015207	0.006333	4242.571410	15950.268437	3185.175055	8912.761459
40.037000	-0.002088	-0.000350	-0.003247	0.003893	4240.113982	15907.208479	3171.654879	8946.962110
40.537000	0.000431	0.002174	-0.004418	0.005662	4242.499274	15929.824656	3169.226894	8922.150315
41.038000	0.001891	0.000793	0.013884	0.004737	4250.101357	15916.157951	3185.409472	8935.104327
41.535000	0.002451	0.001288	-0.007359	0.004674	4252.092962	15932.860164	3167.622140	8935.984427
42.035000	-0.002472	0.001711	0.000078	0.006549	4230.497615	15889.397755	3172.209885	8909.737544
42.534500	0.001635	0.000666	-0.000388	0.005238	4247.681825	15897.361124	3172.912069	8928.081372
43.035500	0.001926	0.002344	0.009619	0.005593	4247.479003	15936.992848	3181.029394	8923.111091
43.539000	0.002059	0.002353	-0.005763	0.000885	4263.013762	16079.265665	3172.063447	8989.383436
44.036000	0.002860	0.001385	0.004461	0.004061	4255.369385	15954.180587	3177.958802	8944.600119
44.537500	0.000357	0.000911	0.007094	0.003117	4250.373993	15968.294733	3180.987169	8957.869527
45.037000	0.000140	0.001326	-0.006409	0.007632	4235.325710	15845.577866	3165.980274	8894.626299
45.537000	0.003325	0.000827	0.003299	0.002690	4261.272262	15978.618659	3178.134761	8963.888990
46.040500	0.000785	0.001177	-0.000259	0.004158	4248.418703	15945.029331	3173.919298	8943.238008
46.535000	0.006727	0.001827	0.004011	0.002457	4273.034685	16015.761871	3178.932895	8967.166244
47.035500	0.004283	0.001416	0.005039	0.006730	4251.374415	15875.181710	3176.199348	8907.211405
47.535500	0.002430	0.001515	0.006378	0.006248	4246.995887	15892.548565	3177.730703	8913.949164
48.038500	0.000869	0.001457	-0.003833	0.004810	4246.603239	15933.853006	3170.411666	8934.083810
48.536500	-0.001512	0.000712	-0.005963	0.002420	4246.632785	15983.316905	3170.626390	8967.700389
49.036500	0.002423	0.000792	-0.006809	0.007183	4243.997634	15843.062821	3166.021139	8900.898833
49.536000	0.003302	0.001571	-0.000282	0.000861	4267.105078	16056.302299	3176.660057	8989.720339
50.037000	0.000409	-0.000031	0.006852	0.005592	4242.649821	15865.935111	3178.684431	8923.120867
50.540000	-0.065096	-0.035715	0.021238	0.168231	3678.348380	11115.654806	3072.555534	7023.997304
51.035000	-0.040763	-0.019802	0.002542	0.026687	4058.196459	14702.271374	3157.833564	8634.860826
51.535000	0.013040	-0.003035	0.000945	-0.088665	4628.000815	18895.745115	3261.474900	10396.817690
52.035500	-0.010726	-0.006053	-0.013111	-0.089960	4538.937090	18832.482893	3248.452167	10419.383906
52.535500	-0.010279	-0.006069	-0.018126	-0.106972	4607.735198	19468.009151	3260.684426	10722.035149
53.035500	-0.006654	-0.003905	-0.013662	-0.098390	4587.918307	19225.043587	3256.446276	10567.865674
53.536500	-0.003517	-0.008380	0.013358	-0.069944	4490.199308	18033.921981	3254.988855	10078.126130
54.037000	0.003853	-0.005717	0.002515	-0.033764	4385.674740	16910.530384	3209.501331	9499.831235
54.537000	0.012276	-0.004115	0.030338	0.008431	4271.654806	15661.042410	3196.552686	8883.509763
55.037000	0.026805	-0.000852	0.039461	0.039169	4220.002815	14879.238533	3177.867517	8470.775605
55.537500	0.036977	0.000914	0.051677	0.071694	4151.862087	14060.746685	3161.139624	8064.713720
56.035500	0.044454	0.005704	0.055862	0.093264	4110.668680	13638.040224	3147.427479	7811.712989
56.535500	0.063170	0.010544	0.069452	0.106973	4125.149160	13421.143207	3147.335145	7657.318724
57.035500	0.076317	0.016161	0.093070	0.128055	4102.275517	13053.378394	3149.300992	7429.211847
57.536000	0.085716	0.024302	0.089866	0.160216	4038.929682	12507.504349	3122.900302	7101.870905
58.036000	0.111354	0.035521	0.125019	0.174714	4069.517763	12435.316660	3138.058300	6962.054313
58.536500	0.121613	0.042783	0.135337	0.192794	4047.961399	12200.934410	3132.277675	6794.106436
59.036500	0.136009	0.052266	0.139534	0.210884	4037.912263	12018.573804	3122.184880	6632.911631
59.534500	0.147275	0.061135	0.158683	0.228535	4020.749348	11836.218014	3123.257780	6481.980879
60.040000	0.153351	0.065466	0.168207	0.238687	4009.920498	11717.351591	3122.807433	6397.906215
60.535000	0.159226	0.069239	0.175652	0.244273	4010.685785	11680.636336	3124.142017	6352.476557
61.035000	0.169765	0.075120	0.170903	0.251036	4020.719407	11662.849453	3115.969625	6298.255021
61.535500	0.171141	0.077508	0.193459	0.249288	4029.085542	11746.634320	3133.481743	6312.189331
62.035500	0.176722	0.082758	0.183708	0.253706	4032.214777	11763.560748	3123.153120	6277.075463
62.536000	0.170032	0.080689	0.187344	0.253035	4016.104213	11735.096212	3126.256539	6282.381234
63.059500	0.177853	0.084886	0.191807	0.253903	4034.735399	11803.020626	3128.871758	6275.517707
63.536500	0.177347	0.084885	0.188470	0.255540	4028.961576	11769.531714	3125.259535	6262.600844
64.037000	0.178709	0.086166	0.186807	0.259794	4021.216555	11709.097265	3121.017253	6229.277734
64.537500	0.176116	0.085374	0.197384	0.259002	4016.414794	11709.082287	3129.220974	6235.454882
65.037500	0.179663	0.087367	0.192845	0.264225	4011.968775	11643.863038	3122.163329	6194.899698
65.535000	0.184468	0.088686	0.190231	0.264449	4024.164806	11665.925226	3120.141434	6193.171928
66.035000	0.184484	0.087863	0.182974	0.266749	4018.068841	11603.181141	3113.428184	6175.479675
66.535000	0.182890	0.090911	0.203694	0.269569	4006.374750	11607.746909	3126.123787	6153.914691
67.036000	0.184744	0.090074	0.200598	0.271120	4007.174920	11560.042337	3122.777378	6142.113251
67.536000	0.187841	0.090791	0.198305	0.271308	4014.873003	11570.577403	3121.005530	6140.681744
68.036500	0.183191	0.088971	0.202055	0.272781	3998.728347	11505.143773	3122.630872	6129.515183
68.537000	0.187140	0.092403	0.208052	0.274246	4005.250411	11544.172087	3125.892227	6118.447406
69.037000	0.184819	0.095645	0.211800	0.278908	3987.011429	11516.006107	3125.232940	6083.483159
69.540500	0.193635	0.096146	0.206684	0.279916	4007.422308	11505.929979	3120.842189	6075.964476
70.037500	0.187531	0.094519	0.201977	0.280646	3989.535213	11459.404999	3116.995927	6070.536487
70.535000	0.192720	0.093820	0.198970	0.280122	4004.471091	11455.963726	3115.255632	6074.432680
71.035000	0.185932	0.095302	0.212236	0.283414	3978.252546	11420.417609	3122.307580	6050.034463
71.536000	0.190127	0.096579	0.205916	0.284894	3985.254563	11416.426907	3116.779171	6039.122777
72.038500	0.193646	0.093545	0.205820	0.283976	3996.790251	11375.084416	3117.356797	6045.884059
72.536500	0.195639	0.096450	0.212205	0.287459	3992.903980	11363.821481	3119.406405	6020.303071
73.036500	0.194642	0.094898	0.196159	0.288421	3987.813526	11315.027863	3107.589635	6013.276236
73.537000	0.193227	0.095909	0.201067	0.288397	3984.212737	11335.065421	3110.968044	6013.447907
74.037500	0.194935	0.095697	0.216072	0.290391	3983.473092	11292.379238	3120.069600	5998.926935
74.536500	0.197203	0.099387	0.226811	0.292616	3983.586089	11320.717521	3126.174498	5982.804712
75.035000	0.194328	0.094936	0.197202	0.291112	3980.048839	11263.824559	3106.468725	5993.695433
75.534500	0.194244	0.099338	0.216827	0.295088	3969.643370	11272.022927	3117.283690	5964.983023
76.035500	0.198198	0.099863	0.198049	0.296859	3975.228304	11248.062086	3103.161995	5952.280816
76.536000	0.199083	0.100960	0.220735	0.297396	3976.116866	11258.815160	3118.410899	5948.432541
77.036000	0.196692	0.099371	0.204364	0.296803	3971.513282	11239.682516	3107.468519	5952.676315
77.536000	0.196996	0.099655	0.204705	0.296450	3973.195344	11251.920219	3107.941553	5955.206067
78.036500	0.199098	0.101123	0.224534	0.301636	3965.328085	11180.788599	3118.099553	5918.265851
78.537000	0.203240	0.102069	0.202409	0.301358	3976.618361	11204.136398	3103.068679	5920.235321
79.040500	0.194944	0.098830	0.214071	0.299235	3960.883993	11182.848037	3112.464609	5935.311311
79.537500	0.200432	0.100297	0.206445	0.300551	3971.493025	11185.737627	3106.335371	5925.958672
80.035000	0.200948	0.100649	0.229225	0.303829	3964.457162	11130.155087	3119.867425	5902.776435
80.535500	0.201040	0.103163	0.222153	0.303715	3964.981337	11180.052052	3114.969453	5903.580219
81.035500	0.207690	0.103215	0.222307	0.304988	3978.726472	11156.832372	3114.189807	5894.627532
81.535500	0.203932	0.102016	0.222529	0.304967	3969.155165	11134.499131	3114.358399	5894.772792
82.036000	0.204392	0.100858	0.234068	0.304483	3971.564371	11121.737467	3122.854237	5898.174189
82.539500	0.200597	0.101273	0.215107	0.305928	3958.253190	11102.269443	3108.572816	5888.024624
83.037000	0.206624	0.103463	0.225560	0.309452	3964.591257	11077.150727	3113.346814	5863.418701
83.539500	0.203274	0.102190	0.232108	0.306562	3963.426255	11107.626910	3119.974253	5883.586288
84.037500	0.208116	0.103904	0.223295	0.308525	3970.752689	11102.917165	3112.419078	5869.871477
84.535000	0.206975	0.103910	0.214062	0.309194	3966.140558	11090.403684	3105.640089	5865.213071
85.035000	0.207141	0.102070	0.224081	0.308599	3968.076529	11066.996521	3112.912390	5869.357938
85.535500	0.206318	0.103346	0.217354	0.309947	3962.559433	11065.640323	3107.363790	5859.977566
86.036000	0.201301	0.102392	0.227478	0.309955	3949.896838	11047.604652	3114.331803	5859.926822
86.536000	0.206151	0.101575	0.233562	0.310120	3961.699776	11029.215806	3118.483937	5858.780719
87.036500	0.207360	0.103660	0.213528	0.312442	3958.884482	11024.782974	3103.092124	5842.698952
87.536500	0.200956	0.097769	0.222160	0.307794	3954.456743	11001.595887	3112.139957	5874.975828
88.037000	0.205713	0.103607	0.229703	0.312979	3953.380331	11013.756173	3113.774921	5838.990071
88.537000	0.205705	0.103052	0.218583	0.312613	3954.278824	11010.224538	3106.386909	5841.514378
89.034500	0.202952	0.099608	0.236822	0.310302	3953.168072	10989.123074	3120.665559	5857.512490
89.535000	0.206503	0.101762	0.222257	0.311862	3958.184018	11000.177102	3109.404758	5846.703797
90.035500	0.198266	0.099970	0.230549	0.312100	3936.993425	10962.444946	3114.977268	5845.061065
90.536000	0.208511	0.103419	0.219091	0.315724	3953.513931	10959.204762	3104.626405	5820.114389
91.036000	0.205914	0.101981	0.205651	0.313895	3951.585322	10966.447606	3096.899247	5832.679967
91.535500	0.208598	0.105503	0.228315	0.317636	3948.934114	10962.391553	3109.599721	5807.036594
92.035500	0.208570	0.102415	0.221431	0.316319	3952.168095	10929.621865	3105.805909	5816.042402
92.536500	0.205224	0.104579	0.233684	0.318160	3939.219523	10935.589297	3112.941172	5803.464008
93.079500	0.208564	0.101120	0.222998	0.314140	3957.635387	10945.967387	3108.353203	5830.993799
93.534500	0.209468	0.103492	0.224659	0.316369	3954.298241	10948.624449	3107.965893	5815.701198
94.034500	0.207774	0.104804	0.231036	0.319301	3942.722632	10918.671933	3110.325436	5795.701310
94.535000	0.204001	0.101936	0.214554	0.317087	3938.848367	10906.620284	3100.674433	5810.789543
95.035000	0.204366	0.099844	0.231560	0.315747	3943.085784	10892.771936	3113.142229	5819.958391
95.536000	0.205392	0.102107	0.218742	0.317639	3940.929352	10899.606580	3103.102934	5807.016019
96.035500	0.206565	0.102650	0.226707	0.317717	3943.654277	10908.169404	3108.443506	5806.485608
