sample name	sample
index	477
start time	 03-11-2021  12:50:43 PM


Wavelength (nm)	Absorbance
494.344910	-0.143411
494.563924	-0.143411
494.782919	-0.143411
495.001897	0.704497
495.220856	-0.034946
495.439797	-0.046087
495.658719	0.003883
495.877624	0.126153
496.096510	0.054166
496.315378	0.016733
496.534227	-0.008652
496.753059	-0.058370
496.971872	-0.029799
497.190667	0.056000
497.409444	0.064839
497.628203	0.066332
497.846943	0.067678
498.065665	0.068502
498.284369	0.068728
498.503055	0.068062
498.721723	0.068969
498.940372	0.069119
499.159003	0.068961
499.377616	0.067934
499.596210	0.068132
499.814787	0.066790
500.033345	0.066689
500.251885	0.066703
500.470406	0.067227
500.688910	0.066057
500.907395	0.066039
501.125862	0.065842
501.344311	0.067960
501.562742	0.067059
501.781154	0.066931
501.999548	0.066254
502.217924	0.066299
502.436282	0.066153
502.654621	0.066912
502.872942	0.066689
503.091245	0.067342
503.309530	0.066403
503.527797	0.066819
503.746045	0.068406
503.964275	0.069381
504.182487	0.069348
504.400681	0.068850
504.618856	0.069233
504.837013	0.069453
505.055152	0.069143
505.273273	0.068850
505.491376	0.068514
505.709460	0.067376
505.927526	0.066594
506.145574	0.066656
506.363604	0.067366
506.581615	0.067033
506.799608	0.068012
507.017583	0.068202
507.235540	0.069219
507.453478	0.069519
507.671399	0.069403
507.889301	0.069185
508.107185	0.069336
508.325050	0.068875
508.542898	0.068818
508.760727	0.068375
508.978538	0.068490
509.196330	0.067416
509.414105	0.067894
509.631861	0.068585
509.849599	0.069661
510.067319	0.069485
510.285021	0.069903
510.502704	0.070451
510.720369	0.070462
510.938016	0.070346
511.155645	0.070638
511.373255	0.069918
511.590848	0.070055
511.808422	0.069390
512.025977	0.070055
512.243515	0.070545
512.461034	0.070522
512.678536	0.070179
512.896018	0.070231
513.113483	0.069610
513.330930	0.069825
513.548358	0.068764
513.765768	0.069491
513.983160	0.069625
514.200533	0.069402
514.417889	0.069952
514.635226	0.069921
514.852545	0.070848
515.069845	0.071890
515.287128	0.071906
515.504392	0.072670
515.721638	0.072697
515.938866	0.072062
516.156075	0.071907
516.373267	0.071365
516.590440	0.071298
516.807594	0.070054
517.024731	0.069469
517.241850	0.069957
517.458950	0.069966
517.676032	0.069631
517.893095	0.069139
518.110141	0.068836
518.327168	0.069111
518.544177	0.069390
518.761168	0.069976
518.978141	0.070706
519.195095	0.070474
519.412031	0.070554
519.628949	0.070245
519.845849	0.070941
520.062731	0.070652
520.279594	0.070275
520.496439	0.070238
520.713266	0.070530
520.930074	0.070337
521.146865	0.070751
521.363637	0.070791
521.580391	0.071073
521.797127	0.071523
522.013844	0.072034
522.230543	0.072274
522.447224	0.072065
522.663887	0.072239
522.880532	0.072053
523.097158	0.072085
523.313766	0.071909
523.530356	0.072492
523.746928	0.071717
523.963481	0.072039
524.180017	0.072165
524.396534	0.072453
524.613032	0.072320
524.829513	0.072333
525.045975	0.071898
525.262420	0.071467
525.478845	0.071650
525.695253	0.072302
525.911643	0.072190
526.128014	0.072050
526.344367	0.071911
526.560702	0.072416
526.777018	0.072776
526.993316	0.073364
527.209597	0.074313
527.425858	0.074325
527.642102	0.074171
527.858328	0.074295
528.074535	0.074686
528.290724	0.075132
528.506894	0.074588
528.723047	0.074804
528.939181	0.074721
529.155297	0.074655
529.371395	0.074789
529.587475	0.075057
529.803536	0.075466
530.019579	0.075477
530.235604	0.075528
530.451611	0.075500
530.667600	0.075718
530.883570	0.075947
531.099522	0.075963
531.315456	0.075500
531.531372	0.075228
531.747269	0.075561
531.963148	0.076047
532.179009	0.076545
532.394852	0.077108
532.610676	0.077256
532.826482	0.076985
533.042271	0.077622
533.258040	0.078032
533.473792	0.078302
533.689525	0.078220
533.905240	0.078308
534.120937	0.078229
534.336616	0.078453
534.552277	0.078720
534.767919	0.079325
534.983543	0.079433
535.199149	0.079471
535.414736	0.080026
535.630306	0.080311
535.845857	0.080494
536.061390	0.080547
536.276904	0.080535
536.492401	0.080318
536.707879	0.080327
536.923339	0.080324
537.138781	0.080705
537.354204	0.080211
537.569610	0.079889
537.784997	0.079626
538.000366	0.079834
538.215716	0.079780
538.431049	0.080236
538.646363	0.080340
538.861659	0.080262
539.076937	0.080143
539.292196	0.080532
539.507438	0.080784
539.722661	0.080905
539.937866	0.080733
540.153052	0.081135
540.368221	0.081149
540.583371	0.081087
540.798503	0.081329
541.013617	0.081515
541.228712	0.081462
541.443789	0.082025
541.658848	0.082139
541.873889	0.081922
542.088912	0.081956
542.303916	0.081960
542.518902	0.081831
542.733870	0.082255
542.948820	0.082161
543.163752	0.082051
543.378665	0.081762
543.593560	0.081975
543.808437	0.082258
544.023295	0.082384
544.238136	0.082760
544.452958	0.083233
544.667762	0.082953
544.882548	0.083297
545.097315	0.083750
545.312064	0.083696
545.526795	0.083852
545.741508	0.084190
545.956203	0.084121
546.170879	0.083884
546.385537	0.083918
546.600177	0.083897
546.814799	0.084266
547.029402	0.084327
547.243988	0.084580
547.458555	0.084548
547.673103	0.084175
547.887634	0.084443
548.102146	0.084598
548.316640	0.084632
548.531116	0.084569
548.745574	0.084590
548.960013	0.084794
549.174435	0.084964
549.388838	0.085416
549.603222	0.086199
549.817589	0.086416
550.031937	0.086494
550.246267	0.086930
550.460579	0.087005
550.674873	0.086999
550.889148	0.087274
551.103405	0.087237
551.317644	0.086999
551.531865	0.086846
551.746068	0.086786
551.960252	0.086634
552.174418	0.086848
552.388566	0.087230
552.602696	0.087505
552.816807	0.087510
553.030900	0.088314
553.244975	0.088480
553.459032	0.088874
553.673070	0.088848
553.887091	0.089137
554.101093	0.089012
554.315077	0.089342
554.529042	0.089267
554.742990	0.089533
554.956919	0.089001
555.170830	0.089264
555.384722	0.089321
555.598597	0.089316
555.812453	0.089540
556.026291	0.089640
556.240111	0.089394
556.453913	0.089239
556.667696	0.089342
556.881461	0.089742
557.095208	0.089947
557.308937	0.089836
557.522647	0.090558
557.736339	0.090567
557.950013	0.090720
558.163669	0.090899
558.377307	0.091000
558.590926	0.090593
558.804527	0.090169
559.018110	0.089872
559.231675	0.090083
559.445221	0.089691
559.658749	0.089871
559.872259	0.089746
560.085751	0.089958
560.299225	0.090162
560.512680	0.090652
560.726117	0.090974
560.939536	0.091593
561.152937	0.091884
561.366319	0.091700
561.579683	0.091732
561.793029	0.091936
562.006357	0.091770
562.219667	0.092045
562.432958	0.091888
562.646231	0.091731
562.859486	0.091603
563.072723	0.091435
563.285941	0.092118
563.499141	0.092141
563.712323	0.092431
563.925487	0.092645
564.138632	0.092729
564.351760	0.092988
564.564869	0.093437
564.777960	0.093360
564.991032	0.093125
565.204087	0.092943
565.417123	0.092926
565.630141	0.092698
565.843140	0.092926
566.056122	0.092932
566.269085	0.092950
566.482030	0.092646
566.694957	0.092735
566.907866	0.093006
567.120756	0.092892
567.333628	0.092979
567.546482	0.093367
567.759318	0.093305
567.972135	0.093428
568.184935	0.093659
568.397716	0.094083
568.610478	0.093941
568.823223	0.093973
569.035949	0.094318
569.248657	0.094334
569.461347	0.094356
569.674019	0.094527
569.886672	0.094388
570.099308	0.094469
570.311925	0.094482
570.524523	0.094631
570.737104	0.094787
570.949666	0.094806
571.162210	0.095010
571.374736	0.094700
571.587244	0.094655
571.799733	0.094865
572.012205	0.094613
572.224658	0.094661
572.437092	0.094797
572.649509	0.095182
572.861907	0.094900
573.074287	0.094983
573.286649	0.095011
573.498993	0.094914
573.711318	0.094927
573.923625	0.095279
574.135914	0.095055
574.348185	0.095267
574.560438	0.095286
574.772672	0.095734
574.984888	0.096157
575.197086	0.096539
575.409266	0.096572
575.621427	0.096762
575.833570	0.096945
576.045695	0.097315
576.257802	0.097148
576.469890	0.097129
576.681961	0.097094
576.894013	0.097035
577.106046	0.096897
577.318062	0.097276
577.530059	0.097157
577.742039	0.097217
577.954000	0.097404
578.165942	0.097654
578.377867	0.097697
578.589773	0.097921
578.801661	0.098090
579.013531	0.098481
579.225382	0.098288
579.437216	0.098726
579.649031	0.098563
579.860828	0.098505
580.072606	0.098693
580.284367	0.098807
580.496109	0.098746
580.707833	0.098756
580.919539	0.098968
581.131227	0.098927
581.342896	0.099119
581.554547	0.099296
581.766180	0.099522
581.977795	0.099350
582.189391	0.099744
582.400969	0.100008
582.612529	0.099974
582.824071	0.100113
583.035595	0.100502
583.247100	0.100459
583.458587	0.100672
583.670056	0.100451
583.881506	0.100687
584.092939	0.100484
584.304353	0.100800
584.515749	0.100935
584.727127	0.100781
584.938486	0.100961
585.149828	0.101029
585.361151	0.100863
585.572456	0.101207
585.783742	0.101169
585.995011	0.101057
586.206261	0.100852
586.417493	0.100953
586.628706	0.101063
586.839902	0.100954
587.051079	0.100856
587.262238	0.100752
587.473379	0.101049
587.684502	0.100986
587.895606	0.100955
588.106692	0.100962
588.317760	0.101107
588.528810	0.101263
588.739841	0.101558
588.950855	0.101754
589.161850	0.102214
589.372827	0.101914
589.583785	0.102329
589.794726	0.102934
590.005648	0.102867
590.216552	0.102804
590.427437	0.102691
590.638305	0.102775
590.849154	0.103029
591.059985	0.102767
591.270798	0.103048
591.481592	0.103151
591.692369	0.103134
591.903127	0.103262
592.113867	0.103657
592.324588	0.103723
592.535292	0.103804
592.745977	0.103657
592.956644	0.103840
593.167293	0.103622
593.377923	0.103612
593.588536	0.103350
593.799130	0.103448
594.009706	0.103280
594.220263	0.103413
594.430803	0.103248
594.641324	0.102954
594.851827	0.103264
595.062312	0.103661
595.272778	0.103626
595.483227	0.103685
595.693657	0.103818
595.904069	0.103727
596.114462	0.103832
596.324838	0.103957
596.535195	0.104327
596.745534	0.104273
596.955855	0.104390
597.166157	0.104621
597.376441	0.104737
597.586707	0.104784
597.796955	0.105016
598.007185	0.104850
598.217396	0.105091
598.427589	0.105271
598.637764	0.105345
598.847921	0.105311
599.058060	0.105364
599.268180	0.105633
599.478282	0.105693
599.688366	0.105570
599.898431	0.106058
600.108479	0.105897
600.318508	0.105871
600.528519	0.106067
600.738511	0.106087
600.948486	0.105941
601.158442	0.105613
601.368380	0.105639
601.578300	0.105777
601.788202	0.105664
601.998085	0.105759
602.207950	0.105867
602.417797	0.106037
602.627626	0.106158
602.837436	0.106322
603.047228	0.106735
603.257002	0.106920
603.466758	0.107024
603.676496	0.107007
603.886215	0.107254
604.095916	0.107394
604.305599	0.107097
604.515264	0.107036
604.724910	0.107148
604.934538	0.107038
605.144148	0.107051
605.353740	0.107303
605.563314	0.107222
605.772869	0.107163
605.982406	0.107276
606.191925	0.107565
606.401425	0.107812
606.610908	0.107682
606.820372	0.107880
607.029818	0.108105
607.239246	0.107921
607.448655	0.108064
607.658047	0.108209
607.867420	0.108149
608.076775	0.108387
608.286111	0.108265
608.495430	0.108579
608.704730	0.108549
608.914012	0.108533
609.123275	0.108686
609.332521	0.108704
609.541748	0.108928
609.750957	0.109102
609.960148	0.108854
610.169321	0.109014
610.378475	0.109187
610.587611	0.109558
610.796729	0.109587
611.005829	0.109358
611.214910	0.109785
611.423974	0.109700
611.633019	0.109666
611.842045	0.109986
612.051054	0.110302
612.260044	0.110149
612.469017	0.109992
612.677970	0.110114
612.886906	0.110525
613.095824	0.110143
613.304723	0.110059
613.513604	0.110125
613.722467	0.110010
613.931311	0.109645
614.140138	0.109896
614.348946	0.109956
614.557736	0.110069
614.766507	0.110205
614.975261	0.110537
615.183996	0.110935
615.392713	0.110834
615.601412	0.110863
615.810092	0.111224
616.018754	0.111108
616.227399	0.111369
616.436024	0.111510
616.644632	0.111786
616.853222	0.112163
617.061793	0.112073
617.270346	0.112189
617.478880	0.112469
617.687397	0.112357
617.895895	0.112498
618.104375	0.112506
618.312837	0.112356
618.521281	0.112163
618.729706	0.111704
618.938113	0.111714
619.146502	0.111961
619.354873	0.112007
619.563226	0.112303
619.771560	0.112476
619.979876	0.112529
620.188174	0.112724
620.396453	0.112779
620.604715	0.113186
620.812958	0.113410
621.021183	0.113548
621.229390	0.113814
621.437578	0.113623
621.645748	0.113802
621.853900	0.114007
622.062034	0.114076
622.270150	0.113982
622.478247	0.113897
622.686326	0.113988
622.894387	0.114022
623.102430	0.113834
623.310454	0.113941
623.518461	0.113887
623.726449	0.113627
623.934418	0.113561
624.142370	0.113876
624.350303	0.113824
624.558218	0.114027
624.766115	0.113993
624.973994	0.114187
625.181855	0.114348
625.389697	0.114438
625.597521	0.114665
625.805327	0.114852
626.013114	0.114844
626.220883	0.115013
626.428634	0.114950
626.636367	0.114982
626.844082	0.114778
627.051778	0.114879
627.259457	0.115120
627.467117	0.115175
627.674758	0.115450
627.882382	0.115393
628.089987	0.115480
628.297574	0.115446
628.505143	0.115642
628.712694	0.115944
628.920226	0.116039
629.127740	0.115948
629.335236	0.116213
629.542714	0.116109
629.750174	0.116448
629.957615	0.116582
630.165038	0.116640
630.372443	0.116545
630.579829	0.116634
630.787198	0.116754
630.994548	0.116757
631.201880	0.116598
631.409194	0.116604
631.616489	0.116755
631.823766	0.116892
632.031025	0.116914
632.238266	0.117066
632.445489	0.117162
632.652693	0.117258
632.859879	0.117331
633.067047	0.117500
633.274197	0.117631
633.481329	0.117530
633.688442	0.117659
633.895537	0.117734
634.102614	0.117852
634.309672	0.117747
634.516713	0.117868
634.723735	0.117895
634.930739	0.118029
635.137724	0.118132
635.344692	0.118267
635.551641	0.118267
635.758572	0.118557
635.965485	0.118848
636.172379	0.119018
636.379256	0.119101
636.586114	0.119276
636.792954	0.119221
636.999775	0.119228
637.206579	0.119315
637.413364	0.119331
637.620131	0.119136
637.826880	0.119081
638.033610	0.119067
638.240323	0.119051
638.447017	0.118997
638.653692	0.119138
638.860350	0.119326
639.066990	0.119139
639.273611	0.119368
639.480214	0.119726
639.686798	0.119985
639.893365	0.120085
640.099913	0.120363
640.306443	0.120383
640.512955	0.120629
640.719449	0.120591
640.925924	0.120694
641.132381	0.120703
641.338820	0.120638
641.545241	0.120703
641.751644	0.120886
641.958028	0.120789
642.164394	0.121165
642.370742	0.121173
642.577071	0.121278
642.783383	0.121663
642.989676	0.121739
643.195951	0.121626
643.402207	0.121552
643.608446	0.121416
643.814666	0.121629
644.020868	0.121689
644.227052	0.121654
644.433218	0.121623
644.639365	0.121567
644.845494	0.121678
645.051605	0.122077
645.257698	0.122215
645.463772	0.122337
645.669828	0.122103
645.875866	0.122119
646.081886	0.122182
646.287888	0.122437
646.493871	0.122571
646.699836	0.122510
646.905783	0.122452
647.111712	0.122379
647.317622	0.122638
647.523514	0.122889
647.729388	0.122902
647.935244	0.122957
648.141082	0.123114
648.346901	0.123141
648.552702	0.123309
648.758485	0.123379
648.964250	0.123668
649.169996	0.123941
649.375724	0.123876
649.581434	0.124006
649.787126	0.124093
649.992800	0.124134
650.198455	0.124403
650.404092	0.124381
650.609711	0.124548
650.815311	0.124512
651.020894	0.124563
651.226458	0.124714
651.432004	0.124856
651.637532	0.125035
651.843041	0.125115
652.048532	0.124990
652.254006	0.125107
652.459460	0.125241
652.664897	0.125406
652.870315	0.125254
653.075716	0.125383
653.281097	0.125271
653.486461	0.125385
653.691807	0.125481
653.897134	0.125494
654.102443	0.125702
654.307734	0.125852
654.513006	0.125840
654.718261	0.126069
654.923497	0.126195
655.128715	0.126299
655.333915	0.126375
655.539096	0.126370
655.744259	0.126534
655.949404	0.126484
656.154531	0.126483
656.359640	0.126568
656.564730	0.126508
656.769802	0.126517
656.974856	0.126638
657.179892	0.126649
657.384909	0.126764
657.589908	0.126817
657.794889	0.126958
657.999852	0.127161
658.204797	0.127304
658.409723	0.127518
658.614631	0.127698
658.819521	0.127952
659.024393	0.128067
659.229246	0.128216
659.434081	0.128485
659.638898	0.128497
659.843697	0.128426
660.048478	0.128499
660.253240	0.128539
660.457984	0.128514
660.662710	0.128717
660.867417	0.128790
661.072107	0.128812
661.276778	0.128656
661.481431	0.128865
661.686066	0.128902
661.890682	0.128927
662.095281	0.128982
662.299861	0.128997
662.504422	0.128801
662.708966	0.128770
662.913491	0.128642
663.117999	0.128838
663.322488	0.128944
663.526958	0.129278
663.731411	0.129374
663.935845	0.129409
664.140261	0.129726
664.344659	0.130166
664.549038	0.130360
664.753400	0.130684
664.957743	0.130643
665.162068	0.130807
665.366375	0.130852
665.570663	0.130991
665.774933	0.131167
665.979185	0.131278
666.183419	0.131045
666.387635	0.131159
666.591832	0.131289
666.796011	0.131561
667.000172	0.131745
667.204315	0.131720
667.408439	0.131923
667.612545	0.132097
667.816634	0.132148
668.020703	0.132409
668.224755	0.132590
668.428788	0.132544
668.632803	0.132491
668.836800	0.132176
669.040779	0.132186
669.244739	0.131856
669.448681	0.131785
669.652605	0.131630
669.856511	0.131587
670.060399	0.131628
670.264268	0.131643
670.468119	0.131796
670.671952	0.132110
670.875767	0.132106
671.079563	0.132482
671.283341	0.132616
671.487101	0.133019
671.690843	0.133248
671.894567	0.133452
672.098272	0.133912
672.301959	0.134267
672.505628	0.134299
672.709278	0.134610
672.912911	0.134633
673.116525	0.134781
673.320121	0.134760
673.523699	0.134789
673.727258	0.134707
673.930799	0.134622
674.134322	0.134435
674.337827	0.134597
674.541314	0.134580
674.744782	0.134527
674.948232	0.134498
675.151664	0.134628
675.355078	0.134889
675.558474	0.134983
675.761851	0.135001
675.965210	0.135021
676.168551	0.135145
676.371873	0.135440
676.575178	0.135833
676.778464	0.136047
676.981732	0.136108
677.184981	0.136177
677.388213	0.136309
677.591426	0.136515
677.794621	0.136674
677.997798	0.136666
678.200956	0.136486
678.404097	0.136569
678.607219	0.136579
678.810323	0.136444
679.013408	0.136424
679.216476	0.136579
679.419525	0.136630
679.622556	0.136836
679.825569	0.137100
680.028563	0.137252
680.231540	0.137214
680.434498	0.137513
680.637438	0.137764
680.840359	0.137623
681.043263	0.137593
681.246148	0.137595
681.449015	0.137595
681.651864	0.137555
681.854694	0.137784
682.057506	0.137881
682.260301	0.137846
682.463076	0.137958
682.665834	0.138185
682.868573	0.138391
683.071295	0.138550
683.273998	0.138853
683.476682	0.139121
683.679349	0.139019
683.881997	0.139071
684.084627	0.139233
684.287239	0.139302
684.489833	0.139482
684.692408	0.139483
684.894965	0.139544
685.097504	0.139437
685.300025	0.139413
685.502527	0.139746
685.705012	0.139951
685.907478	0.140121
686.109925	0.140243
686.312355	0.140352
686.514766	0.140629
686.717159	0.140793
686.919534	0.140857
687.121891	0.140918
687.324230	0.140972
687.526550	0.140968
687.728852	0.140818
687.931136	0.140816
688.133401	0.140787
688.335649	0.140824
688.537878	0.141062
688.740089	0.141145
688.942281	0.141219
689.144456	0.141325
689.346612	0.141366
689.548750	0.141370
689.750870	0.141650
689.952971	0.141673
690.155055	0.141752
690.357120	0.141643
690.559167	0.141834
690.761195	0.141892
690.963206	0.141985
691.165198	0.142097
691.367172	0.142352
691.569128	0.142183
691.771065	0.142375
691.972984	0.142242
692.174885	0.142319
692.376768	0.142572
692.578633	0.142828
692.780479	0.142583
692.982308	0.142697
693.184118	0.142871
693.385909	0.143232
