sample name	sample
index	984
start time	 04-14-2021  03:27:23 PM


Wavelength (nm)	Absorbance
494.344910	0.032385
494.563924	0.032385
494.782919	0.032385
495.001897	0.072178
495.220856	0.029854
495.439797	0.027888
495.658719	0.018860
495.877624	0.005089
496.096510	-0.006455
496.315378	-0.006774
496.534227	0.019613
496.753059	-0.003394
496.971872	0.025489
497.190667	0.116696
497.409444	0.147128
497.628203	0.161667
497.846943	0.170892
498.065665	0.173460
498.284369	0.175192
498.503055	0.175731
498.721723	0.178530
498.940372	0.177740
499.159003	0.177922
499.377616	0.177591
499.596210	0.177588
499.814787	0.177484
500.033345	0.179755
500.251885	0.179067
500.470406	0.180676
500.688910	0.181164
500.907395	0.182546
501.125862	0.183722
501.344311	0.185409
501.562742	0.185645
501.781154	0.187194
501.999548	0.185699
502.217924	0.186396
502.436282	0.185981
502.654621	0.186343
502.872942	0.186968
503.091245	0.186385
503.309530	0.187139
503.527797	0.187566
503.746045	0.186402
503.964275	0.186980
504.182487	0.188207
504.400681	0.187566
504.618856	0.187767
504.837013	0.186577
505.055152	0.185535
505.273273	0.185530
505.491376	0.185964
505.709460	0.186653
505.927526	0.187538
506.145574	0.187008
506.363604	0.187555
506.581615	0.186419
506.799608	0.187509
507.017583	0.188968
507.235540	0.188714
507.453478	0.188953
507.671399	0.188642
507.889301	0.188181
508.107185	0.188191
508.325050	0.188668
508.542898	0.189960
508.760727	0.188975
508.978538	0.189065
509.196330	0.189635
509.414105	0.189632
509.631861	0.189438
509.849599	0.189335
510.067319	0.189776
510.285021	0.190074
510.502704	0.190362
510.720369	0.191783
510.938016	0.192550
511.155645	0.191722
511.373255	0.191440
511.590848	0.192723
511.808422	0.193766
512.025977	0.194655
512.243515	0.194415
512.461034	0.194187
512.678536	0.193836
512.896018	0.193824
513.113483	0.193860
513.330930	0.193402
513.548358	0.192976
513.765768	0.192615
513.983160	0.191732
514.200533	0.192012
514.417889	0.191895
514.635226	0.191893
514.852545	0.192113
515.069845	0.193493
515.287128	0.194593
515.504392	0.195108
515.721638	0.195766
515.938866	0.197318
516.156075	0.197635
516.373267	0.198334
516.590440	0.199206
516.807594	0.198720
517.024731	0.198306
517.241850	0.198886
517.458950	0.198967
517.676032	0.198869
517.893095	0.197916
518.110141	0.198335
518.327168	0.198662
518.544177	0.199291
518.761168	0.200092
518.978141	0.200143
519.195095	0.200550
519.412031	0.201398
519.628949	0.201996
519.845849	0.202623
520.062731	0.202374
520.279594	0.202885
520.496439	0.202425
520.713266	0.202614
520.930074	0.203618
521.146865	0.203829
521.363637	0.204056
521.580391	0.204424
521.797127	0.204956
522.013844	0.205324
522.230543	0.206061
522.447224	0.206923
522.663887	0.207590
522.880532	0.207221
523.097158	0.207088
523.313766	0.207314
523.530356	0.208190
523.746928	0.207171
523.963481	0.208696
524.180017	0.208604
524.396534	0.208953
524.613032	0.209585
524.829513	0.210223
525.045975	0.211087
525.262420	0.211107
525.478845	0.210855
525.695253	0.212542
525.911643	0.212867
526.128014	0.213096
526.344367	0.213522
526.560702	0.213330
526.777018	0.214490
526.993316	0.214663
527.209597	0.214681
527.425858	0.215430
527.642102	0.215977
527.858328	0.215037
528.074535	0.215722
528.290724	0.216401
528.506894	0.216509
528.723047	0.217092
528.939181	0.217697
529.155297	0.218328
529.371395	0.217782
529.587475	0.217720
529.803536	0.218384
530.019579	0.217348
530.235604	0.217423
530.451611	0.218046
530.667600	0.217314
530.883570	0.217435
531.099522	0.217417
531.315456	0.218244
531.531372	0.219010
531.747269	0.219538
531.963148	0.221154
532.179009	0.221829
532.394852	0.223180
532.610676	0.224305
532.826482	0.224692
533.042271	0.224852
533.258040	0.225394
533.473792	0.225677
533.689525	0.225905
533.905240	0.225769
534.120937	0.225471
534.336616	0.225223
534.552277	0.225396
534.767919	0.225449
534.983543	0.226622
535.199149	0.226455
535.414736	0.226701
535.630306	0.227357
535.845857	0.228021
536.061390	0.228497
536.276904	0.228518
536.492401	0.228881
536.707879	0.229460
536.923339	0.229610
537.138781	0.230672
537.354204	0.230278
537.569610	0.230663
537.784997	0.231473
538.000366	0.231842
538.215716	0.232237
538.431049	0.231822
538.646363	0.232964
538.861659	0.233232
539.076937	0.233216
539.292196	0.233856
539.507438	0.233908
539.722661	0.233787
539.937866	0.234064
540.153052	0.234638
540.368221	0.235623
540.583371	0.234512
540.798503	0.235203
541.013617	0.235266
541.228712	0.235812
541.443789	0.236295
541.658848	0.236652
541.873889	0.237202
542.088912	0.237853
542.303916	0.238368
542.518902	0.239846
542.733870	0.240016
542.948820	0.240706
543.163752	0.241063
543.378665	0.241608
543.593560	0.242674
543.808437	0.242538
544.023295	0.242394
544.238136	0.242764
544.452958	0.242611
544.667762	0.242944
544.882548	0.243089
545.097315	0.243145
545.312064	0.243397
545.526795	0.243063
545.741508	0.243618
545.956203	0.244172
546.170879	0.244069
546.385537	0.244580
546.600177	0.245163
546.814799	0.245403
547.029402	0.246388
547.243988	0.246481
547.458555	0.246782
547.673103	0.247385
547.887634	0.247898
548.102146	0.248149
548.316640	0.248530
548.531116	0.248413
548.745574	0.248921
548.960013	0.249010
549.174435	0.249391
549.388838	0.249407
549.603222	0.249569
549.817589	0.249375
550.031937	0.249731
550.246267	0.250052
550.460579	0.250407
550.674873	0.250809
550.889148	0.251388
551.103405	0.251955
551.317644	0.252413
551.531865	0.253080
551.746068	0.253703
551.960252	0.253553
552.174418	0.253595
552.388566	0.253906
552.602696	0.253676
552.816807	0.253711
553.030900	0.254113
553.244975	0.254699
553.459032	0.254629
553.673070	0.254399
553.887091	0.255226
554.101093	0.255621
554.315077	0.255493
554.529042	0.255821
554.742990	0.256006
554.956919	0.255794
555.170830	0.255755
555.384722	0.256007
555.598597	0.256438
555.812453	0.257260
556.026291	0.257565
556.240111	0.257938
556.453913	0.258661
556.667696	0.258674
556.881461	0.259192
557.095208	0.259432
557.308937	0.259523
557.522647	0.259887
557.736339	0.259749
557.950013	0.259916
558.163669	0.260021
558.377307	0.260245
558.590926	0.260345
558.804527	0.260391
559.018110	0.260386
559.231675	0.260279
559.445221	0.260202
559.658749	0.259826
559.872259	0.259631
560.085751	0.259808
560.299225	0.260314
560.512680	0.260813
560.726117	0.261662
560.939536	0.261691
561.152937	0.262037
561.366319	0.262677
561.579683	0.262920
561.793029	0.263584
562.006357	0.264198
562.219667	0.264103
562.432958	0.264126
562.646231	0.263886
562.859486	0.264520
563.072723	0.265001
563.285941	0.265154
563.499141	0.266138
563.712323	0.266077
563.925487	0.266388
564.138632	0.266355
564.351760	0.266894
564.564869	0.266742
564.777960	0.266731
564.991032	0.266596
565.204087	0.266357
565.417123	0.265926
565.630141	0.266355
565.843140	0.266131
566.056122	0.266313
566.269085	0.266507
566.482030	0.266851
566.694957	0.267304
566.907866	0.267684
567.120756	0.267898
567.333628	0.268268
567.546482	0.268344
567.759318	0.268971
567.972135	0.269298
568.184935	0.269492
568.397716	0.270104
568.610478	0.270494
568.823223	0.270930
569.035949	0.271347
569.248657	0.271442
569.461347	0.272076
569.674019	0.271968
569.886672	0.271872
570.099308	0.271774
570.311925	0.271654
570.524523	0.271531
570.737104	0.271409
570.949666	0.271080
571.162210	0.271387
571.374736	0.270938
571.587244	0.271354
571.799733	0.271787
572.012205	0.272353
572.224658	0.272348
572.437092	0.272501
572.649509	0.272753
572.861907	0.273750
573.074287	0.273989
573.286649	0.274621
573.498993	0.275061
573.711318	0.275026
573.923625	0.275010
574.135914	0.275298
574.348185	0.275314
574.560438	0.275735
574.772672	0.275810
574.984888	0.275386
575.197086	0.275205
575.409266	0.275020
575.621427	0.275710
575.833570	0.275945
576.045695	0.276698
576.257802	0.277108
576.469890	0.277105
576.681961	0.276876
576.894013	0.277850
577.106046	0.278373
577.318062	0.278429
577.530059	0.278254
577.742039	0.278227
577.954000	0.277713
578.165942	0.278091
578.377867	0.278214
578.589773	0.278013
578.801661	0.278089
579.013531	0.278027
579.225382	0.278367
579.437216	0.278681
579.649031	0.279054
579.860828	0.279229
580.072606	0.279226
580.284367	0.279396
580.496109	0.280427
580.707833	0.280435
580.919539	0.280625
581.131227	0.280808
581.342896	0.280635
581.554547	0.281233
581.766180	0.281784
581.977795	0.282081
582.189391	0.282280
582.400969	0.281881
582.612529	0.282027
582.824071	0.282408
583.035595	0.282430
583.247100	0.283057
583.458587	0.282871
583.670056	0.282645
583.881506	0.282561
584.092939	0.282879
584.304353	0.283065
584.515749	0.283575
584.727127	0.283345
584.938486	0.284000
585.149828	0.284077
585.361151	0.284027
585.572456	0.284304
585.783742	0.284953
585.995011	0.285180
586.206261	0.285730
586.417493	0.285484
586.628706	0.285777
586.839902	0.285901
587.051079	0.285589
587.262238	0.285884
587.473379	0.285971
587.684502	0.286027
587.895606	0.285842
588.106692	0.286238
588.317760	0.286636
588.528810	0.286833
588.739841	0.287229
588.950855	0.287901
589.161850	0.287944
589.372827	0.288509
589.583785	0.288581
589.794726	0.289240
590.005648	0.289240
590.216552	0.289463
590.427437	0.289637
590.638305	0.289121
590.849154	0.289301
591.059985	0.289004
591.270798	0.288879
591.481592	0.288974
591.692369	0.289261
591.903127	0.289577
592.113867	0.289585
592.324588	0.290180
592.535292	0.290611
592.745977	0.290889
592.956644	0.291878
593.167293	0.292147
593.377923	0.292564
593.588536	0.292688
593.799130	0.292517
594.009706	0.292976
594.220263	0.292967
594.430803	0.293369
594.641324	0.293248
594.851827	0.293175
595.062312	0.293222
595.272778	0.293264
595.483227	0.293403
595.693657	0.293941
595.904069	0.294023
596.114462	0.294200
596.324838	0.294022
596.535195	0.294076
596.745534	0.294586
596.955855	0.295105
597.166157	0.295263
597.376441	0.295609
597.586707	0.295987
597.796955	0.296367
598.007185	0.296457
598.217396	0.296785
598.427589	0.297370
598.637764	0.297156
598.847921	0.297253
599.058060	0.297612
599.268180	0.297419
599.478282	0.297075
599.688366	0.296631
599.898431	0.296782
600.108479	0.296753
600.318508	0.296642
600.528519	0.296642
600.738511	0.296677
600.948486	0.296287
601.158442	0.296545
601.368380	0.296839
601.578300	0.297465
601.788202	0.297308
601.998085	0.297675
602.207950	0.297618
602.417797	0.297573
602.627626	0.297683
602.837436	0.298055
603.047228	0.298346
603.257002	0.298593
603.466758	0.298565
603.676496	0.299180
603.886215	0.299278
604.095916	0.299886
604.305599	0.300427
604.515264	0.300773
604.724910	0.301068
604.934538	0.301171
605.144148	0.301081
605.353740	0.301410
605.563314	0.301383
605.772869	0.301662
605.982406	0.301751
606.191925	0.302356
606.401425	0.302623
606.610908	0.302787
606.820372	0.302618
607.029818	0.302998
607.239246	0.302856
607.448655	0.303277
607.658047	0.303020
607.867420	0.303022
608.076775	0.302717
608.286111	0.302993
608.495430	0.303287
608.704730	0.303671
608.914012	0.303861
609.123275	0.304057
609.332521	0.304053
609.541748	0.304659
609.750957	0.305009
609.960148	0.305260
610.169321	0.305163
610.378475	0.305563
610.587611	0.305852
610.796729	0.305783
611.005829	0.305985
611.214910	0.306406
611.423974	0.306446
611.633019	0.306280
611.842045	0.306464
612.051054	0.306617
612.260044	0.306382
612.469017	0.306449
612.677970	0.306594
612.886906	0.306845
613.095824	0.306579
613.304723	0.306740
613.513604	0.307330
613.722467	0.307594
613.931311	0.307581
614.140138	0.307692
614.348946	0.307660
614.557736	0.307648
614.766507	0.307937
614.975261	0.308275
615.183996	0.308405
615.392713	0.308565
615.601412	0.308540
615.810092	0.308641
616.018754	0.308629
616.227399	0.309164
616.436024	0.309459
616.644632	0.309473
616.853222	0.309942
617.061793	0.310245
617.270346	0.310242
617.478880	0.310706
617.687397	0.310995
617.895895	0.311348
618.104375	0.311330
618.312837	0.311645
618.521281	0.311775
618.729706	0.311209
618.938113	0.311250
619.146502	0.311331
619.354873	0.311128
619.563226	0.311320
619.771560	0.311569
619.979876	0.311759
620.188174	0.312151
620.396453	0.312314
620.604715	0.312793
620.812958	0.312930
621.021183	0.313135
621.229390	0.313452
621.437578	0.313580
621.645748	0.313430
621.853900	0.313715
622.062034	0.313677
622.270150	0.313894
622.478247	0.314010
622.686326	0.314179
622.894387	0.314353
623.102430	0.314487
623.310454	0.314941
623.518461	0.315435
623.726449	0.315548
623.934418	0.315497
624.142370	0.315553
624.350303	0.315683
624.558218	0.316037
624.766115	0.316339
624.973994	0.316489
625.181855	0.316316
625.389697	0.316324
625.597521	0.316387
625.805327	0.316829
626.013114	0.317057
626.220883	0.317045
626.428634	0.317015
626.636367	0.317079
626.844082	0.317369
627.051778	0.317755
627.259457	0.317724
627.467117	0.317954
627.674758	0.318030
627.882382	0.318260
628.089987	0.318802
628.297574	0.319322
628.505143	0.319557
628.712694	0.319581
628.920226	0.319613
629.127740	0.319883
629.335236	0.319748
629.542714	0.319711
629.750174	0.320067
629.957615	0.320242
630.165038	0.320393
630.372443	0.320325
630.579829	0.320899
630.787198	0.321492
630.994548	0.321889
631.201880	0.322220
631.409194	0.322722
631.616489	0.322633
631.823766	0.322547
632.031025	0.322824
632.238266	0.322969
632.445489	0.322726
632.652693	0.322517
632.859879	0.322635
633.067047	0.323097
633.274197	0.323197
633.481329	0.323432
633.688442	0.323909
633.895537	0.323728
634.102614	0.323884
634.309672	0.324279
634.516713	0.324547
634.723735	0.324693
634.930739	0.324532
635.137724	0.324177
635.344692	0.324313
635.551641	0.324499
635.758572	0.324667
635.965485	0.324887
636.172379	0.325079
636.379256	0.324974
636.586114	0.325261
636.792954	0.325425
636.999775	0.326320
637.206579	0.326534
637.413364	0.326576
637.620131	0.326501
637.826880	0.326944
638.033610	0.326865
638.240323	0.327074
638.447017	0.327234
638.653692	0.327359
638.860350	0.327500
639.066990	0.327708
639.273611	0.328067
639.480214	0.328377
639.686798	0.328608
639.893365	0.329069
640.099913	0.329593
640.306443	0.329976
640.512955	0.330308
640.719449	0.330420
640.925924	0.330740
641.132381	0.330967
641.338820	0.331381
641.545241	0.331343
641.751644	0.331565
641.958028	0.331802
642.164394	0.331697
642.370742	0.332174
642.577071	0.332253
642.783383	0.332142
642.989676	0.332408
643.195951	0.332606
643.402207	0.333109
643.608446	0.333176
643.814666	0.332821
644.020868	0.333456
644.227052	0.333440
644.433218	0.333747
644.639365	0.334283
644.845494	0.334405
645.051605	0.334528
645.257698	0.334415
645.463772	0.334550
645.669828	0.335038
645.875866	0.334832
646.081886	0.335147
646.287888	0.335294
646.493871	0.335637
646.699836	0.335895
646.905783	0.336059
647.111712	0.336118
647.317622	0.336222
647.523514	0.336462
647.729388	0.336787
647.935244	0.336938
648.141082	0.337347
648.346901	0.337212
648.552702	0.337034
648.758485	0.337353
648.964250	0.337791
649.169996	0.338059
649.375724	0.338081
649.581434	0.338301
649.787126	0.338626
649.992800	0.338637
650.198455	0.338954
650.404092	0.339213
650.609711	0.339273
650.815311	0.339384
651.020894	0.339694
651.226458	0.340213
651.432004	0.340627
651.637532	0.340891
651.843041	0.341311
652.048532	0.341540
652.254006	0.341823
652.459460	0.342008
652.664897	0.342580
652.870315	0.342735
653.075716	0.343253
653.281097	0.343470
653.486461	0.343752
653.691807	0.344036
653.897134	0.344537
654.102443	0.344957
654.307734	0.345276
654.513006	0.345004
654.718261	0.345384
654.923497	0.345169
655.128715	0.345290
655.333915	0.345192
655.539096	0.345279
655.744259	0.345030
655.949404	0.345064
656.154531	0.345198
656.359640	0.345829
656.564730	0.345978
656.769802	0.346385
656.974856	0.346573
657.179892	0.347010
657.384909	0.347164
657.589908	0.347367
657.794889	0.347834
657.999852	0.348273
658.204797	0.348563
658.409723	0.348701
658.614631	0.348844
658.819521	0.349162
659.024393	0.349265
659.229246	0.349648
659.434081	0.350018
659.638898	0.350229
659.843697	0.350421
660.048478	0.350699
660.253240	0.350871
660.457984	0.351151
660.662710	0.350845
660.867417	0.350951
661.072107	0.351148
661.276778	0.351402
661.481431	0.351283
661.686066	0.351312
661.890682	0.351210
662.095281	0.351597
662.299861	0.351958
662.504422	0.352573
662.708966	0.353136
662.913491	0.353186
663.117999	0.353347
663.322488	0.354006
663.526958	0.354403
663.731411	0.354681
663.935845	0.354910
664.140261	0.354946
664.344659	0.355236
664.549038	0.355036
664.753400	0.355302
664.957743	0.355620
665.162068	0.355503
665.366375	0.355894
665.570663	0.356424
665.774933	0.356684
665.979185	0.357026
666.183419	0.357293
666.387635	0.357774
666.591832	0.358388
666.796011	0.358873
667.000172	0.359361
667.204315	0.359548
667.408439	0.359686
667.612545	0.360061
667.816634	0.360306
668.020703	0.360560
668.224755	0.361078
668.428788	0.360893
668.632803	0.361028
668.836800	0.361267
669.040779	0.361469
669.244739	0.361667
669.448681	0.361891
669.652605	0.361951
669.856511	0.362572
670.060399	0.362685
670.264268	0.363011
670.468119	0.362925
670.671952	0.363223
670.875767	0.363223
671.079563	0.363535
671.283341	0.363677
671.487101	0.364061
671.690843	0.363705
671.894567	0.363722
672.098272	0.364257
672.301959	0.364828
672.505628	0.365257
672.709278	0.365872
672.912911	0.366195
673.116525	0.366726
673.320121	0.366962
673.523699	0.367414
673.727258	0.367816
673.930799	0.368002
674.134322	0.368183
674.337827	0.368105
674.541314	0.368271
674.744782	0.368423
674.948232	0.368480
675.151664	0.368751
675.355078	0.368760
675.558474	0.369061
675.761851	0.369099
675.965210	0.369208
676.168551	0.369024
676.371873	0.369224
676.575178	0.369268
676.778464	0.369508
676.981732	0.369679
677.184981	0.370100
677.388213	0.370300
677.591426	0.370631
677.794621	0.370953
677.997798	0.371747
678.200956	0.371807
678.404097	0.372343
678.607219	0.372386
678.810323	0.372790
679.013408	0.372769
679.216476	0.372909
679.419525	0.373094
679.622556	0.373445
679.825569	0.373719
680.028563	0.374246
680.231540	0.374250
680.434498	0.374687
680.637438	0.374723
680.840359	0.375149
681.043263	0.375545
681.246148	0.375924
681.449015	0.376238
681.651864	0.376385
681.854694	0.376446
682.057506	0.376922
682.260301	0.377096
682.463076	0.377507
682.665834	0.378048
682.868573	0.378231
683.071295	0.378188
683.273998	0.378345
683.476682	0.378549
683.679349	0.378667
683.881997	0.378762
684.084627	0.379127
684.287239	0.379030
684.489833	0.378888
684.692408	0.379184
684.894965	0.379665
685.097504	0.380049
685.300025	0.380249
685.502527	0.380644
685.705012	0.381000
685.907478	0.381297
686.109925	0.381871
686.312355	0.382252
686.514766	0.382241
686.717159	0.382622
686.919534	0.382706
687.121891	0.382651
687.324230	0.383090
687.526550	0.383315
687.728852	0.383390
687.931136	0.383729
688.133401	0.384034
688.335649	0.384455
688.537878	0.384478
688.740089	0.384762
688.942281	0.385199
689.144456	0.385208
689.346612	0.385307
689.548750	0.385416
689.750870	0.385410
689.952971	0.385453
690.155055	0.385458
690.357120	0.385655
690.559167	0.385686
690.761195	0.386263
690.963206	0.386312
691.165198	0.386550
691.367172	0.386803
691.569128	0.386866
691.771065	0.387242
691.972984	0.387589
692.174885	0.387951
692.376768	0.388256
692.578633	0.388328
692.780479	0.388780
692.982308	0.389071
693.184118	0.389359
693.385909	0.389633
