sample name	sample
index	1206
start time	 04-26-2021  12:59:05 PM
880	0.447310
Peak Time (s)	92.035
Peak Height 	0.4473
calc peak height	90,93
Baseline Time (s)	10.535
Baseline Value 	-0.003976
subtract baseline	10,4
Abs	0.288843
Peak Time (s)	90.037
Peak Height 	0.2888
calc peak height	90,93
Baseline Time (s)	10.535
Baseline Value 	0.002412
subtract baseline	10,3
PK_550	0.163884
Peak Time (s)	90.037
Peak Height 	0.1639
calc peak height	90,93
Baseline Time (s)	11.036
Baseline Value 	7.9309E-5
subtract baseline	10,2
PK_880	0.284902
Peak Time (s)	92.035
Peak Height 	0.2849
calc peak height	90,93
Baseline Time (s)	9.537
Baseline Value 	2.4358E-4
subtract baseline	10,1


Time (s)	A880-A510	A880-A775	A880-A975	A880	I510	I775	I975	I880	
0.034500	0.000690	-0.000311	0.005572	0.003050	6160.495262	43471.485693	3891.540528	22515.385633
0.537500	-0.004887	-0.001020	-0.009776	0.007504	6086.234506	42992.258928	3847.215380	22315.344464
1.035500	-0.001643	-0.000092	-0.003455	0.004467	6132.531363	43359.758162	3867.908621	22451.509329
1.534500	-0.001023	-0.000326	-0.002753	0.001791	6157.087561	43587.676267	3875.489272	22572.261963
2.035500	0.001574	0.000003	0.001763	0.001771	6176.729891	43620.501582	3885.764171	22573.206403
2.536000	-0.000984	0.000368	-0.002276	0.003195	6146.890694	43521.261148	3873.402241	22508.802277
3.036000	0.001888	0.000001	0.003674	-0.000381	6195.347243	43822.488708	3895.056956	22670.882474
3.536500	-0.001988	-0.000144	-0.000595	0.000688	6158.126571	43708.242178	3882.864512	22622.297328
4.036000	0.000623	0.000358	-0.000908	0.001483	6171.745813	43680.771656	3880.353058	22586.230024
4.536000	-0.000490	-0.000250	-0.003128	0.000593	6170.070471	43707.240639	3877.346173	22626.611551
5.037500	0.000734	0.000089	0.003536	0.000109	6182.917954	43784.555355	3893.613427	22648.573234
5.535000	-0.001275	0.000078	-0.001459	0.000102	6167.862902	43784.229772	3882.234677	22648.918050
6.035500	-0.001066	-0.000649	0.004394	-0.000369	6172.970896	43760.130448	3896.684174	22670.323155
6.535500	0.000737	0.000953	-0.001277	0.001020	6176.077403	43780.109723	3880.563582	22607.205031
7.036000	0.000967	0.000110	-0.002991	0.000348	6182.879217	43764.075282	3878.208015	22637.718402
7.536000	0.001690	0.000743	0.002679	0.000028	6190.746426	43853.739341	3891.833317	22652.247736
8.036500	-0.000291	-0.000270	0.000431	-0.000002	6176.035998	43761.189373	3886.767132	22653.610596
8.542000	-0.000497	0.000571	0.000452	0.000282	6172.354031	43813.610538	3886.167645	22640.714248
9.037000	-0.000089	-0.000502	-0.003420	-0.000384	6180.431325	43775.299234	3878.892555	22670.979365
9.537000	0.000000	-0.000100	-0.002775	-0.000136	6179.237024	43789.896561	3879.791888	22659.722229
10.038000	0.000503	0.000002	0.001053	0.000136	6180.979610	43773.816087	3887.870896	22647.350067
10.535000	0.000767	0.000197	0.000000	0.000000	6183.989969	43805.022481	3885.780628	22653.534945
11.035500	0.001598	0.000000	0.001861	0.000026	6190.069679	43784.019310	3889.966345	22652.353319
11.535500	-0.000817	-0.000265	-0.000311	-0.000203	6173.589737	43780.654778	3885.535779	22662.772920
12.036000	0.000611	0.000074	-0.001567	-0.000096	6183.536201	43802.388893	3882.435958	22657.881987
12.536000	-0.000523	-0.000707	-0.000209	-0.000635	6179.053620	43779.637381	3886.750365	22682.413252
13.036500	0.001671	-0.000273	0.003218	-0.000644	6195.688655	43821.346598	3894.611344	22682.833718
13.538000	0.000556	0.000752	0.002078	0.000294	6180.187445	43829.578072	3889.851616	22640.191177
14.037000	-0.000652	0.000283	-0.002987	0.002821	6152.165985	43548.405190	3872.646177	22525.709603
14.539000	-0.001195	0.000397	-0.004623	0.002348	6151.646751	43603.360901	3870.038481	22547.098043
15.035000	0.001814	0.000416	-0.002494	-0.000029	6192.116276	43828.394579	3880.184690	22654.857921
15.535000	0.000031	0.000367	0.000848	0.000274	6176.378943	43795.213543	3887.088616	22641.074798
16.035500	-0.002002	-0.000070	-0.001099	0.002894	6141.555816	43508.530575	3876.730540	22522.402600
16.536000	-0.000368	0.000683	0.001474	0.000765	6169.695066	43778.773465	3887.396209	22618.790227
17.036000	0.000373	0.000730	0.007300	-0.001966	6195.871466	44040.904267	3907.102584	22743.119358
17.536000	0.000641	0.000599	-0.003822	0.001620	6170.852311	43690.547526	3873.468582	22580.025441
18.039000	-0.001148	0.001069	0.000023	0.002494	6150.904982	43652.627722	3880.171986	22540.503766
18.537000	0.000181	0.000793	0.002375	0.001860	6165.595103	43686.268449	3886.953677	22569.176803
19.037000	0.001039	-0.000125	-0.003382	0.001223	6176.829301	43659.850003	3875.352234	22598.026079
19.535000	-0.000295	0.000657	-0.000402	0.001454	6165.066927	43711.598434	3881.563736	22587.554412
20.035000	-0.000900	0.000383	-0.002073	0.001542	6159.872271	43677.522957	3877.585772	22583.556334
20.535500	0.000368	0.000144	-0.000559	0.001745	6167.859295	43636.116031	3880.548176	22574.362824
21.035500	-0.000674	0.000625	-0.001833	0.001786	6159.740943	43677.305079	3877.575702	22572.487747
21.536000	-0.001186	-0.000322	-0.002352	0.000985	6161.908788	43663.680670	3878.213059	22608.818229
22.036500	-0.000738	0.000740	-0.002167	0.002001	6157.659710	43668.036836	3876.339323	22562.799411
22.542500	-0.001695	0.000501	0.002874	0.001634	6153.235085	43679.911128	3888.606974	22579.370254
23.036500	-0.001340	0.000334	0.001722	0.001706	6155.358759	43657.604803	3885.818498	22576.152619
23.537000	-0.000914	0.000712	0.004256	0.002234	6154.594163	43643.509133	3890.395123	22552.258165
24.035000	0.000940	0.000413	-0.001102	0.001815	6171.630494	43654.696609	3879.161899	22571.186699
24.535000	-0.000021	0.001314	-0.000359	0.002226	6161.337528	43700.734965	3879.912178	22552.583063
25.035500	0.001313	0.000792	0.002006	0.002127	6172.083322	43661.009839	3885.504140	22557.061021
25.535500	-0.002304	0.000769	0.005177	0.001476	6149.867701	43719.992488	3894.241540	22586.534498
26.036000	0.000666	-0.000442	0.001302	0.002663	6163.207193	43495.346374	3882.687572	22532.849903
26.536500	0.001451	0.000743	0.000194	0.002218	6172.441731	43647.888022	3881.182744	22552.953808
27.036500	0.003224	0.000200	0.001003	-0.001516	6214.092266	43948.156799	3891.530079	22722.554103
27.536500	0.000156	0.000425	0.001734	-0.000566	6183.653744	43879.839273	3891.031946	22679.288658
28.037000	-0.001553	0.000692	-0.007890	0.005336	6126.745386	43351.813195	3856.124900	22412.437839
28.537000	0.003230	0.000554	-0.000625	0.000197	6201.126203	43820.034510	3883.910438	22644.561682
29.034500	0.001657	0.000899	0.001750	0.000495	6186.971571	43824.445332	3888.641229	22631.036383
29.535000	0.000812	0.000807	0.000042	0.000461	6180.853125	43818.988238	3884.826073	22632.583309
30.035500	-0.003069	0.000074	0.000355	0.005314	6115.696569	43296.419127	3874.553945	22413.422772
30.536000	-0.000873	0.000657	0.000169	0.003484	6145.568079	43521.350705	3878.262876	22495.794358
31.036000	-0.002029	0.000368	0.003065	0.001484	6151.864000	43681.516846	3889.384365	22586.167060
31.541500	0.001543	0.000393	-0.005523	-0.000100	6190.604377	43832.831989	3873.511032	22658.075257
32.039000	-0.001241	0.000343	-0.001708	0.005261	6129.620809	43326.349396	3870.041941	22415.831116
32.537000	0.002076	0.001452	0.005569	0.000782	6187.971994	43849.576757	3896.740290	22618.038058
33.037000	0.000705	0.000830	0.000150	0.000267	6181.510702	43839.495776	3885.513160	22641.393982
33.542000	0.003123	0.000992	0.003415	-0.001112	6210.262765	43984.989058	3896.141940	22704.168733
34.037500	-0.003513	0.000639	-0.002450	0.003900	6122.867366	43480.786107	3871.429939	22477.048623
34.535000	0.000343	0.000591	0.005572	0.002642	6160.946114	43593.959631	3892.473513	22533.807609
35.035500	-0.000411	0.000187	-0.000463	0.002148	6159.000705	43602.424878	3879.854478	22556.140190
35.536000	-0.003036	-0.000027	-0.001415	0.001850	6141.627211	43610.258369	3878.374438	22569.602265
36.036000	-0.001057	0.001210	0.004704	0.004267	6138.366748	43499.832417	3886.774258	22460.484967
36.536000	0.001398	0.000405	-0.000607	0.002238	6171.889444	43614.272619	3879.323364	22552.034513
37.037000	0.000975	0.001326	0.000899	0.003102	6162.233303	43619.617415	3880.775983	22512.997651
37.537000	0.000072	0.000942	0.001693	0.003285	6154.105118	43566.578813	3882.162397	22504.754775
38.037500	0.002671	0.001699	-0.004858	0.003023	6175.561924	43662.028754	3867.999303	22516.570353
38.534500	0.000587	0.000745	-0.002140	0.002438	6164.310088	43627.501644	3875.414065	22543.034395
39.034500	0.002475	0.000950	-0.000041	0.002336	6179.259307	43656.242342	3880.384387	22547.627492
39.535500	-0.000862	0.000711	0.002258	0.002398	6153.751897	43628.050617	3885.460951	22544.813055
40.035500	-0.000074	-0.000087	-0.002336	0.001905	6163.345092	43599.412826	3876.171403	22567.109510
40.536000	0.000586	0.000865	0.001086	0.002853	6161.187079	43599.882824	3881.767427	22524.266244
41.036000	0.000223	0.001023	-0.002181	0.002859	6158.419909	43614.045896	3874.371599	22523.976717
41.539000	0.001964	0.000828	0.009108	0.002835	6171.662461	43598.121246	3900.166348	22525.083684
42.036500	-0.001856	0.000224	-0.002134	0.003852	6135.516720	43446.562497	3872.246852	22479.209256
42.537500	-0.001017	0.000803	0.002379	0.002415	6152.472218	43635.106344	3885.699413	22544.053042
43.037000	-0.000085	0.000550	0.002055	0.002431	6159.325714	43609.856596	3884.926601	22543.341634
43.538000	0.000517	0.000319	0.002005	0.001489	6170.899990	43676.479395	3886.956156	22585.946965
44.035000	-0.001283	0.000501	-0.000861	0.004536	6134.689375	43408.623650	3873.569490	22448.409282
44.536000	0.000830	-0.000076	0.000533	-0.000013	6184.563403	43780.569541	3887.024374	22654.127747
45.036000	0.000279	0.000669	0.002516	0.000305	6178.017228	43820.662017	3890.826913	22639.663776
45.536000	-0.000580	0.000621	-0.004416	0.000432	6170.601069	43804.280588	3874.805645	22633.927700
46.039500	-0.002853	0.000424	0.000408	0.005860	6113.259052	43278.100905	3873.444311	22388.906248
46.536500	0.001214	0.000237	0.003894	0.000055	6186.955563	43803.666283	3894.559427	22651.054769
47.036500	0.000387	0.000404	0.005307	0.000836	6174.832359	43745.873809	3896.012630	22615.570697
47.537000	-0.002728	0.000132	0.002597	0.002602	6138.323219	43554.669841	3885.768389	22535.593165
48.037000	-0.002292	0.000581	0.001627	0.005769	6118.077265	43301.236044	3876.396128	22393.018869
48.535000	0.001735	0.001177	0.001577	0.000706	6185.969617	43830.812212	3887.765634	22621.459701
49.036000	0.003390	0.001802	-0.000086	0.001338	6193.702583	43830.146197	3882.545799	22592.818039
49.535500	0.002070	0.000921	0.002559	-0.001939	6208.535050	44056.484035	3896.072896	22741.873836
50.036000	-0.002782	0.000237	-0.000140	0.006771	6107.070100	43176.331710	3870.173419	22348.127473
50.535500	0.000620	0.000975	0.004795	0.002645	6162.997108	43629.560094	3890.686036	22533.638405
51.039000	0.021284	-0.030438	0.002066	0.597517	3775.698101	12547.946193	3148.048672	7898.064034
51.536500	-0.002540	-0.032309	-0.032387	-0.025278	6353.982268	43130.152692	3869.727875	23836.758875
52.037000	0.000386	-0.090307	-0.027783	-0.269197	8991.516260	64614.176216	4620.846515	39605.952870
52.537000	0.002061	-0.088142	-0.018318	-0.266892	8982.698976	64594.312023	4649.496063	39411.677678
53.037500	0.013296	-0.052380	0.000652	-0.208055	8352.062192	61403.181188	4495.794882	34786.964314
53.534000	0.013576	-0.033730	0.002208	-0.150466	7679.067839	56388.044354	4302.282658	30828.295844
54.035500	0.011551	-0.023414	0.006508	-0.104005	7175.067043	52118.415786	4172.278055	27995.806166
54.535000	0.012204	-0.014572	0.008350	-0.080615	6957.424985	50497.851404	4110.551680	26680.530413
55.036000	0.025222	-0.018688	0.018686	-0.126630	7547.002160	55316.281527	4278.672923	29337.287412
55.539000	0.042199	-0.016686	0.035943	-0.110198	7552.836063	53604.086225	4281.300449	28356.108920
56.036500	0.058161	-0.000239	0.052571	-0.012411	6755.214719	44947.897373	4045.354562	23225.868492
56.537000	0.080684	0.014055	0.070411	0.054186	6383.949136	40179.706570	3923.416349	20337.690516
57.037000	0.095736	0.026611	0.095527	0.116132	6028.181453	36174.801028	3839.967643	18021.064115
57.537500	0.115619	0.039572	0.117339	0.165982	5820.149784	33467.071517	3781.017935	16382.448654
58.035000	0.134154	0.052260	0.135962	0.220770	5586.929291	30645.164563	3710.391526	14785.718906
58.535000	0.159727	0.066196	0.159584	0.259922	5504.467376	29081.446524	3681.822882	13761.994257
59.035500	0.184076	0.082060	0.179150	0.299373	5415.736614	27698.724945	3646.701559	12819.691907
59.536000	0.205089	0.097280	0.200446	0.330210	5359.645175	26823.597894	3630.412444	12140.476506
60.036000	0.217724	0.109517	0.211019	0.366410	5230.168202	25540.630840	3588.393650	11402.317572
60.536500	0.230175	0.119111	0.237244	0.395971	5140.462908	24524.346806	3583.104013	10843.531948
61.037000	0.241887	0.125413	0.239995	0.405820	5150.062229	24348.645391	3571.982437	10665.643266
61.537000	0.246937	0.132266	0.241069	0.417961	5113.751118	24089.335166	3555.002396	10451.844422
62.034500	0.246574	0.137934	0.235071	0.419324	5105.001079	24300.184258	3543.944236	10428.207097
62.534500	0.249648	0.147227	0.250830	0.420364	5115.315636	24710.296396	3566.242007	10410.219932
63.035000	0.253950	0.147555	0.256778	0.413594	5172.315895	25069.331574	3586.129075	10528.062147
63.535000	0.257776	0.151911	0.256465	0.412384	5198.718487	25354.935439	3587.552843	10549.311132
64.035500	0.256239	0.151929	0.254035	0.415162	5176.073012	25212.869513	3579.322441	10500.607556
64.536000	0.259774	0.154817	0.261434	0.411526	5213.834706	25550.226899	3596.879126	10564.414434
65.039000	0.263060	0.156241	0.262748	0.412264	5227.397129	25585.953358	3597.807533	10551.413886
65.536500	0.264929	0.157521	0.261364	0.412860	5234.207343	25621.685219	3594.619956	10540.932565
66.036000	0.265755	0.158210	0.261520	0.418081	5210.785908	25386.076611	3586.533289	10449.752254
66.539500	0.271690	0.158674	0.268745	0.418708	5239.100459	25377.618487	3597.086414	10438.874348
67.037500	0.268808	0.159851	0.264397	0.420295	5215.241612	25356.463245	3587.586875	10411.426196
67.537500	0.271470	0.162587	0.270015	0.423310	5213.367599	25342.044831	3591.737269	10359.523064
68.035000	0.267803	0.161329	0.267673	0.426268	5178.465172	25125.458345	3583.311456	10308.962131
68.535500	0.269938	0.162096	0.270514	0.423281	5205.398806	25318.204126	3592.581983	10360.015515
69.036000	0.274433	0.164164	0.280100	0.425171	5219.223192	25327.392791	3605.018002	10327.674627
69.536000	0.274077	0.163393	0.270049	0.425536	5215.391418	25268.887665	3588.240155	10321.443549
70.036000	0.272547	0.163904	0.269697	0.431285	5177.040578	25000.996415	3578.599135	10223.986585
70.536500	0.273034	0.165136	0.275753	0.428291	5195.301645	25216.825151	3592.948705	10274.577687
71.037000	0.276684	0.166075	0.267995	0.428863	5211.570169	25235.724353	3579.729357	10264.890313
71.537000	0.275564	0.167168	0.269712	0.429421	5202.682576	25263.193044	3581.553500	10255.441295
72.037500	0.278871	0.169575	0.280526	0.433958	5196.191393	25153.893052	3591.517587	10179.101834
72.535000	0.277135	0.168872	0.278773	0.432954	5192.336348	25169.292974	3590.321179	10195.921779
73.035000	0.275263	0.168162	0.280841	0.433622	5179.020473	25098.807537	3592.559072	10184.725590
73.538000	0.281045	0.168661	0.276060	0.437018	5191.534597	24951.405861	3579.588479	10128.074203
74.036000	0.275634	0.167619	0.271652	0.439554	5150.126855	24770.683201	3568.762103	10086.046812
74.538500	0.281326	0.169523	0.276461	0.439386	5180.587117	24875.159501	3576.503617	10088.828850
75.036000	0.277621	0.169129	0.280324	0.438201	5167.439577	24915.177818	3584.448202	10108.444787
75.537000	0.279391	0.169353	0.281021	0.438979	5172.602760	24887.166746	3584.319959	10095.560262
76.037000	0.279370	0.169936	0.273694	0.441557	5159.093057	24786.482533	3568.821766	10053.028840
76.537500	0.279165	0.169817	0.278380	0.437933	5176.880742	24963.654753	3581.799261	10112.883030
77.035000	0.279391	0.170768	0.284223	0.438343	5175.920785	24991.099805	3590.419142	10106.084812
77.535000	0.279082	0.168261	0.281141	0.435841	5187.399208	24990.863982	3589.492903	10147.655068
78.034500	0.279821	0.169216	0.275239	0.438772	5175.928048	24890.686004	3575.553485	10098.983708
78.535500	0.281985	0.170304	0.279429	0.438427	5189.065311	24963.304525	3582.675304	10104.693945
79.036500	0.279149	0.172343	0.279002	0.439784	5167.153453	24997.917658	3579.864674	10082.256141
79.536000	0.279786	0.171904	0.286987	0.440486	5166.810311	24939.977471	3591.411567	10070.663880
80.036500	0.279094	0.169610	0.283539	0.440689	5162.157369	24813.745595	3585.597290	10067.311907
80.537000	0.278548	0.169992	0.277548	0.438686	5169.740578	24934.327913	3579.306363	10100.411785
81.037500	0.278523	0.171274	0.278080	0.439801	5163.807759	24942.807057	3578.390642	10081.974526
81.534500	0.283099	0.168748	0.283087	0.438258	5195.815197	24892.993332	3588.742710	10107.488135
82.037000	0.281143	0.169337	0.283356	0.440493	5173.839849	24809.880870	3585.617878	10070.542534
82.534500	0.280786	0.167216	0.278670	0.437820	5185.956778	24837.697079	3582.434656	10114.748636
83.035500	0.281096	0.167976	0.274618	0.439846	5176.980300	24773.963504	3572.910260	10081.227925
83.535500	0.280315	0.168726	0.283451	0.440952	5167.138482	24756.032955	3585.043333	10062.990282
84.039000	0.284168	0.168316	0.276268	0.442431	5179.523797	24661.263787	3571.456884	10038.669130
84.536000	0.283666	0.167190	0.278940	0.441543	5181.543714	24649.344634	3577.007757	10053.257304
85.037000	0.283281	0.166484	0.277597	0.441939	5177.455510	24594.307825	3574.290735	10046.748698
85.537000	0.281942	0.166894	0.278066	0.442772	5166.135540	24573.225166	3573.723111	10033.071608
86.034500	0.282307	0.165242	0.284159	0.442752	5168.140436	24492.031425	3583.315588	10033.405381
86.534500	0.283736	0.166276	0.285326	0.443045	5174.058383	24528.840777	3584.696373	10028.594978
87.035000	0.282504	0.165287	0.288255	0.443161	5167.035465	24473.924141	3589.164809	10026.692650
87.535000	0.283898	0.164830	0.282199	0.443273	5173.715735	24445.730878	3579.406289	10024.864560
88.036000	0.281390	0.164344	0.288307	0.442558	5164.378674	24457.102359	3590.210804	10036.588425
88.538500	0.281932	0.162939	0.293642	0.442874	5165.559042	24371.953163	3598.267640	10031.410316
89.036000	0.282764	0.162730	0.283916	0.443403	5167.132256	24335.499496	3581.904213	10022.740657
89.536000	0.282724	0.164220	0.281456	0.444908	5159.102691	24334.720413	3575.679112	9998.122881
90.037000	0.283859	0.163884	0.288843	0.445232	5163.315750	24302.275008	3586.807521	9992.851372
90.537000	0.282181	0.162962	0.278397	0.444312	5159.381355	24302.161005	3571.842162	10007.859770
91.037000	0.281418	0.161893	0.281392	0.444092	5156.568285	24260.404840	3576.854864	10011.453742
91.535000	0.283772	0.161715	0.283780	0.444555	5166.383867	24228.937720	3579.876242	10003.895594
92.035000	0.284902	0.161736	0.282630	0.447310	5157.944112	24095.230509	3573.763082	9959.032564
92.537500	0.283773	0.162116	0.286116	0.446612	5155.714902	24147.844449	3580.315313	9970.377082
93.035500	0.284327	0.160401	0.284663	0.445738	5163.115300	24106.752577	3579.404481	9984.592526
93.550000	0.283530	0.160446	0.284270	0.446030	5157.471274	24094.736377	3578.328810	9979.847158
94.036500	0.283368	0.161356	0.285451	0.448971	5141.457204	23995.947337	3575.574005	9932.131220
94.536500	0.286650	0.160316	0.280740	0.447282	5167.162692	24027.440386	3570.867622	9959.483352
95.033500	0.284833	0.161527	0.281955	0.449893	5144.248880	23959.535638	3568.705831	9917.236524
95.534500	0.282857	0.160758	0.284815	0.449664	5135.270524	23933.402894	3573.500417	9920.930786
96.037500	0.283237	0.159241	0.286716	0.449907	5135.974150	23848.441035	3576.088128	9917.013865
