sample name	sample
index	325
start time	 02-25-2021  03:35:39 PM


Wavelength (nm)	Absorbance
494.344910	NaN
494.563924	NaN
494.782919	NaN
495.001897	NaN
495.220856	NaN
495.439797	2.001265
495.658719	0.343473
495.877624	0.088746
496.096510	-0.074538
496.315378	0.089816
496.534227	0.060155
496.753059	0.048958
496.971872	-0.061131
497.190667	0.136752
497.409444	0.147084
497.628203	0.147534
497.846943	0.151065
498.065665	0.151845
498.284369	0.150738
498.503055	0.150872
498.721723	0.151046
498.940372	0.150171
499.159003	0.150618
499.377616	0.150789
499.596210	0.151755
499.814787	0.150840
500.033345	0.149858
500.251885	0.149069
500.470406	0.149335
500.688910	0.150040
500.907395	0.151535
501.125862	0.151661
501.344311	0.152056
501.562742	0.151883
501.781154	0.151734
501.999548	0.151546
502.217924	0.151784
502.436282	0.150664
502.654621	0.149575
502.872942	0.148762
503.091245	0.148093
503.309530	0.147963
503.527797	0.148569
503.746045	0.149333
503.964275	0.150077
504.182487	0.150716
504.400681	0.152099
504.618856	0.152688
504.837013	0.153879
505.055152	0.155096
505.273273	0.155066
505.491376	0.154837
505.709460	0.154500
505.927526	0.154720
506.145574	0.155574
506.363604	0.155102
506.581615	0.155732
506.799608	0.155049
507.017583	0.154045
507.235540	0.154194
507.453478	0.153808
507.671399	0.154553
507.889301	0.154324
508.107185	0.154151
508.325050	0.155721
508.542898	0.156346
508.760727	0.156741
508.978538	0.158374
509.196330	0.157343
509.414105	0.157290
509.631861	0.157086
509.849599	0.157786
510.067319	0.158335
510.285021	0.157743
510.502704	0.157647
510.720369	0.158325
510.938016	0.157644
511.155645	0.159621
511.373255	0.160000
511.590848	0.160660
511.808422	0.160342
512.025977	0.160259
512.243515	0.159913
512.461034	0.160096
512.678536	0.160292
512.896018	0.160902
513.113483	0.160673
513.330930	0.161544
513.548358	0.161874
513.765768	0.162546
513.983160	0.162659
514.200533	0.163399
514.417889	0.162867
514.635226	0.162941
514.852545	0.162633
515.069845	0.162486
515.287128	0.163427
515.504392	0.162984
515.721638	0.163035
515.938866	0.163359
516.156075	0.163756
516.373267	0.163734
516.590440	0.163600
516.807594	0.163499
517.024731	0.164168
517.241850	0.163602
517.458950	0.163242
517.676032	0.163600
517.893095	0.163446
518.110141	0.162874
518.327168	0.163693
518.544177	0.163905
518.761168	0.164470
518.978141	0.165212
519.195095	0.164783
519.412031	0.166439
519.628949	0.167340
519.845849	0.167384
520.062731	0.168107
520.279594	0.169155
520.496439	0.169400
520.713266	0.169749
520.930074	0.169472
521.146865	0.170508
521.363637	0.169946
521.580391	0.169829
521.797127	0.169908
522.013844	0.170071
522.230543	0.168732
522.447224	0.169314
522.663887	0.169066
522.880532	0.169915
523.097158	0.169785
523.313766	0.170276
523.530356	0.169851
523.746928	0.170641
523.963481	0.170667
524.180017	0.171105
524.396534	0.170531
524.613032	0.170680
524.829513	0.170182
525.045975	0.169834
525.262420	0.170292
525.478845	0.171242
525.695253	0.171848
525.911643	0.172487
526.128014	0.173837
526.344367	0.175061
526.560702	0.175741
526.777018	0.175807
526.993316	0.176374
527.209597	0.176382
527.425858	0.176692
527.642102	0.176937
527.858328	0.177097
528.074535	0.177486
528.290724	0.177289
528.506894	0.178478
528.723047	0.179212
528.939181	0.179406
529.155297	0.179932
529.371395	0.179785
529.587475	0.179596
529.803536	0.179947
530.019579	0.179634
530.235604	0.180074
530.451611	0.179545
530.667600	0.179767
530.883570	0.180445
531.099522	0.180356
531.315456	0.180504
531.531372	0.180962
531.747269	0.181342
531.963148	0.181363
532.179009	0.182029
532.394852	0.182577
532.610676	0.183030
532.826482	0.183577
533.042271	0.184194
533.258040	0.185275
533.473792	0.185605
533.689525	0.185761
533.905240	0.186653
534.120937	0.186761
534.336616	0.187302
534.552277	0.187804
534.767919	0.188153
534.983543	0.188545
535.199149	0.188331
535.414736	0.189170
535.630306	0.190118
535.845857	0.189819
536.061390	0.189501
536.276904	0.189291
536.492401	0.189281
536.707879	0.189754
536.923339	0.189724
537.138781	0.190394
537.354204	0.189883
537.569610	0.190102
537.784997	0.191050
538.000366	0.191612
538.215716	0.192195
538.431049	0.192123
538.646363	0.192403
538.861659	0.192973
539.076937	0.192936
539.292196	0.193826
539.507438	0.193488
539.722661	0.194056
539.937866	0.194799
540.153052	0.195154
540.368221	0.195940
540.583371	0.195804
540.798503	0.195970
541.013617	0.196845
541.228712	0.197218
541.443789	0.198040
541.658848	0.197994
541.873889	0.197918
542.088912	0.198028
542.303916	0.197811
542.518902	0.198281
542.733870	0.199021
542.948820	0.198870
543.163752	0.198971
543.378665	0.198798
543.593560	0.199013
543.808437	0.199848
544.023295	0.200300
544.238136	0.200862
544.452958	0.200907
544.667762	0.200842
544.882548	0.201250
545.097315	0.201330
545.312064	0.201914
545.526795	0.202048
545.741508	0.201841
545.956203	0.201817
546.170879	0.202032
546.385537	0.202258
546.600177	0.202462
546.814799	0.202648
547.029402	0.203007
547.243988	0.203393
547.458555	0.204269
547.673103	0.204319
547.887634	0.204935
548.102146	0.205487
548.316640	0.205900
548.531116	0.205955
548.745574	0.206546
548.960013	0.206850
549.174435	0.207036
549.388838	0.207040
549.603222	0.207637
549.817589	0.207601
550.031937	0.208011
550.246267	0.208758
550.460579	0.209332
550.674873	0.209246
550.889148	0.209382
551.103405	0.209213
551.317644	0.209036
551.531865	0.209340
551.746068	0.209876
551.960252	0.209892
552.174418	0.209368
552.388566	0.209506
552.602696	0.209256
552.816807	0.209486
553.030900	0.210076
553.244975	0.210252
553.459032	0.210568
553.673070	0.210824
553.887091	0.210877
554.101093	0.211314
554.315077	0.211411
554.529042	0.212265
554.742990	0.212676
554.956919	0.212673
555.170830	0.213476
555.384722	0.213383
555.598597	0.213422
555.812453	0.213799
556.026291	0.214294
556.240111	0.214479
556.453913	0.214712
556.667696	0.214762
556.881461	0.214941
557.095208	0.214535
557.308937	0.215532
557.522647	0.215854
557.736339	0.216116
557.950013	0.216074
558.163669	0.215890
558.377307	0.216024
558.590926	0.216264
558.804527	0.216006
559.018110	0.216471
559.231675	0.216020
559.445221	0.215795
559.658749	0.215730
559.872259	0.216201
560.085751	0.216766
560.299225	0.216778
560.512680	0.216845
560.726117	0.217620
560.939536	0.217682
561.152937	0.217945
561.366319	0.218235
561.579683	0.218440
561.793029	0.218431
562.006357	0.218559
562.219667	0.218679
562.432958	0.219126
562.646231	0.219443
562.859486	0.219447
563.072723	0.219368
563.285941	0.219679
563.499141	0.219823
563.712323	0.220123
563.925487	0.220447
564.138632	0.220975
564.351760	0.220875
564.564869	0.221011
564.777960	0.221339
564.991032	0.221457
565.204087	0.221908
565.417123	0.222607
565.630141	0.222269
565.843140	0.222324
566.056122	0.222175
566.269085	0.222417
566.482030	0.222391
566.694957	0.222623
566.907866	0.223083
567.120756	0.223133
567.333628	0.222666
567.546482	0.223502
567.759318	0.223851
567.972135	0.224344
568.184935	0.224417
568.397716	0.224810
568.610478	0.225106
568.823223	0.224972
569.035949	0.225029
569.248657	0.224957
569.461347	0.224796
569.674019	0.224853
569.886672	0.224900
570.099308	0.225638
570.311925	0.225650
570.524523	0.226121
570.737104	0.226919
570.949666	0.227012
571.162210	0.227586
571.374736	0.227851
571.587244	0.228506
571.799733	0.228655
572.012205	0.228207
572.224658	0.228535
572.437092	0.228166
572.649509	0.228176
572.861907	0.228371
573.074287	0.229054
573.286649	0.229689
573.498993	0.229364
573.711318	0.229465
573.923625	0.229832
574.135914	0.230221
574.348185	0.230559
574.560438	0.230266
574.772672	0.230556
574.984888	0.230477
575.197086	0.230066
575.409266	0.230342
575.621427	0.230710
575.833570	0.230995
576.045695	0.231018
576.257802	0.231513
576.469890	0.232064
576.681961	0.232238
576.894013	0.232362
577.106046	0.232621
577.318062	0.233059
577.530059	0.232900
577.742039	0.233012
577.954000	0.233304
578.165942	0.233374
578.377867	0.233640
578.589773	0.233974
578.801661	0.234327
579.013531	0.234720
579.225382	0.234815
579.437216	0.235416
579.649031	0.235614
579.860828	0.235436
580.072606	0.235759
580.284367	0.235976
580.496109	0.236114
580.707833	0.235792
580.919539	0.236027
581.131227	0.236119
581.342896	0.236018
581.554547	0.236251
581.766180	0.236749
581.977795	0.236738
582.189391	0.236913
582.400969	0.237333
582.612529	0.237476
582.824071	0.237396
583.035595	0.237180
583.247100	0.237194
583.458587	0.237694
583.670056	0.237603
583.881506	0.237594
584.092939	0.238039
584.304353	0.237959
584.515749	0.238531
584.727127	0.238874
584.938486	0.239574
585.149828	0.240123
585.361151	0.239979
585.572456	0.240713
585.783742	0.240743
585.995011	0.240452
586.206261	0.240631
586.417493	0.240469
586.628706	0.240679
586.839902	0.240809
587.051079	0.240881
587.262238	0.241167
587.473379	0.241313
587.684502	0.241802
587.895606	0.242206
588.106692	0.242453
588.317760	0.243327
588.528810	0.243459
588.739841	0.243646
588.950855	0.243790
589.161850	0.243643
589.372827	0.243531
589.583785	0.243966
589.794726	0.244240
590.005648	0.244462
590.216552	0.244325
590.427437	0.244636
590.638305	0.244616
590.849154	0.245034
591.059985	0.245368
591.270798	0.245678
591.481592	0.245931
591.692369	0.245604
591.903127	0.245917
592.113867	0.246030
592.324588	0.246230
592.535292	0.246653
592.745977	0.246581
592.956644	0.247083
593.167293	0.247361
593.377923	0.247779
593.588536	0.248267
593.799130	0.248328
594.009706	0.248556
594.220263	0.248774
594.430803	0.248832
594.641324	0.248945
594.851827	0.249182
595.062312	0.249048
595.272778	0.248756
595.483227	0.248785
595.693657	0.249371
595.904069	0.249764
596.114462	0.249490
596.324838	0.249790
596.535195	0.250088
596.745534	0.250083
596.955855	0.250422
597.166157	0.250648
597.376441	0.250790
597.586707	0.250373
597.796955	0.250363
598.007185	0.250703
598.217396	0.251047
598.427589	0.251426
598.637764	0.251783
598.847921	0.252149
599.058060	0.252213
599.268180	0.252584
599.478282	0.253024
599.688366	0.253115
599.898431	0.253318
600.108479	0.253304
600.318508	0.253104
600.528519	0.253015
600.738511	0.252963
600.948486	0.252986
601.158442	0.253220
601.368380	0.253233
601.578300	0.253321
601.788202	0.253765
601.998085	0.254035
602.207950	0.254462
602.417797	0.254572
602.627626	0.254863
602.837436	0.255181
603.047228	0.255147
603.257002	0.255395
603.466758	0.255868
603.676496	0.255712
603.886215	0.256296
604.095916	0.256217
604.305599	0.256431
604.515264	0.256223
604.724910	0.256347
604.934538	0.256517
605.144148	0.256558
605.353740	0.256418
605.563314	0.256819
605.772869	0.256543
605.982406	0.256781
606.191925	0.256921
606.401425	0.257661
606.610908	0.257752
606.820372	0.257982
607.029818	0.258134
607.239246	0.258230
607.448655	0.258113
607.658047	0.257921
607.867420	0.258099
608.076775	0.258159
608.286111	0.258142
608.495430	0.258414
608.704730	0.258726
608.914012	0.258904
609.123275	0.259051
609.332521	0.259247
609.541748	0.259504
609.750957	0.259474
609.960148	0.260134
610.169321	0.259999
610.378475	0.260130
610.587611	0.260465
610.796729	0.260637
611.005829	0.260954
611.214910	0.261080
611.423974	0.261611
611.633019	0.262059
611.842045	0.261808
612.051054	0.261751
612.260044	0.261724
612.469017	0.261445
612.677970	0.261638
612.886906	0.261533
613.095824	0.261783
613.304723	0.261745
613.513604	0.261740
613.722467	0.261917
613.931311	0.262242
614.140138	0.262786
614.348946	0.263120
614.557736	0.263389
614.766507	0.263664
614.975261	0.263793
615.183996	0.264122
615.392713	0.264405
615.601412	0.264631
615.810092	0.264802
616.018754	0.264790
616.227399	0.264508
616.436024	0.264504
616.644632	0.264641
616.853222	0.264950
617.061793	0.264928
617.270346	0.264908
617.478880	0.264759
617.687397	0.265133
617.895895	0.265311
618.104375	0.266081
618.312837	0.266448
618.521281	0.266650
618.729706	0.266302
618.938113	0.266103
619.146502	0.266272
619.354873	0.266512
619.563226	0.266419
619.771560	0.266457
619.979876	0.266351
620.188174	0.266296
620.396453	0.266762
620.604715	0.267506
620.812958	0.267797
621.021183	0.267648
621.229390	0.268225
621.437578	0.268376
621.645748	0.268688
621.853900	0.268811
622.062034	0.268775
622.270150	0.268240
622.478247	0.267973
622.686326	0.268286
622.894387	0.268728
623.102430	0.268631
623.310454	0.269052
623.518461	0.269270
623.726449	0.269574
623.934418	0.269778
624.142370	0.270165
624.350303	0.270357
624.558218	0.270343
624.766115	0.270361
624.973994	0.270499
625.181855	0.270219
625.389697	0.269990
625.597521	0.270101
625.805327	0.270118
626.013114	0.270128
626.220883	0.270281
626.428634	0.270571
626.636367	0.271015
626.844082	0.271416
627.051778	0.271802
627.259457	0.272218
627.467117	0.272356
627.674758	0.272566
627.882382	0.272978
628.089987	0.273094
628.297574	0.272986
628.505143	0.273051
628.712694	0.272792
628.920226	0.272873
629.127740	0.272895
629.335236	0.272786
629.542714	0.273196
629.750174	0.273400
629.957615	0.273733
630.165038	0.273927
630.372443	0.274279
630.579829	0.274562
630.787198	0.274850
630.994548	0.274830
631.201880	0.275244
631.409194	0.275359
631.616489	0.275602
631.823766	0.275887
632.031025	0.276402
632.238266	0.276148
632.445489	0.276302
632.652693	0.276446
632.859879	0.276600
633.067047	0.276510
633.274197	0.276496
633.481329	0.276662
633.688442	0.276612
633.895537	0.276560
634.102614	0.276841
634.309672	0.276946
634.516713	0.277065
634.723735	0.277635
634.930739	0.277948
635.137724	0.278163
635.344692	0.278197
635.551641	0.278467
635.758572	0.278514
635.965485	0.278796
636.172379	0.278762
636.379256	0.278885
636.586114	0.279009
636.792954	0.279299
636.999775	0.279447
637.206579	0.279611
637.413364	0.279832
637.620131	0.280058
637.826880	0.280271
638.033610	0.280673
638.240323	0.280929
638.447017	0.280972
638.653692	0.281037
638.860350	0.281426
639.066990	0.281747
639.273611	0.281861
639.480214	0.282155
639.686798	0.282021
639.893365	0.282101
640.099913	0.282259
640.306443	0.282428
640.512955	0.282532
640.719449	0.282446
640.925924	0.282550
641.132381	0.282586
641.338820	0.282747
641.545241	0.283380
641.751644	0.283669
641.958028	0.283790
642.164394	0.284050
642.370742	0.284408
642.577071	0.284704
642.783383	0.284901
642.989676	0.285577
643.195951	0.285626
643.402207	0.285618
643.608446	0.285912
643.814666	0.286293
644.020868	0.286317
644.227052	0.286408
644.433218	0.286537
644.639365	0.286807
644.845494	0.286515
645.051605	0.286994
645.257698	0.287127
645.463772	0.287392
645.669828	0.287445
645.875866	0.287803
646.081886	0.287855
646.287888	0.288003
646.493871	0.287880
646.699836	0.288038
646.905783	0.287953
647.111712	0.288236
647.317622	0.288247
647.523514	0.288358
647.729388	0.288481
647.935244	0.288803
648.141082	0.289141
648.346901	0.289595
648.552702	0.289896
648.758485	0.290105
648.964250	0.290318
649.169996	0.290314
649.375724	0.290478
649.581434	0.290323
649.787126	0.290381
649.992800	0.290447
650.198455	0.290421
650.404092	0.290907
650.609711	0.291383
650.815311	0.291479
651.020894	0.291835
651.226458	0.292043
651.432004	0.292414
651.637532	0.292690
651.843041	0.292965
652.048532	0.293107
652.254006	0.293049
652.459460	0.292718
652.664897	0.292855
652.870315	0.292781
653.075716	0.292834
653.281097	0.292876
653.486461	0.293096
653.691807	0.293383
653.897134	0.293706
654.102443	0.293817
654.307734	0.294381
654.513006	0.294759
654.718261	0.295247
654.923497	0.295607
655.128715	0.296137
655.333915	0.296341
655.539096	0.296427
655.744259	0.296698
655.949404	0.297076
656.154531	0.297183
656.359640	0.297155
656.564730	0.297272
656.769802	0.297566
656.974856	0.297865
657.179892	0.298149
657.384909	0.298329
657.589908	0.298600
657.794889	0.298714
657.999852	0.298855
658.204797	0.299119
658.409723	0.299326
658.614631	0.299610
658.819521	0.299607
659.024393	0.299626
659.229246	0.299987
659.434081	0.300169
659.638898	0.300205
659.843697	0.300397
660.048478	0.300765
660.253240	0.301119
660.457984	0.301146
660.662710	0.301424
660.867417	0.301709
661.072107	0.301935
661.276778	0.302027
661.481431	0.302341
661.686066	0.302515
661.890682	0.302835
662.095281	0.302850
662.299861	0.303199
662.504422	0.303432
662.708966	0.303736
662.913491	0.303860
663.117999	0.304131
663.322488	0.304418
663.526958	0.304584
663.731411	0.304455
663.935845	0.304623
664.140261	0.304889
664.344659	0.304881
664.549038	0.305050
664.753400	0.305092
664.957743	0.305083
665.162068	0.305294
665.366375	0.305400
665.570663	0.305473
665.774933	0.305767
665.979185	0.305684
666.183419	0.306148
666.387635	0.306454
666.591832	0.306993
666.796011	0.307622
667.000172	0.307781
667.204315	0.308352
667.408439	0.308781
667.612545	0.309179
667.816634	0.309416
668.020703	0.309717
668.224755	0.309990
668.428788	0.309895
668.632803	0.309726
668.836800	0.309808
669.040779	0.309813
669.244739	0.309758
669.448681	0.309678
669.652605	0.309879
669.856511	0.309851
670.060399	0.309621
670.264268	0.309771
670.468119	0.309936
670.671952	0.310225
670.875767	0.310541
671.079563	0.311222
671.283341	0.311363
671.487101	0.311563
671.690843	0.311685
671.894567	0.312257
672.098272	0.312360
672.301959	0.312752
672.505628	0.312985
672.709278	0.313158
672.912911	0.313118
673.116525	0.313292
673.320121	0.313531
673.523699	0.313963
673.727258	0.314100
673.930799	0.314634
674.134322	0.314709
674.337827	0.315046
674.541314	0.315071
674.744782	0.315617
674.948232	0.315996
675.151664	0.316343
675.355078	0.316246
675.558474	0.316219
675.761851	0.316320
675.965210	0.316756
676.168551	0.316993
676.371873	0.317313
676.575178	0.317240
676.778464	0.317765
676.981732	0.317918
677.184981	0.318230
677.388213	0.318635
677.591426	0.318843
677.794621	0.318949
677.997798	0.318890
678.200956	0.319091
678.404097	0.319422
678.607219	0.319573
678.810323	0.319732
679.013408	0.320081
679.216476	0.320321
679.419525	0.320724
679.622556	0.320953
679.825569	0.321206
680.028563	0.321352
680.231540	0.321345
680.434498	0.321397
680.637438	0.321597
680.840359	0.321677
681.043263	0.322002
681.246148	0.322097
681.449015	0.322237
681.651864	0.322221
681.854694	0.322672
682.057506	0.322861
682.260301	0.323097
682.463076	0.323407
682.665834	0.323992
682.868573	0.324098
683.071295	0.323979
683.273998	0.324355
683.476682	0.324826
683.679349	0.324899
683.881997	0.324894
684.084627	0.325099
684.287239	0.325211
684.489833	0.325084
684.692408	0.325129
684.894965	0.325667
685.097504	0.326035
685.300025	0.326195
685.502527	0.326292
685.705012	0.326863
685.907478	0.326983
686.109925	0.326797
686.312355	0.327143
686.514766	0.327585
686.717159	0.327761
686.919534	0.327538
687.121891	0.327717
687.324230	0.328150
687.526550	0.328322
687.728852	0.328554
687.931136	0.328931
688.133401	0.329193
688.335649	0.329060
688.537878	0.329234
688.740089	0.329572
688.942281	0.329799
689.144456	0.330033
689.346612	0.330240
689.548750	0.330502
689.750870	0.331129
689.952971	0.331137
690.155055	0.331467
690.357120	0.331449
690.559167	0.331507
690.761195	0.331704
690.963206	0.331828
691.165198	0.332084
691.367172	0.332033
691.569128	0.331783
691.771065	0.332124
691.972984	0.332427
692.174885	0.332950
692.376768	0.333089
692.578633	0.333396
692.780479	0.333549
692.982308	0.333609
693.184118	0.333824
693.385909	0.334103
693.587683	0.334262
