sample name	sample
index	319
start time	 02-25-2021  03:14:45 PM


Wavelength (nm)	Absorbance
494.344910	-1.391017
494.563924	-1.391017
494.782919	-1.391017
495.001897	NaN
495.220856	-0.028821
495.439797	-0.047700
495.658719	0.231507
495.877624	0.473717
496.096510	0.215943
496.315378	0.051927
496.534227	0.010138
496.753059	-0.105259
496.971872	-0.011904
497.190667	0.129896
497.409444	0.151411
497.628203	0.153974
497.846943	0.157078
498.065665	0.156803
498.284369	0.158150
498.503055	0.157789
498.721723	0.157402
498.940372	0.157726
499.159003	0.157517
499.377616	0.157988
499.596210	0.157346
499.814787	0.157260
500.033345	0.157687
500.251885	0.156919
500.470406	0.157567
500.688910	0.156978
500.907395	0.156446
501.125862	0.156469
501.344311	0.155602
501.562742	0.155816
501.781154	0.155641
501.999548	0.155913
502.217924	0.155951
502.436282	0.155264
502.654621	0.155767
502.872942	0.154345
503.091245	0.154525
503.309530	0.155119
503.527797	0.155466
503.746045	0.154659
503.964275	0.154818
504.182487	0.155077
504.400681	0.155140
504.618856	0.155365
504.837013	0.156469
505.055152	0.156236
505.273273	0.157415
505.491376	0.156814
505.709460	0.157486
505.927526	0.156814
506.145574	0.156691
506.363604	0.156365
506.581615	0.156532
506.799608	0.157171
507.017583	0.157749
507.235540	0.157493
507.453478	0.158502
507.671399	0.158100
507.889301	0.158520
508.107185	0.158149
508.325050	0.158493
508.542898	0.158881
508.760727	0.159773
508.978538	0.160691
509.196330	0.160584
509.414105	0.160996
509.631861	0.161967
509.849599	0.162053
510.067319	0.163316
510.285021	0.163771
510.502704	0.164327
510.720369	0.164024
510.938016	0.163411
511.155645	0.163316
511.373255	0.163178
511.590848	0.163484
511.808422	0.163956
512.025977	0.163156
512.243515	0.163121
512.461034	0.162658
512.678536	0.162280
512.896018	0.162541
513.113483	0.162523
513.330930	0.162837
513.548358	0.162545
513.765768	0.163053
513.983160	0.163358
514.200533	0.165102
514.417889	0.165211
514.635226	0.165590
514.852545	0.165487
515.069845	0.166422
515.287128	0.165874
515.504392	0.166404
515.721638	0.166725
515.938866	0.168441
516.156075	0.167108
516.373267	0.167601
516.590440	0.168542
516.807594	0.169145
517.024731	0.168681
517.241850	0.169772
517.458950	0.170017
517.676032	0.169912
517.893095	0.168533
518.110141	0.168924
518.327168	0.168818
518.544177	0.168888
518.761168	0.168637
518.978141	0.168191
519.195095	0.168338
519.412031	0.169029
519.628949	0.169742
519.845849	0.170666
520.062731	0.171569
520.279594	0.172362
520.496439	0.172217
520.713266	0.173167
520.930074	0.174441
521.146865	0.174107
521.363637	0.174760
521.580391	0.174230
521.797127	0.174827
522.013844	0.173911
522.230543	0.173955
522.447224	0.174061
522.663887	0.174080
522.880532	0.174348
523.097158	0.174834
523.313766	0.174032
523.530356	0.174958
523.746928	0.174973
523.963481	0.176151
524.180017	0.176518
524.396534	0.176779
524.613032	0.177429
524.829513	0.177967
525.045975	0.178936
525.262420	0.178786
525.478845	0.178716
525.695253	0.179304
525.911643	0.179009
526.128014	0.179398
526.344367	0.179806
526.560702	0.179669
526.777018	0.179485
526.993316	0.179446
527.209597	0.180782
527.425858	0.180725
527.642102	0.180532
527.858328	0.180860
528.074535	0.181124
528.290724	0.181486
528.506894	0.182363
528.723047	0.182721
528.939181	0.182891
529.155297	0.183308
529.371395	0.184273
529.587475	0.184945
529.803536	0.186086
530.019579	0.186418
530.235604	0.186323
530.451611	0.186255
530.667600	0.186686
530.883570	0.187370
531.099522	0.186762
531.315456	0.186865
531.531372	0.187185
531.747269	0.187276
531.963148	0.187877
532.179009	0.189245
532.394852	0.189807
532.610676	0.190265
532.826482	0.190112
533.042271	0.190782
533.258040	0.191232
533.473792	0.191226
533.689525	0.191160
533.905240	0.191111
534.120937	0.191188
534.336616	0.191495
534.552277	0.191324
534.767919	0.191889
534.983543	0.192136
535.199149	0.192344
535.414736	0.192853
535.630306	0.193600
535.845857	0.194028
536.061390	0.194194
536.276904	0.194495
536.492401	0.195127
536.707879	0.195030
536.923339	0.195751
537.138781	0.196634
537.354204	0.197182
537.569610	0.197353
537.784997	0.197668
538.000366	0.197445
538.215716	0.197258
538.431049	0.197257
538.646363	0.197939
538.861659	0.197523
539.076937	0.197343
539.292196	0.197139
539.507438	0.197237
539.722661	0.197402
539.937866	0.197969
540.153052	0.198022
540.368221	0.198236
540.583371	0.199256
540.798503	0.199598
541.013617	0.199760
541.228712	0.200323
541.443789	0.200948
541.658848	0.201072
541.873889	0.201492
542.088912	0.202193
542.303916	0.202770
542.518902	0.202073
542.733870	0.202716
542.948820	0.202892
543.163752	0.203567
543.378665	0.203763
543.593560	0.203821
543.808437	0.204346
544.023295	0.205208
544.238136	0.206013
544.452958	0.206477
544.667762	0.206542
544.882548	0.206783
545.097315	0.206730
545.312064	0.206824
545.526795	0.207400
545.741508	0.207640
545.956203	0.207367
546.170879	0.207165
546.385537	0.207264
546.600177	0.207413
546.814799	0.207938
547.029402	0.208005
547.243988	0.208480
547.458555	0.208501
547.673103	0.208193
547.887634	0.209021
548.102146	0.209394
548.316640	0.209492
548.531116	0.210554
548.745574	0.210619
548.960013	0.210370
549.174435	0.210308
549.388838	0.210725
549.603222	0.210974
549.817589	0.210709
550.031937	0.211042
550.246267	0.211564
550.460579	0.211018
550.674873	0.211294
550.889148	0.211928
551.103405	0.212339
551.317644	0.212459
551.531865	0.212791
551.746068	0.213211
551.960252	0.213134
552.174418	0.213794
552.388566	0.214459
552.602696	0.214636
552.816807	0.215093
553.030900	0.215655
553.244975	0.215966
553.459032	0.215951
553.673070	0.216000
553.887091	0.216192
554.101093	0.216733
554.315077	0.216717
554.529042	0.217152
554.742990	0.217480
554.956919	0.217456
555.170830	0.218070
555.384722	0.218670
555.598597	0.218810
555.812453	0.219056
556.026291	0.218868
556.240111	0.218982
556.453913	0.218819
556.667696	0.218745
556.881461	0.218592
557.095208	0.218562
557.308937	0.219152
557.522647	0.219393
557.736339	0.219669
557.950013	0.219235
558.163669	0.219781
558.377307	0.220004
558.590926	0.220380
558.804527	0.220862
559.018110	0.220747
559.231675	0.220395
559.445221	0.220497
559.658749	0.220659
559.872259	0.221234
560.085751	0.221491
560.299225	0.221798
560.512680	0.222485
560.726117	0.222673
560.939536	0.223319
561.152937	0.223847
561.366319	0.224292
561.579683	0.224642
561.793029	0.225110
562.006357	0.225214
562.219667	0.225541
562.432958	0.225375
562.646231	0.225326
562.859486	0.225476
563.072723	0.225406
563.285941	0.225823
563.499141	0.226012
563.712323	0.225765
563.925487	0.226010
564.138632	0.226170
564.351760	0.226228
564.564869	0.226527
564.777960	0.226507
564.991032	0.226839
565.204087	0.226480
565.417123	0.226283
565.630141	0.226807
565.843140	0.226786
566.056122	0.226593
566.269085	0.226674
566.482030	0.226906
566.694957	0.227352
566.907866	0.227346
567.120756	0.227817
567.333628	0.228444
567.546482	0.228566
567.759318	0.228730
567.972135	0.229377
568.184935	0.229363
568.397716	0.229565
568.610478	0.229340
568.823223	0.229123
569.035949	0.229261
569.248657	0.229333
569.461347	0.229422
569.674019	0.229300
569.886672	0.229551
570.099308	0.229992
570.311925	0.230400
570.524523	0.230558
570.737104	0.230971
570.949666	0.231188
571.162210	0.231191
571.374736	0.231386
571.587244	0.231515
571.799733	0.231546
572.012205	0.231694
572.224658	0.231718
572.437092	0.232009
572.649509	0.232375
572.861907	0.232588
573.074287	0.232598
573.286649	0.232737
573.498993	0.232847
573.711318	0.233013
573.923625	0.233143
574.135914	0.233098
574.348185	0.233201
574.560438	0.233583
574.772672	0.233982
574.984888	0.234577
575.197086	0.234408
575.409266	0.235191
575.621427	0.235363
575.833570	0.235805
576.045695	0.236036
576.257802	0.236747
576.469890	0.236971
576.681961	0.237037
576.894013	0.236979
577.106046	0.237108
577.318062	0.236948
577.530059	0.236941
577.742039	0.236816
577.954000	0.237026
578.165942	0.236545
578.377867	0.236613
578.589773	0.236524
578.801661	0.237056
579.013531	0.237459
579.225382	0.237764
579.437216	0.237989
579.649031	0.238446
579.860828	0.238621
580.072606	0.238950
580.284367	0.238961
580.496109	0.239429
580.707833	0.239257
580.919539	0.239597
581.131227	0.239680
581.342896	0.240092
581.554547	0.240105
581.766180	0.240159
581.977795	0.240609
582.189391	0.240578
582.400969	0.240917
582.612529	0.241177
582.824071	0.241151
583.035595	0.241340
583.247100	0.241327
583.458587	0.241470
583.670056	0.242148
583.881506	0.242480
584.092939	0.242945
584.304353	0.242879
584.515749	0.243375
584.727127	0.243951
584.938486	0.244075
585.149828	0.244142
585.361151	0.244432
585.572456	0.244485
585.783742	0.244407
585.995011	0.244485
586.206261	0.244490
586.417493	0.244281
586.628706	0.244267
586.839902	0.244601
587.051079	0.245076
587.262238	0.245545
587.473379	0.245253
587.684502	0.245682
587.895606	0.246139
588.106692	0.246422
588.317760	0.246658
588.528810	0.246801
588.739841	0.247257
588.950855	0.247444
589.161850	0.247484
589.372827	0.248191
589.583785	0.248496
589.794726	0.248468
590.005648	0.248896
590.216552	0.249256
590.427437	0.249253
590.638305	0.249309
590.849154	0.249713
591.059985	0.249609
591.270798	0.249688
591.481592	0.249368
591.692369	0.249590
591.903127	0.249021
592.113867	0.249481
592.324588	0.250238
592.535292	0.250354
592.745977	0.250004
592.956644	0.250369
593.167293	0.250394
593.377923	0.250650
593.588536	0.250967
593.799130	0.251694
594.009706	0.251288
594.220263	0.251228
594.430803	0.251793
594.641324	0.252387
594.851827	0.252376
595.062312	0.252557
595.272778	0.253064
595.483227	0.253131
595.693657	0.253329
595.904069	0.253822
596.114462	0.254008
596.324838	0.253979
596.535195	0.253986
596.745534	0.254433
596.955855	0.254549
597.166157	0.255001
597.376441	0.255188
597.586707	0.255148
597.796955	0.255068
598.007185	0.254987
598.217396	0.255241
598.427589	0.255448
598.637764	0.255471
598.847921	0.256073
599.058060	0.255914
599.268180	0.256305
599.478282	0.256715
599.688366	0.257045
599.898431	0.257800
600.108479	0.257696
600.318508	0.257661
600.528519	0.257873
600.738511	0.257948
600.948486	0.258255
601.158442	0.258601
601.368380	0.258896
601.578300	0.259304
601.788202	0.258999
601.998085	0.259359
602.207950	0.259390
602.417797	0.259577
602.627626	0.259707
602.837436	0.259803
603.047228	0.259385
603.257002	0.259496
603.466758	0.259510
603.676496	0.259469
603.886215	0.259326
604.095916	0.259695
604.305599	0.259707
604.515264	0.259855
604.724910	0.259944
604.934538	0.260435
605.144148	0.260587
605.353740	0.260865
605.563314	0.261383
605.772869	0.261763
605.982406	0.262218
606.191925	0.262549
606.401425	0.262384
606.610908	0.262196
606.820372	0.262362
607.029818	0.262391
607.239246	0.262049
607.448655	0.262029
607.658047	0.262145
607.867420	0.262057
608.076775	0.262209
608.286111	0.262513
608.495430	0.262915
608.704730	0.262665
608.914012	0.262561
609.123275	0.263143
609.332521	0.263255
609.541748	0.263428
609.750957	0.263534
609.960148	0.263690
610.169321	0.263824
610.378475	0.263889
610.587611	0.264229
610.796729	0.264582
611.005829	0.264647
611.214910	0.264971
611.423974	0.264928
611.633019	0.265068
611.842045	0.265196
612.051054	0.265346
612.260044	0.265643
612.469017	0.265830
612.677970	0.265863
612.886906	0.265950
613.095824	0.265912
613.304723	0.265984
613.513604	0.266132
613.722467	0.266372
613.931311	0.266621
614.140138	0.267011
614.348946	0.267507
614.557736	0.267629
614.766507	0.267711
614.975261	0.267927
615.183996	0.268168
615.392713	0.268391
615.601412	0.268570
615.810092	0.268749
616.018754	0.268651
616.227399	0.268570
616.436024	0.268964
616.644632	0.269064
616.853222	0.269349
617.061793	0.269685
617.270346	0.269680
617.478880	0.269991
617.687397	0.269994
617.895895	0.269880
618.104375	0.269900
618.312837	0.270007
618.521281	0.270122
618.729706	0.270122
618.938113	0.270114
619.146502	0.270539
619.354873	0.270207
619.563226	0.270487
619.771560	0.270837
619.979876	0.270766
620.188174	0.271026
620.396453	0.271264
620.604715	0.271323
620.812958	0.271534
621.021183	0.271679
621.229390	0.272114
621.437578	0.272186
621.645748	0.272407
621.853900	0.272820
622.062034	0.272663
622.270150	0.272600
622.478247	0.272725
622.686326	0.272962
622.894387	0.272972
623.102430	0.272942
623.310454	0.273111
623.518461	0.273139
623.726449	0.273412
623.934418	0.273698
624.142370	0.274136
624.350303	0.274642
624.558218	0.274799
624.766115	0.274964
624.973994	0.275141
625.181855	0.275215
625.389697	0.275371
625.597521	0.275400
625.805327	0.275629
626.013114	0.275859
626.220883	0.276007
626.428634	0.276028
626.636367	0.276196
626.844082	0.276510
627.051778	0.276541
627.259457	0.276604
627.467117	0.276655
627.674758	0.276707
627.882382	0.276678
628.089987	0.276456
628.297574	0.276795
628.505143	0.276729
628.712694	0.276873
628.920226	0.277320
629.127740	0.277691
629.335236	0.277947
629.542714	0.278269
629.750174	0.278441
629.957615	0.278678
630.165038	0.278491
630.372443	0.278949
630.579829	0.278822
630.787198	0.279026
630.994548	0.279104
631.201880	0.279509
631.409194	0.279330
631.616489	0.279497
631.823766	0.279629
632.031025	0.279968
632.238266	0.279974
632.445489	0.280281
632.652693	0.280515
632.859879	0.280486
633.067047	0.280471
633.274197	0.280821
633.481329	0.280969
633.688442	0.281180
633.895537	0.281177
634.102614	0.281521
634.309672	0.281755
634.516713	0.281591
634.723735	0.281821
634.930739	0.282082
635.137724	0.282338
635.344692	0.282508
635.551641	0.283024
635.758572	0.283299
635.965485	0.283322
636.172379	0.283458
636.379256	0.283633
636.586114	0.283710
636.792954	0.283911
636.999775	0.283901
637.206579	0.284197
637.413364	0.284083
637.620131	0.284190
637.826880	0.284542
638.033610	0.284624
638.240323	0.284848
638.447017	0.285248
638.653692	0.285065
638.860350	0.285271
639.066990	0.285334
639.273611	0.285598
639.480214	0.285923
639.686798	0.285979
639.893365	0.286186
640.099913	0.286517
640.306443	0.286704
640.512955	0.287125
640.719449	0.287096
640.925924	0.287217
641.132381	0.287297
641.338820	0.287547
641.545241	0.287665
641.751644	0.287822
641.958028	0.287878
642.164394	0.288028
642.370742	0.288223
642.577071	0.288306
642.783383	0.288460
642.989676	0.288628
643.195951	0.288651
643.402207	0.288955
643.608446	0.289290
643.814666	0.289318
644.020868	0.289581
644.227052	0.289447
644.433218	0.289997
644.639365	0.290151
644.845494	0.290489
645.051605	0.290752
645.257698	0.290899
645.463772	0.290953
645.669828	0.291060
645.875866	0.291072
646.081886	0.291304
646.287888	0.291627
646.493871	0.292134
646.699836	0.292347
646.905783	0.292433
647.111712	0.292545
647.317622	0.292624
647.523514	0.292744
647.729388	0.293093
647.935244	0.293109
648.141082	0.293176
648.346901	0.293110
648.552702	0.292915
648.758485	0.293169
648.964250	0.293189
649.169996	0.293514
649.375724	0.294123
649.581434	0.294086
649.787126	0.294770
649.992800	0.294885
650.198455	0.295173
650.404092	0.295571
650.609711	0.295799
650.815311	0.296181
651.020894	0.296369
651.226458	0.296259
651.432004	0.296681
651.637532	0.296547
651.843041	0.296837
652.048532	0.297138
652.254006	0.297301
652.459460	0.297491
652.664897	0.297559
652.870315	0.297478
653.075716	0.297742
653.281097	0.297898
653.486461	0.298183
653.691807	0.298418
653.897134	0.298419
654.102443	0.298598
654.307734	0.298985
654.513006	0.299207
654.718261	0.299727
654.923497	0.300062
655.128715	0.300392
655.333915	0.300628
655.539096	0.300887
655.744259	0.301196
655.949404	0.301177
656.154531	0.301251
656.359640	0.301336
656.564730	0.301661
656.769802	0.301657
656.974856	0.301568
657.179892	0.301650
657.384909	0.301721
657.589908	0.301985
657.794889	0.302621
657.999852	0.302959
658.204797	0.303467
658.409723	0.303696
658.614631	0.304029
658.819521	0.304419
659.024393	0.304809
659.229246	0.304791
659.434081	0.305123
659.638898	0.305214
659.843697	0.305192
660.048478	0.305253
660.253240	0.305556
660.457984	0.305981
660.662710	0.306140
660.867417	0.306296
661.072107	0.306530
661.276778	0.306298
661.481431	0.306652
661.686066	0.306918
661.890682	0.307335
662.095281	0.307321
662.299861	0.307438
662.504422	0.307638
662.708966	0.308017
662.913491	0.308177
663.117999	0.308661
663.322488	0.308534
663.526958	0.308720
663.731411	0.308798
663.935845	0.308889
664.140261	0.308996
664.344659	0.309331
664.549038	0.309255
664.753400	0.309860
664.957743	0.309747
665.162068	0.310179
665.366375	0.310167
665.570663	0.310105
665.774933	0.310416
665.979185	0.310726
666.183419	0.310839
666.387635	0.311204
666.591832	0.311062
666.796011	0.311839
667.000172	0.312086
667.204315	0.312455
667.408439	0.312817
667.612545	0.312921
667.816634	0.313028
668.020703	0.313172
668.224755	0.313230
668.428788	0.313664
668.632803	0.313545
668.836800	0.313292
669.040779	0.313441
669.244739	0.313597
669.448681	0.313911
669.652605	0.314209
669.856511	0.314301
670.060399	0.314694
670.264268	0.314735
670.468119	0.314852
670.671952	0.315494
670.875767	0.315637
671.079563	0.315950
671.283341	0.316156
671.487101	0.316325
671.690843	0.316498
671.894567	0.316691
672.098272	0.317174
672.301959	0.317533
672.505628	0.317550
672.709278	0.317729
672.912911	0.318008
673.116525	0.318099
673.320121	0.318375
673.523699	0.318604
673.727258	0.318662
673.930799	0.318589
674.134322	0.318706
674.337827	0.319140
674.541314	0.319320
674.744782	0.319537
674.948232	0.319697
675.151664	0.319880
675.355078	0.320398
675.558474	0.320850
675.761851	0.321203
675.965210	0.321454
676.168551	0.321749
676.371873	0.322091
676.575178	0.322448
676.778464	0.322957
676.981732	0.323203
677.184981	0.323344
677.388213	0.323513
677.591426	0.323585
677.794621	0.323833
677.997798	0.323821
678.200956	0.324223
678.404097	0.324274
678.607219	0.324372
678.810323	0.324304
679.013408	0.324428
679.216476	0.324629
679.419525	0.325086
679.622556	0.325149
679.825569	0.325394
680.028563	0.325662
680.231540	0.326004
680.434498	0.326103
680.637438	0.326604
680.840359	0.326890
681.043263	0.327104
681.246148	0.327144
681.449015	0.327667
681.651864	0.327867
681.854694	0.327940
682.057506	0.328213
682.260301	0.328288
682.463076	0.328508
682.665834	0.328479
682.868573	0.328882
683.071295	0.329091
683.273998	0.329345
683.476682	0.329753
683.679349	0.329876
683.881997	0.329897
684.084627	0.330340
684.287239	0.330467
684.489833	0.330936
684.692408	0.331060
684.894965	0.331316
685.097504	0.331633
685.300025	0.331740
685.502527	0.332067
685.705012	0.332267
685.907478	0.332620
686.109925	0.332596
686.312355	0.332410
686.514766	0.332435
686.717159	0.332544
686.919534	0.332436
687.121891	0.332507
687.324230	0.332789
687.526550	0.332950
687.728852	0.332875
687.931136	0.333327
688.133401	0.333787
688.335649	0.333698
688.537878	0.333857
688.740089	0.333853
688.942281	0.333959
689.144456	0.334072
689.346612	0.334276
689.548750	0.334591
689.750870	0.334940
689.952971	0.335223
690.155055	0.335738
690.357120	0.336095
690.559167	0.336657
690.761195	0.336824
690.963206	0.336994
691.165198	0.337203
691.367172	0.337410
691.569128	0.337344
691.771065	0.337457
691.972984	0.337455
692.174885	0.337667
692.376768	0.337730
692.578633	0.338295
692.780479	0.338376
692.982308	0.338565
693.184118	0.339025
693.385909	0.339674
