sample name	sample
index	270
start time	 02-25-2021  11:30:50 AM


Wavelength (nm)	Absorbance
494.344910	-0.066094
494.563924	-0.066094
494.782919	-0.066094
495.001897	0.060360
495.220856	-0.041482
495.439797	-0.036227
495.658719	-0.009696
495.877624	-0.000486
496.096510	-0.013210
496.315378	0.005394
496.534227	0.009657
496.753059	0.005673
496.971872	0.010394
497.190667	0.048637
497.409444	0.050748
497.628203	0.052353
497.846943	0.054282
498.065665	0.057685
498.284369	0.058197
498.503055	0.058718
498.721723	0.058923
498.940372	0.059442
499.159003	0.059756
499.377616	0.059621
499.596210	0.060249
499.814787	0.060725
500.033345	0.060353
500.251885	0.059622
500.470406	0.059650
500.688910	0.060256
500.907395	0.060553
501.125862	0.060553
501.344311	0.062347
501.562742	0.062102
501.781154	0.061312
501.999548	0.060154
502.217924	0.061156
502.436282	0.061441
502.654621	0.061374
502.872942	0.060866
503.091245	0.060885
503.309530	0.060697
503.527797	0.059857
503.746045	0.060196
503.964275	0.059773
504.182487	0.059289
504.400681	0.058375
504.618856	0.058353
504.837013	0.059120
505.055152	0.057977
505.273273	0.057512
505.491376	0.057906
505.709460	0.057910
505.927526	0.058752
506.145574	0.059088
506.363604	0.059643
506.581615	0.060983
506.799608	0.060663
507.017583	0.062197
507.235540	0.062473
507.453478	0.063122
507.671399	0.062975
507.889301	0.063401
508.107185	0.063934
508.325050	0.063191
508.542898	0.061302
508.760727	0.060391
508.978538	0.060651
509.196330	0.060576
509.414105	0.060848
509.631861	0.061541
509.849599	0.061419
510.067319	0.060685
510.285021	0.060771
510.502704	0.061755
510.720369	0.062898
510.938016	0.062418
511.155645	0.062484
511.373255	0.061374
511.590848	0.060902
511.808422	0.060891
512.025977	0.061518
512.243515	0.061943
512.461034	0.061923
512.678536	0.061693
512.896018	0.061964
513.113483	0.061568
513.330930	0.062194
513.548358	0.062928
513.765768	0.063088
513.983160	0.063202
514.200533	0.063244
514.417889	0.063450
514.635226	0.063520
514.852545	0.063411
515.069845	0.063981
515.287128	0.064020
515.504392	0.063648
515.721638	0.063644
515.938866	0.063948
516.156075	0.063635
516.373267	0.064219
516.590440	0.063986
516.807594	0.064236
517.024731	0.064153
517.241850	0.064389
517.458950	0.064670
517.676032	0.064790
517.893095	0.064680
518.110141	0.065223
518.327168	0.064414
518.544177	0.064761
518.761168	0.064938
518.978141	0.064919
519.195095	0.064666
519.412031	0.065038
519.628949	0.064855
519.845849	0.064288
520.062731	0.064725
520.279594	0.065551
520.496439	0.065022
520.713266	0.064880
520.930074	0.064866
521.146865	0.065300
521.363637	0.064593
521.580391	0.065239
521.797127	0.065575
522.013844	0.066043
522.230543	0.065751
522.447224	0.066463
522.663887	0.066868
522.880532	0.067809
523.097158	0.068106
523.313766	0.068492
523.530356	0.069049
523.746928	0.069619
523.963481	0.068934
524.180017	0.068494
524.396534	0.068739
524.613032	0.068742
524.829513	0.068510
525.045975	0.068385
525.262420	0.068120
525.478845	0.068078
525.695253	0.068027
525.911643	0.067821
526.128014	0.067963
526.344367	0.067527
526.560702	0.067592
526.777018	0.068019
526.993316	0.068747
527.209597	0.069266
527.425858	0.069165
527.642102	0.069562
527.858328	0.070813
528.074535	0.071594
528.290724	0.072269
528.506894	0.071791
528.723047	0.071720
528.939181	0.071615
529.155297	0.072044
529.371395	0.072186
529.587475	0.071583
529.803536	0.071128
530.019579	0.071151
530.235604	0.071285
530.451611	0.072522
530.667600	0.073328
530.883570	0.073538
531.099522	0.074008
531.315456	0.074023
531.531372	0.074911
531.747269	0.075067
531.963148	0.075177
532.179009	0.075533
532.394852	0.075007
532.610676	0.074284
532.826482	0.074454
533.042271	0.074237
533.258040	0.074633
533.473792	0.074639
533.689525	0.074859
533.905240	0.074847
534.120937	0.075083
534.336616	0.075676
534.552277	0.076279
534.767919	0.076455
534.983543	0.076100
535.199149	0.076223
535.414736	0.076323
535.630306	0.076564
535.845857	0.077111
536.061390	0.076758
536.276904	0.076697
536.492401	0.076226
536.707879	0.076561
536.923339	0.077186
537.138781	0.077341
537.354204	0.077834
537.569610	0.078268
537.784997	0.078084
538.000366	0.078536
538.215716	0.078896
538.431049	0.079888
538.646363	0.079398
538.861659	0.079528
539.076937	0.079724
539.292196	0.079504
539.507438	0.079315
539.722661	0.079324
539.937866	0.079353
540.153052	0.079282
540.368221	0.078989
540.583371	0.079423
540.798503	0.079365
541.013617	0.079417
541.228712	0.079573
541.443789	0.079705
541.658848	0.079969
541.873889	0.080182
542.088912	0.080282
542.303916	0.080422
542.518902	0.080837
542.733870	0.081113
542.948820	0.081006
543.163752	0.081184
543.378665	0.081793
543.593560	0.082196
543.808437	0.082323
544.023295	0.082460
544.238136	0.082146
544.452958	0.082100
544.667762	0.082295
544.882548	0.082928
545.097315	0.082876
545.312064	0.082652
545.526795	0.082529
545.741508	0.082522
545.956203	0.082739
546.170879	0.082734
546.385537	0.082738
546.600177	0.082962
546.814799	0.083107
547.029402	0.083381
547.243988	0.083582
547.458555	0.083990
547.673103	0.084173
547.887634	0.084138
548.102146	0.084455
548.316640	0.084641
548.531116	0.085067
548.745574	0.085122
548.960013	0.085353
549.174435	0.085516
549.388838	0.085503
549.603222	0.085856
549.817589	0.086518
550.031937	0.086730
550.246267	0.087072
550.460579	0.087066
550.674873	0.087027
550.889148	0.086987
551.103405	0.086779
551.317644	0.086673
551.531865	0.086707
551.746068	0.086476
551.960252	0.087082
552.174418	0.086873
552.388566	0.086893
552.602696	0.086757
552.816807	0.087061
553.030900	0.087140
553.244975	0.087278
553.459032	0.087171
553.673070	0.087294
553.887091	0.087299
554.101093	0.087867
554.315077	0.087874
554.529042	0.088181
554.742990	0.087924
554.956919	0.088308
555.170830	0.088789
555.384722	0.089377
555.598597	0.089425
555.812453	0.089227
556.026291	0.088862
556.240111	0.088858
556.453913	0.089025
556.667696	0.089032
556.881461	0.089239
557.095208	0.088672
557.308937	0.088295
557.522647	0.088178
557.736339	0.088320
557.950013	0.088398
558.163669	0.088592
558.377307	0.088798
558.590926	0.088976
558.804527	0.088676
559.018110	0.089161
559.231675	0.089296
559.445221	0.089636
559.658749	0.089678
559.872259	0.089664
560.085751	0.089552
560.299225	0.089349
560.512680	0.089847
560.726117	0.089998
560.939536	0.089887
561.152937	0.089878
561.366319	0.090162
561.579683	0.090380
561.793029	0.090675
562.006357	0.091023
562.219667	0.091307
562.432958	0.091414
562.646231	0.091396
562.859486	0.091646
563.072723	0.091790
563.285941	0.091683
563.499141	0.091592
563.712323	0.091798
563.925487	0.091695
564.138632	0.091570
564.351760	0.091257
564.564869	0.091479
564.777960	0.091830
564.991032	0.091937
565.204087	0.091883
565.417123	0.092231
565.630141	0.092121
565.843140	0.092454
566.056122	0.092877
566.269085	0.093128
566.482030	0.093271
566.694957	0.093361
566.907866	0.093902
567.120756	0.094266
567.333628	0.094441
567.546482	0.094710
567.759318	0.094607
567.972135	0.094472
568.184935	0.094585
568.397716	0.095089
568.610478	0.094944
568.823223	0.094489
569.035949	0.094425
569.248657	0.094179
569.461347	0.094167
569.674019	0.094152
569.886672	0.094076
570.099308	0.093949
570.311925	0.093677
570.524523	0.093321
570.737104	0.093172
570.949666	0.093041
571.162210	0.093263
571.374736	0.093173
571.587244	0.093239
571.799733	0.093579
572.012205	0.094072
572.224658	0.094351
572.437092	0.094881
572.649509	0.095388
572.861907	0.095776
573.074287	0.096067
573.286649	0.096141
573.498993	0.096298
573.711318	0.096121
573.923625	0.096026
574.135914	0.095765
574.348185	0.096150
574.560438	0.096148
574.772672	0.096046
574.984888	0.095789
575.197086	0.095912
575.409266	0.096274
575.621427	0.096246
575.833570	0.096194
576.045695	0.096488
576.257802	0.096175
576.469890	0.096306
576.681961	0.096524
576.894013	0.096499
577.106046	0.096622
577.318062	0.096465
577.530059	0.096771
577.742039	0.097037
577.954000	0.097210
578.165942	0.097394
578.377867	0.097554
578.589773	0.097342
578.801661	0.097787
579.013531	0.097864
579.225382	0.097779
579.437216	0.097952
579.649031	0.097788
579.860828	0.097710
580.072606	0.097788
580.284367	0.097988
580.496109	0.098374
580.707833	0.098270
580.919539	0.098332
581.131227	0.098587
581.342896	0.098474
581.554547	0.098308
581.766180	0.098286
581.977795	0.098165
582.189391	0.098081
582.400969	0.097933
582.612529	0.098014
582.824071	0.098076
583.035595	0.098269
583.247100	0.098581
583.458587	0.099046
583.670056	0.099380
583.881506	0.099333
584.092939	0.099344
584.304353	0.099620
584.515749	0.099828
584.727127	0.100010
584.938486	0.099904
585.149828	0.099911
585.361151	0.100098
585.572456	0.099995
585.783742	0.100464
585.995011	0.100683
586.206261	0.100801
586.417493	0.100809
586.628706	0.100747
586.839902	0.100746
587.051079	0.100775
587.262238	0.100661
587.473379	0.100450
587.684502	0.100559
587.895606	0.100495
588.106692	0.100294
588.317760	0.100224
588.528810	0.100281
588.739841	0.100500
588.950855	0.100487
589.161850	0.100593
589.372827	0.100953
589.583785	0.101053
589.794726	0.101084
590.005648	0.101561
590.216552	0.101874
590.427437	0.102319
590.638305	0.102276
590.849154	0.102412
591.059985	0.102367
591.270798	0.102640
591.481592	0.102401
591.692369	0.102195
591.903127	0.102073
592.113867	0.102009
592.324588	0.101631
592.535292	0.101865
592.745977	0.102066
592.956644	0.102126
593.167293	0.101868
593.377923	0.102107
593.588536	0.102385
593.799130	0.102484
594.009706	0.102416
594.220263	0.102812
594.430803	0.102835
594.641324	0.102824
594.851827	0.103024
595.062312	0.103322
595.272778	0.103298
595.483227	0.103495
595.693657	0.103304
595.904069	0.103211
596.114462	0.103121
596.324838	0.103339
596.535195	0.103469
596.745534	0.103409
596.955855	0.103593
597.166157	0.103622
597.376441	0.103814
597.586707	0.104025
597.796955	0.104382
598.007185	0.104179
598.217396	0.104162
598.427589	0.104168
598.637764	0.104505
598.847921	0.104536
599.058060	0.104821
599.268180	0.104750
599.478282	0.104872
599.688366	0.104967
599.898431	0.105280
600.108479	0.105416
600.318508	0.105643
600.528519	0.105556
600.738511	0.105441
600.948486	0.105567
601.158442	0.105380
601.368380	0.105514
601.578300	0.105480
601.788202	0.105675
601.998085	0.105677
602.207950	0.105831
602.417797	0.105525
602.627626	0.105452
602.837436	0.105471
603.047228	0.105966
603.257002	0.106055
603.466758	0.106325
603.676496	0.106363
603.886215	0.106673
604.095916	0.106535
604.305599	0.107312
604.515264	0.107593
604.724910	0.107410
604.934538	0.107323
605.144148	0.107141
605.353740	0.107001
605.563314	0.107063
605.772869	0.106995
605.982406	0.107179
606.191925	0.106861
606.401425	0.106803
606.610908	0.106952
606.820372	0.107136
607.029818	0.107297
607.239246	0.107539
607.448655	0.107794
607.658047	0.107494
607.867420	0.107371
608.076775	0.107397
608.286111	0.107498
608.495430	0.107620
608.704730	0.107612
608.914012	0.107571
609.123275	0.107519
609.332521	0.107470
609.541748	0.107621
609.750957	0.107493
609.960148	0.107711
610.169321	0.107862
610.378475	0.108108
610.587611	0.107847
610.796729	0.107945
611.005829	0.107834
611.214910	0.107916
611.423974	0.107746
611.633019	0.108044
611.842045	0.107888
612.051054	0.108086
612.260044	0.107878
612.469017	0.108361
612.677970	0.108579
612.886906	0.108925
613.095824	0.108884
613.304723	0.109188
613.513604	0.109295
613.722467	0.109636
613.931311	0.109736
614.140138	0.109837
614.348946	0.109838
614.557736	0.109787
614.766507	0.109655
614.975261	0.109885
615.183996	0.110082
615.392713	0.110156
615.601412	0.110196
615.810092	0.110290
616.018754	0.110279
616.227399	0.110036
616.436024	0.110098
616.644632	0.110347
616.853222	0.110360
617.061793	0.110386
617.270346	0.110335
617.478880	0.110275
617.687397	0.110219
617.895895	0.110263
618.104375	0.110459
618.312837	0.110430
618.521281	0.110393
618.729706	0.110322
618.938113	0.110331
619.146502	0.110907
619.354873	0.111158
619.563226	0.111247
619.771560	0.111580
619.979876	0.111825
620.188174	0.112204
620.396453	0.112421
620.604715	0.112368
620.812958	0.112536
621.021183	0.112338
621.229390	0.112463
621.437578	0.112495
621.645748	0.112472
621.853900	0.112400
622.062034	0.112391
622.270150	0.112247
622.478247	0.112675
622.686326	0.112989
622.894387	0.112998
623.102430	0.112920
623.310454	0.113016
623.518461	0.113233
623.726449	0.113472
623.934418	0.113528
624.142370	0.113942
624.350303	0.114045
624.558218	0.114003
624.766115	0.114072
624.973994	0.114310
625.181855	0.114461
625.389697	0.114711
625.597521	0.115080
625.805327	0.115127
626.013114	0.115036
626.220883	0.115055
626.428634	0.115147
626.636367	0.115178
626.844082	0.115135
627.051778	0.115323
627.259457	0.115006
627.467117	0.114768
627.674758	0.115046
627.882382	0.115128
628.089987	0.115179
628.297574	0.114983
628.505143	0.114903
628.712694	0.114814
628.920226	0.114583
629.127740	0.114686
629.335236	0.114830
629.542714	0.114490
629.750174	0.114360
629.957615	0.114149
630.165038	0.114259
630.372443	0.114505
630.579829	0.114675
630.787198	0.114899
630.994548	0.114905
631.201880	0.114913
631.409194	0.114928
631.616489	0.115178
631.823766	0.115659
632.031025	0.115739
632.238266	0.115959
632.445489	0.116157
632.652693	0.116058
632.859879	0.116284
633.067047	0.116527
633.274197	0.116780
633.481329	0.116936
633.688442	0.116674
633.895537	0.116980
634.102614	0.116825
634.309672	0.116729
634.516713	0.116939
634.723735	0.116974
634.930739	0.116785
635.137724	0.116784
635.344692	0.116448
635.551641	0.116660
635.758572	0.116719
635.965485	0.116686
636.172379	0.116841
636.379256	0.116755
636.586114	0.116653
636.792954	0.116804
636.999775	0.116847
637.206579	0.116872
637.413364	0.116673
637.620131	0.116481
637.826880	0.116628
638.033610	0.116769
638.240323	0.116972
638.447017	0.117224
638.653692	0.117304
638.860350	0.117484
639.066990	0.117989
639.273611	0.118371
639.480214	0.118666
639.686798	0.118702
639.893365	0.118631
640.099913	0.118624
640.306443	0.118653
640.512955	0.118519
640.719449	0.118509
640.925924	0.118574
641.132381	0.118484
641.338820	0.118415
641.545241	0.118672
641.751644	0.118916
641.958028	0.119176
642.164394	0.119435
642.370742	0.119753
642.577071	0.120137
642.783383	0.120077
642.989676	0.120210
643.195951	0.120288
643.402207	0.120321
643.608446	0.120348
643.814666	0.120376
644.020868	0.120363
644.227052	0.120324
644.433218	0.120317
644.639365	0.120586
644.845494	0.120655
645.051605	0.120726
645.257698	0.120860
645.463772	0.120872
645.669828	0.121008
645.875866	0.121055
646.081886	0.121148
646.287888	0.121038
646.493871	0.120929
646.699836	0.120888
646.905783	0.121049
647.111712	0.121089
647.317622	0.121414
647.523514	0.121334
647.729388	0.121452
647.935244	0.121894
648.141082	0.122167
648.346901	0.122532
648.552702	0.122884
648.758485	0.123060
648.964250	0.123290
649.169996	0.123084
649.375724	0.123229
649.581434	0.123497
649.787126	0.123410
649.992800	0.123672
650.198455	0.123739
650.404092	0.123848
650.609711	0.123992
650.815311	0.123961
651.020894	0.124232
651.226458	0.124352
651.432004	0.124184
651.637532	0.124059
651.843041	0.123972
652.048532	0.123819
652.254006	0.123897
652.459460	0.123841
652.664897	0.124071
652.870315	0.124245
653.075716	0.124194
653.281097	0.124538
653.486461	0.124848
653.691807	0.124873
653.897134	0.125132
654.102443	0.125095
654.307734	0.125273
654.513006	0.125225
654.718261	0.125226
654.923497	0.125261
655.128715	0.125036
655.333915	0.125154
655.539096	0.125379
655.744259	0.125501
655.949404	0.125757
656.154531	0.125799
656.359640	0.125927
656.564730	0.125916
656.769802	0.126240
656.974856	0.126562
657.179892	0.126567
657.384909	0.126792
657.589908	0.126797
657.794889	0.126827
657.999852	0.126837
658.204797	0.126950
658.409723	0.127205
658.614631	0.127427
658.819521	0.127365
659.024393	0.127491
659.229246	0.127237
659.434081	0.127316
659.638898	0.127520
659.843697	0.127782
660.048478	0.127914
660.253240	0.127965
660.457984	0.128086
660.662710	0.128347
660.867417	0.128513
661.072107	0.128592
661.276778	0.128742
661.481431	0.128671
661.686066	0.128783
661.890682	0.128740
662.095281	0.128952
662.299861	0.128741
662.504422	0.128820
662.708966	0.128842
662.913491	0.129278
663.117999	0.129243
663.322488	0.129423
663.526958	0.129565
663.731411	0.129545
663.935845	0.129468
664.140261	0.129730
664.344659	0.129880
664.549038	0.129989
664.753400	0.130126
664.957743	0.130309
665.162068	0.130262
665.366375	0.130195
665.570663	0.130294
665.774933	0.130419
665.979185	0.130369
666.183419	0.130328
666.387635	0.130201
666.591832	0.130093
666.796011	0.130134
667.000172	0.130269
667.204315	0.130418
667.408439	0.130620
667.612545	0.130666
667.816634	0.130825
668.020703	0.130984
668.224755	0.131188
668.428788	0.131381
668.632803	0.131500
668.836800	0.131583
669.040779	0.131551
669.244739	0.131643
669.448681	0.131741
669.652605	0.131693
669.856511	0.131787
670.060399	0.131909
670.264268	0.132032
670.468119	0.132019
670.671952	0.132167
670.875767	0.132380
671.079563	0.132422
671.283341	0.132537
671.487101	0.132727
671.690843	0.132737
671.894567	0.132773
672.098272	0.132706
672.301959	0.133104
672.505628	0.133209
672.709278	0.133392
672.912911	0.133570
673.116525	0.133740
673.320121	0.133813
673.523699	0.133939
673.727258	0.134294
673.930799	0.134531
674.134322	0.134473
674.337827	0.134636
674.541314	0.134856
674.744782	0.135026
674.948232	0.135172
675.151664	0.135351
675.355078	0.135568
675.558474	0.135516
675.761851	0.135625
675.965210	0.135793
676.168551	0.135876
676.371873	0.135817
676.575178	0.135795
676.778464	0.135825
676.981732	0.136066
677.184981	0.135975
677.388213	0.136030
677.591426	0.136142
677.794621	0.136366
677.997798	0.136609
678.200956	0.136643
678.404097	0.136952
678.607219	0.137216
678.810323	0.137375
679.013408	0.137815
679.216476	0.138135
679.419525	0.138170
679.622556	0.138357
679.825569	0.138454
680.028563	0.138829
680.231540	0.138943
680.434498	0.138982
680.637438	0.139038
680.840359	0.138847
681.043263	0.138857
681.246148	0.138940
681.449015	0.138761
681.651864	0.138892
681.854694	0.138921
682.057506	0.138861
682.260301	0.138959
682.463076	0.139140
682.665834	0.139412
682.868573	0.139757
683.071295	0.139818
683.273998	0.139948
683.476682	0.139804
683.679349	0.139632
683.881997	0.139704
684.084627	0.139547
684.287239	0.139318
684.489833	0.139122
684.692408	0.138752
684.894965	0.138728
685.097504	0.138778
685.300025	0.138791
685.502527	0.138996
685.705012	0.139018
685.907478	0.139097
686.109925	0.139240
686.312355	0.139450
686.514766	0.139523
686.717159	0.139708
686.919534	0.139678
687.121891	0.139786
687.324230	0.139919
687.526550	0.140098
687.728852	0.140322
687.931136	0.140315
688.133401	0.140477
688.335649	0.140613
688.537878	0.140683
688.740089	0.140704
688.942281	0.140757
689.144456	0.140756
689.346612	0.140873
689.548750	0.140672
689.750870	0.140902
689.952971	0.140900
690.155055	0.141040
690.357120	0.141154
690.559167	0.141269
690.761195	0.141585
690.963206	0.141614
691.165198	0.141581
691.367172	0.142049
691.569128	0.142192
691.771065	0.142437
691.972984	0.142565
692.174885	0.142564
692.376768	0.142824
692.578633	0.142575
692.780479	0.142804
692.982308	0.142970
693.184118	0.142935
693.385909	0.142849
