sample name	sample
index	257
start time	 02-25-2021  10:48:00 AM


Wavelength (nm)	Absorbance
494.344910	-0.039197
494.563924	-0.039197
494.782919	-0.039197
495.001897	0.155606
495.220856	-0.045572
495.439797	-0.038304
495.658719	-0.037812
495.877624	-0.043508
496.096510	-0.075822
496.315378	-0.051012
496.534227	-0.049091
496.753059	-0.026314
496.971872	-0.021281
497.190667	0.040242
497.409444	0.054515
497.628203	0.058731
497.846943	0.060752
498.065665	0.064105
498.284369	0.064363
498.503055	0.063666
498.721723	0.062950
498.940372	0.065588
499.159003	0.065128
499.377616	0.064365
499.596210	0.064550
499.814787	0.063843
500.033345	0.064098
500.251885	0.064152
500.470406	0.064807
500.688910	0.065041
500.907395	0.063811
501.125862	0.064718
501.344311	0.065671
501.562742	0.065155
501.781154	0.065905
501.999548	0.065235
502.217924	0.064307
502.436282	0.064190
502.654621	0.064450
502.872942	0.065037
503.091245	0.064968
503.309530	0.063862
503.527797	0.064967
503.746045	0.065122
503.964275	0.065482
504.182487	0.066372
504.400681	0.065654
504.618856	0.066540
504.837013	0.066152
505.055152	0.066246
505.273273	0.067874
505.491376	0.067733
505.709460	0.068510
505.927526	0.069088
506.145574	0.069259
506.363604	0.069556
506.581615	0.068864
506.799608	0.068066
507.017583	0.068599
507.235540	0.068634
507.453478	0.069163
507.671399	0.068499
507.889301	0.067483
508.107185	0.066899
508.325050	0.067978
508.542898	0.068894
508.760727	0.069988
508.978538	0.069969
509.196330	0.069780
509.414105	0.069401
509.631861	0.069787
509.849599	0.070648
510.067319	0.071132
510.285021	0.070620
510.502704	0.069802
510.720369	0.069480
510.938016	0.068560
511.155645	0.068695
511.373255	0.068711
511.590848	0.068219
511.808422	0.067463
512.025977	0.067602
512.243515	0.067782
512.461034	0.068415
512.678536	0.068505
512.896018	0.070002
513.113483	0.069580
513.330930	0.069076
513.548358	0.069488
513.765768	0.070508
513.983160	0.070585
514.200533	0.071194
514.417889	0.070786
514.635226	0.071055
514.852545	0.070587
515.069845	0.071324
515.287128	0.072874
515.504392	0.072609
515.721638	0.072276
515.938866	0.073665
516.156075	0.073106
516.373267	0.073116
516.590440	0.073733
516.807594	0.073457
517.024731	0.073550
517.241850	0.073037
517.458950	0.073459
517.676032	0.074178
517.893095	0.072940
518.110141	0.073329
518.327168	0.073531
518.544177	0.072822
518.761168	0.072935
518.978141	0.072803
519.195095	0.072200
519.412031	0.072216
519.628949	0.071572
519.845849	0.071876
520.062731	0.072032
520.279594	0.072254
520.496439	0.072707
520.713266	0.073561
520.930074	0.073416
521.146865	0.073264
521.363637	0.074168
521.580391	0.074060
521.797127	0.074906
522.013844	0.074828
522.230543	0.075043
522.447224	0.075001
522.663887	0.075079
522.880532	0.075113
523.097158	0.076114
523.313766	0.075555
523.530356	0.076256
523.746928	0.075646
523.963481	0.076007
524.180017	0.076598
524.396534	0.076974
524.613032	0.076395
524.829513	0.076711
525.045975	0.076673
525.262420	0.077073
525.478845	0.076663
525.695253	0.076693
525.911643	0.076442
526.128014	0.075351
526.344367	0.075849
526.560702	0.076378
526.777018	0.076841
526.993316	0.076981
527.209597	0.076573
527.425858	0.077253
527.642102	0.077645
527.858328	0.078325
528.074535	0.078997
528.290724	0.078628
528.506894	0.079181
528.723047	0.078990
528.939181	0.079300
529.155297	0.080322
529.371395	0.080444
529.587475	0.081069
529.803536	0.080682
530.019579	0.080934
530.235604	0.081143
530.451611	0.080610
530.667600	0.080858
530.883570	0.080859
531.099522	0.080893
531.315456	0.081226
531.531372	0.081023
531.747269	0.081760
531.963148	0.082207
532.179009	0.082404
532.394852	0.082802
532.610676	0.083129
532.826482	0.083614
533.042271	0.083868
533.258040	0.083491
533.473792	0.083740
533.689525	0.083447
533.905240	0.083475
534.120937	0.083977
534.336616	0.084304
534.552277	0.084119
534.767919	0.083619
534.983543	0.083375
535.199149	0.083998
535.414736	0.083999
535.630306	0.084792
535.845857	0.085265
536.061390	0.085013
536.276904	0.084707
536.492401	0.085010
536.707879	0.085342
536.923339	0.085503
537.138781	0.085489
537.354204	0.085905
537.569610	0.085787
537.784997	0.086041
538.000366	0.086876
538.215716	0.087096
538.431049	0.087055
538.646363	0.086942
538.861659	0.086970
539.076937	0.087303
539.292196	0.087327
539.507438	0.087593
539.722661	0.087378
539.937866	0.086986
540.153052	0.087686
540.368221	0.088478
540.583371	0.089402
540.798503	0.089861
541.013617	0.089891
541.228712	0.090094
541.443789	0.090186
541.658848	0.090193
541.873889	0.090364
542.088912	0.090097
542.303916	0.089504
542.518902	0.088930
542.733870	0.088597
542.948820	0.088813
543.163752	0.088488
543.378665	0.088195
543.593560	0.088480
543.808437	0.088619
544.023295	0.088996
544.238136	0.089173
544.452958	0.090032
544.667762	0.090254
544.882548	0.090479
545.097315	0.091644
545.312064	0.092178
545.526795	0.092374
545.741508	0.092396
545.956203	0.092202
546.170879	0.092752
546.385537	0.092189
546.600177	0.092707
546.814799	0.092554
547.029402	0.091811
547.243988	0.091531
547.458555	0.091783
547.673103	0.091991
547.887634	0.092188
548.102146	0.092369
548.316640	0.092763
548.531116	0.093038
548.745574	0.093458
548.960013	0.093598
549.174435	0.094034
549.388838	0.093763
549.603222	0.093773
549.817589	0.094085
550.031937	0.093760
550.246267	0.094007
550.460579	0.093681
550.674873	0.093262
550.889148	0.093279
551.103405	0.093296
551.317644	0.093386
551.531865	0.093702
551.746068	0.093658
551.960252	0.094120
552.174418	0.094194
552.388566	0.094369
552.602696	0.094679
552.816807	0.094911
553.030900	0.094965
553.244975	0.095388
553.459032	0.095503
553.673070	0.095539
553.887091	0.095420
554.101093	0.095065
554.315077	0.095326
554.529042	0.095395
554.742990	0.095355
554.956919	0.095673
555.170830	0.095648
555.384722	0.095542
555.598597	0.095888
555.812453	0.095966
556.026291	0.096684
556.240111	0.096506
556.453913	0.096587
556.667696	0.096914
556.881461	0.097044
557.095208	0.096785
557.308937	0.096929
557.522647	0.096903
557.736339	0.097131
557.950013	0.096832
558.163669	0.096778
558.377307	0.096887
558.590926	0.097019
558.804527	0.097253
559.018110	0.097601
559.231675	0.097757
559.445221	0.097701
559.658749	0.097578
559.872259	0.097736
560.085751	0.098296
560.299225	0.098260
560.512680	0.098200
560.726117	0.097987
560.939536	0.098054
561.152937	0.098017
561.366319	0.098335
561.579683	0.098490
561.793029	0.098784
562.006357	0.098591
562.219667	0.099014
562.432958	0.099473
562.646231	0.099554
562.859486	0.099710
563.072723	0.099560
563.285941	0.099317
563.499141	0.099561
563.712323	0.099585
563.925487	0.099979
564.138632	0.099839
564.351760	0.099501
564.564869	0.099692
564.777960	0.100061
564.991032	0.100439
565.204087	0.100666
565.417123	0.100833
565.630141	0.100705
565.843140	0.100838
566.056122	0.100954
566.269085	0.101141
566.482030	0.101299
566.694957	0.101210
566.907866	0.101277
567.120756	0.101579
567.333628	0.101355
567.546482	0.101273
567.759318	0.101075
567.972135	0.101041
568.184935	0.101124
568.397716	0.101165
568.610478	0.100981
568.823223	0.100958
569.035949	0.101129
569.248657	0.101367
569.461347	0.101608
569.674019	0.101933
569.886672	0.102048
570.099308	0.101917
570.311925	0.101638
570.524523	0.101885
570.737104	0.101849
570.949666	0.101509
571.162210	0.101278
571.374736	0.101246
571.587244	0.101174
571.799733	0.101328
572.012205	0.101801
572.224658	0.102003
572.437092	0.101818
572.649509	0.102265
572.861907	0.102599
573.074287	0.103143
573.286649	0.103529
573.498993	0.103550
573.711318	0.103575
573.923625	0.103717
574.135914	0.103840
574.348185	0.104541
574.560438	0.104147
574.772672	0.103980
574.984888	0.103922
575.197086	0.103854
575.409266	0.104159
575.621427	0.104273
575.833570	0.104097
576.045695	0.104241
576.257802	0.103706
576.469890	0.104182
576.681961	0.104351
576.894013	0.104505
577.106046	0.104643
577.318062	0.104706
577.530059	0.104821
577.742039	0.105158
577.954000	0.105351
578.165942	0.105600
578.377867	0.105388
578.589773	0.105586
578.801661	0.105393
579.013531	0.105657
579.225382	0.105308
579.437216	0.105555
579.649031	0.105577
579.860828	0.105609
580.072606	0.106045
580.284367	0.106390
580.496109	0.106654
580.707833	0.107079
580.919539	0.107150
581.131227	0.107456
581.342896	0.107443
581.554547	0.107512
581.766180	0.107730
581.977795	0.107776
582.189391	0.108075
582.400969	0.108066
582.612529	0.107978
582.824071	0.107703
583.035595	0.107931
583.247100	0.108176
583.458587	0.108220
583.670056	0.108143
583.881506	0.107982
584.092939	0.107875
584.304353	0.108138
584.515749	0.108217
584.727127	0.108544
584.938486	0.108739
585.149828	0.108779
585.361151	0.108805
585.572456	0.108737
585.783742	0.108695
585.995011	0.108391
586.206261	0.108122
586.417493	0.108325
586.628706	0.108305
586.839902	0.108192
587.051079	0.108177
587.262238	0.108340
587.473379	0.108826
587.684502	0.108584
587.895606	0.109108
588.106692	0.109224
588.317760	0.109061
588.528810	0.109089
588.739841	0.109100
588.950855	0.109035
589.161850	0.109017
589.372827	0.108621
589.583785	0.108827
589.794726	0.108811
590.005648	0.108766
590.216552	0.109079
590.427437	0.109293
590.638305	0.109447
590.849154	0.109952
591.059985	0.109947
591.270798	0.109915
591.481592	0.110456
591.692369	0.110460
591.903127	0.110791
592.113867	0.110688
592.324588	0.110791
592.535292	0.110816
592.745977	0.110584
592.956644	0.110670
593.167293	0.111040
593.377923	0.110980
593.588536	0.110934
593.799130	0.110788
594.009706	0.110945
594.220263	0.111288
594.430803	0.111407
594.641324	0.111587
594.851827	0.111490
595.062312	0.111340
595.272778	0.111282
595.483227	0.111636
595.693657	0.111705
595.904069	0.111855
596.114462	0.111628
596.324838	0.111694
596.535195	0.111591
596.745534	0.111841
596.955855	0.112090
597.166157	0.112349
597.376441	0.112420
597.586707	0.112637
597.796955	0.112767
598.007185	0.112562
598.217396	0.112692
598.427589	0.112766
598.637764	0.112953
598.847921	0.112947
599.058060	0.112817
599.268180	0.112594
599.478282	0.112803
599.688366	0.112942
599.898431	0.113491
600.108479	0.113680
600.318508	0.113883
600.528519	0.114042
600.738511	0.114303
600.948486	0.114516
601.158442	0.114897
601.368380	0.115005
601.578300	0.114967
601.788202	0.114836
601.998085	0.114683
602.207950	0.114850
602.417797	0.114768
602.627626	0.114835
602.837436	0.115021
603.047228	0.115030
603.257002	0.115082
603.466758	0.114948
603.676496	0.115306
603.886215	0.115624
604.095916	0.115878
604.305599	0.116070
604.515264	0.115909
604.724910	0.115830
604.934538	0.115873
605.144148	0.115532
605.353740	0.115294
605.563314	0.115020
605.772869	0.115054
605.982406	0.114552
606.191925	0.114332
606.401425	0.114491
606.610908	0.114321
606.820372	0.114213
607.029818	0.114264
607.239246	0.114614
607.448655	0.114595
607.658047	0.114688
607.867420	0.114682
608.076775	0.114672
608.286111	0.114769
608.495430	0.115195
608.704730	0.115495
608.914012	0.115745
609.123275	0.115956
609.332521	0.115995
609.541748	0.115933
609.750957	0.116219
609.960148	0.116489
610.169321	0.116605
610.378475	0.116476
610.587611	0.116303
610.796729	0.116180
611.005829	0.116052
611.214910	0.115934
611.423974	0.115821
611.633019	0.115898
611.842045	0.116060
612.051054	0.116040
612.260044	0.116076
612.469017	0.116062
612.677970	0.116414
612.886906	0.117081
613.095824	0.117658
613.304723	0.117801
613.513604	0.117729
613.722467	0.117869
613.931311	0.117963
614.140138	0.118216
614.348946	0.118532
614.557736	0.118594
614.766507	0.118146
614.975261	0.118098
615.183996	0.118049
615.392713	0.118242
615.601412	0.118077
615.810092	0.117938
616.018754	0.117826
616.227399	0.117795
616.436024	0.117648
616.644632	0.117803
616.853222	0.117919
617.061793	0.118008
617.270346	0.118011
617.478880	0.118275
617.687397	0.118578
617.895895	0.118764
618.104375	0.118798
618.312837	0.119022
618.521281	0.118890
618.729706	0.118831
618.938113	0.118955
619.146502	0.119093
619.354873	0.119046
619.563226	0.119143
619.771560	0.119154
619.979876	0.119196
620.188174	0.119398
620.396453	0.119502
620.604715	0.119686
620.812958	0.119767
621.021183	0.119791
621.229390	0.119950
621.437578	0.119907
621.645748	0.119699
621.853900	0.119867
622.062034	0.119761
622.270150	0.119874
622.478247	0.119859
622.686326	0.119982
622.894387	0.120184
623.102430	0.119996
623.310454	0.120480
623.518461	0.121042
623.726449	0.121141
623.934418	0.121372
624.142370	0.121786
624.350303	0.122103
624.558218	0.122230
624.766115	0.122263
624.973994	0.122665
625.181855	0.122728
625.389697	0.122975
625.597521	0.123120
625.805327	0.123182
626.013114	0.123080
626.220883	0.123191
626.428634	0.123266
626.636367	0.123424
626.844082	0.123196
627.051778	0.123125
627.259457	0.122780
627.467117	0.122878
627.674758	0.122722
627.882382	0.122726
628.089987	0.122557
628.297574	0.122728
628.505143	0.122973
628.712694	0.123137
628.920226	0.122976
629.127740	0.122910
629.335236	0.122841
629.542714	0.123056
629.750174	0.123159
629.957615	0.123386
630.165038	0.123294
630.372443	0.122911
630.579829	0.122924
630.787198	0.123000
630.994548	0.123132
631.201880	0.123438
631.409194	0.123690
631.616489	0.123690
631.823766	0.123716
632.031025	0.123832
632.238266	0.124120
632.445489	0.124377
632.652693	0.124668
632.859879	0.124963
633.067047	0.124917
633.274197	0.125023
633.481329	0.125093
633.688442	0.125000
633.895537	0.125052
634.102614	0.124847
634.309672	0.124877
634.516713	0.124781
634.723735	0.124834
634.930739	0.124773
635.137724	0.124639
635.344692	0.124924
635.551641	0.125159
635.758572	0.124976
635.965485	0.125373
636.172379	0.125566
636.379256	0.125485
636.586114	0.125586
636.792954	0.125832
636.999775	0.125723
637.206579	0.125569
637.413364	0.125324
637.620131	0.125894
637.826880	0.125829
638.033610	0.125789
638.240323	0.126012
638.447017	0.125983
638.653692	0.126143
638.860350	0.126301
639.066990	0.126519
639.273611	0.126825
639.480214	0.126629
639.686798	0.126707
639.893365	0.126868
640.099913	0.126883
640.306443	0.127017
640.512955	0.126876
640.719449	0.127049
640.925924	0.126848
641.132381	0.127020
641.338820	0.127300
641.545241	0.127417
641.751644	0.127313
641.958028	0.127527
642.164394	0.127632
642.370742	0.127865
642.577071	0.127979
642.783383	0.128241
642.989676	0.128208
643.195951	0.128081
643.402207	0.128272
643.608446	0.128417
643.814666	0.128525
644.020868	0.128657
644.227052	0.128572
644.433218	0.128498
644.639365	0.128713
644.845494	0.128870
645.051605	0.129101
645.257698	0.129261
645.463772	0.129404
645.669828	0.129258
645.875866	0.129277
646.081886	0.129399
646.287888	0.129564
646.493871	0.129607
646.699836	0.129653
646.905783	0.129432
647.111712	0.129362
647.317622	0.129429
647.523514	0.129747
647.729388	0.129863
647.935244	0.129907
648.141082	0.130111
648.346901	0.130131
648.552702	0.130130
648.758485	0.130484
648.964250	0.130660
649.169996	0.130932
649.375724	0.131142
649.581434	0.131293
649.787126	0.131706
649.992800	0.131715
650.198455	0.131880
650.404092	0.131950
650.609711	0.132111
650.815311	0.132159
651.020894	0.132192
651.226458	0.132234
651.432004	0.132245
651.637532	0.132163
651.843041	0.132260
652.048532	0.132447
652.254006	0.132629
652.459460	0.132751
652.664897	0.132758
652.870315	0.132666
653.075716	0.132429
653.281097	0.132638
653.486461	0.132561
653.691807	0.132573
653.897134	0.132500
654.102443	0.132434
654.307734	0.132418
654.513006	0.132595
654.718261	0.132890
654.923497	0.133194
655.128715	0.133070
655.333915	0.133246
655.539096	0.133398
655.744259	0.133591
655.949404	0.133825
656.154531	0.133863
656.359640	0.133977
656.564730	0.134046
656.769802	0.133985
656.974856	0.133993
657.179892	0.134118
657.384909	0.134220
657.589908	0.134192
657.794889	0.134354
657.999852	0.134658
658.204797	0.134623
658.409723	0.134646
658.614631	0.135020
658.819521	0.135284
659.024393	0.135159
659.229246	0.135477
659.434081	0.135725
659.638898	0.136031
659.843697	0.136112
660.048478	0.136193
660.253240	0.136209
660.457984	0.136129
660.662710	0.136275
660.867417	0.136711
661.072107	0.136639
661.276778	0.136661
661.481431	0.136648
661.686066	0.136386
661.890682	0.136522
662.095281	0.136642
662.299861	0.136556
662.504422	0.136639
662.708966	0.136785
662.913491	0.136966
663.117999	0.137249
663.322488	0.137198
663.526958	0.137460
663.731411	0.137594
663.935845	0.137479
664.140261	0.138075
664.344659	0.138252
664.549038	0.138233
664.753400	0.138288
664.957743	0.138256
665.162068	0.138326
665.366375	0.138322
665.570663	0.138554
665.774933	0.138986
665.979185	0.138711
666.183419	0.138745
666.387635	0.138853
666.591832	0.138861
666.796011	0.138718
667.000172	0.138817
667.204315	0.138770
667.408439	0.138752
667.612545	0.138720
667.816634	0.138959
668.020703	0.138889
668.224755	0.138680
668.428788	0.138848
668.632803	0.139251
668.836800	0.139288
669.040779	0.139719
669.244739	0.139847
669.448681	0.140019
669.652605	0.140159
669.856511	0.140252
670.060399	0.140557
670.264268	0.140780
670.468119	0.140698
670.671952	0.140946
670.875767	0.141066
671.079563	0.141224
671.283341	0.141122
671.487101	0.140981
671.690843	0.141140
671.894567	0.141203
672.098272	0.140993
672.301959	0.141167
672.505628	0.141132
672.709278	0.141244
672.912911	0.141324
673.116525	0.141686
673.320121	0.141959
673.523699	0.142234
673.727258	0.142393
673.930799	0.142678
674.134322	0.142862
674.337827	0.143176
674.541314	0.143326
674.744782	0.143380
674.948232	0.143424
675.151664	0.143637
675.355078	0.143844
675.558474	0.144219
675.761851	0.144492
675.965210	0.144680
676.168551	0.144790
676.371873	0.144828
676.575178	0.144978
676.778464	0.145144
676.981732	0.145232
677.184981	0.145200
677.388213	0.145017
677.591426	0.144839
677.794621	0.144826
677.997798	0.144916
678.200956	0.144987
678.404097	0.145137
678.607219	0.145408
678.810323	0.145510
679.013408	0.145749
679.216476	0.145880
679.419525	0.146168
679.622556	0.146261
679.825569	0.146382
680.028563	0.146708
680.231540	0.146937
680.434498	0.146958
680.637438	0.146934
680.840359	0.146889
681.043263	0.146922
681.246148	0.147014
681.449015	0.147201
681.651864	0.147227
681.854694	0.147259
682.057506	0.147334
682.260301	0.147397
682.463076	0.147630
682.665834	0.147794
682.868573	0.148209
683.071295	0.148280
683.273998	0.148520
683.476682	0.148646
683.679349	0.148762
683.881997	0.148795
684.084627	0.148879
684.287239	0.148802
684.489833	0.148745
684.692408	0.148617
684.894965	0.148664
685.097504	0.148417
685.300025	0.148477
685.502527	0.148468
685.705012	0.148272
685.907478	0.148258
686.109925	0.148574
686.312355	0.148822
686.514766	0.148848
686.717159	0.148884
686.919534	0.149248
687.121891	0.149340
687.324230	0.149310
687.526550	0.149679
687.728852	0.149886
687.931136	0.149883
688.133401	0.149935
688.335649	0.150133
688.537878	0.150299
688.740089	0.150345
688.942281	0.150419
689.144456	0.150566
689.346612	0.150557
689.548750	0.150485
689.750870	0.150404
689.952971	0.150307
690.155055	0.150395
690.357120	0.150384
690.559167	0.150310
690.761195	0.150296
690.963206	0.150137
691.165198	0.150032
691.367172	0.150216
691.569128	0.150386
691.771065	0.150517
691.972984	0.150510
692.174885	0.150732
692.376768	0.150767
692.578633	0.150921
692.780479	0.151165
692.982308	0.151469
693.184118	0.151373
693.385909	0.151477
