sample name	sample
index	896
start time	 04-08-2021  03:17:04 PM


Wavelength (nm)	Absorbance
494.344910	-0.228169
494.563924	-0.228169
494.782919	-0.228169
495.001897	-0.453370
495.220856	-0.479008
495.439797	-0.394979
495.658719	-0.367558
495.877624	-0.412469
496.096510	-0.354664
496.315378	-0.401894
496.534227	-0.302888
496.753059	-0.216714
496.971872	-0.039970
497.190667	0.140429
497.409444	0.143095
497.628203	0.145526
497.846943	0.147442
498.065665	0.147962
498.284369	0.147633
498.503055	0.147667
498.721723	0.147283
498.940372	0.148814
499.159003	0.149670
499.377616	0.149626
499.596210	0.150288
499.814787	0.150360
500.033345	0.151744
500.251885	0.152009
500.470406	0.152863
500.688910	0.152388
500.907395	0.150974
501.125862	0.149899
501.344311	0.149764
501.562742	0.149185
501.781154	0.149606
501.999548	0.148633
502.217924	0.148875
502.436282	0.148884
502.654621	0.149932
502.872942	0.149925
503.091245	0.151302
503.309530	0.152071
503.527797	0.152957
503.746045	0.153078
503.964275	0.152715
504.182487	0.153984
504.400681	0.154034
504.618856	0.153987
504.837013	0.154632
505.055152	0.153521
505.273273	0.153528
505.491376	0.153279
505.709460	0.153532
505.927526	0.154178
506.145574	0.153310
506.363604	0.152711
506.581615	0.152761
506.799608	0.152520
507.017583	0.153673
507.235540	0.153815
507.453478	0.152867
507.671399	0.152475
507.889301	0.152249
508.107185	0.152741
508.325050	0.152979
508.542898	0.153040
508.760727	0.153262
508.978538	0.153359
509.196330	0.153473
509.414105	0.153962
509.631861	0.154738
509.849599	0.155178
510.067319	0.155640
510.285021	0.156299
510.502704	0.156205
510.720369	0.156822
510.938016	0.156769
511.155645	0.156784
511.373255	0.157629
511.590848	0.156655
511.808422	0.156378
512.025977	0.156108
512.243515	0.155163
512.461034	0.156274
512.678536	0.155676
512.896018	0.155689
513.113483	0.156290
513.330930	0.156115
513.548358	0.157283
513.765768	0.158731
513.983160	0.158439
514.200533	0.159741
514.417889	0.160168
514.635226	0.161120
514.852545	0.161205
515.069845	0.161829
515.287128	0.161571
515.504392	0.161224
515.721638	0.160682
515.938866	0.161811
516.156075	0.161407
516.373267	0.161031
516.590440	0.160766
516.807594	0.161765
517.024731	0.161564
517.241850	0.163127
517.458950	0.164384
517.676032	0.164154
517.893095	0.164356
518.110141	0.164999
518.327168	0.164925
518.544177	0.165245
518.761168	0.164803
518.978141	0.164607
519.195095	0.164374
519.412031	0.164092
519.628949	0.164927
519.845849	0.164631
520.062731	0.165271
520.279594	0.165355
520.496439	0.165739
520.713266	0.166332
520.930074	0.166616
521.146865	0.167043
521.363637	0.167033
521.580391	0.166831
521.797127	0.167374
522.013844	0.166600
522.230543	0.167633
522.447224	0.167757
522.663887	0.167153
522.880532	0.167237
523.097158	0.166998
523.313766	0.167930
523.530356	0.168840
523.746928	0.168794
523.963481	0.169699
524.180017	0.169908
524.396534	0.169809
524.613032	0.171044
524.829513	0.172466
525.045975	0.173244
525.262420	0.172752
525.478845	0.172549
525.695253	0.172667
525.911643	0.172395
526.128014	0.172568
526.344367	0.173166
526.560702	0.173387
526.777018	0.173350
526.993316	0.173656
527.209597	0.174303
527.425858	0.174603
527.642102	0.175314
527.858328	0.176143
528.074535	0.176147
528.290724	0.176574
528.506894	0.176332
528.723047	0.176341
528.939181	0.176326
529.155297	0.176133
529.371395	0.177183
529.587475	0.177731
529.803536	0.178065
530.019579	0.178649
530.235604	0.179038
530.451611	0.179633
530.667600	0.179592
530.883570	0.180180
531.099522	0.180684
531.315456	0.180705
531.531372	0.180791
531.747269	0.181431
531.963148	0.181736
532.179009	0.181789
532.394852	0.182289
532.610676	0.183331
532.826482	0.182625
533.042271	0.183294
533.258040	0.183147
533.473792	0.182887
533.689525	0.182535
533.905240	0.182800
534.120937	0.182859
534.336616	0.182965
534.552277	0.182622
534.767919	0.183889
534.983543	0.184055
535.199149	0.184600
535.414736	0.185306
535.630306	0.185892
535.845857	0.186222
536.061390	0.186683
536.276904	0.187483
536.492401	0.187948
536.707879	0.187683
536.923339	0.187684
537.138781	0.188029
537.354204	0.188501
537.569610	0.188564
537.784997	0.188882
538.000366	0.189450
538.215716	0.189727
538.431049	0.190352
538.646363	0.190625
538.861659	0.191335
539.076937	0.191708
539.292196	0.192008
539.507438	0.192165
539.722661	0.192596
539.937866	0.192952
540.153052	0.192631
540.368221	0.192564
540.583371	0.193455
540.798503	0.193844
541.013617	0.193797
541.228712	0.194250
541.443789	0.194906
541.658848	0.194801
541.873889	0.195076
542.088912	0.195847
542.303916	0.196484
542.518902	0.196687
542.733870	0.197176
542.948820	0.197874
543.163752	0.197683
543.378665	0.198104
543.593560	0.198324
543.808437	0.198832
544.023295	0.199115
544.238136	0.199645
544.452958	0.200376
544.667762	0.200229
544.882548	0.200504
545.097315	0.201133
545.312064	0.201759
545.526795	0.202285
545.741508	0.202470
545.956203	0.202656
546.170879	0.202507
546.385537	0.202044
546.600177	0.202443
546.814799	0.202342
547.029402	0.202656
547.243988	0.202526
547.458555	0.202855
547.673103	0.203489
547.887634	0.203589
548.102146	0.204298
548.316640	0.205027
548.531116	0.205202
548.745574	0.205352
548.960013	0.206035
549.174435	0.206375
549.388838	0.206596
549.603222	0.206202
549.817589	0.206331
550.031937	0.206165
550.246267	0.206083
550.460579	0.206794
550.674873	0.207249
550.889148	0.206977
551.103405	0.207551
551.317644	0.207108
551.531865	0.207101
551.746068	0.207065
551.960252	0.207383
552.174418	0.207538
552.388566	0.207285
552.602696	0.208044
552.816807	0.208560
553.030900	0.208081
553.244975	0.209158
553.459032	0.209471
553.673070	0.210448
553.887091	0.210467
554.101093	0.210741
554.315077	0.210919
554.529042	0.210518
554.742990	0.210651
554.956919	0.210882
555.170830	0.210941
555.384722	0.211391
555.598597	0.211377
555.812453	0.211676
556.026291	0.211988
556.240111	0.212068
556.453913	0.212529
556.667696	0.212424
556.881461	0.212951
557.095208	0.213416
557.308937	0.213650
557.522647	0.214058
557.736339	0.214223
557.950013	0.214223
558.163669	0.214634
558.377307	0.214508
558.590926	0.215063
558.804527	0.215207
559.018110	0.214817
559.231675	0.214705
559.445221	0.214242
559.658749	0.214345
559.872259	0.214969
560.085751	0.215253
560.299225	0.215806
560.512680	0.215524
560.726117	0.215492
560.939536	0.215839
561.152937	0.216564
561.366319	0.217025
561.579683	0.217450
561.793029	0.217521
562.006357	0.217392
562.219667	0.217605
562.432958	0.218039
562.646231	0.218704
562.859486	0.218690
563.072723	0.218376
563.285941	0.218848
563.499141	0.219169
563.712323	0.219021
563.925487	0.219154
564.138632	0.218802
564.351760	0.219017
564.564869	0.218836
564.777960	0.219348
564.991032	0.219772
565.204087	0.219485
565.417123	0.219947
565.630141	0.220480
565.843140	0.220738
566.056122	0.221576
566.269085	0.221505
566.482030	0.221770
566.694957	0.221852
566.907866	0.221589
567.120756	0.222569
567.333628	0.222105
567.546482	0.222035
567.759318	0.222482
567.972135	0.222506
568.184935	0.222972
568.397716	0.223277
568.610478	0.223712
568.823223	0.224519
569.035949	0.224009
569.248657	0.224247
569.461347	0.224649
569.674019	0.224693
569.886672	0.224619
570.099308	0.224437
570.311925	0.224261
570.524523	0.224696
570.737104	0.224754
570.949666	0.225122
571.162210	0.225183
571.374736	0.225650
571.587244	0.225812
571.799733	0.225741
572.012205	0.226227
572.224658	0.226545
572.437092	0.225919
572.649509	0.226048
572.861907	0.226207
573.074287	0.226510
573.286649	0.226340
573.498993	0.226423
573.711318	0.226867
573.923625	0.226763
574.135914	0.226953
574.348185	0.227312
574.560438	0.227300
574.772672	0.227481
574.984888	0.227620
575.197086	0.227649
575.409266	0.227726
575.621427	0.227952
575.833570	0.227916
576.045695	0.227856
576.257802	0.228150
576.469890	0.228363
576.681961	0.228310
576.894013	0.228403
577.106046	0.228511
577.318062	0.228736
577.530059	0.228970
577.742039	0.229227
577.954000	0.229264
578.165942	0.229585
578.377867	0.229690
578.589773	0.229956
578.801661	0.230029
579.013531	0.230247
579.225382	0.230506
579.437216	0.230522
579.649031	0.230630
579.860828	0.231085
580.072606	0.231355
580.284367	0.231391
580.496109	0.231635
580.707833	0.231782
580.919539	0.232032
581.131227	0.232068
581.342896	0.232447
581.554547	0.232940
581.766180	0.232844
581.977795	0.232788
582.189391	0.233354
582.400969	0.233713
582.612529	0.234352
582.824071	0.234615
583.035595	0.234811
583.247100	0.234939
583.458587	0.235061
583.670056	0.235531
583.881506	0.235413
584.092939	0.235351
584.304353	0.235333
584.515749	0.235311
584.727127	0.235481
584.938486	0.235366
585.149828	0.235515
585.361151	0.235626
585.572456	0.235709
585.783742	0.236087
585.995011	0.236310
586.206261	0.236538
586.417493	0.236433
586.628706	0.236259
586.839902	0.236888
587.051079	0.236902
587.262238	0.236795
587.473379	0.236966
587.684502	0.236864
587.895606	0.237225
588.106692	0.237104
588.317760	0.237259
588.528810	0.237586
588.739841	0.237676
588.950855	0.237887
589.161850	0.238621
589.372827	0.238727
589.583785	0.238868
589.794726	0.238391
590.005648	0.238411
590.216552	0.238907
590.427437	0.238825
590.638305	0.239032
590.849154	0.238867
591.059985	0.239060
591.270798	0.239266
591.481592	0.239982
591.692369	0.240537
591.903127	0.240779
592.113867	0.240653
592.324588	0.241245
592.535292	0.241075
592.745977	0.241438
592.956644	0.241142
593.167293	0.241310
593.377923	0.241019
593.588536	0.241214
593.799130	0.241397
594.009706	0.241234
594.220263	0.240958
594.430803	0.241303
594.641324	0.241489
594.851827	0.241338
595.062312	0.241277
595.272778	0.241474
595.483227	0.241910
595.693657	0.242256
595.904069	0.243006
596.114462	0.243447
596.324838	0.243330
596.535195	0.243668
596.745534	0.244211
596.955855	0.244383
597.166157	0.244513
597.376441	0.244258
597.586707	0.243968
597.796955	0.244107
598.007185	0.244330
598.217396	0.244855
598.427589	0.244698
598.637764	0.244890
598.847921	0.245091
599.058060	0.245490
599.268180	0.245714
599.478282	0.246196
599.688366	0.246100
599.898431	0.245784
600.108479	0.245916
600.318508	0.245828
600.528519	0.246295
600.738511	0.246401
600.948486	0.246191
601.158442	0.246395
601.368380	0.246537
601.578300	0.246728
601.788202	0.246999
601.998085	0.246799
602.207950	0.247192
602.417797	0.247057
602.627626	0.247131
602.837436	0.247461
603.047228	0.247354
603.257002	0.247711
603.466758	0.247712
603.676496	0.248195
603.886215	0.248817
604.095916	0.249084
604.305599	0.249457
604.515264	0.249676
604.724910	0.249541
604.934538	0.250048
605.144148	0.249923
605.353740	0.250035
605.563314	0.250153
605.772869	0.249843
605.982406	0.249679
606.191925	0.249262
606.401425	0.249504
606.610908	0.249813
606.820372	0.249818
607.029818	0.249892
607.239246	0.250079
607.448655	0.249706
607.658047	0.250090
607.867420	0.250500
608.076775	0.250746
608.286111	0.250757
608.495430	0.251141
608.704730	0.251402
608.914012	0.251553
609.123275	0.251816
609.332521	0.252073
609.541748	0.252098
609.750957	0.252421
609.960148	0.252722
610.169321	0.252792
610.378475	0.252705
610.587611	0.252663
610.796729	0.253202
611.005829	0.253223
611.214910	0.253524
611.423974	0.253684
611.633019	0.253316
611.842045	0.253583
612.051054	0.253906
612.260044	0.254091
612.469017	0.254410
612.677970	0.254478
612.886906	0.254786
613.095824	0.254700
613.304723	0.255011
613.513604	0.255391
613.722467	0.255552
613.931311	0.255913
614.140138	0.256014
614.348946	0.255866
614.557736	0.255709
614.766507	0.255589
614.975261	0.255884
615.183996	0.255861
615.392713	0.255933
615.601412	0.256177
615.810092	0.255820
616.018754	0.255709
616.227399	0.256076
616.436024	0.256411
616.644632	0.256892
616.853222	0.257178
617.061793	0.257423
617.270346	0.257559
617.478880	0.257261
617.687397	0.257385
617.895895	0.257755
618.104375	0.257604
618.312837	0.257617
618.521281	0.257556
618.729706	0.257617
618.938113	0.257479
619.146502	0.257415
619.354873	0.258057
619.563226	0.258344
619.771560	0.258370
619.979876	0.258680
620.188174	0.258895
620.396453	0.259011
620.604715	0.259189
620.812958	0.259497
621.021183	0.259974
621.229390	0.259853
621.437578	0.260235
621.645748	0.260253
621.853900	0.260419
622.062034	0.260545
622.270150	0.260652
622.478247	0.260712
622.686326	0.260823
622.894387	0.260953
623.102430	0.261305
623.310454	0.261367
623.518461	0.261678
623.726449	0.261849
623.934418	0.261746
624.142370	0.261848
624.350303	0.261899
624.558218	0.262117
624.766115	0.262370
624.973994	0.262281
625.181855	0.262670
625.389697	0.263155
625.597521	0.263359
625.805327	0.263441
626.013114	0.263876
626.220883	0.263885
626.428634	0.264037
626.636367	0.264052
626.844082	0.264286
627.051778	0.264387
627.259457	0.264178
627.467117	0.264227
627.674758	0.264604
627.882382	0.264608
628.089987	0.264930
628.297574	0.265145
628.505143	0.265189
628.712694	0.265264
628.920226	0.264856
629.127740	0.265223
629.335236	0.265526
629.542714	0.265770
629.750174	0.265671
629.957615	0.265745
630.165038	0.265718
630.372443	0.265982
630.579829	0.265869
630.787198	0.266303
630.994548	0.266370
631.201880	0.266148
631.409194	0.266267
631.616489	0.266695
631.823766	0.267197
632.031025	0.267622
632.238266	0.267435
632.445489	0.267867
632.652693	0.268101
632.859879	0.268212
633.067047	0.268578
633.274197	0.268528
633.481329	0.268827
633.688442	0.268765
633.895537	0.268698
634.102614	0.269124
634.309672	0.269238
634.516713	0.269147
634.723735	0.269269
634.930739	0.269448
635.137724	0.269824
635.344692	0.269433
635.551641	0.269501
635.758572	0.269505
635.965485	0.269693
636.172379	0.269605
636.379256	0.270093
636.586114	0.270109
636.792954	0.270375
636.999775	0.270327
637.206579	0.270787
637.413364	0.271044
637.620131	0.270990
637.826880	0.271045
638.033610	0.271386
638.240323	0.271185
638.447017	0.271560
638.653692	0.271589
638.860350	0.272085
639.066990	0.272430
639.273611	0.272697
639.480214	0.273193
639.686798	0.273502
639.893365	0.273547
640.099913	0.273920
640.306443	0.274159
640.512955	0.274348
640.719449	0.274423
640.925924	0.274444
641.132381	0.274469
641.338820	0.274824
641.545241	0.274965
641.751644	0.275272
641.958028	0.275544
642.164394	0.275592
642.370742	0.275731
642.577071	0.275865
642.783383	0.275964
642.989676	0.276315
643.195951	0.276559
643.402207	0.276606
643.608446	0.276750
643.814666	0.276755
644.020868	0.277095
644.227052	0.277451
644.433218	0.277297
644.639365	0.277477
644.845494	0.277481
645.051605	0.277373
645.257698	0.277609
645.463772	0.277902
645.669828	0.278085
645.875866	0.278215
646.081886	0.278237
646.287888	0.278662
646.493871	0.278821
646.699836	0.279086
646.905783	0.279341
647.111712	0.279379
647.317622	0.279592
647.523514	0.279817
647.729388	0.279753
647.935244	0.279875
648.141082	0.280140
648.346901	0.280237
648.552702	0.280232
648.758485	0.280428
648.964250	0.280733
649.169996	0.280908
649.375724	0.281132
649.581434	0.281389
649.787126	0.281653
649.992800	0.281832
650.198455	0.282029
650.404092	0.282334
650.609711	0.282279
650.815311	0.282370
651.020894	0.282255
651.226458	0.282305
651.432004	0.282227
651.637532	0.282361
651.843041	0.282368
652.048532	0.282737
652.254006	0.282827
652.459460	0.282967
652.664897	0.283287
652.870315	0.283531
653.075716	0.283818
653.281097	0.284606
653.486461	0.284550
653.691807	0.284729
653.897134	0.284971
654.102443	0.285107
654.307734	0.285404
654.513006	0.285616
654.718261	0.285890
654.923497	0.285992
655.128715	0.285718
655.333915	0.286237
655.539096	0.286431
655.744259	0.286380
655.949404	0.286714
656.154531	0.287132
656.359640	0.287346
656.564730	0.287291
656.769802	0.287714
656.974856	0.288153
657.179892	0.288295
657.384909	0.288462
657.589908	0.288679
657.794889	0.288703
657.999852	0.288793
658.204797	0.289063
658.409723	0.289465
658.614631	0.289516
658.819521	0.289716
659.024393	0.290033
659.229246	0.290275
659.434081	0.290588
659.638898	0.291031
659.843697	0.291259
660.048478	0.291329
660.253240	0.291648
660.457984	0.292013
660.662710	0.292371
660.867417	0.292617
661.072107	0.292906
661.276778	0.293122
661.481431	0.293337
661.686066	0.293578
661.890682	0.293920
662.095281	0.294291
662.299861	0.294383
662.504422	0.294151
662.708966	0.294271
662.913491	0.294254
663.117999	0.294337
663.322488	0.294649
663.526958	0.294999
663.731411	0.295322
663.935845	0.295358
664.140261	0.295705
664.344659	0.296089
664.549038	0.296234
664.753400	0.296662
664.957743	0.297131
665.162068	0.297252
665.366375	0.297294
665.570663	0.297169
665.774933	0.297181
665.979185	0.297232
666.183419	0.297560
666.387635	0.297374
666.591832	0.297653
666.796011	0.297521
667.000172	0.297450
667.204315	0.297932
667.408439	0.298319
667.612545	0.298538
667.816634	0.298746
668.020703	0.298898
668.224755	0.299309
668.428788	0.299432
668.632803	0.299994
668.836800	0.300307
669.040779	0.300370
669.244739	0.300552
669.448681	0.301133
669.652605	0.301261
669.856511	0.301531
670.060399	0.301860
670.264268	0.302070
670.468119	0.302114
670.671952	0.302355
670.875767	0.302466
671.079563	0.302681
671.283341	0.302871
671.487101	0.303132
671.690843	0.303630
671.894567	0.303966
672.098272	0.304186
672.301959	0.304630
672.505628	0.304845
672.709278	0.305190
672.912911	0.305576
673.116525	0.305832
673.320121	0.306180
673.523699	0.306181
673.727258	0.306272
673.930799	0.306487
674.134322	0.306583
674.337827	0.306968
674.541314	0.307244
674.744782	0.307487
674.948232	0.307553
675.151664	0.307774
675.355078	0.307920
675.558474	0.308449
675.761851	0.308618
675.965210	0.308649
676.168551	0.308815
676.371873	0.308835
676.575178	0.309017
676.778464	0.308926
676.981732	0.308945
677.184981	0.308726
677.388213	0.308648
677.591426	0.308886
677.794621	0.309390
677.997798	0.309681
678.200956	0.310016
678.404097	0.310083
678.607219	0.310675
678.810323	0.311000
679.013408	0.311609
679.216476	0.311882
679.419525	0.312227
679.622556	0.312320
679.825569	0.312365
680.028563	0.312535
680.231540	0.312750
680.434498	0.312670
680.637438	0.313038
680.840359	0.313155
681.043263	0.313378
681.246148	0.313505
681.449015	0.313656
681.651864	0.313855
681.854694	0.314031
682.057506	0.314178
682.260301	0.314460
682.463076	0.314477
682.665834	0.314664
682.868573	0.314820
683.071295	0.315087
683.273998	0.315381
683.476682	0.315577
683.679349	0.316118
683.881997	0.316541
684.084627	0.316860
684.287239	0.317160
684.489833	0.317515
684.692408	0.317534
684.894965	0.317527
685.097504	0.317639
685.300025	0.318034
685.502527	0.318066
685.705012	0.318305
685.907478	0.318333
686.109925	0.318421
686.312355	0.318696
686.514766	0.319320
686.717159	0.319796
686.919534	0.320027
687.121891	0.320304
687.324230	0.320122
687.526550	0.319972
687.728852	0.320291
687.931136	0.320554
688.133401	0.320705
688.335649	0.320767
688.537878	0.320705
688.740089	0.320953
688.942281	0.320939
689.144456	0.321435
689.346612	0.321785
689.548750	0.322006
689.750870	0.321940
689.952971	0.322171
690.155055	0.322283
690.357120	0.322362
690.559167	0.322619
690.761195	0.322689
690.963206	0.322705
691.165198	0.322839
691.367172	0.322840
691.569128	0.323252
691.771065	0.323484
691.972984	0.323602
692.174885	0.323942
692.376768	0.324122
692.578633	0.324301
692.780479	0.324588
692.982308	0.324599
693.184118	0.324909
693.385909	0.324889
