sample name	sample
index	161
start time	 02-15-2021  03:11:10 PM


Wavelength (nm)	Absorbance
494.344910	0.538967
494.563924	0.538967
494.782919	0.538967
495.001897	NaN
495.220856	0.213156
495.439797	NaN
495.658719	NaN
495.877624	NaN
496.096510	NaN
496.315378	-1.241214
496.534227	-0.615319
496.753059	-0.319056
496.971872	NaN
497.190667	0.068770
497.409444	0.078687
497.628203	0.075784
497.846943	0.066507
498.065665	0.077000
498.284369	0.081849
498.503055	0.088308
498.721723	0.085799
498.940372	0.082274
499.159003	0.081064
499.377616	0.079539
499.596210	0.079434
499.814787	0.081662
500.033345	0.078184
500.251885	0.075304
500.470406	0.071449
500.688910	0.070746
500.907395	0.074861
501.125862	0.074034
501.344311	0.076097
501.562742	0.075980
501.781154	0.073619
501.999548	0.076945
502.217924	0.076801
502.436282	0.076719
502.654621	0.076477
502.872942	0.075796
503.091245	0.078133
503.309530	0.076287
503.527797	0.074057
503.746045	0.076449
503.964275	0.075182
504.182487	0.079064
504.400681	0.080162
504.618856	0.081645
504.837013	0.082159
505.055152	0.080405
505.273273	0.079707
505.491376	0.080965
505.709460	0.079258
505.927526	0.077949
506.145574	0.075658
506.363604	0.076122
506.581615	0.075534
506.799608	0.075642
507.017583	0.076479
507.235540	0.077604
507.453478	0.080056
507.671399	0.082700
507.889301	0.083993
508.107185	0.083424
508.325050	0.085083
508.542898	0.083346
508.760727	0.083437
508.978538	0.083978
509.196330	0.082775
509.414105	0.083096
509.631861	0.083103
509.849599	0.082143
510.067319	0.086052
510.285021	0.085354
510.502704	0.089378
510.720369	0.088504
510.938016	0.086692
511.155645	0.086485
511.373255	0.086154
511.590848	0.082709
511.808422	0.083581
512.025977	0.079791
512.243515	0.079214
512.461034	0.074558
512.678536	0.072708
512.896018	0.074448
513.113483	0.074617
513.330930	0.074366
513.548358	0.076447
513.765768	0.077908
513.983160	0.079409
514.200533	0.079638
514.417889	0.084439
514.635226	0.086800
514.852545	0.085465
515.069845	0.086848
515.287128	0.086538
515.504392	0.087405
515.721638	0.086119
515.938866	0.084520
516.156075	0.084378
516.373267	0.083925
516.590440	0.083675
516.807594	0.085950
517.024731	0.086879
517.241850	0.086937
517.458950	0.087561
517.676032	0.088115
517.893095	0.088454
518.110141	0.090267
518.327168	0.088943
518.544177	0.090100
518.761168	0.089414
518.978141	0.090363
519.195095	0.091149
519.412031	0.091479
519.628949	0.093194
519.845849	0.096021
520.062731	0.094460
520.279594	0.096421
520.496439	0.096698
520.713266	0.096494
520.930074	0.095553
521.146865	0.094846
521.363637	0.095547
521.580391	0.095655
521.797127	0.093803
522.013844	0.094031
522.230543	0.094443
522.447224	0.094799
522.663887	0.095358
522.880532	0.096828
523.097158	0.098370
523.313766	0.097666
523.530356	0.097191
523.746928	0.097929
523.963481	0.097121
524.180017	0.095528
524.396534	0.095050
524.613032	0.095887
524.829513	0.096027
525.045975	0.094391
525.262420	0.094302
525.478845	0.092409
525.695253	0.092094
525.911643	0.094494
526.128014	0.095204
526.344367	0.096204
526.560702	0.096531
526.777018	0.097227
526.993316	0.099162
527.209597	0.098343
527.425858	0.101618
527.642102	0.102857
527.858328	0.102326
528.074535	0.103665
528.290724	0.105061
528.506894	0.105196
528.723047	0.105304
528.939181	0.106238
529.155297	0.108064
529.371395	0.106301
529.587475	0.107389
529.803536	0.106637
530.019579	0.106900
530.235604	0.106935
530.451611	0.108808
530.667600	0.108990
530.883570	0.109032
531.099522	0.109521
531.315456	0.110168
531.531372	0.108707
531.747269	0.109867
531.963148	0.110266
532.179009	0.109300
532.394852	0.107463
532.610676	0.106906
532.826482	0.107820
533.042271	0.107370
533.258040	0.108794
533.473792	0.109384
533.689525	0.108855
533.905240	0.109722
534.120937	0.110396
534.336616	0.110864
534.552277	0.111145
534.767919	0.111272
534.983543	0.111224
535.199149	0.110686
535.414736	0.112510
535.630306	0.113689
535.845857	0.112985
536.061390	0.111831
536.276904	0.112983
536.492401	0.113841
536.707879	0.112803
536.923339	0.114928
537.138781	0.116712
537.354204	0.116637
537.569610	0.115996
537.784997	0.116502
538.000366	0.118701
538.215716	0.118059
538.431049	0.117078
538.646363	0.117979
538.861659	0.116453
539.076937	0.116182
539.292196	0.115761
539.507438	0.117044
539.722661	0.117722
539.937866	0.117973
540.153052	0.119652
540.368221	0.120189
540.583371	0.120369
540.798503	0.121156
541.013617	0.122324
541.228712	0.122724
541.443789	0.123403
541.658848	0.122722
541.873889	0.123028
542.088912	0.121890
542.303916	0.122379
542.518902	0.122912
542.733870	0.123418
542.948820	0.122804
543.163752	0.123868
543.378665	0.123079
543.593560	0.124901
543.808437	0.125956
544.023295	0.127028
544.238136	0.128858
544.452958	0.128488
544.667762	0.129284
544.882548	0.129119
545.097315	0.128317
545.312064	0.129729
545.526795	0.128585
545.741508	0.128047
545.956203	0.128290
546.170879	0.126874
546.385537	0.128443
546.600177	0.128287
546.814799	0.128284
547.029402	0.128875
547.243988	0.129612
547.458555	0.129844
547.673103	0.129561
547.887634	0.129038
548.102146	0.129736
548.316640	0.129516
548.531116	0.129301
548.745574	0.130092
548.960013	0.130738
549.174435	0.129941
549.388838	0.130792
549.603222	0.132189
549.817589	0.132640
550.031937	0.133097
550.246267	0.133645
550.460579	0.134438
550.674873	0.134403
550.889148	0.133619
551.103405	0.133306
551.317644	0.133443
551.531865	0.133029
551.746068	0.133007
551.960252	0.134325
552.174418	0.134934
552.388566	0.135528
552.602696	0.135726
552.816807	0.135912
553.030900	0.136699
553.244975	0.136515
553.459032	0.136133
553.673070	0.137500
553.887091	0.135844
554.101093	0.135396
554.315077	0.133781
554.529042	0.134072
554.742990	0.135117
554.956919	0.137014
555.170830	0.137538
555.384722	0.138019
555.598597	0.137002
555.812453	0.137145
556.026291	0.137925
556.240111	0.139224
556.453913	0.139737
556.667696	0.139881
556.881461	0.138207
557.095208	0.138610
557.308937	0.138266
557.522647	0.139090
557.736339	0.140374
557.950013	0.138849
558.163669	0.140167
558.377307	0.141127
558.590926	0.141501
558.804527	0.142072
559.018110	0.142407
559.231675	0.143473
559.445221	0.143481
559.658749	0.143418
559.872259	0.144570
560.085751	0.143342
560.299225	0.141908
560.512680	0.141852
560.726117	0.141709
560.939536	0.142187
561.152937	0.142249
561.366319	0.142221
561.579683	0.142627
561.793029	0.142772
562.006357	0.143307
562.219667	0.145090
562.432958	0.144504
562.646231	0.144940
562.859486	0.143146
563.072723	0.142836
563.285941	0.142680
563.499141	0.142939
563.712323	0.143107
563.925487	0.144074
564.138632	0.143172
564.351760	0.143139
564.564869	0.144507
564.777960	0.145906
564.991032	0.145846
565.204087	0.146088
565.417123	0.146152
565.630141	0.145907
565.843140	0.145679
566.056122	0.146614
566.269085	0.147979
566.482030	0.146956
566.694957	0.146825
566.907866	0.148120
567.120756	0.149100
567.333628	0.148638
567.546482	0.149912
567.759318	0.149983
567.972135	0.150564
568.184935	0.150293
568.397716	0.150839
568.610478	0.150480
568.823223	0.149511
569.035949	0.149408
569.248657	0.148943
569.461347	0.148814
569.674019	0.148680
569.886672	0.147863
570.099308	0.148458
570.311925	0.148346
570.524523	0.149484
570.737104	0.149921
570.949666	0.149698
571.162210	0.150955
571.374736	0.149581
571.587244	0.149640
571.799733	0.149683
572.012205	0.149038
572.224658	0.149747
572.437092	0.150322
572.649509	0.150801
572.861907	0.151400
573.074287	0.152160
573.286649	0.154130
573.498993	0.154829
573.711318	0.155080
573.923625	0.156004
574.135914	0.156107
574.348185	0.155656
574.560438	0.156579
574.772672	0.156708
574.984888	0.156889
575.197086	0.156854
575.409266	0.156716
575.621427	0.156915
575.833570	0.157415
576.045695	0.157421
576.257802	0.158132
576.469890	0.158645
576.681961	0.158968
576.894013	0.158448
577.106046	0.158279
577.318062	0.158924
577.530059	0.159251
577.742039	0.158589
577.954000	0.159073
578.165942	0.159553
578.377867	0.159576
578.589773	0.160476
578.801661	0.160543
579.013531	0.160904
579.225382	0.161032
579.437216	0.161661
579.649031	0.162615
579.860828	0.161460
580.072606	0.161125
580.284367	0.160275
580.496109	0.160467
580.707833	0.160936
580.919539	0.161080
581.131227	0.161485
581.342896	0.161087
581.554547	0.161274
581.766180	0.162576
581.977795	0.161768
582.189391	0.161327
582.400969	0.161287
582.612529	0.160141
582.824071	0.159416
583.035595	0.159063
583.247100	0.159571
583.458587	0.160387
583.670056	0.160104
583.881506	0.160643
584.092939	0.160720
584.304353	0.159691
584.515749	0.160681
584.727127	0.160842
584.938486	0.161269
585.149828	0.161167
585.361151	0.159759
585.572456	0.159707
585.783742	0.159712
585.995011	0.160354
586.206261	0.160986
586.417493	0.160972
586.628706	0.162030
586.839902	0.161862
587.051079	0.161515
587.262238	0.161699
587.473379	0.161769
587.684502	0.161892
587.895606	0.162033
588.106692	0.161923
588.317760	0.162939
588.528810	0.163013
588.739841	0.163208
588.950855	0.163543
589.161850	0.163968
589.372827	0.164751
589.583785	0.165441
589.794726	0.165297
590.005648	0.165953
590.216552	0.166724
590.427437	0.166315
590.638305	0.167520
590.849154	0.168436
591.059985	0.168449
591.270798	0.167343
591.481592	0.167083
591.692369	0.168662
591.903127	0.169407
592.113867	0.167550
592.324588	0.168717
592.535292	0.167716
592.745977	0.167831
592.956644	0.168882
593.167293	0.170749
593.377923	0.171379
593.588536	0.170958
593.799130	0.170965
594.009706	0.171960
594.220263	0.171682
594.430803	0.172864
594.641324	0.172672
594.851827	0.172157
595.062312	0.171304
595.272778	0.171651
595.483227	0.171843
595.693657	0.171622
595.904069	0.171524
596.114462	0.172000
596.324838	0.171261
596.535195	0.171616
596.745534	0.172328
596.955855	0.173173
597.166157	0.173418
597.376441	0.173707
597.586707	0.173810
597.796955	0.174682
598.007185	0.174737
598.217396	0.175378
598.427589	0.175265
598.637764	0.174835
598.847921	0.174901
599.058060	0.175060
599.268180	0.174445
599.478282	0.174041
599.688366	0.173385
599.898431	0.173320
600.108479	0.172856
600.318508	0.172874
600.528519	0.173774
600.738511	0.174439
600.948486	0.174973
601.158442	0.175834
601.368380	0.177067
601.578300	0.178138
601.788202	0.178312
601.998085	0.178523
602.207950	0.178624
602.417797	0.179503
602.627626	0.179221
602.837436	0.178289
603.047228	0.177968
603.257002	0.178074
603.466758	0.177108
603.676496	0.177345
603.886215	0.178119
604.095916	0.179133
604.305599	0.178145
604.515264	0.178707
604.724910	0.179898
604.934538	0.180083
605.144148	0.180287
605.353740	0.181584
605.563314	0.181830
605.772869	0.182224
605.982406	0.182478
606.191925	0.183114
606.401425	0.182557
606.610908	0.182506
606.820372	0.183233
607.029818	0.183003
607.239246	0.182989
607.448655	0.183459
607.658047	0.183838
607.867420	0.182934
608.076775	0.183132
608.286111	0.183604
608.495430	0.184371
608.704730	0.185023
608.914012	0.186045
609.123275	0.186179
609.332521	0.185773
609.541748	0.185954
609.750957	0.186419
609.960148	0.185472
610.169321	0.186084
610.378475	0.185463
610.587611	0.185250
610.796729	0.184457
611.005829	0.184990
611.214910	0.185766
611.423974	0.185277
611.633019	0.186105
611.842045	0.186886
612.051054	0.186481
612.260044	0.186811
612.469017	0.187667
612.677970	0.188381
612.886906	0.188021
613.095824	0.188477
613.304723	0.188502
613.513604	0.188574
613.722467	0.189154
613.931311	0.189805
614.140138	0.190410
614.348946	0.189568
614.557736	0.189802
614.766507	0.190220
614.975261	0.189510
615.183996	0.189290
615.392713	0.189343
615.601412	0.188506
615.810092	0.188415
616.018754	0.188005
616.227399	0.187450
616.436024	0.186087
616.644632	0.185843
616.853222	0.186334
617.061793	0.187300
617.270346	0.187666
617.478880	0.188629
617.687397	0.189026
617.895895	0.188971
618.104375	0.189291
618.312837	0.191073
618.521281	0.191940
618.729706	0.191246
618.938113	0.190804
619.146502	0.189889
619.354873	0.190610
619.563226	0.190525
619.771560	0.190921
619.979876	0.192046
620.188174	0.191998
620.396453	0.192538
620.604715	0.193558
620.812958	0.193772
621.021183	0.194524
621.229390	0.193652
621.437578	0.193846
621.645748	0.194027
621.853900	0.193870
622.062034	0.193587
622.270150	0.193237
622.478247	0.193274
622.686326	0.193530
622.894387	0.193397
623.102430	0.194572
623.310454	0.194802
623.518461	0.195894
623.726449	0.196626
623.934418	0.196806
624.142370	0.196865
624.350303	0.197322
624.558218	0.198326
624.766115	0.198926
624.973994	0.198890
625.181855	0.198399
625.389697	0.198130
625.597521	0.197393
625.805327	0.198615
626.013114	0.198858
626.220883	0.199327
626.428634	0.198672
626.636367	0.198732
626.844082	0.198772
627.051778	0.199566
627.259457	0.199286
627.467117	0.199986
627.674758	0.199607
627.882382	0.200130
628.089987	0.200354
628.297574	0.200159
628.505143	0.200988
628.712694	0.201331
628.920226	0.201848
629.127740	0.202631
629.335236	0.202339
629.542714	0.201723
629.750174	0.201645
629.957615	0.202099
630.165038	0.203129
630.372443	0.203174
630.579829	0.202948
630.787198	0.202827
630.994548	0.202942
631.201880	0.203752
631.409194	0.204546
631.616489	0.204894
631.823766	0.205054
632.031025	0.205844
632.238266	0.205438
632.445489	0.205831
632.652693	0.206116
632.859879	0.205817
633.067047	0.206078
633.274197	0.206043
633.481329	0.205853
633.688442	0.205485
633.895537	0.204733
634.102614	0.205063
634.309672	0.205278
634.516713	0.205613
634.723735	0.206355
634.930739	0.206861
635.137724	0.206708
635.344692	0.207436
635.551641	0.206973
635.758572	0.207607
635.965485	0.207666
636.172379	0.207576
636.379256	0.206816
636.586114	0.206864
636.792954	0.206384
636.999775	0.206716
637.206579	0.206546
637.413364	0.207350
637.620131	0.207246
637.826880	0.207632
638.033610	0.208204
638.240323	0.209833
638.447017	0.209879
638.653692	0.210373
638.860350	0.211307
639.066990	0.211490
639.273611	0.211774
639.480214	0.212271
639.686798	0.212749
639.893365	0.212285
640.099913	0.212163
640.306443	0.212638
640.512955	0.212273
640.719449	0.211944
640.925924	0.212406
641.132381	0.212813
641.338820	0.212158
641.545241	0.212479
641.751644	0.213137
641.958028	0.213234
642.164394	0.213307
642.370742	0.213865
642.577071	0.213986
642.783383	0.213808
642.989676	0.213624
643.195951	0.214925
643.402207	0.215951
643.608446	0.216222
643.814666	0.216154
644.020868	0.216364
644.227052	0.216337
644.433218	0.216641
644.639365	0.216332
644.845494	0.216261
645.051605	0.216056
645.257698	0.214911
645.463772	0.215129
645.669828	0.214782
645.875866	0.214666
646.081886	0.215433
646.287888	0.215763
646.493871	0.216984
646.699836	0.217347
646.905783	0.217485
647.111712	0.218391
647.317622	0.219145
647.523514	0.220060
647.729388	0.220780
647.935244	0.221038
648.141082	0.221044
648.346901	0.221076
648.552702	0.221210
648.758485	0.221570
648.964250	0.221416
649.169996	0.220748
649.375724	0.220652
649.581434	0.220547
649.787126	0.220068
649.992800	0.220876
650.198455	0.221252
650.404092	0.221527
650.609711	0.221668
650.815311	0.221989
651.020894	0.222697
651.226458	0.223219
651.432004	0.223747
651.637532	0.224155
651.843041	0.224267
652.048532	0.224673
652.254006	0.225751
652.459460	0.226076
652.664897	0.226175
652.870315	0.225879
653.075716	0.225705
653.281097	0.225860
653.486461	0.226151
653.691807	0.226202
653.897134	0.225836
654.102443	0.225602
654.307734	0.225628
654.513006	0.226120
654.718261	0.226772
654.923497	0.227622
655.128715	0.227459
655.333915	0.227834
655.539096	0.227977
655.744259	0.228271
655.949404	0.228323
656.154531	0.229126
656.359640	0.229800
656.564730	0.230297
656.769802	0.230642
656.974856	0.230811
657.179892	0.231516
657.384909	0.231767
657.589908	0.232212
657.794889	0.232715
657.999852	0.232492
658.204797	0.231945
658.409723	0.232314
658.614631	0.232481
658.819521	0.233528
659.024393	0.233015
659.229246	0.233564
659.434081	0.233419
659.638898	0.233797
659.843697	0.234479
660.048478	0.235157
660.253240	0.235050
660.457984	0.235091
660.662710	0.235181
660.867417	0.235953
661.072107	0.236722
661.276778	0.237540
661.481431	0.237870
661.686066	0.238536
661.890682	0.238460
662.095281	0.239100
662.299861	0.239346
662.504422	0.239282
662.708966	0.239737
662.913491	0.239944
663.117999	0.240239
663.322488	0.240273
663.526958	0.240467
663.731411	0.241749
663.935845	0.241862
664.140261	0.242403
664.344659	0.242708
664.549038	0.243391
664.753400	0.243447
664.957743	0.243712
665.162068	0.243898
665.366375	0.244216
665.570663	0.244485
665.774933	0.244799
665.979185	0.244761
666.183419	0.245283
666.387635	0.244833
666.591832	0.245490
666.796011	0.245819
667.000172	0.246422
667.204315	0.245942
667.408439	0.245827
667.612545	0.246270
667.816634	0.247302
668.020703	0.247559
668.224755	0.248649
668.428788	0.248554
668.632803	0.248495
668.836800	0.248778
669.040779	0.249137
669.244739	0.248943
669.448681	0.248850
669.652605	0.248583
669.856511	0.248041
670.060399	0.247507
670.264268	0.247691
670.468119	0.247207
670.671952	0.247085
670.875767	0.247386
671.079563	0.247839
671.283341	0.248175
671.487101	0.248541
671.690843	0.249960
671.894567	0.249941
672.098272	0.250521
672.301959	0.252035
672.505628	0.251670
672.709278	0.252023
672.912911	0.252226
673.116525	0.252587
673.320121	0.252470
673.523699	0.252353
673.727258	0.253255
673.930799	0.252803
674.134322	0.253183
674.337827	0.254143
674.541314	0.254387
674.744782	0.254398
674.948232	0.254445
675.151664	0.254974
675.355078	0.254944
675.558474	0.254918
675.761851	0.255405
675.965210	0.255478
676.168551	0.255819
676.371873	0.255818
676.575178	0.256251
676.778464	0.256103
676.981732	0.255973
677.184981	0.256498
677.388213	0.256741
677.591426	0.256939
677.794621	0.256730
677.997798	0.257320
678.200956	0.257854
678.404097	0.258173
678.607219	0.258616
678.810323	0.259636
679.013408	0.259983
679.216476	0.260681
679.419525	0.260745
679.622556	0.261002
679.825569	0.260718
680.028563	0.260851
680.231540	0.260950
680.434498	0.261696
680.637438	0.261586
680.840359	0.261871
681.043263	0.262008
681.246148	0.262637
681.449015	0.263029
681.651864	0.263802
681.854694	0.264455
682.057506	0.264551
682.260301	0.264669
682.463076	0.264968
682.665834	0.264751
682.868573	0.264920
683.071295	0.265772
683.273998	0.265967
683.476682	0.266389
683.679349	0.266496
683.881997	0.266935
684.084627	0.267567
684.287239	0.267902
684.489833	0.269065
684.692408	0.269215
684.894965	0.269405
685.097504	0.270019
685.300025	0.269536
685.502527	0.270352
685.705012	0.271043
685.907478	0.271069
686.109925	0.271446
686.312355	0.271348
686.514766	0.271407
686.717159	0.271273
686.919534	0.272135
687.121891	0.273191
687.324230	0.273237
687.526550	0.273375
687.728852	0.273639
687.931136	0.273751
688.133401	0.273660
688.335649	0.273993
688.537878	0.274198
688.740089	0.273642
688.942281	0.272838
689.144456	0.272844
689.346612	0.272948
689.548750	0.272936
689.750870	0.272459
689.952971	0.272407
690.155055	0.272818
690.357120	0.272805
690.559167	0.272864
690.761195	0.273585
690.963206	0.273679
691.165198	0.273755
691.367172	0.274053
691.569128	0.274549
691.771065	0.275626
691.972984	0.275157
692.174885	0.275456
692.376768	0.276119
692.578633	0.276574
692.780479	0.276589
692.982308	0.277168
693.184118	0.277411
693.385909	0.277072
693.587683	0.276464
