sample name	sample
index	984
start time	 04-14-2021  03:25:33 PM
880	0.563785
Peak Time (s)	100.535
Peak Height 	0.5638
calc peak height	100,103
Baseline Time (s)	10.035
Baseline Value 	-0.003658
subtract baseline	10,4
Abs	0.386657
Peak Time (s)	102.037
Peak Height 	0.3867
calc peak height	100,103
Baseline Time (s)	9.538
Baseline Value 	0.002476
subtract baseline	10,3
PK_550	0.213424
Peak Time (s)	101.535
Peak Height 	0.2134
calc peak height	100,103
Baseline Time (s)	9.538
Baseline Value 	8.7065E-5
subtract baseline	10,2
PK_880	0.365391
Peak Time (s)	101.535
Peak Height 	0.3654
calc peak height	100,103
Baseline Time (s)	9.538
Baseline Value 	4.4033E-4
subtract baseline	10,1


Time (s)	A880-A510	A880-A775	A880-A975	A880	I510	I775	I975	I880	
0.035500	0.002116	0.000814	0.000987	0.002345	6319.409988	42075.022077	3959.508529	22100.053709
0.535500	-0.000589	0.000173	-0.002000	0.003728	6287.392965	41893.004394	3948.715513	22039.032238
1.036000	-0.000699	0.000321	-0.003510	0.004068	6283.879975	41875.776719	3944.176156	22024.022847
1.536500	-0.000600	0.000451	-0.001110	0.000951	6309.026011	42168.152733	3957.765979	22161.815856
2.036500	0.000356	0.000329	-0.000487	0.000877	6317.121537	42163.730228	3959.494551	22165.081288
2.540000	-0.000116	-0.000090	-0.005988	0.000309	6317.879265	42177.229959	3947.317066	22190.307026
3.040000	-0.000831	-0.000814	-0.004581	-0.000691	6320.116875	42202.130101	3953.239550	22234.752087
3.535000	-0.000414	0.000120	-0.002116	0.000574	6313.448512	42172.278257	3956.206153	22178.520503
4.035500	0.000414	0.000092	-0.006119	0.000408	6321.268685	42184.813271	3946.754176	22185.919100
4.535500	-0.000409	-0.000320	-0.001358	0.000091	6317.284436	42176.168141	3959.283958	22199.992116
5.035000	-0.000094	0.000097	0.003104	0.001404	6309.449294	42095.335688	3967.127498	22141.737217
5.536000	-0.002674	-0.000979	-0.001426	-0.000689	6305.622461	42187.111701	3961.051227	22234.674084
6.036500	-0.000129	0.000047	-0.003617	0.000222	6318.458134	42197.546407	3953.368773	22194.181108
6.536500	0.000508	0.000188	-0.001553	-0.000117	6326.144410	42240.985855	3959.316045	22209.248675
7.036500	-0.000204	-0.000363	0.000088	-0.000548	6323.927798	42230.035886	3964.468711	22228.391627
7.537500	-0.000702	-0.000682	-0.006164	-0.000413	6318.939373	42188.978053	3948.658328	22222.373334
8.037500	-0.000823	0.000178	0.000049	0.000315	6312.274271	42200.970303	3962.223295	22190.036807
8.535000	0.000049	0.000910	-0.000795	0.000332	6318.985767	42265.559500	3960.080371	22189.253599
9.038000	-0.000139	0.000113	-0.006213	-0.000355	6322.916407	42255.666716	3948.395526	22219.805440
9.538000	0.000000	0.000000	0.000000	-0.000511	6325.246559	42259.581228	3964.158037	22226.761046
10.035000	0.001085	-0.000113	0.002132	0.000000	6329.775585	42203.075097	3968.207679	22204.027849
10.536000	-0.001435	0.000160	0.001114	0.000256	6307.932108	42204.613358	3965.022202	22192.648831
11.036000	0.002515	-0.000215	0.000754	0.000205	6339.452724	42175.285072	3964.252403	22194.904698
11.536500	-0.000304	-0.000120	-0.000104	-0.000030	6319.058743	42205.132320	3962.699790	22205.346586
12.036500	0.000165	0.000225	-0.000770	-0.000293	6324.828860	42260.198664	3961.697965	22217.044520
12.534500	-0.000178	0.000283	-0.000358	-0.000623	6324.723274	42295.306735	3963.544727	22231.723385
13.034500	0.000357	0.000239	0.001548	0.001504	6312.201344	42099.081430	3962.993181	22137.288113
13.538000	0.000094	0.000373	0.001306	-0.000353	6324.741407	42279.083126	3967.023665	22219.721694
14.041000	0.000798	0.000081	-0.002603	0.001241	6317.725852	42108.454556	3953.354348	22148.921585
14.539000	-0.002323	0.000419	-0.003006	0.001541	6290.927102	42111.900223	3951.621645	22135.646610
15.035500	-0.003000	-0.000241	-0.003126	0.002342	6279.407966	41980.324797	3949.352938	22100.179509
15.536500	0.002728	0.000474	-0.000401	0.000002	6342.752814	42256.081544	3961.881895	22203.953100
16.039500	-0.000819	-0.000197	-0.004345	-0.001352	6325.420674	42317.960798	3955.457457	22264.228512
16.536500	-0.001784	-0.000446	-0.002444	-0.001058	6315.505288	42268.729646	3959.439932	22251.127888
17.034500	-0.001209	0.000238	-0.000559	0.000624	6306.820072	42178.404186	3959.942419	22176.325066
17.537000	-0.000378	0.000710	-0.003023	0.000341	6315.560328	42246.762050	3954.541220	22188.880691
18.035000	-0.000666	0.001094	0.001118	0.000845	6309.337038	42235.831363	3963.565091	22166.490293
18.538000	0.001249	0.000604	0.005341	0.000643	6325.996728	42209.798979	3974.645492	22175.455918
19.035500	-0.000013	0.001217	-0.000265	0.000966	6313.514078	42236.032230	3959.822663	22161.121023
19.535500	-0.000344	0.001236	-0.002703	0.001416	6307.385502	42197.040135	3952.674852	22141.174499
20.035500	-0.000258	0.000142	0.008460	0.000472	6315.472184	42183.486351	3982.960103	22183.047694
20.536500	0.000689	0.000462	-0.006846	0.000380	6323.652395	42220.689439	3945.038979	22187.129428
21.036500	0.000100	0.000042	-0.001749	0.000257	6319.981298	42193.875922	3957.901675	22192.607528
21.536500	-0.001030	0.000064	-0.002551	0.000013	6313.016238	42217.917696	3956.517877	22203.438812
22.037000	0.001346	0.000127	0.004040	0.000375	6328.875165	42190.870938	3972.050413	22187.363422
22.535000	-0.000170	0.000799	0.000787	0.000527	6315.730392	42237.940441	3963.530302	22180.603163
23.038000	0.000962	0.000322	-0.002628	0.000540	6324.542538	42193.585075	3955.025891	22180.042851
23.535500	-0.002212	-0.000021	-0.001834	0.000300	6301.492359	42184.268199	3957.583789	22190.703305
24.035500	0.001345	0.000545	-0.001799	0.000900	6324.723077	42181.253273	3956.183844	22164.060503
24.535500	0.001513	0.000384	-0.000444	0.000220	6331.419651	42228.176180	3961.233125	22194.270873
25.036000	0.000609	0.000679	0.000192	0.000886	6319.035077	42194.616076	3961.156644	22164.681847
25.536500	0.000498	0.000006	-0.004673	0.000127	6324.142280	42202.435230	3950.999470	22198.404008
26.036500	0.001351	0.000050	0.000022	0.000128	6330.864053	42206.282835	3962.621725	22198.353562
26.537000	0.002391	0.000371	-0.002434	0.000854	6333.347865	42169.689439	3954.729126	22166.122015
27.034500	0.000696	0.000091	0.001838	-0.001277	6336.789609	42337.218046	3970.667820	22260.857857
27.537500	0.002280	0.000451	0.001099	-0.001615	6352.026088	42400.629721	3969.663000	22275.947412
28.035500	0.001371	0.000487	0.003661	-0.000115	6332.940493	42267.831305	3972.327124	22209.132231
28.535500	0.000755	0.000985	-0.001625	0.000371	6324.242233	42268.841103	3957.925568	22187.531694
29.036000	0.001393	0.000363	0.000067	0.000121	6331.249834	42235.201512	3962.748091	22198.635749
29.536000	0.000865	0.000726	0.004002	-0.000224	6329.805526	42299.295515	3973.458843	22213.971420
30.036000	0.001062	0.000657	0.001438	-0.000165	6330.898540	42287.756473	3966.882718	22211.362741
30.536500	-0.000413	0.001014	-0.000725	0.001882	6303.188897	42134.820743	3956.410515	22120.534585
31.036500	-0.002040	-0.000074	0.001560	0.001126	6296.373989	42104.921914	3963.964193	22154.027892
31.537500	-0.000460	0.001151	0.003749	0.000045	6317.243082	42313.448039	3972.145897	22202.007848
32.035000	0.002899	0.000550	0.000435	-0.000265	6346.231317	42287.176739	3964.629419	22215.828754
32.540500	0.003479	0.000703	-0.000620	0.000561	6344.273013	42226.144666	3959.948805	22179.110380
33.035000	0.000404	0.000364	-0.002554	-0.000837	6331.007980	42322.064642	3958.616408	22241.259968
33.535500	0.000663	0.000531	-0.002984	0.001419	6315.275884	42133.064548	3951.976644	22141.064646
34.035500	0.003356	0.000654	-0.002421	0.000840	6341.088441	42196.471754	3954.793058	22166.703116
34.535500	0.001356	0.000314	-0.001627	0.000807	6325.549729	42168.760959	3956.841100	22168.209975
35.036000	0.001993	0.001085	0.002226	0.001234	6327.203381	42199.834144	3965.357974	22149.267333
35.537000	-0.000153	-0.000307	0.002411	-0.000053	6320.434126	42190.341119	3969.037074	22206.394896
36.036500	0.001515	-0.000016	0.001325	0.000475	6329.419498	42168.885069	3965.001477	22182.913295
36.537000	-0.001091	-0.000261	-0.005119	0.000154	6311.422964	42175.723576	3949.832204	22197.161465
37.035000	0.002956	0.000313	0.000281	0.001193	6335.134475	42133.856558	3960.616063	22151.087541
37.535000	0.002525	0.000227	-0.005238	0.000427	6337.780890	42195.193760	3948.869610	22185.055276
38.035500	-0.000953	-0.000506	-0.004854	0.000060	6313.249940	42162.115281	3950.717044	22201.352905
38.535000	0.001627	0.000254	0.000746	0.000514	6330.000986	42189.871633	3963.463668	22181.212715
39.036000	0.000280	0.000202	-0.001362	0.000830	6316.891096	42156.588844	3957.441035	22167.173243
39.536500	0.001713	0.000094	-0.002011	-0.000000	6334.736342	42221.802362	3957.890400	22204.039794
40.036500	0.001025	0.000664	0.000201	0.000446	6325.787532	42233.103108	3962.276348	22184.226013
40.536500	-0.000624	0.001016	-0.001933	0.000275	6314.143393	42280.430169	3957.401512	22191.807897
41.037000	-0.002081	-0.000093	0.003068	-0.000243	6306.778668	42226.923456	3971.161665	22214.847524
41.534500	0.001614	0.000074	0.000463	-0.000052	6334.361183	42224.759390	3964.167126	22206.341410
42.037500	0.001357	-0.000339	0.003290	-0.000701	6337.464726	42246.074228	3972.868755	22235.230425
42.535500	0.002416	0.000167	0.005740	0.000081	6339.655842	42221.077460	3977.068743	22200.430807
43.035500	0.000349	-0.000278	-0.004328	0.000165	6322.666697	42173.269341	3951.752968	22196.684930
43.536000	0.002098	0.000297	0.002320	-0.003717	6367.315781	42578.127577	3978.022403	22369.953648
44.036000	0.001233	0.001101	0.002828	-0.000346	6333.675394	42344.469423	3970.818681	22219.425643
44.538000	0.001830	0.000151	0.000258	-0.000783	6341.856495	42297.843039	3965.479693	22238.852312
45.036500	-0.001771	0.000522	-0.006186	0.005091	6267.602113	41802.093341	3935.164678	21979.030351
45.537000	0.002812	0.001221	0.000183	-0.000293	6345.754426	42350.446798	3964.069386	22217.038417
46.034500	0.000177	-0.000010	-0.000777	-0.001018	6330.638899	42304.589388	3963.484703	22249.328645
46.537500	0.002193	0.000821	-0.003607	0.002833	6316.182134	42031.740742	3946.968005	22078.511921
47.035000	-0.003801	-0.000007	0.000836	0.004022	6260.170193	41850.481542	3954.981118	22026.076179
47.535500	-0.000689	0.000376	-0.001635	0.001414	6304.698671	42119.493900	3955.318387	22141.276835
48.036000	0.002796	0.001229	0.000421	-0.000106	6344.141586	42334.224599	3964.196957	22208.721602
48.536000	-0.001782	-0.000260	-0.003304	0.002223	6289.830185	41989.354287	3949.208756	22105.481339
49.036000	-0.000308	0.000973	0.000438	0.004941	6280.135210	41856.053610	3951.729833	21985.654225
49.536500	0.002747	0.001040	0.001503	-0.002197	6360.373399	42507.237072	3972.136516	22301.932111
50.036500	0.003539	0.000012	0.000556	0.009251	6276.533729	41386.356253	3941.449666	21797.164318
50.537000	0.019685	-0.006412	0.030062	0.297624	4704.586189	22433.019038	3465.482842	12627.410367
51.034500	-0.001129	-0.009399	-0.007769	0.316673	4546.425732	21467.844355	3393.788248	12209.912670
51.535000	-0.019739	-0.018717	-0.053884	-0.025434	6366.365113	42825.718401	3894.311789	23368.394358
52.034500	-0.007276	-0.022949	-0.042877	-0.129696	7434.859697	53160.838992	4202.195621	28922.604688
52.535500	-0.001617	-0.012004	-0.019423	-0.065779	6865.720576	47392.222593	4084.698939	25361.067259
53.036000	0.013284	-0.064128	-0.014707	-0.261260	9336.562655	64783.674760	4789.343258	38130.647487
53.536000	0.026159	-0.011182	0.003535	-0.159367	8143.896726	58190.300544	4455.078051	30762.687860
54.036000	0.033278	0.003894	0.019338	-0.046637	7012.157890	47061.301411	4140.303134	24392.515261
54.536500	0.040228	0.012105	0.032046	0.020417	6480.843360	41468.467927	3992.231698	21317.451128
55.037000	0.056205	0.017442	0.042862	-0.002537	6816.546864	44062.945306	4082.053596	22317.126347
55.537000	0.072213	0.027078	0.057076	0.021678	6743.255947	42704.809732	4054.721039	21264.033530
56.037500	0.086148	0.035838	0.077722	0.060953	6525.493481	40005.650699	4005.456607	19676.077519
56.535000	0.101542	0.044987	0.094358	0.083818	6463.684891	38852.841459	3989.451795	18815.658336
57.035500	0.119920	0.054504	0.109160	0.109261	6406.203345	37559.154400	3962.635169	17909.960323
57.536000	0.137161	0.068033	0.130508	0.138694	6309.167665	36313.748901	3942.691984	16926.315913
58.035500	0.153444	0.076132	0.144610	0.166491	6220.005766	34833.162130	3909.749356	16056.629945
58.536000	0.168292	0.084842	0.163451	0.196757	6104.250508	33287.991252	3883.050541	15170.868289
59.036500	0.184595	0.092571	0.185359	0.209265	6132.359569	32955.677615	3904.963859	14822.457313
59.537000	0.198610	0.100511	0.197417	0.280232	5735.245213	28898.800455	3775.137316	13024.919066
60.037000	0.213074	0.108955	0.217931	0.304085	5674.630578	27993.348888	3768.292295	12483.755215
60.534000	0.228275	0.116478	0.224729	0.327879	5620.299414	27071.494450	3734.257006	11972.743766
61.034000	0.241490	0.125170	0.248659	0.333526	5668.094384	27241.391050	3770.924866	11855.517364
61.535500	0.255159	0.132740	0.258055	0.358470	5597.179915	26287.725270	3739.641611	11355.566169
62.035500	0.263322	0.140061	0.268775	0.389657	5457.976987	25038.444115	3700.135923	10769.572801
62.535500	0.280083	0.146249	0.281720	0.412690	5421.318583	24197.141171	3681.339330	10363.025652
63.035500	0.291163	0.152790	0.297913	0.434265	5361.145858	23473.264975	3671.487046	10001.266790
63.536500	0.296574	0.157632	0.308235	0.455312	5274.159511	22720.665861	3652.215921	9665.272251
64.037000	0.302628	0.162650	0.312430	0.462750	5266.608565	22610.643989	3646.481722	9550.368736
64.537000	0.309639	0.169102	0.323028	0.471132	5259.153225	22523.378372	3650.395978	9423.232210
65.037000	0.321799	0.168144	0.327509	0.477541	5290.583276	22193.652108	3646.988495	9327.645420
65.537500	0.328710	0.173585	0.331457	0.488230	5269.890621	21962.233496	3635.199662	9171.353035
66.035000	0.334933	0.167732	0.352363	0.574770	4869.947335	18313.752085	3529.475805	8038.096755
66.535000	0.332197	0.172978	0.344084	0.586363	4806.051880	18090.474053	3500.492671	7902.725296
67.036000	0.335199	0.175375	0.353038	0.602302	4750.146019	17624.881273	3490.615358	7722.409442
67.536000	0.335790	0.169750	0.343497	0.616936	4691.316906	16954.820308	3457.631934	7562.577679
68.036500	0.339715	0.173855	0.361378	0.633131	4641.450290	16569.642095	3459.875163	7391.872312
68.535500	0.336094	0.174158	0.359893	0.647792	4569.711145	16125.839608	3438.763284	7242.717821
69.047500	0.341973	0.175231	0.362638	0.655657	4562.099278	15920.998067	3432.232913	7164.762550
69.537000	0.346329	0.179509	0.363485	0.668294	4530.727777	15673.214964	3417.481384	7042.420425
70.040500	0.344454	0.179929	0.373221	0.675004	4498.832991	15489.916357	3421.228925	6978.893268
70.535000	0.348865	0.183221	0.370196	0.685816	4475.458939	15274.194226	3404.302608	6878.573200
71.035000	0.348121	0.183486	0.366008	0.680433	4492.365227	15435.860067	3405.742523	6928.202838
71.535500	0.352707	0.187055	0.377942	0.676415	4524.202304	15656.349474	3425.359111	6965.655716
72.036000	0.353700	0.190222	0.384315	0.673297	4539.637257	15841.949807	3437.376870	6994.960684
72.536000	0.355365	0.190294	0.374558	0.672628	4548.465757	15863.995882	3425.863853	7001.271812
73.036000	0.357500	0.193642	0.379072	0.662593	4595.279030	16268.983520	3444.410175	7097.170989
73.537000	0.358674	0.195077	0.381109	0.657477	4619.994324	16471.819841	3453.759300	7146.919384
74.037000	0.357694	0.197068	0.383661	0.652533	4635.755126	16689.905038	3463.723680	7195.558705
74.537000	0.357927	0.194945	0.378941	0.652278	4637.706167	16630.822155	3457.768749	7198.086562
75.037500	0.362627	0.198475	0.380905	0.644049	4690.179919	17006.998893	3471.453919	7280.318785
75.535000	0.365074	0.200262	0.377880	0.641664	4710.196864	17142.954435	3470.585312	7304.450066
76.035000	0.362385	0.198800	0.381636	0.637132	4717.886302	17243.808974	3481.936193	7350.661582
76.535000	0.363824	0.201339	0.387476	0.636244	4727.650449	17357.292187	3491.312740	7359.780464
77.036000	0.362947	0.201329	0.383776	0.633015	4737.564058	17464.632075	3490.650439	7393.063416
77.536000	0.364190	0.200267	0.385043	0.630027	4755.547252	17529.280013	3496.649249	7424.098681
78.036500	0.361938	0.201670	0.383929	0.628999	4750.322555	17611.263768	3496.525740	7434.815929
78.536500	0.359032	0.203329	0.379720	0.635314	4711.476345	17454.624228	3481.800583	7369.337861
79.037000	0.359927	0.202713	0.383042	0.628376	4744.429016	17667.732381	3496.154285	7441.336595
79.540000	0.363626	0.203537	0.387547	0.625214	4773.777785	17803.686257	3507.102380	7474.530538
80.035000	0.366186	0.204104	0.380847	0.624347	4788.612969	17852.884028	3498.755371	7483.671470
80.534000	0.364885	0.205938	0.382999	0.624398	4782.745024	17914.271603	3501.747072	7483.128244
81.036000	0.365630	0.206514	0.395082	0.621943	4796.659185	18019.275800	3522.863686	7509.121695
81.535500	0.365813	0.205984	0.391637	0.619997	4805.973320	18068.570435	3520.653662	7529.819845
82.035500	0.366889	0.206723	0.391456	0.619214	4814.143996	18121.739134	3521.540756	7538.181418
82.536000	0.364778	0.205547	0.389720	0.620478	4799.340087	18036.622842	3517.135356	7524.700906
83.036500	0.369835	0.207436	0.388223	0.615747	4842.605191	18268.739183	3521.886288	7575.369468
83.536500	0.363005	0.205245	0.383989	0.611528	4830.964560	18340.554250	3521.863824	7621.018082
84.040000	0.367091	0.205743	0.384731	0.610313	4854.665004	18401.468456	3524.754997	7634.244895
84.537500	0.366210	0.206300	0.388014	0.612081	4842.783852	18358.357795	3527.003047	7615.004455
85.035000	0.365066	0.206927	0.394282	0.608119	4855.426042	18522.338618	3542.391244	7658.231520
85.535000	0.362988	0.206396	0.382978	0.603852	4865.301161	18657.104296	3531.767353	7705.221463
86.035500	0.364549	0.208452	0.382982	0.603057	4875.982577	18760.723454	3532.964812	7714.027836
86.535500	0.361134	0.208861	0.382798	0.605559	4849.262783	18684.597963	3528.949201	7686.373330
87.036000	0.360845	0.207086	0.377001	0.596823	4887.521476	18939.229296	3533.344083	7783.645448
87.536000	0.362819	0.209713	0.391125	0.596653	4897.353264	19042.725242	3555.157699	7785.561012
88.036500	0.361858	0.207141	0.385264	0.592179	4913.566351	19113.475195	3553.009885	7836.164509
88.537000	0.357527	0.207323	0.377644	0.594008	4885.222155	19052.187798	3538.556258	7815.417088
89.037500	0.360404	0.208664	0.382232	0.587505	4928.540571	19346.147191	3555.553874	7889.591074
89.537500	0.359245	0.208508	0.380004	0.584546	4936.957745	19452.472265	3556.688451	7923.704221
90.035500	0.362751	0.210291	0.383221	0.584043	4955.839877	19539.686594	3562.496721	7929.527198
90.535000	0.358206	0.207471	0.377177	0.585560	4927.358276	19374.584188	3550.744261	7911.990102
91.036000	0.360196	0.209309	0.375149	0.579157	4966.899465	19689.738814	3557.519790	7986.448559
91.535500	0.366231	0.210830	0.380553	0.578335	4999.771106	19780.428070	3567.281391	7996.082692
92.036000	0.360915	0.209154	0.375852	0.576279	4984.077894	19795.198067	3563.117466	8020.274318
92.536500	0.358618	0.208274	0.373839	0.578031	4964.750444	19693.263217	3557.234437	7999.661686
93.037000	0.366135	0.211091	0.380642	0.574872	5016.101735	19925.578502	3572.912652	8036.889650
93.536000	0.363876	0.211037	0.378985	0.573058	5013.941944	19994.662019	3573.163750	8058.403798
94.037500	0.364392	0.211932	0.380250	0.573106	5016.218142	20027.995199	3575.105928	8057.836085
94.535000	0.363320	0.209311	0.380386	0.573251	5010.297972	19919.372831	3575.090298	8056.104734
95.035000	0.361275	0.210488	0.383258	0.570804	5012.249457	20061.804713	3583.637898	8085.248952
95.535000	0.367853	0.212704	0.391411	0.570098	5047.959119	20177.479934	3598.109790	8093.688795
96.035500	0.367071	0.212999	0.389788	0.569070	5049.173332	20230.132710	3597.128863	8106.004286
96.536000	0.361952	0.210822	0.386728	0.569330	5022.734524	20133.302803	3591.677916	8102.887239
97.039000	0.363472	0.212206	0.379637	0.567352	5039.889781	20267.017228	3583.365181	8126.635745
97.536500	0.366192	0.212852	0.381586	0.566602	5057.045383	20322.876058	3587.742022	8135.677861
98.036500	0.364583	0.213139	0.385204	0.566944	5047.386080	20320.677569	3593.089807	8131.556816
