sample name	sample
index	85
start time	 02-15-2021  10:16:51 AM
880	-0.000346
Peak Time (s)	91.535
Peak Height 	-3.4553E-4
calc peak height	90,93
Baseline Time (s)	8.537
Baseline Value 	-0.003484
subtract baseline	10,4
Abs	0.000058
Peak Time (s)	90.535
Peak Height 	5.7571E-5
calc peak height	90,93
Baseline Time (s)	10.536
Baseline Value 	0.001839
subtract baseline	10,3
PK_550	-0.000832
Peak Time (s)	90.535
Peak Height 	-8.3235E-4
calc peak height	90,93
Baseline Time (s)	8.537
Baseline Value 	4.3955E-5
subtract baseline	10,2
PK_880	-0.002709
Peak Time (s)	92.036
Peak Height 	-0.002709
calc peak height	90,93
Baseline Time (s)	11.537
Baseline Value 	2.347E-4
subtract baseline	10,1


Time (s)	A880-A510	A880-A775	A880-A975	A880	I510	I775	I975	I880	
0.035500	0.001281	-0.001391	-0.001323	-0.000942	4233.679865	16397.384900	3132.532146	9172.382244
0.536000	-0.000662	-0.001569	-0.020057	0.004875	4209.383851	16212.451772	3114.898911	9088.170745
1.039000	-0.004214	-0.001158	-0.003215	0.002953	4204.334159	16284.114329	3128.285199	9115.869648
1.536500	0.002572	0.001844	0.003544	0.001049	4231.470418	16436.058701	3134.663658	9143.424888
2.036500	-0.000932	-0.000812	0.006520	-0.001797	4229.395609	16441.987223	3139.022546	9184.852320
2.537000	-0.000016	0.000600	-0.007797	0.004054	4213.944746	16304.379838	3124.170041	9099.990927
3.037000	-0.002035	0.000248	0.001318	-0.001857	4226.116913	16476.961296	3135.170122	9185.734405
3.537500	0.001517	0.000992	-0.012665	0.001421	4226.976126	16398.005010	3122.566182	9138.033354
4.034500	0.000211	-0.000198	-0.004107	0.000223	4226.636295	16398.234790	3129.627977	9155.424020
4.538000	0.002150	0.000005	0.005715	0.000840	4230.799056	16385.398089	3136.438966	9146.468775
5.035000	-0.002856	-0.000690	-0.009550	-0.000294	4218.643984	16398.990655	3126.041970	9162.934822
5.536000	-0.002626	0.000883	0.003406	0.000088	4218.171392	16436.080161	3135.276589	9157.389458
6.036000	-0.002412	-0.002990	-0.001602	-0.001690	4224.405701	16370.943255	3132.878125	9183.282772
6.536500	0.000654	0.000476	0.007202	0.000505	4227.143819	16410.424758	3137.803897	9151.330769
7.036500	0.000746	-0.000036	0.001490	0.000839	4226.379568	16384.129800	3133.294888	9146.469317
7.537000	0.002623	0.000469	0.001395	0.000753	4232.563234	16402.497260	3133.288725	9147.720582
8.040000	-0.001151	0.000782	0.008565	0.000679	4220.936140	16414.549239	3138.697981	9148.802522
8.537000	-0.000788	0.000000	-0.001931	0.000000	4224.199223	16411.325992	3131.389307	9158.665087
9.037500	0.004885	0.000121	0.008445	0.000712	4239.852759	16392.950933	3138.582425	9148.318915
9.538000	-0.000111	0.000406	0.007065	0.000110	4225.978915	16420.532106	3137.996692	9157.058420
10.035500	0.000587	0.000702	-0.006056	0.000516	4226.895442	16417.099733	3127.990534	9151.160541
10.536000	-0.004198	-0.001012	0.000000	-0.000081	4213.793902	16382.392501	3132.873168	9159.837029
11.036000	0.000773	-0.000727	0.005238	-0.000255	4229.909852	16396.633229	3136.900501	9162.369064
11.536500	0.000000	-0.000304	-0.006660	-0.000124	4227.063184	16405.705620	3128.016682	9160.462734
12.038500	0.002037	-0.001329	-0.002106	-0.000636	4235.103915	16389.823304	3131.729055	9167.926610
12.537000	0.001127	-0.000560	-0.007097	0.000253	4229.425451	16386.089995	3127.425234	9154.990317
13.037000	0.001409	-0.000141	0.006760	-0.002058	4237.616187	16471.061815	3139.399941	9188.666874
13.535500	0.000807	-0.000834	0.001680	0.002646	4220.908422	16303.560801	3132.100579	9120.309129
14.040500	0.002570	0.000875	0.008594	-0.001555	4239.701224	16487.103086	3140.405965	9181.324223
14.535000	0.000079	-0.000023	0.006801	0.002025	4220.571506	16347.797258	3136.364585	9129.290029
15.036000	0.002589	0.000236	-0.006044	0.000477	4233.328768	16403.816196	3128.028094	9151.725818
15.536000	-0.006394	-0.000440	-0.005024	0.004152	4193.927554	16269.302291	3126.100117	9098.569556
16.039500	0.002940	-0.000432	0.007032	-0.001532	4240.804613	16445.582616	3139.208575	9180.986930
16.536500	-0.000150	-0.000840	0.004244	-0.002270	4233.351348	16455.839416	3137.665654	9191.754952
17.037000	-0.000922	-0.001666	0.001493	-0.002327	4231.097087	16431.875938	3135.649921	9192.589838
17.537000	-0.002965	-0.000871	-0.004805	0.002447	4209.769386	16308.557034	3127.495862	9123.175059
18.034500	0.001408	-0.001573	-0.011435	-0.002154	4237.916343	16429.400426	3126.024308	9190.070404
18.538000	0.005450	-0.000494	-0.007961	0.000780	4241.431557	16371.761706	3126.415302	9147.330857
19.035000	-0.000143	-0.000389	-0.000903	0.000632	4224.240331	16379.622499	3131.681114	9149.484600
19.535500	-0.000835	-0.000996	-0.010985	0.000138	4223.620156	16376.125250	3124.694166	9156.664906
20.035500	0.000021	0.001704	-0.001263	0.002093	4220.177770	16399.228328	3130.341436	9128.296679
20.536000	-0.000452	0.000814	0.003559	0.001709	4219.897427	16383.506193	3134.184238	9133.857112
21.036000	0.004269	0.000029	0.000998	0.001043	4236.851591	16379.832870	3132.780162	9143.516784
21.536000	-0.000688	0.000176	-0.001243	0.001983	4218.303263	16355.254007	3130.437075	9129.887491
22.036500	0.003041	-0.000362	0.004412	0.000996	4233.117597	16369.160033	3135.349541	9144.200367
22.537000	-0.002483	-0.001394	-0.008550	0.000473	4217.413170	16353.401461	3126.211095	9151.785406
23.040000	-0.001284	0.000328	0.002678	0.001702	4217.320479	16368.684615	3133.536294	9133.963237
23.535000	0.000821	0.001140	-0.005454	0.002107	4222.636582	16381.287012	3127.271360	9128.096160
24.035000	0.004304	-0.000424	-0.000273	0.000972	4237.187569	16368.003842	3131.894720	9144.548429
24.536000	0.002306	0.001249	-0.007670	0.002177	4227.078451	16382.493302	3125.615068	9127.082143
25.036000	-0.001343	0.000487	0.003844	0.001338	4218.272926	16384.896065	3134.671318	9139.235288
25.536500	0.000144	0.000494	-0.008914	0.002015	4220.808568	16364.141497	3124.834510	9129.436282
26.036500	0.000009	-0.000352	-0.006912	0.001330	4222.529860	16359.153101	3126.777290	9139.358047
26.537000	0.000837	0.000855	-0.003923	0.001503	4224.581595	16391.179100	3128.826314	9136.842463
27.037500	0.000275	-0.000528	0.000599	0.000929	4224.617614	16366.082338	3132.569035	9145.162946
27.536500	0.002368	-0.000371	0.008832	0.001049	4230.826033	16367.242118	3138.619761	9143.426209
28.037500	0.002076	0.001003	0.008733	-0.001375	4237.564654	16485.481145	3140.374860	9178.697642
28.535500	0.003082	0.000819	0.007187	-0.000608	4238.319417	16455.747130	3138.628850	9167.509122
29.065500	-0.000691	0.001007	0.007777	-0.000552	4226.237569	16459.882652	3139.031119	9166.693965
29.535500	-0.004330	-0.003122	-0.001537	0.003151	4203.363135	16217.694852	3129.365983	9113.011027
30.036500	0.003101	0.000018	0.007631	0.001245	4232.520842	16373.235880	3137.570530	9140.591021
30.536000	0.000342	0.000112	0.012006	-0.001070	4231.120013	16448.116008	3142.628538	9174.243604
31.036500	0.000662	0.001141	0.003143	-0.000625	4230.724696	16466.320301	3135.611380	9167.753557
31.537000	-0.003667	-0.000999	-0.012162	0.001596	4210.231058	16330.859880	3122.800600	9135.495093
32.037500	-0.001380	-0.001731	0.006277	0.001772	4216.805050	16302.849431	3136.161652	9132.953129
32.537000	0.002791	-0.001223	-0.001466	-0.001685	4240.816768	16425.720565	3132.975728	9183.220235
33.043000	0.002675	-0.000561	0.003539	-0.001317	4239.279275	16434.853620	3136.424541	9177.849880
33.535500	-0.002185	-0.000790	0.007321	0.004213	4206.711941	16256.671054	3135.119789	9097.693970
34.035500	-0.000397	-0.000147	-0.001383	0.001761	4219.909482	16352.119603	3130.497323	9133.106241
34.535500	0.005992	-0.000497	-0.002466	-0.001777	4251.312704	16451.179824	3132.304718	9184.557408
35.036000	0.000451	0.000373	0.005881	0.002542	4220.118727	16344.071016	3135.291840	9121.808495
35.536500	-0.002613	-0.000755	0.008162	0.000697	4216.313041	16366.265445	3138.381213	9148.543346
36.063500	-0.002357	-0.000145	0.002569	0.001906	4213.339789	16347.697849	3133.303684	9131.003723
36.534000	0.000679	-0.001145	0.008511	0.000006	4228.788824	16375.575967	3139.163200	9158.572046
37.034500	-0.001725	-0.000175	-0.004797	0.000723	4219.003875	16383.443131	3128.758389	9148.161923
37.537000	-0.001224	-0.000022	0.014583	0.001811	4217.169290	16354.465915	3142.397047	9132.389388
38.035000	-0.003224	-0.001424	0.001817	0.000386	4215.376652	16355.186495	3133.873185	9153.057668
38.538000	-0.002104	0.001530	0.010765	0.002911	4211.004301	16368.471424	3138.673554	9116.480766
39.035500	0.001741	0.000575	0.016977	0.002633	4223.871052	16347.461696	3143.595419	9120.485611
39.535500	0.002150	0.001568	0.000358	0.003548	4222.285683	16349.887257	3130.463223	9107.273959
40.036500	-0.002006	0.001828	-0.008227	0.003397	4209.795967	16362.603950	3124.333004	9109.451945
40.547500	0.002765	0.000339	0.009035	0.002441	4227.693784	16346.141350	3137.726435	9123.270086
41.041000	0.000455	-0.000722	0.000723	0.001434	4223.601183	16344.455046	3132.288193	9137.842886
41.537000	0.000146	-0.001308	0.000213	0.001994	4220.879914	16309.048768	3131.499303	9129.736487
42.040000	0.001094	-0.000702	-0.002308	0.000588	4228.264847	16371.267885	3130.679376	9150.122098
42.535000	0.001990	0.000628	-0.003303	0.001937	4226.841439	16370.695127	3128.962974	9130.560786
43.035000	-0.004632	-0.001926	0.009302	0.000400	4210.950001	16339.190781	3139.462909	9152.849420
43.535500	0.003732	-0.000515	-0.009673	0.001511	4233.674380	16348.496707	3124.650288	9136.730924
44.036000	0.001441	0.000072	0.017296	0.000935	4228.264896	16384.497442	3145.141043	9145.077756
44.536500	0.000146	-0.000022	0.007031	0.001682	4221.854100	16358.436952	3136.792537	9134.250687
45.037500	0.003812	-0.000182	0.008994	-0.002726	4247.379742	16490.652446	3141.597037	9198.430052
45.537500	-0.001589	-0.001231	0.009132	0.003954	4209.363396	16251.090728	3136.664810	9101.428933
46.061000	-0.001805	-0.001285	-0.009712	0.003887	4208.902910	16251.498617	3122.915398	9102.398370
46.538000	0.000087	0.000126	0.005754	-0.001312	4231.079893	16456.101936	3138.080764	9177.771128
47.037500	0.005409	0.000991	0.002585	-0.000191	4244.389888	16448.127068	3134.873046	9161.447515
47.535000	-0.001174	-0.000300	0.007476	0.006146	4203.860530	16212.391842	3133.797978	9069.916285
48.035000	-0.002663	-0.001979	0.004767	0.004159	4205.401036	16221.835775	3133.263714	9098.479555
48.535000	0.002688	0.002410	0.007931	0.004137	4222.126044	16357.720657	3135.630986	9098.784785
49.036000	-0.001633	0.001562	0.013049	0.003497	4210.644409	16351.269585	3139.953966	9108.009402
49.536500	-0.002036	-0.002034	-0.006647	0.004342	4206.774097	16214.510076	3124.790408	9095.833695
50.036500	-0.002127	0.000447	-0.009747	0.004849	4204.925035	16275.170387	3122.201268	9088.547051
50.537000	0.002735	-0.000315	0.002090	-0.001326	4239.496524	16442.792764	3135.348938	9177.975106
51.037000	0.001427	0.000986	0.008593	-0.002066	4237.697365	16506.568839	3140.792517	9188.784670
51.540500	-0.000873	0.001316	0.004781	0.003995	4211.459006	16328.273753	3133.395038	9100.833335
52.035000	-0.002703	-0.001671	-0.001889	0.003668	4206.797813	16246.372597	3128.731638	9105.556867
52.535000	-0.070573	-0.036512	-0.015923	0.182011	3624.732947	11072.406759	3015.279573	6996.513987
53.035000	-0.043474	-0.018354	-0.010691	-0.022780	4163.158094	16549.650258	3141.877364	9498.769269
53.535500	0.013136	-0.005375	0.000196	-0.097888	4624.276110	19617.038737	3214.175334	10755.320957
54.036000	-0.011352	-0.006196	0.003734	-0.096698	4523.083647	19539.839177	3216.356732	10733.670485
54.536500	-0.008557	-0.000911	-0.022494	-0.113227	4598.675713	20396.579121	3207.420840	11039.772036
55.036500	-0.009126	-0.000543	-0.018493	-0.146970	4736.555433	21825.534266	3243.349162	11702.002985
55.537000	-0.016084	-0.004893	-0.014196	-0.114825	4575.125026	20300.862558	3216.541264	11069.988631
56.040000	-0.015490	-0.004174	-0.004862	-0.074272	4424.511513	18776.547982	3188.461887	10336.576990
56.534500	-0.016370	-0.002866	-0.014593	-0.054255	4351.091343	18107.455340	3163.518773	9999.029812
57.035000	-0.012656	-0.005001	-0.007765	-0.042483	4323.715948	17628.497449	3159.536523	9807.678366
57.535500	-0.007069	-0.004045	-0.018233	-0.036800	4323.391779	17469.125278	3146.839112	9717.132398
58.035500	-0.014751	-0.006876	-0.012751	-0.028496	4270.564855	17100.531248	3144.668542	9586.947831
58.535500	-0.010761	-0.004646	-0.006317	-0.034000	4301.703396	17355.539928	3153.948158	9672.962216
59.036500	-0.010610	-0.003122	-0.004570	-0.023525	4267.876146	17060.848035	3147.138890	9510.203758
59.537000	-0.005778	-0.005117	-0.011897	-0.022053	4278.795563	16948.303500	3140.410923	9487.639918
60.039500	-0.009528	-0.001339	-0.000939	-0.013837	4240.285676	16805.547372	3142.492997	9363.123595
60.537000	-0.005769	-0.001932	-0.006525	-0.015288	4256.922984	16833.025585	3139.358163	9384.934999
61.037500	-0.005496	-0.002927	-0.007880	-0.010896	4243.752667	16661.374455	3135.051416	9319.120028
61.535000	-0.000798	-0.000702	-0.002961	-0.016906	4278.250044	16924.645554	3143.290820	9409.354243
62.035500	-0.009264	-0.002119	-0.016427	-0.008978	4225.777032	16626.289310	3127.353108	9290.584643
62.535000	-0.007917	-0.003373	-0.011276	-0.014028	4246.016365	16746.703389	3134.854869	9365.987722
63.036000	-0.009232	-0.003447	-0.002382	-0.021274	4265.052750	16977.129763	3147.090365	9475.735148
63.536500	-0.003331	-0.002876	-0.017162	-0.022732	4289.035168	17043.017426	3136.958804	9498.041318
64.053000	-0.007826	-0.002107	-0.012533	-0.018479	4260.571403	16930.075660	3137.239647	9433.180233
64.537000	-0.004462	-0.001719	-0.014765	-0.021297	4280.627381	17033.991799	3137.679855	9476.088205
65.069000	-0.003923	-0.002214	-0.020107	-0.023681	4290.206247	17095.547374	3135.466749	9512.594085
65.539000	-0.006201	-0.000837	0.002690	-0.022489	4278.839981	17101.584808	3151.979919	9494.310839
66.037500	-0.007594	-0.002303	-0.011330	-0.016711	4255.633177	16866.815507	3136.816429	9406.409439
66.535000	-0.002305	-0.000292	-0.004333	-0.020555	4285.255470	17056.284977	3145.034283	9464.764744
67.035000	-0.004096	-0.001371	-0.005393	-0.021108	4281.201952	17039.150338	3144.645166	9473.196163
67.535500	-0.003767	-0.000698	0.003967	-0.020614	4280.663350	17044.963887	3151.512134	9465.660065
68.035500	-0.000320	-0.000065	-0.011525	-0.017867	4282.953234	16976.323398	3137.537480	9423.905414
68.535500	-0.003943	-0.001046	0.004340	-0.018831	4274.279679	16975.801415	3150.410763	9438.533984
69.036500	-0.002835	-0.000841	0.000067	-0.017888	4274.815662	16951.900725	3146.367438	9424.225682
69.537000	-0.007914	-0.002095	-0.010483	-0.013093	4243.050474	16757.649256	3134.749451	9351.964977
70.037000	-0.004937	-0.001253	-0.004795	-0.016964	4265.001958	16908.749560	3141.938214	9410.229347
70.537000	-0.004273	-0.003082	-0.005248	-0.016733	4266.401897	16842.497095	3141.418755	9406.742402
71.037500	-0.003630	-0.001520	0.001339	-0.015830	4265.562595	16863.648528	3145.761789	9393.104898
71.535500	-0.008973	-0.002074	-0.019901	-0.010046	4230.049974	16661.459435	3125.609129	9306.453496
72.035500	-0.003375	-0.000812	-0.017620	-0.014317	4261.502061	16837.829904	3130.380648	9370.334222
72.535500	-0.004710	-0.001485	0.003084	-0.014007	4256.208390	16806.323123	3145.701609	9365.667935
73.036000	-0.007019	-0.000662	-0.008407	-0.013940	4248.599735	16830.528375	3136.930402	9364.661287
73.539000	-0.006046	-0.001474	-0.008509	-0.008832	4235.456049	16642.045520	3133.051916	9288.406535
74.036500	-0.008012	-0.001212	-0.004538	-0.008479	4228.144389	16639.168803	3135.740758	9283.182311
74.537000	-0.000634	-0.001913	-0.008125	-0.013322	4267.140010	16770.735861	3136.679012	9355.392814
75.040000	0.003877	-0.000557	-0.003261	-0.012354	4278.652624	16783.139734	3139.607005	9340.889891
75.535000	-0.007058	-0.000388	-0.002127	-0.005654	4222.267995	16576.049349	3135.431737	9241.418639
76.035000	-0.007417	-0.001499	-0.013388	-0.006398	4223.476575	16564.516057	3127.686917	9252.394038
76.535000	0.000142	0.000043	-0.001991	-0.010784	4261.450281	16752.192894	3139.380627	9317.443605
77.035500	-0.002335	-0.001087	0.005013	-0.011218	4254.883799	16730.024155	3145.041341	9323.927573
77.535500	-0.002168	-0.002374	-0.001479	-0.011379	4255.936199	16694.257907	3140.217457	9326.330777
78.036500	-0.006183	-0.002657	-0.010475	-0.007441	4230.634871	16560.889938	3130.578022	9267.799410
78.536500	-0.005548	-0.001523	-0.007133	-0.009930	4240.517550	16675.262446	3134.888229	9304.732585
79.036500	-0.006945	-0.001578	0.004633	-0.010422	4237.646623	16689.116159	3144.139752	9312.057487
79.538000	-0.002682	0.000618	-0.004298	-0.008036	4243.604145	16683.096011	3135.589208	9276.606295
80.034500	-0.006439	-0.001197	-0.001605	-0.002705	4214.988895	16458.304051	3133.627579	9198.123982
80.535000	-0.003995	-0.001332	-0.000778	-0.009544	4244.228718	16669.098614	3139.361244	9298.992751
81.035500	-0.002655	-0.000906	-0.010185	-0.008627	4245.573665	16653.535379	3131.664142	9285.374678
81.535500	-0.005083	-0.001594	0.005739	-0.009440	4240.437212	16657.483638	3144.234721	9297.445703
82.036000	-0.002176	-0.000183	-0.007073	-0.001746	4225.325686	16460.010387	3128.898887	9184.108094
82.536000	-0.003332	-0.001390	0.006921	-0.007983	4241.373156	16617.871470	3144.024351	9275.829433
83.036000	-0.004246	-0.001911	0.008952	-0.009816	4244.292504	16659.343014	3146.994036	9303.032036
83.537000	-0.004778	-0.002352	-0.008163	-0.004369	4225.389571	16474.162747	3130.020089	9222.513385
84.036500	-0.005135	-0.002168	-0.011100	-0.003564	4221.744809	16454.791331	3127.289624	9210.702558
84.540000	-0.000759	-0.002415	-0.006152	-0.008807	4252.203934	16611.530500	3134.782588	9288.036783
85.037500	-0.004203	-0.001331	-0.012783	-0.007454	4236.930447	16603.072523	3128.897459	9267.999837
85.535000	-0.003443	-0.000102	-0.014019	-0.006770	4237.172647	16620.256124	3127.498341	9257.886069
86.035500	-0.008944	-0.000667	-0.003081	-0.004657	4213.268492	16535.963685	3133.981528	9226.758091
86.535500	-0.002434	-0.000834	-0.009693	-0.006752	4240.310677	16596.568863	3130.646171	9257.612695
87.036000	-0.003072	-0.000848	-0.009721	-0.006939	4238.884008	16602.037475	3130.763672	9260.383330
87.536000	-0.008734	-0.001548	-0.003174	-0.003644	4210.770450	16476.678469	3133.161981	9211.885810
88.036500	0.000440	-0.001508	-0.013154	-0.005932	4246.846526	16549.561305	3127.517500	9245.513846
88.536500	-0.005526	-0.001607	-0.008697	-0.006528	4229.828229	16565.217008	3131.214242	9254.315797
89.039500	-0.003763	-0.003268	-0.002759	-0.007761	4239.299088	16551.731779	3136.533400	9272.538041
89.537500	-0.007423	-0.003750	-0.010046	-0.002467	4211.187754	16371.510996	3127.258966	9194.648195
90.037500	-0.007403	-0.001083	-0.003144	-0.003920	4215.772068	16499.837980	3133.387601	9215.928975
90.534500	-0.004560	-0.000832	0.000058	-0.004701	4227.120102	16532.154972	3136.351434	9227.401668
91.035500	-0.004518	-0.001516	-0.005487	-0.005077	4228.430019	16522.486275	3132.510353	9232.922003
91.535500	-0.008028	-0.001464	-0.013412	-0.000346	4202.741774	16376.587613	3123.296322	9163.691711
92.036000	-0.002709	-0.002485	-0.003686	-0.003286	4228.488568	16436.231737	3132.517945	9206.627354
92.536500	-0.003981	-0.001131	-0.006297	-0.004625	4228.697615	16520.388146	3131.579312	9226.274666
93.036500	-0.002370	-0.000617	-0.011251	-0.005488	4236.508499	16563.621013	3128.580243	9238.972482
93.537000	-0.005084	-0.002605	-0.002562	-0.000068	4211.002226	16332.700140	3130.975023	9159.660996
94.037000	-0.004364	-0.002349	-0.025031	-0.004648	4227.568781	16483.002703	3118.091291	9226.622461
94.537500	-0.004202	-0.002340	-0.012072	-0.004832	4228.656656	16489.049237	3127.504951	9229.330017
95.036500	0.000586	-0.000686	-0.010606	-0.004283	4242.065418	16523.646751	3128.172879	9221.261821
95.571000	-0.007270	-0.003145	-0.001647	-0.003943	4216.258297	16436.157194	3134.515947	9216.265488
96.042500	-0.002741	-0.003047	-0.007260	-0.005025	4233.873596	16472.969440	3131.165407	9232.166229
96.536000	-0.008137	-0.001164	-0.004877	-0.004530	4215.387571	16516.399915	3132.557089	9224.890628
