sample name	sample
index	843
start time	 04-05-2021  11:06:29 AM


Wavelength (nm)	Absorbance
494.344910	-0.064310
494.563924	-0.064310
494.782919	-0.064310
495.001897	0.080701
495.220856	-0.021196
495.439797	-0.012203
495.658719	0.000204
495.877624	0.017404
496.096510	0.005972
496.315378	0.015494
496.534227	0.029733
496.753059	0.030724
496.971872	0.023487
497.190667	0.058681
497.409444	0.072136
497.628203	0.077368
497.846943	0.082611
498.065665	0.084246
498.284369	0.086375
498.503055	0.088046
498.721723	0.089064
498.940372	0.089986
499.159003	0.090658
499.377616	0.092505
499.596210	0.093591
499.814787	0.093150
500.033345	0.094996
500.251885	0.095583
500.470406	0.095125
500.688910	0.095703
500.907395	0.096197
501.125862	0.096639
501.344311	0.095960
501.562742	0.095416
501.781154	0.095370
501.999548	0.093596
502.217924	0.093848
502.436282	0.093610
502.654621	0.094211
502.872942	0.094426
503.091245	0.094052
503.309530	0.093761
503.527797	0.093485
503.746045	0.094276
503.964275	0.096254
504.182487	0.095675
504.400681	0.096956
504.618856	0.095081
504.837013	0.095220
505.055152	0.094893
505.273273	0.095529
505.491376	0.095880
505.709460	0.095988
505.927526	0.095480
506.145574	0.096055
506.363604	0.095774
506.581615	0.097575
506.799608	0.097825
507.017583	0.099253
507.235540	0.099393
507.453478	0.100479
507.671399	0.100246
507.889301	0.100195
508.107185	0.100162
508.325050	0.099715
508.542898	0.099410
508.760727	0.100206
508.978538	0.099997
509.196330	0.100069
509.414105	0.099254
509.631861	0.099562
509.849599	0.098541
510.067319	0.099464
510.285021	0.099352
510.502704	0.099853
510.720369	0.099313
510.938016	0.098522
511.155645	0.098188
511.373255	0.098463
511.590848	0.097734
511.808422	0.098805
512.025977	0.098971
512.243515	0.099801
512.461034	0.100032
512.678536	0.100208
512.896018	0.100488
513.113483	0.101816
513.330930	0.102495
513.548358	0.103639
513.765768	0.104089
513.983160	0.104559
514.200533	0.104514
514.417889	0.104718
514.635226	0.104695
514.852545	0.105173
515.069845	0.104758
515.287128	0.104587
515.504392	0.105003
515.721638	0.105284
515.938866	0.105841
516.156075	0.106176
516.373267	0.106303
516.590440	0.107178
516.807594	0.107976
517.024731	0.108280
517.241850	0.109001
517.458950	0.109227
517.676032	0.108892
517.893095	0.107571
518.110141	0.107642
518.327168	0.108462
518.544177	0.108141
518.761168	0.107900
518.978141	0.108375
519.195095	0.108301
519.412031	0.107771
519.628949	0.108437
519.845849	0.109111
520.062731	0.109369
520.279594	0.109148
520.496439	0.109754
520.713266	0.110403
520.930074	0.110567
521.146865	0.110808
521.363637	0.111425
521.580391	0.111662
521.797127	0.111592
522.013844	0.111791
522.230543	0.111164
522.447224	0.110975
522.663887	0.110849
522.880532	0.111078
523.097158	0.111408
523.313766	0.111942
523.530356	0.112801
523.746928	0.113098
523.963481	0.113279
524.180017	0.114182
524.396534	0.114580
524.613032	0.115653
524.829513	0.115796
525.045975	0.115665
525.262420	0.115511
525.478845	0.114891
525.695253	0.115098
525.911643	0.115214
526.128014	0.115387
526.344367	0.115576
526.560702	0.114861
526.777018	0.115137
526.993316	0.115406
527.209597	0.115684
527.425858	0.116453
527.642102	0.116466
527.858328	0.117227
528.074535	0.117342
528.290724	0.117467
528.506894	0.117714
528.723047	0.118476
528.939181	0.119118
529.155297	0.118820
529.371395	0.118912
529.587475	0.119792
529.803536	0.119585
530.019579	0.119965
530.235604	0.120710
530.451611	0.121466
530.667600	0.121585
530.883570	0.122196
531.099522	0.123389
531.315456	0.124158
531.531372	0.124251
531.747269	0.124961
531.963148	0.125250
532.179009	0.124962
532.394852	0.125493
532.610676	0.125802
532.826482	0.125872
533.042271	0.125666
533.258040	0.126264
533.473792	0.126274
533.689525	0.126384
533.905240	0.127345
534.120937	0.128054
534.336616	0.127973
534.552277	0.127858
534.767919	0.128495
534.983543	0.128835
535.199149	0.128066
535.414736	0.128564
535.630306	0.129140
535.845857	0.128959
536.061390	0.129307
536.276904	0.129233
536.492401	0.129602
536.707879	0.129329
536.923339	0.129919
537.138781	0.130282
537.354204	0.130453
537.569610	0.130726
537.784997	0.130987
538.000366	0.131154
538.215716	0.131713
538.431049	0.132051
538.646363	0.132233
538.861659	0.132584
539.076937	0.133178
539.292196	0.133288
539.507438	0.132971
539.722661	0.133283
539.937866	0.133583
540.153052	0.133712
540.368221	0.134081
540.583371	0.134282
540.798503	0.134959
541.013617	0.135538
541.228712	0.136205
541.443789	0.136683
541.658848	0.136626
541.873889	0.136432
542.088912	0.137323
542.303916	0.137318
542.518902	0.138034
542.733870	0.137353
542.948820	0.137450
543.163752	0.138239
543.378665	0.138878
543.593560	0.139376
543.808437	0.140080
544.023295	0.139867
544.238136	0.140178
544.452958	0.140321
544.667762	0.141008
544.882548	0.141401
545.097315	0.141164
545.312064	0.141652
545.526795	0.141594
545.741508	0.141728
545.956203	0.141559
546.170879	0.141601
546.385537	0.141503
546.600177	0.141655
546.814799	0.141330
547.029402	0.141351
547.243988	0.141450
547.458555	0.141985
547.673103	0.142840
547.887634	0.144031
548.102146	0.144837
548.316640	0.145021
548.531116	0.145232
548.745574	0.145358
548.960013	0.145918
549.174435	0.145854
549.388838	0.145940
549.603222	0.145695
549.817589	0.145586
550.031937	0.145284
550.246267	0.145753
550.460579	0.145858
550.674873	0.146595
550.889148	0.146536
551.103405	0.146497
551.317644	0.146643
551.531865	0.147069
551.746068	0.147087
551.960252	0.147659
552.174418	0.147768
552.388566	0.148181
552.602696	0.148385
552.816807	0.148522
553.030900	0.149138
553.244975	0.149450
553.459032	0.149361
553.673070	0.149579
553.887091	0.149659
554.101093	0.150063
554.315077	0.149998
554.529042	0.150160
554.742990	0.150350
554.956919	0.150470
555.170830	0.150944
555.384722	0.151126
555.598597	0.150861
555.812453	0.151016
556.026291	0.150951
556.240111	0.150958
556.453913	0.151123
556.667696	0.151072
556.881461	0.150975
557.095208	0.151037
557.308937	0.151244
557.522647	0.151423
557.736339	0.151528
557.950013	0.151975
558.163669	0.152689
558.377307	0.152511
558.590926	0.153278
558.804527	0.153273
559.018110	0.153579
559.231675	0.154048
559.445221	0.154275
559.658749	0.154678
559.872259	0.154732
560.085751	0.154941
560.299225	0.155156
560.512680	0.154922
560.726117	0.155301
560.939536	0.155546
561.152937	0.155324
561.366319	0.155245
561.579683	0.155120
561.793029	0.155076
562.006357	0.154523
562.219667	0.154769
562.432958	0.154888
562.646231	0.155080
562.859486	0.154966
563.072723	0.155116
563.285941	0.155555
563.499141	0.155826
563.712323	0.156629
563.925487	0.156801
564.138632	0.157174
564.351760	0.157535
564.564869	0.157796
564.777960	0.157487
564.991032	0.157693
565.204087	0.158114
565.417123	0.158174
565.630141	0.158024
565.843140	0.158821
566.056122	0.158917
566.269085	0.158950
566.482030	0.158818
566.694957	0.159766
566.907866	0.159736
567.120756	0.159856
567.333628	0.160171
567.546482	0.160155
567.759318	0.160239
567.972135	0.160272
568.184935	0.160200
568.397716	0.160471
568.610478	0.160095
568.823223	0.160331
569.035949	0.160300
569.248657	0.160143
569.461347	0.160161
569.674019	0.160286
569.886672	0.160572
570.099308	0.161001
570.311925	0.161595
570.524523	0.161899
570.737104	0.161963
570.949666	0.162491
571.162210	0.163030
571.374736	0.163537
571.587244	0.163187
571.799733	0.162893
572.012205	0.162989
572.224658	0.162970
572.437092	0.162705
572.649509	0.162783
572.861907	0.162394
573.074287	0.162429
573.286649	0.162436
573.498993	0.162914
573.711318	0.163543
573.923625	0.163960
574.135914	0.164070
574.348185	0.164936
574.560438	0.164997
574.772672	0.165533
574.984888	0.165683
575.197086	0.165622
575.409266	0.165605
575.621427	0.165435
575.833570	0.165666
576.045695	0.165457
576.257802	0.165185
576.469890	0.165868
576.681961	0.165974
576.894013	0.166096
577.106046	0.166419
577.318062	0.167092
577.530059	0.166968
577.742039	0.166990
577.954000	0.167502
578.165942	0.167915
578.377867	0.168348
578.589773	0.168676
578.801661	0.168443
579.013531	0.168764
579.225382	0.168330
579.437216	0.168542
579.649031	0.168802
579.860828	0.168820
580.072606	0.169089
580.284367	0.168730
580.496109	0.168707
580.707833	0.169252
580.919539	0.169361
581.131227	0.169602
581.342896	0.170088
581.554547	0.169877
581.766180	0.170024
581.977795	0.169753
582.189391	0.169827
582.400969	0.170050
582.612529	0.169911
582.824071	0.170078
583.035595	0.170356
583.247100	0.170587
583.458587	0.171051
583.670056	0.171226
583.881506	0.171575
584.092939	0.171658
584.304353	0.171618
584.515749	0.171891
584.727127	0.171986
584.938486	0.172123
585.149828	0.171950
585.361151	0.171904
585.572456	0.171950
585.783742	0.172082
585.995011	0.172284
586.206261	0.172905
586.417493	0.173158
586.628706	0.173192
586.839902	0.173191
587.051079	0.173652
587.262238	0.174144
587.473379	0.174265
587.684502	0.174487
587.895606	0.174340
588.106692	0.174344
588.317760	0.174615
588.528810	0.174735
588.739841	0.175418
588.950855	0.175595
589.161850	0.175380
589.372827	0.175703
589.583785	0.175806
589.794726	0.176524
590.005648	0.176174
590.216552	0.176189
590.427437	0.176026
590.638305	0.175694
590.849154	0.176032
591.059985	0.176247
591.270798	0.175999
591.481592	0.175888
591.692369	0.175532
591.903127	0.175759
592.113867	0.175868
592.324588	0.176025
592.535292	0.175893
592.745977	0.175692
592.956644	0.175471
593.167293	0.176156
593.377923	0.176191
593.588536	0.176670
593.799130	0.176841
594.009706	0.177162
594.220263	0.177627
594.430803	0.178040
594.641324	0.177837
594.851827	0.178294
595.062312	0.177935
595.272778	0.178075
595.483227	0.178173
595.693657	0.178363
595.904069	0.178287
596.114462	0.178217
596.324838	0.178494
596.535195	0.179043
596.745534	0.179280
596.955855	0.179496
597.166157	0.179917
597.376441	0.180164
597.586707	0.180208
597.796955	0.180486
598.007185	0.180804
598.217396	0.181037
598.427589	0.180994
598.637764	0.180959
598.847921	0.181418
599.058060	0.181454
599.268180	0.181493
599.478282	0.181858
599.688366	0.182141
599.898431	0.182241
600.108479	0.182195
600.318508	0.182491
600.528519	0.182519
600.738511	0.182520
600.948486	0.182976
601.158442	0.182954
601.368380	0.183089
601.578300	0.182724
601.788202	0.182968
601.998085	0.183023
602.207950	0.183174
602.417797	0.183410
602.627626	0.183077
602.837436	0.182505
603.047228	0.182273
603.257002	0.182085
603.466758	0.182523
603.676496	0.182547
603.886215	0.182620
604.095916	0.182612
604.305599	0.182295
604.515264	0.182746
604.724910	0.182963
604.934538	0.183540
605.144148	0.183832
605.353740	0.183811
605.563314	0.184166
605.772869	0.184596
605.982406	0.184776
606.191925	0.185265
606.401425	0.185440
606.610908	0.185865
606.820372	0.186004
607.029818	0.186194
607.239246	0.186409
607.448655	0.186560
607.658047	0.186505
607.867420	0.186584
608.076775	0.186653
608.286111	0.186561
608.495430	0.186619
608.704730	0.186696
608.914012	0.186743
609.123275	0.186854
609.332521	0.186632
609.541748	0.186568
609.750957	0.186678
609.960148	0.186786
610.169321	0.187126
610.378475	0.187145
610.587611	0.187160
610.796729	0.187208
611.005829	0.187488
611.214910	0.187800
611.423974	0.188060
611.633019	0.188267
611.842045	0.188673
612.051054	0.188755
612.260044	0.188904
612.469017	0.189404
612.677970	0.189759
612.886906	0.189533
613.095824	0.189598
613.304723	0.189974
613.513604	0.189951
613.722467	0.190049
613.931311	0.190241
614.140138	0.190511
614.348946	0.190589
614.557736	0.190776
614.766507	0.190985
614.975261	0.191231
615.183996	0.191388
615.392713	0.191660
615.601412	0.191637
615.810092	0.191663
616.018754	0.192110
616.227399	0.192129
616.436024	0.191816
616.644632	0.192246
616.853222	0.192122
617.061793	0.192013
617.270346	0.192271
617.478880	0.192430
617.687397	0.192671
617.895895	0.192463
618.104375	0.192552
618.312837	0.192691
618.521281	0.192420
618.729706	0.192606
618.938113	0.192654
619.146502	0.192679
619.354873	0.192937
619.563226	0.193024
619.771560	0.193138
619.979876	0.193255
620.188174	0.193800
620.396453	0.194196
620.604715	0.194291
620.812958	0.194350
621.021183	0.194478
621.229390	0.194388
621.437578	0.194658
621.645748	0.194813
621.853900	0.194880
622.062034	0.194880
622.270150	0.194789
622.478247	0.195119
622.686326	0.195310
622.894387	0.195404
623.102430	0.195559
623.310454	0.195671
623.518461	0.196071
623.726449	0.196213
623.934418	0.196304
624.142370	0.196661
624.350303	0.196757
624.558218	0.197039
624.766115	0.197073
624.973994	0.197230
625.181855	0.197205
625.389697	0.196963
625.597521	0.197283
625.805327	0.197444
626.013114	0.197367
626.220883	0.197671
626.428634	0.197809
626.636367	0.197950
626.844082	0.198195
627.051778	0.198369
627.259457	0.198322
627.467117	0.198246
627.674758	0.198341
627.882382	0.198890
628.089987	0.199141
628.297574	0.199331
628.505143	0.199709
628.712694	0.199720
628.920226	0.199921
629.127740	0.200377
629.335236	0.200534
629.542714	0.200853
629.750174	0.200874
629.957615	0.200543
630.165038	0.200311
630.372443	0.200471
630.579829	0.200518
630.787198	0.200495
630.994548	0.200773
631.201880	0.200824
631.409194	0.201043
631.616489	0.201142
631.823766	0.201230
632.031025	0.201618
632.238266	0.201772
632.445489	0.202340
632.652693	0.202815
632.859879	0.202979
633.067047	0.203370
633.274197	0.203431
633.481329	0.203463
633.688442	0.203896
633.895537	0.203932
634.102614	0.204110
634.309672	0.203963
634.516713	0.203993
634.723735	0.204024
634.930739	0.203986
635.137724	0.204024
635.344692	0.204139
635.551641	0.204281
635.758572	0.204846
635.965485	0.204817
636.172379	0.204827
636.379256	0.204789
636.586114	0.204959
636.792954	0.205312
636.999775	0.205242
637.206579	0.205576
637.413364	0.205792
637.620131	0.205602
637.826880	0.205606
638.033610	0.206052
638.240323	0.206388
638.447017	0.206719
638.653692	0.206504
638.860350	0.206968
639.066990	0.207022
639.273611	0.207097
639.480214	0.207537
639.686798	0.207875
639.893365	0.207869
640.099913	0.207785
640.306443	0.207731
640.512955	0.208353
640.719449	0.208464
640.925924	0.208667
641.132381	0.209009
641.338820	0.209058
641.545241	0.209272
641.751644	0.209307
641.958028	0.209871
642.164394	0.210256
642.370742	0.210358
642.577071	0.210745
642.783383	0.211177
642.989676	0.210992
643.195951	0.211015
643.402207	0.211073
643.608446	0.211461
643.814666	0.211263
644.020868	0.211331
644.227052	0.211362
644.433218	0.211191
644.639365	0.211136
644.845494	0.211749
645.051605	0.211859
645.257698	0.212137
645.463772	0.212409
645.669828	0.212766
645.875866	0.212805
646.081886	0.213055
646.287888	0.213482
646.493871	0.213532
646.699836	0.213398
646.905783	0.213910
647.111712	0.213985
647.317622	0.214153
647.523514	0.214308
647.729388	0.214472
647.935244	0.214544
648.141082	0.214848
648.346901	0.215177
648.552702	0.215149
648.758485	0.215173
648.964250	0.215444
649.169996	0.215714
649.375724	0.215855
649.581434	0.215875
649.787126	0.216069
649.992800	0.215830
650.198455	0.215889
650.404092	0.216199
650.609711	0.216148
650.815311	0.216147
651.020894	0.216092
651.226458	0.216069
651.432004	0.216469
651.637532	0.216687
651.843041	0.216889
652.048532	0.217060
652.254006	0.217013
652.459460	0.217564
652.664897	0.217710
652.870315	0.217846
653.075716	0.218311
653.281097	0.218438
653.486461	0.218766
653.691807	0.219108
653.897134	0.219423
654.102443	0.219872
654.307734	0.219999
654.513006	0.220099
654.718261	0.220470
654.923497	0.220238
655.128715	0.220459
655.333915	0.220641
655.539096	0.220868
655.744259	0.221022
655.949404	0.221163
656.154531	0.221269
656.359640	0.221771
656.564730	0.221866
656.769802	0.222380
656.974856	0.222605
657.179892	0.222889
657.384909	0.222856
657.589908	0.222864
657.794889	0.223037
657.999852	0.223118
658.204797	0.223291
658.409723	0.223266
658.614631	0.223329
658.819521	0.223374
659.024393	0.223478
659.229246	0.223958
659.434081	0.224180
659.638898	0.224268
659.843697	0.224639
660.048478	0.224748
660.253240	0.225061
660.457984	0.225374
660.662710	0.225593
660.867417	0.226008
661.072107	0.226159
661.276778	0.226098
661.481431	0.226435
661.686066	0.226471
661.890682	0.226610
662.095281	0.227086
662.299861	0.227129
662.504422	0.227211
662.708966	0.226826
662.913491	0.227095
663.117999	0.227407
663.322488	0.227695
663.526958	0.227917
663.731411	0.228277
663.935845	0.228467
664.140261	0.228994
664.344659	0.229315
664.549038	0.229793
664.753400	0.230004
664.957743	0.230430
665.162068	0.230629
665.366375	0.230767
665.570663	0.230946
665.774933	0.230958
665.979185	0.230919
666.183419	0.231241
666.387635	0.231517
666.591832	0.231566
666.796011	0.231579
667.000172	0.231705
667.204315	0.232058
667.408439	0.232181
667.612545	0.232261
667.816634	0.232562
668.020703	0.232638
668.224755	0.232755
668.428788	0.232895
668.632803	0.233439
668.836800	0.233700
669.040779	0.233855
669.244739	0.234162
669.448681	0.234332
669.652605	0.234668
669.856511	0.235048
670.060399	0.235475
670.264268	0.235810
670.468119	0.235743
670.671952	0.235767
670.875767	0.235895
671.079563	0.236055
671.283341	0.236502
671.487101	0.236545
671.690843	0.236843
671.894567	0.237123
672.098272	0.237252
672.301959	0.237791
672.505628	0.237852
672.709278	0.238368
672.912911	0.238597
673.116525	0.238899
673.320121	0.239118
673.523699	0.239152
673.727258	0.238998
673.930799	0.239278
674.134322	0.239329
674.337827	0.239947
674.541314	0.239997
674.744782	0.240211
674.948232	0.240402
675.151664	0.240403
675.355078	0.240715
675.558474	0.240962
675.761851	0.240935
675.965210	0.241086
676.168551	0.241065
676.371873	0.241540
676.575178	0.241670
676.778464	0.241749
676.981732	0.242233
677.184981	0.242436
677.388213	0.242583
677.591426	0.242996
677.794621	0.243196
677.997798	0.243448
678.200956	0.243431
678.404097	0.243533
678.607219	0.243711
678.810323	0.244000
679.013408	0.244239
679.216476	0.244492
679.419525	0.244453
679.622556	0.244744
679.825569	0.245170
680.028563	0.245327
680.231540	0.245896
680.434498	0.246269
680.637438	0.246494
680.840359	0.246661
681.043263	0.246896
681.246148	0.247216
681.449015	0.247257
681.651864	0.247382
681.854694	0.247440
682.057506	0.247377
682.260301	0.247298
682.463076	0.247305
682.665834	0.247195
682.868573	0.247392
683.071295	0.247181
683.273998	0.247553
683.476682	0.247844
683.679349	0.248067
683.881997	0.248276
684.084627	0.248551
684.287239	0.248724
684.489833	0.249266
684.692408	0.249429
684.894965	0.250061
685.097504	0.250082
685.300025	0.250272
685.502527	0.250441
685.705012	0.250918
685.907478	0.251310
686.109925	0.251506
686.312355	0.251447
686.514766	0.251650
686.717159	0.252078
686.919534	0.252588
687.121891	0.252708
687.324230	0.252885
687.526550	0.252786
687.728852	0.252991
687.931136	0.253297
688.133401	0.253535
688.335649	0.253862
688.537878	0.254106
688.740089	0.254150
688.942281	0.254412
689.144456	0.254856
689.346612	0.255123
689.548750	0.255084
689.750870	0.255004
689.952971	0.255067
690.155055	0.255179
690.357120	0.255453
690.559167	0.255431
690.761195	0.255380
690.963206	0.255354
691.165198	0.255526
691.367172	0.255733
691.569128	0.255993
691.771065	0.256520
691.972984	0.256329
692.174885	0.256201
692.376768	0.256534
692.578633	0.256774
692.780479	0.256876
692.982308	0.256918
693.184118	0.257075
693.385909	0.257358
