sample name	sample
index	828
start time	 03-31-2021  04:17:20 PM


Wavelength (nm)	Absorbance
494.344910	-1.149072
494.563924	-1.149072
494.782919	-1.149072
495.001897	NaN
495.220856	-0.376978
495.439797	NaN
495.658719	NaN
495.877624	NaN
496.096510	NaN
496.315378	NaN
496.534227	NaN
496.753059	NaN
496.971872	NaN
497.190667	0.096063
497.409444	0.080819
497.628203	0.079510
497.846943	0.078625
498.065665	0.080162
498.284369	0.079751
498.503055	0.080759
498.721723	0.079222
498.940372	0.079098
499.159003	0.078406
499.377616	0.078386
499.596210	0.077940
499.814787	0.078221
500.033345	0.078237
500.251885	0.077211
500.470406	0.077387
500.688910	0.077401
500.907395	0.078888
501.125862	0.078060
501.344311	0.077952
501.562742	0.078055
501.781154	0.078562
501.999548	0.078504
502.217924	0.079411
502.436282	0.077572
502.654621	0.077683
502.872942	0.076395
503.091245	0.077792
503.309530	0.078467
503.527797	0.078257
503.746045	0.078239
503.964275	0.077796
504.182487	0.077302
504.400681	0.079436
504.618856	0.080019
504.837013	0.080304
505.055152	0.078965
505.273273	0.079199
505.491376	0.078758
505.709460	0.079760
505.927526	0.080016
506.145574	0.080254
506.363604	0.079603
506.581615	0.079092
506.799608	0.078447
507.017583	0.079274
507.235540	0.078205
507.453478	0.078573
507.671399	0.078629
507.889301	0.077975
508.107185	0.078832
508.325050	0.078892
508.542898	0.078838
508.760727	0.079801
508.978538	0.080122
509.196330	0.080634
509.414105	0.081076
509.631861	0.079835
509.849599	0.080461
510.067319	0.080531
510.285021	0.080861
510.502704	0.081705
510.720369	0.081005
510.938016	0.080701
511.155645	0.081501
511.373255	0.081198
511.590848	0.081813
511.808422	0.082172
512.025977	0.082253
512.243515	0.082006
512.461034	0.081948
512.678536	0.083100
512.896018	0.083302
513.113483	0.083059
513.330930	0.083735
513.548358	0.083717
513.765768	0.083466
513.983160	0.083043
514.200533	0.083167
514.417889	0.083320
514.635226	0.082518
514.852545	0.083061
515.069845	0.082752
515.287128	0.082795
515.504392	0.082693
515.721638	0.083444
515.938866	0.083727
516.156075	0.084339
516.373267	0.084870
516.590440	0.085727
516.807594	0.085395
517.024731	0.085456
517.241850	0.084826
517.458950	0.084524
517.676032	0.084491
517.893095	0.084713
518.110141	0.084973
518.327168	0.084653
518.544177	0.084952
518.761168	0.086541
518.978141	0.086533
519.195095	0.087746
519.412031	0.088681
519.628949	0.088910
519.845849	0.089574
520.062731	0.089159
520.279594	0.089453
520.496439	0.089433
520.713266	0.088239
520.930074	0.088335
521.146865	0.087849
521.363637	0.087680
521.580391	0.087793
521.797127	0.087689
522.013844	0.088528
522.230543	0.088679
522.447224	0.088815
522.663887	0.090068
522.880532	0.091011
523.097158	0.091864
523.313766	0.091715
523.530356	0.092175
523.746928	0.092598
523.963481	0.092760
524.180017	0.093113
524.396534	0.093395
524.613032	0.092787
524.829513	0.093135
525.045975	0.092750
525.262420	0.093914
525.478845	0.093971
525.695253	0.092997
525.911643	0.092732
526.128014	0.093378
526.344367	0.093385
526.560702	0.093958
526.777018	0.094576
526.993316	0.095432
527.209597	0.095216
527.425858	0.095182
527.642102	0.096400
527.858328	0.096731
528.074535	0.096472
528.290724	0.096496
528.506894	0.096369
528.723047	0.095798
528.939181	0.095852
529.155297	0.096541
529.371395	0.096957
529.587475	0.097163
529.803536	0.097269
530.019579	0.097106
530.235604	0.097983
530.451611	0.098028
530.667600	0.098535
530.883570	0.098436
531.099522	0.098147
531.315456	0.098094
531.531372	0.098091
531.747269	0.098151
531.963148	0.099046
532.179009	0.098952
532.394852	0.099134
532.610676	0.099188
532.826482	0.099652
533.042271	0.099788
533.258040	0.100163
533.473792	0.100721
533.689525	0.101696
533.905240	0.101807
534.120937	0.101940
534.336616	0.102119
534.552277	0.102525
534.767919	0.102706
534.983543	0.103162
535.199149	0.103160
535.414736	0.103452
535.630306	0.103035
535.845857	0.103208
536.061390	0.103579
536.276904	0.104483
536.492401	0.104972
536.707879	0.104853
536.923339	0.105041
537.138781	0.105589
537.354204	0.105973
537.569610	0.106846
537.784997	0.107348
538.000366	0.107705
538.215716	0.108416
538.431049	0.108436
538.646363	0.109565
538.861659	0.110075
539.076937	0.110397
539.292196	0.110500
539.507438	0.110752
539.722661	0.110647
539.937866	0.110900
540.153052	0.110086
540.368221	0.110549
540.583371	0.110651
540.798503	0.111219
541.013617	0.111325
541.228712	0.111474
541.443789	0.111665
541.658848	0.112211
541.873889	0.112887
542.088912	0.113720
542.303916	0.114244
542.518902	0.114360
542.733870	0.114472
542.948820	0.115195
543.163752	0.115434
543.378665	0.115496
543.593560	0.115728
543.808437	0.115253
544.023295	0.115491
544.238136	0.115414
544.452958	0.116160
544.667762	0.116495
544.882548	0.116740
545.097315	0.117277
545.312064	0.117434
545.526795	0.117963
545.741508	0.118687
545.956203	0.118578
546.170879	0.118796
546.385537	0.118770
546.600177	0.118716
546.814799	0.118559
547.029402	0.118742
547.243988	0.119368
547.458555	0.119365
547.673103	0.119434
547.887634	0.120287
548.102146	0.120359
548.316640	0.120089
548.531116	0.120367
548.745574	0.120763
548.960013	0.120835
549.174435	0.120923
549.388838	0.120605
549.603222	0.120677
549.817589	0.120555
550.031937	0.120776
550.246267	0.121184
550.460579	0.121283
550.674873	0.121425
550.889148	0.121588
551.103405	0.121612
551.317644	0.122128
551.531865	0.122532
551.746068	0.122837
551.960252	0.123158
552.174418	0.123463
552.388566	0.123803
552.602696	0.123785
552.816807	0.123683
553.030900	0.123855
553.244975	0.124289
553.459032	0.124801
553.673070	0.125319
553.887091	0.125397
554.101093	0.125705
554.315077	0.126212
554.529042	0.126841
554.742990	0.127498
554.956919	0.127906
555.170830	0.128092
555.384722	0.128228
555.598597	0.127953
555.812453	0.128410
556.026291	0.128344
556.240111	0.128013
556.453913	0.127981
556.667696	0.128018
556.881461	0.128014
557.095208	0.127814
557.308937	0.127433
557.522647	0.127497
557.736339	0.127517
557.950013	0.127910
558.163669	0.128146
558.377307	0.128282
558.590926	0.128426
558.804527	0.128465
559.018110	0.128531
559.231675	0.128932
559.445221	0.129436
559.658749	0.129881
559.872259	0.129855
560.085751	0.130138
560.299225	0.129779
560.512680	0.130049
560.726117	0.129969
560.939536	0.130376
561.152937	0.130298
561.366319	0.130274
561.579683	0.129978
561.793029	0.129972
562.006357	0.130290
562.219667	0.130785
562.432958	0.130922
562.646231	0.131696
562.859486	0.131578
563.072723	0.132050
563.285941	0.132407
563.499141	0.132483
563.712323	0.132952
563.925487	0.132984
564.138632	0.133063
564.351760	0.132932
564.564869	0.133229
564.777960	0.133294
564.991032	0.133213
565.204087	0.133445
565.417123	0.133965
565.630141	0.134210
565.843140	0.134307
566.056122	0.134688
566.269085	0.134851
566.482030	0.134404
566.694957	0.135167
566.907866	0.135370
567.120756	0.135407
567.333628	0.135457
567.546482	0.135586
567.759318	0.135847
567.972135	0.135760
568.184935	0.135986
568.397716	0.136504
568.610478	0.136518
568.823223	0.137059
569.035949	0.137212
569.248657	0.137405
569.461347	0.137649
569.674019	0.137466
569.886672	0.137808
570.099308	0.138474
570.311925	0.138505
570.524523	0.138588
570.737104	0.137981
570.949666	0.138135
571.162210	0.138586
571.374736	0.138696
571.587244	0.139018
571.799733	0.139439
572.012205	0.139340
572.224658	0.139414
572.437092	0.139261
572.649509	0.139905
572.861907	0.140147
573.074287	0.140107
573.286649	0.139746
573.498993	0.139644
573.711318	0.139367
573.923625	0.139206
574.135914	0.139215
574.348185	0.139515
574.560438	0.139491
574.772672	0.139081
574.984888	0.139029
575.197086	0.139465
575.409266	0.140152
575.621427	0.140890
575.833570	0.141277
576.045695	0.141775
576.257802	0.142030
576.469890	0.142332
576.681961	0.143004
576.894013	0.142951
577.106046	0.143366
577.318062	0.143015
577.530059	0.143272
577.742039	0.143319
577.954000	0.143422
578.165942	0.143784
578.377867	0.143982
578.589773	0.144126
578.801661	0.144232
579.013531	0.144162
579.225382	0.144551
579.437216	0.144052
579.649031	0.144259
579.860828	0.144478
580.072606	0.144375
580.284367	0.144493
580.496109	0.144203
580.707833	0.144616
580.919539	0.145010
581.131227	0.144891
581.342896	0.145073
581.554547	0.145341
581.766180	0.145631
581.977795	0.145463
582.189391	0.145664
582.400969	0.146000
582.612529	0.146051
582.824071	0.145761
583.035595	0.146113
583.247100	0.146253
583.458587	0.146397
583.670056	0.145949
583.881506	0.146410
584.092939	0.146562
584.304353	0.146948
584.515749	0.146875
584.727127	0.147374
584.938486	0.147589
585.149828	0.147909
585.361151	0.147963
585.572456	0.148600
585.783742	0.148617
585.995011	0.148709
586.206261	0.148466
586.417493	0.149025
586.628706	0.149009
586.839902	0.148864
587.051079	0.148902
587.262238	0.149295
587.473379	0.149599
587.684502	0.149850
587.895606	0.150099
588.106692	0.150205
588.317760	0.150217
588.528810	0.150532
588.739841	0.150717
588.950855	0.151218
589.161850	0.151160
589.372827	0.151192
589.583785	0.151234
589.794726	0.151171
590.005648	0.151332
590.216552	0.151749
590.427437	0.151637
590.638305	0.151853
590.849154	0.151665
591.059985	0.151297
591.270798	0.151406
591.481592	0.151750
591.692369	0.152113
591.903127	0.152467
592.113867	0.152801
592.324588	0.153261
592.535292	0.153406
592.745977	0.153819
592.956644	0.154351
593.167293	0.154333
593.377923	0.154090
593.588536	0.154135
593.799130	0.154423
594.009706	0.154276
594.220263	0.154174
594.430803	0.154215
594.641324	0.154157
594.851827	0.154158
595.062312	0.154207
595.272778	0.154744
595.483227	0.154537
595.693657	0.154475
595.904069	0.154325
596.114462	0.154169
596.324838	0.154391
596.535195	0.154267
596.745534	0.154379
596.955855	0.154497
597.166157	0.154331
597.376441	0.154871
597.586707	0.154771
597.796955	0.155192
598.007185	0.155538
598.217396	0.155704
598.427589	0.155969
598.637764	0.156291
598.847921	0.156741
599.058060	0.157110
599.268180	0.157153
599.478282	0.157524
599.688366	0.157433
599.898431	0.157631
600.108479	0.157888
600.318508	0.157736
600.528519	0.157916
600.738511	0.157450
600.948486	0.157691
601.158442	0.157976
601.368380	0.158118
601.578300	0.158021
601.788202	0.158130
601.998085	0.158229
602.207950	0.158995
602.417797	0.158965
602.627626	0.159463
602.837436	0.159497
603.047228	0.159306
603.257002	0.159345
603.466758	0.159886
603.676496	0.159856
603.886215	0.159995
604.095916	0.159612
604.305599	0.159830
604.515264	0.159794
604.724910	0.159946
604.934538	0.160217
605.144148	0.160302
605.353740	0.160157
605.563314	0.160188
605.772869	0.160132
605.982406	0.160345
606.191925	0.160254
606.401425	0.160131
606.610908	0.160200
606.820372	0.160292
607.029818	0.160529
607.239246	0.160723
607.448655	0.161071
607.658047	0.161463
607.867420	0.161649
608.076775	0.161975
608.286111	0.162278
608.495430	0.162200
608.704730	0.162315
608.914012	0.162530
609.123275	0.162832
609.332521	0.162979
609.541748	0.163033
609.750957	0.163320
609.960148	0.163533
610.169321	0.163793
610.378475	0.164262
610.587611	0.164260
610.796729	0.164166
611.005829	0.164223
611.214910	0.164135
611.423974	0.164290
611.633019	0.164265
611.842045	0.164458
612.051054	0.164706
612.260044	0.164629
612.469017	0.164641
612.677970	0.164584
612.886906	0.164395
613.095824	0.164636
613.304723	0.164522
613.513604	0.164722
613.722467	0.164504
613.931311	0.164535
614.140138	0.164694
614.348946	0.165062
614.557736	0.165563
614.766507	0.166001
614.975261	0.166081
615.183996	0.166448
615.392713	0.166682
615.601412	0.166799
615.810092	0.166634
616.018754	0.166881
616.227399	0.166702
616.436024	0.166846
616.644632	0.166884
616.853222	0.167168
617.061793	0.167308
617.270346	0.167289
617.478880	0.167394
617.687397	0.167862
617.895895	0.167888
618.104375	0.168339
618.312837	0.168350
618.521281	0.168577
618.729706	0.168673
618.938113	0.168692
619.146502	0.168795
619.354873	0.169025
619.563226	0.168981
619.771560	0.169157
619.979876	0.169326
620.188174	0.169566
620.396453	0.169626
620.604715	0.169667
620.812958	0.169680
621.021183	0.169897
621.229390	0.170015
621.437578	0.170078
621.645748	0.170304
621.853900	0.170510
622.062034	0.170781
622.270150	0.170957
622.478247	0.170898
622.686326	0.171243
622.894387	0.171280
623.102430	0.171566
623.310454	0.171784
623.518461	0.171975
623.726449	0.171998
623.934418	0.171527
624.142370	0.171513
624.350303	0.171749
624.558218	0.171889
624.766115	0.172031
624.973994	0.171734
625.181855	0.171864
625.389697	0.171661
625.597521	0.171668
625.805327	0.172143
626.013114	0.172474
626.220883	0.172852
626.428634	0.172769
626.636367	0.172933
626.844082	0.173472
627.051778	0.173536
627.259457	0.174003
627.467117	0.174074
627.674758	0.174360
627.882382	0.174396
628.089987	0.174393
628.297574	0.174679
628.505143	0.174865
628.712694	0.174961
628.920226	0.175353
629.127740	0.175351
629.335236	0.175664
629.542714	0.175848
629.750174	0.176060
629.957615	0.176308
630.165038	0.176584
630.372443	0.176728
630.579829	0.176995
630.787198	0.177130
630.994548	0.177454
631.201880	0.177548
631.409194	0.177594
631.616489	0.177626
631.823766	0.177598
632.031025	0.177607
632.238266	0.177768
632.445489	0.178064
632.652693	0.178173
632.859879	0.178304
633.067047	0.178576
633.274197	0.178644
633.481329	0.178821
633.688442	0.179050
633.895537	0.179140
634.102614	0.179273
634.309672	0.179128
634.516713	0.179020
634.723735	0.178748
634.930739	0.178918
635.137724	0.179045
635.344692	0.179089
635.551641	0.178968
635.758572	0.179237
635.965485	0.179278
636.172379	0.179476
636.379256	0.179883
636.586114	0.180276
636.792954	0.180437
636.999775	0.180939
637.206579	0.181202
637.413364	0.181696
637.620131	0.181746
637.826880	0.182168
638.033610	0.182101
638.240323	0.182194
638.447017	0.182487
638.653692	0.182812
638.860350	0.182713
639.066990	0.182913
639.273611	0.182861
639.480214	0.183094
639.686798	0.183020
639.893365	0.183489
640.099913	0.183533
640.306443	0.183405
640.512955	0.183356
640.719449	0.183393
640.925924	0.183506
641.132381	0.183978
641.338820	0.183883
641.545241	0.183937
641.751644	0.183907
641.958028	0.184130
642.164394	0.184516
642.370742	0.184311
642.577071	0.184563
642.783383	0.184573
642.989676	0.184543
643.195951	0.184778
643.402207	0.184879
643.608446	0.185067
643.814666	0.185082
644.020868	0.185253
644.227052	0.185678
644.433218	0.185645
644.639365	0.185822
644.845494	0.185948
645.051605	0.186308
645.257698	0.186507
645.463772	0.186524
645.669828	0.186917
645.875866	0.187166
646.081886	0.187084
646.287888	0.187349
646.493871	0.187638
646.699836	0.187763
646.905783	0.187803
647.111712	0.188234
647.317622	0.188569
647.523514	0.188769
647.729388	0.188470
647.935244	0.188845
648.141082	0.188972
648.346901	0.188962
648.552702	0.189206
648.758485	0.189169
648.964250	0.189211
649.169996	0.189229
649.375724	0.189263
649.581434	0.189593
649.787126	0.189674
649.992800	0.189673
650.198455	0.190003
650.404092	0.190281
650.609711	0.190504
650.815311	0.190648
651.020894	0.191077
651.226458	0.191013
651.432004	0.191164
651.637532	0.191452
651.843041	0.191853
652.048532	0.192081
652.254006	0.191964
652.459460	0.192164
652.664897	0.192348
652.870315	0.192160
653.075716	0.192581
653.281097	0.192941
653.486461	0.193245
653.691807	0.193347
653.897134	0.193475
654.102443	0.193689
654.307734	0.193808
654.513006	0.194014
654.718261	0.194464
654.923497	0.194726
655.128715	0.194804
655.333915	0.194868
655.539096	0.195073
655.744259	0.195138
655.949404	0.195280
656.154531	0.195532
656.359640	0.195580
656.564730	0.195509
656.769802	0.195556
656.974856	0.195571
657.179892	0.195372
657.384909	0.195471
657.589908	0.195700
657.794889	0.196188
657.999852	0.196444
658.204797	0.196512
658.409723	0.196919
658.614631	0.197035
658.819521	0.197410
659.024393	0.198034
659.229246	0.198328
659.434081	0.198506
659.638898	0.198369
659.843697	0.198479
660.048478	0.198778
660.253240	0.198967
660.457984	0.199387
660.662710	0.199577
660.867417	0.199528
661.072107	0.199635
661.276778	0.199770
661.481431	0.200106
661.686066	0.200188
661.890682	0.200296
662.095281	0.200371
662.299861	0.200246
662.504422	0.200343
662.708966	0.200449
662.913491	0.200439
663.117999	0.200326
663.322488	0.200408
663.526958	0.200616
663.731411	0.200789
663.935845	0.200880
664.140261	0.201131
664.344659	0.201282
664.549038	0.201565
664.753400	0.201967
664.957743	0.202435
665.162068	0.202735
665.366375	0.202972
665.570663	0.203047
665.774933	0.203312
665.979185	0.203690
666.183419	0.204264
666.387635	0.204506
666.591832	0.204800
666.796011	0.205360
667.000172	0.205733
667.204315	0.206267
667.408439	0.206735
667.612545	0.207177
667.816634	0.207384
668.020703	0.207269
668.224755	0.207491
668.428788	0.207698
668.632803	0.207665
668.836800	0.207489
669.040779	0.207465
669.244739	0.207535
669.448681	0.207627
669.652605	0.207999
669.856511	0.207953
670.060399	0.208157
670.264268	0.208163
670.468119	0.208383
670.671952	0.208783
670.875767	0.208889
671.079563	0.209166
671.283341	0.209258
671.487101	0.209387
671.690843	0.209877
671.894567	0.210221
672.098272	0.210421
672.301959	0.210790
672.505628	0.210963
672.709278	0.211271
672.912911	0.211601
673.116525	0.211919
673.320121	0.212184
673.523699	0.212375
673.727258	0.212451
673.930799	0.212763
674.134322	0.212744
674.337827	0.212965
674.541314	0.213119
674.744782	0.213368
674.948232	0.213315
675.151664	0.213449
675.355078	0.213761
675.558474	0.214190
675.761851	0.214383
675.965210	0.214618
676.168551	0.214913
676.371873	0.215041
676.575178	0.215207
676.778464	0.215814
676.981732	0.215968
677.184981	0.216167
677.388213	0.216305
677.591426	0.216598
677.794621	0.217061
677.997798	0.217289
678.200956	0.217711
678.404097	0.217817
678.607219	0.217773
678.810323	0.218171
679.013408	0.218188
679.216476	0.218490
679.419525	0.218708
679.622556	0.218610
679.825569	0.218966
680.028563	0.219103
680.231540	0.219195
680.434498	0.219402
680.637438	0.219094
680.840359	0.219199
681.043263	0.219159
681.246148	0.219210
681.449015	0.219439
681.651864	0.219227
681.854694	0.219480
682.057506	0.219562
682.260301	0.219647
682.463076	0.219948
682.665834	0.220309
682.868573	0.220372
683.071295	0.220550
683.273998	0.220770
683.476682	0.221183
683.679349	0.221311
683.881997	0.221811
684.084627	0.221939
684.287239	0.222196
684.489833	0.222274
684.692408	0.222678
684.894965	0.222888
685.097504	0.222763
685.300025	0.222866
685.502527	0.222904
685.705012	0.222931
685.907478	0.223283
686.109925	0.223444
686.312355	0.223656
686.514766	0.223886
686.717159	0.224109
686.919534	0.224666
687.121891	0.224639
687.324230	0.224832
687.526550	0.224910
687.728852	0.224845
687.931136	0.224958
688.133401	0.225374
688.335649	0.225198
688.537878	0.225317
688.740089	0.225302
688.942281	0.225587
689.144456	0.225919
689.346612	0.225945
689.548750	0.226378
689.750870	0.226656
689.952971	0.226440
690.155055	0.226671
690.357120	0.226742
690.559167	0.226865
690.761195	0.227304
690.963206	0.227197
691.165198	0.227483
691.367172	0.227377
691.569128	0.227453
691.771065	0.227716
691.972984	0.228156
692.174885	0.228559
692.376768	0.228864
692.578633	0.228644
692.780479	0.228904
692.982308	0.229179
693.184118	0.229435
693.385909	0.229492
693.587683	0.229841
693.789438	0.229708
