sample name	sample
index	1180
start time	 04-26-2021  11:39:41 AM


Wavelength (nm)	Absorbance
494.344910	-0.067970
494.563924	-0.067970
494.782919	-0.067970
495.001897	-0.128471
495.220856	-0.067730
495.439797	-0.017889
495.658719	-0.006709
495.877624	-0.035188
496.096510	0.031589
496.315378	0.023215
496.534227	-0.000088
496.753059	-0.011707
496.971872	0.074218
497.190667	0.135706
497.409444	0.145224
497.628203	0.146638
497.846943	0.148036
498.065665	0.146574
498.284369	0.146533
498.503055	0.147330
498.721723	0.147842
498.940372	0.146802
499.159003	0.147086
499.377616	0.145513
499.596210	0.146831
499.814787	0.146239
500.033345	0.147390
500.251885	0.148698
500.470406	0.147883
500.688910	0.147395
500.907395	0.148145
501.125862	0.148139
501.344311	0.149531
501.562742	0.148579
501.781154	0.149703
501.999548	0.148215
502.217924	0.147550
502.436282	0.149659
502.654621	0.149514
502.872942	0.149534
503.091245	0.149805
503.309530	0.149398
503.527797	0.149432
503.746045	0.150616
503.964275	0.151651
504.182487	0.152229
504.400681	0.151661
504.618856	0.152635
504.837013	0.152232
505.055152	0.153020
505.273273	0.153016
505.491376	0.153530
505.709460	0.153325
505.927526	0.153472
506.145574	0.152126
506.363604	0.153022
506.581615	0.153411
506.799608	0.153846
507.017583	0.151907
507.235540	0.151698
507.453478	0.151213
507.671399	0.150629
507.889301	0.151264
508.107185	0.152177
508.325050	0.152143
508.542898	0.152355
508.760727	0.152495
508.978538	0.152698
509.196330	0.152918
509.414105	0.152180
509.631861	0.151627
509.849599	0.151785
510.067319	0.152806
510.285021	0.151720
510.502704	0.150929
510.720369	0.150236
510.938016	0.150817
511.155645	0.150673
511.373255	0.150936
511.590848	0.151554
511.808422	0.150997
512.025977	0.150853
512.243515	0.151353
512.461034	0.151992
512.678536	0.152207
512.896018	0.152562
513.113483	0.152834
513.330930	0.153285
513.548358	0.153141
513.765768	0.153532
513.983160	0.153763
514.200533	0.153940
514.417889	0.153684
514.635226	0.154000
514.852545	0.153744
515.069845	0.153440
515.287128	0.154586
515.504392	0.154987
515.721638	0.155488
515.938866	0.154795
516.156075	0.155642
516.373267	0.155802
516.590440	0.155835
516.807594	0.156626
517.024731	0.158072
517.241850	0.156984
517.458950	0.156841
517.676032	0.156861
517.893095	0.157491
518.110141	0.157026
518.327168	0.157179
518.544177	0.157550
518.761168	0.157870
518.978141	0.157362
519.195095	0.158904
519.412031	0.159577
519.628949	0.158208
519.845849	0.158570
520.062731	0.157859
520.279594	0.158004
520.496439	0.158330
520.713266	0.158193
520.930074	0.158257
521.146865	0.156145
521.363637	0.155793
521.580391	0.156422
521.797127	0.156217
522.013844	0.156799
522.230543	0.157080
522.447224	0.156456
522.663887	0.155803
522.880532	0.155923
523.097158	0.157795
523.313766	0.158697
523.530356	0.159259
523.746928	0.158997
523.963481	0.159431
524.180017	0.159566
524.396534	0.160504
524.613032	0.161009
524.829513	0.160426
525.045975	0.160991
525.262420	0.160757
525.478845	0.160121
525.695253	0.161126
525.911643	0.160805
526.128014	0.161071
526.344367	0.160811
526.560702	0.161016
526.777018	0.161847
526.993316	0.161484
527.209597	0.161555
527.425858	0.162636
527.642102	0.162584
527.858328	0.162993
528.074535	0.162407
528.290724	0.162956
528.506894	0.162994
528.723047	0.163176
528.939181	0.162903
529.155297	0.162504
529.371395	0.161689
529.587475	0.161420
529.803536	0.161781
530.019579	0.162210
530.235604	0.162326
530.451611	0.162268
530.667600	0.162066
530.883570	0.162478
531.099522	0.162915
531.315456	0.163926
531.531372	0.164440
531.747269	0.164503
531.963148	0.165131
532.179009	0.165031
532.394852	0.166461
532.610676	0.167220
532.826482	0.167848
533.042271	0.168348
533.258040	0.169093
533.473792	0.170036
533.689525	0.170877
533.905240	0.171319
534.120937	0.172034
534.336616	0.171553
534.552277	0.171443
534.767919	0.170810
534.983543	0.170924
535.199149	0.170674
535.414736	0.170508
535.630306	0.170812
535.845857	0.170583
536.061390	0.170702
536.276904	0.171823
536.492401	0.172546
536.707879	0.173356
536.923339	0.173461
537.138781	0.173749
537.354204	0.173169
537.569610	0.173037
537.784997	0.173333
538.000366	0.173850
538.215716	0.173464
538.431049	0.173840
538.646363	0.174591
538.861659	0.174538
539.076937	0.174681
539.292196	0.176056
539.507438	0.175956
539.722661	0.176084
539.937866	0.175837
540.153052	0.176214
540.368221	0.175954
540.583371	0.175602
540.798503	0.176679
541.013617	0.177296
541.228712	0.176829
541.443789	0.177538
541.658848	0.178095
541.873889	0.178698
542.088912	0.178723
542.303916	0.178712
542.518902	0.178470
542.733870	0.178189
542.948820	0.178400
543.163752	0.178655
543.378665	0.178137
543.593560	0.178332
543.808437	0.178090
544.023295	0.178338
544.238136	0.179234
544.452958	0.180287
544.667762	0.180282
544.882548	0.180369
545.097315	0.181009
545.312064	0.181803
545.526795	0.181723
545.741508	0.182442
545.956203	0.182264
546.170879	0.181805
546.385537	0.181687
546.600177	0.182397
546.814799	0.182270
547.029402	0.181757
547.243988	0.181687
547.458555	0.182520
547.673103	0.182315
547.887634	0.183239
548.102146	0.183626
548.316640	0.183692
548.531116	0.183520
548.745574	0.183637
548.960013	0.184453
549.174435	0.184562
549.388838	0.184365
549.603222	0.184841
549.817589	0.184473
550.031937	0.184675
550.246267	0.184900
550.460579	0.184857
550.674873	0.185402
550.889148	0.185222
551.103405	0.185244
551.317644	0.185376
551.531865	0.185457
551.746068	0.185633
551.960252	0.185860
552.174418	0.185851
552.388566	0.186769
552.602696	0.186558
552.816807	0.187423
553.030900	0.188001
553.244975	0.188517
553.459032	0.188442
553.673070	0.188321
553.887091	0.188151
554.101093	0.187990
554.315077	0.187824
554.529042	0.188484
554.742990	0.188169
554.956919	0.187922
555.170830	0.187751
555.384722	0.188065
555.598597	0.188226
555.812453	0.188621
556.026291	0.188977
556.240111	0.189045
556.453913	0.188831
556.667696	0.188621
556.881461	0.188954
557.095208	0.188806
557.308937	0.188796
557.522647	0.189390
557.736339	0.189495
557.950013	0.189840
558.163669	0.190248
558.377307	0.190088
558.590926	0.190387
558.804527	0.190387
559.018110	0.190779
559.231675	0.191133
559.445221	0.191001
559.658749	0.191055
559.872259	0.191493
560.085751	0.191275
560.299225	0.191850
560.512680	0.191830
560.726117	0.191898
560.939536	0.191735
561.152937	0.191778
561.366319	0.192355
561.579683	0.192821
561.793029	0.192696
562.006357	0.192790
562.219667	0.192719
562.432958	0.193154
562.646231	0.193348
562.859486	0.193641
563.072723	0.193806
563.285941	0.193908
563.499141	0.193659
563.712323	0.193823
563.925487	0.194179
564.138632	0.194325
564.351760	0.194430
564.564869	0.194957
564.777960	0.195567
564.991032	0.195601
565.204087	0.195493
565.417123	0.195471
565.630141	0.195503
565.843140	0.195583
566.056122	0.195853
566.269085	0.195576
566.482030	0.195597
566.694957	0.195497
566.907866	0.195756
567.120756	0.195682
567.333628	0.195972
567.546482	0.196415
567.759318	0.196254
567.972135	0.196606
568.184935	0.197052
568.397716	0.197309
568.610478	0.197395
568.823223	0.197276
569.035949	0.197339
569.248657	0.197510
569.461347	0.197564
569.674019	0.197821
569.886672	0.197414
570.099308	0.197575
570.311925	0.197457
570.524523	0.197846
570.737104	0.198010
570.949666	0.198327
571.162210	0.198741
571.374736	0.198539
571.587244	0.198979
571.799733	0.199416
572.012205	0.199119
572.224658	0.199489
572.437092	0.199559
572.649509	0.199734
572.861907	0.199906
573.074287	0.200014
573.286649	0.200608
573.498993	0.200921
573.711318	0.201432
573.923625	0.202051
574.135914	0.202208
574.348185	0.202152
574.560438	0.202531
574.772672	0.202689
574.984888	0.202838
575.197086	0.202668
575.409266	0.202413
575.621427	0.202236
575.833570	0.202565
576.045695	0.202334
576.257802	0.202679
576.469890	0.202877
576.681961	0.203034
576.894013	0.203322
577.106046	0.203330
577.318062	0.203197
577.530059	0.203228
577.742039	0.203356
577.954000	0.203680
578.165942	0.203377
578.377867	0.203216
578.589773	0.203383
578.801661	0.203730
579.013531	0.204010
579.225382	0.204807
579.437216	0.205100
579.649031	0.204918
579.860828	0.204955
580.072606	0.205371
580.284367	0.205837
580.496109	0.206139
580.707833	0.205894
580.919539	0.205959
581.131227	0.206163
581.342896	0.206141
581.554547	0.206456
581.766180	0.207311
581.977795	0.207391
582.189391	0.207293
582.400969	0.207671
582.612529	0.207926
582.824071	0.208235
583.035595	0.208126
583.247100	0.208528
583.458587	0.208680
583.670056	0.208252
583.881506	0.208252
584.092939	0.208441
584.304353	0.208580
584.515749	0.208786
584.727127	0.208886
584.938486	0.209136
585.149828	0.209448
585.361151	0.209911
585.572456	0.210376
585.783742	0.211028
585.995011	0.211164
586.206261	0.211283
586.417493	0.211424
586.628706	0.211508
586.839902	0.211742
587.051079	0.211581
587.262238	0.211657
587.473379	0.211396
587.684502	0.211492
587.895606	0.211672
588.106692	0.211840
588.317760	0.211997
588.528810	0.212654
588.739841	0.212294
588.950855	0.212764
589.161850	0.212909
589.372827	0.213386
589.583785	0.213408
589.794726	0.213868
590.005648	0.213884
590.216552	0.213887
590.427437	0.214048
590.638305	0.215003
590.849154	0.215163
591.059985	0.215581
591.270798	0.215960
591.481592	0.216032
591.692369	0.215897
591.903127	0.216180
592.113867	0.216335
592.324588	0.216333
592.535292	0.216758
592.745977	0.216785
592.956644	0.216693
593.167293	0.216815
593.377923	0.217276
593.588536	0.217817
593.799130	0.217875
594.009706	0.218008
594.220263	0.218282
594.430803	0.217703
594.641324	0.217574
594.851827	0.217636
595.062312	0.217461
595.272778	0.217739
595.483227	0.217781
595.693657	0.217930
595.904069	0.218716
596.114462	0.218731
596.324838	0.219188
596.535195	0.219688
596.745534	0.219958
596.955855	0.220172
597.166157	0.219980
597.376441	0.220059
597.586707	0.219971
597.796955	0.219614
598.007185	0.219647
598.217396	0.219319
598.427589	0.219329
598.637764	0.219231
598.847921	0.219290
599.058060	0.219480
599.268180	0.219606
599.478282	0.219876
599.688366	0.220264
599.898431	0.220402
600.108479	0.220793
600.318508	0.220751
600.528519	0.221379
600.738511	0.221776
600.948486	0.222050
601.158442	0.222166
601.368380	0.222542
601.578300	0.222756
601.788202	0.223140
601.998085	0.223588
602.207950	0.224034
602.417797	0.223950
602.627626	0.224073
602.837436	0.224107
603.047228	0.224288
603.257002	0.224383
603.466758	0.224300
603.676496	0.224161
603.886215	0.224029
604.095916	0.224418
604.305599	0.224855
604.515264	0.224880
604.724910	0.225233
604.934538	0.225436
605.144148	0.225555
605.353740	0.225720
605.563314	0.225898
605.772869	0.226232
605.982406	0.225928
606.191925	0.225758
606.401425	0.225689
606.610908	0.225742
606.820372	0.225699
607.029818	0.225851
607.239246	0.225771
607.448655	0.225840
607.658047	0.225682
607.867420	0.225785
608.076775	0.225750
608.286111	0.225818
608.495430	0.225898
608.704730	0.226080
608.914012	0.226124
609.123275	0.226472
609.332521	0.226723
609.541748	0.226917
609.750957	0.227204
609.960148	0.227833
610.169321	0.228093
610.378475	0.227992
610.587611	0.228103
610.796729	0.228292
611.005829	0.228257
611.214910	0.228155
611.423974	0.228298
611.633019	0.228447
611.842045	0.228112
612.051054	0.228126
612.260044	0.228217
612.469017	0.228356
612.677970	0.228380
612.886906	0.228719
613.095824	0.229246
613.304723	0.229242
613.513604	0.229157
613.722467	0.229354
613.931311	0.229757
614.140138	0.229745
614.348946	0.229900
614.557736	0.229791
614.766507	0.229579
614.975261	0.229402
615.183996	0.229762
615.392713	0.229978
615.601412	0.229667
615.810092	0.229755
616.018754	0.230093
616.227399	0.229960
616.436024	0.230159
616.644632	0.230566
616.853222	0.230764
617.061793	0.230776
617.270346	0.230880
617.478880	0.231462
617.687397	0.231403
617.895895	0.231601
618.104375	0.231418
618.312837	0.231628
618.521281	0.231625
618.729706	0.231689
618.938113	0.231822
619.146502	0.231713
619.354873	0.231625
619.563226	0.231632
619.771560	0.231748
619.979876	0.232217
620.188174	0.232239
620.396453	0.232300
620.604715	0.232282
620.812958	0.232091
621.021183	0.232511
621.229390	0.232426
621.437578	0.232588
621.645748	0.232343
621.853900	0.232421
622.062034	0.232735
622.270150	0.232826
622.478247	0.233120
622.686326	0.233467
622.894387	0.233450
623.102430	0.233718
623.310454	0.234003
623.518461	0.234397
623.726449	0.234560
623.934418	0.234550
624.142370	0.234816
624.350303	0.234924
624.558218	0.235015
624.766115	0.235374
624.973994	0.235761
625.181855	0.235872
625.389697	0.236016
625.597521	0.236434
625.805327	0.236785
626.013114	0.237017
626.220883	0.237302
626.428634	0.237484
626.636367	0.237756
626.844082	0.237769
627.051778	0.237941
627.259457	0.238154
627.467117	0.238038
627.674758	0.238136
627.882382	0.238221
628.089987	0.238174
628.297574	0.238346
628.505143	0.238570
628.712694	0.238885
628.920226	0.238994
629.127740	0.239071
629.335236	0.239358
629.542714	0.239699
629.750174	0.239775
629.957615	0.239923
630.165038	0.239894
630.372443	0.239619
630.579829	0.239727
630.787198	0.239998
630.994548	0.239947
631.201880	0.240017
631.409194	0.239700
631.616489	0.239652
631.823766	0.240000
632.031025	0.240314
632.238266	0.240756
632.445489	0.240552
632.652693	0.240829
632.859879	0.241030
633.067047	0.241213
633.274197	0.241542
633.481329	0.241815
633.688442	0.241830
633.895537	0.241735
634.102614	0.241496
634.309672	0.241821
634.516713	0.241819
634.723735	0.242005
634.930739	0.242275
635.137724	0.242589
635.344692	0.242808
635.551641	0.242989
635.758572	0.243442
635.965485	0.243661
636.172379	0.244112
636.379256	0.244416
636.586114	0.244489
636.792954	0.244585
636.999775	0.244531
637.206579	0.244566
637.413364	0.244689
637.620131	0.244704
637.826880	0.244723
638.033610	0.244552
638.240323	0.244375
638.447017	0.244737
638.653692	0.244780
638.860350	0.245022
639.066990	0.244980
639.273611	0.245071
639.480214	0.245332
639.686798	0.245833
639.893365	0.246162
640.099913	0.246403
640.306443	0.246620
640.512955	0.246772
640.719449	0.246870
640.925924	0.247051
641.132381	0.247257
641.338820	0.247607
641.545241	0.247907
641.751644	0.248325
641.958028	0.248641
642.164394	0.249006
642.370742	0.249383
642.577071	0.249677
642.783383	0.250427
642.989676	0.250613
643.195951	0.250518
643.402207	0.250590
643.608446	0.250234
643.814666	0.250408
644.020868	0.250220
644.227052	0.250132
644.433218	0.250427
644.639365	0.250152
644.845494	0.250672
645.051605	0.251116
645.257698	0.251147
645.463772	0.251560
645.669828	0.251553
645.875866	0.251695
646.081886	0.252087
646.287888	0.252135
646.493871	0.252565
646.699836	0.252231
646.905783	0.251990
647.111712	0.251956
647.317622	0.251942
647.523514	0.252205
647.729388	0.252602
647.935244	0.252548
648.141082	0.252407
648.346901	0.252615
648.552702	0.252634
648.758485	0.252893
648.964250	0.253310
649.169996	0.253625
649.375724	0.253748
649.581434	0.253893
649.787126	0.254100
649.992800	0.254347
650.198455	0.254604
650.404092	0.254893
650.609711	0.255409
650.815311	0.255248
651.020894	0.255435
651.226458	0.255753
651.432004	0.255698
651.637532	0.256107
651.843041	0.256276
652.048532	0.256291
652.254006	0.256705
652.459460	0.256502
652.664897	0.256928
652.870315	0.256842
653.075716	0.256787
653.281097	0.257254
653.486461	0.257159
653.691807	0.257365
653.897134	0.257471
654.102443	0.257841
654.307734	0.257982
654.513006	0.258317
654.718261	0.258584
654.923497	0.258946
655.128715	0.258982
655.333915	0.259386
655.539096	0.259709
655.744259	0.259695
655.949404	0.259450
656.154531	0.259784
656.359640	0.259719
656.564730	0.259940
656.769802	0.259940
656.974856	0.260118
657.179892	0.260247
657.384909	0.260410
657.589908	0.260909
657.794889	0.261373
657.999852	0.261609
658.204797	0.261953
658.409723	0.262307
658.614631	0.262690
658.819521	0.262853
659.024393	0.262989
659.229246	0.263352
659.434081	0.263642
659.638898	0.263758
659.843697	0.263848
660.048478	0.264026
660.253240	0.264195
660.457984	0.264549
660.662710	0.264912
660.867417	0.265331
661.072107	0.265381
661.276778	0.265169
661.481431	0.265446
661.686066	0.265628
661.890682	0.266002
662.095281	0.266261
662.299861	0.266143
662.504422	0.266361
662.708966	0.266305
662.913491	0.266504
663.117999	0.266800
663.322488	0.266765
663.526958	0.267046
663.731411	0.267097
663.935845	0.267208
664.140261	0.267445
664.344659	0.267536
664.549038	0.267723
664.753400	0.268018
664.957743	0.268397
665.162068	0.268776
665.366375	0.268989
665.570663	0.269100
665.774933	0.269310
665.979185	0.269546
666.183419	0.269699
666.387635	0.269796
666.591832	0.269900
666.796011	0.269938
667.000172	0.269984
667.204315	0.270076
667.408439	0.270270
667.612545	0.270295
667.816634	0.270655
668.020703	0.270749
668.224755	0.270993
668.428788	0.271077
668.632803	0.271411
668.836800	0.272055
669.040779	0.272318
669.244739	0.272615
669.448681	0.273244
669.652605	0.273328
669.856511	0.273491
670.060399	0.273931
670.264268	0.274084
670.468119	0.274535
670.671952	0.274300
670.875767	0.274362
671.079563	0.274440
671.283341	0.274507
671.487101	0.274549
671.690843	0.274663
671.894567	0.274482
672.098272	0.274607
672.301959	0.274483
672.505628	0.274640
672.709278	0.274875
672.912911	0.275258
673.116525	0.275362
673.320121	0.275765
673.523699	0.276129
673.727258	0.276795
673.930799	0.277288
674.134322	0.277523
674.337827	0.277737
674.541314	0.278100
674.744782	0.278308
674.948232	0.278613
675.151664	0.278686
675.355078	0.279106
675.558474	0.279034
675.761851	0.279379
675.965210	0.279762
676.168551	0.280187
676.371873	0.280720
676.575178	0.281277
676.778464	0.281424
676.981732	0.281797
677.184981	0.281945
677.388213	0.282472
677.591426	0.282506
677.794621	0.282694
677.997798	0.282889
678.200956	0.282766
678.404097	0.282840
678.607219	0.283114
678.810323	0.283260
679.013408	0.283569
679.216476	0.283841
679.419525	0.284161
679.622556	0.284155
679.825569	0.284470
680.028563	0.284632
680.231540	0.284571
680.434498	0.284644
680.637438	0.285074
680.840359	0.285038
681.043263	0.284859
681.246148	0.284806
681.449015	0.285091
681.651864	0.285102
681.854694	0.285441
682.057506	0.285483
682.260301	0.285417
682.463076	0.285209
682.665834	0.285319
682.868573	0.285542
683.071295	0.286030
683.273998	0.286209
683.476682	0.286251
683.679349	0.286450
683.881997	0.286687
684.084627	0.287282
684.287239	0.287543
684.489833	0.287789
684.692408	0.287926
684.894965	0.287871
685.097504	0.288185
685.300025	0.288663
685.502527	0.288639
685.705012	0.288877
685.907478	0.288923
686.109925	0.289072
686.312355	0.289255
686.514766	0.289655
686.717159	0.290183
686.919534	0.290114
687.121891	0.290054
687.324230	0.290441
687.526550	0.290534
687.728852	0.290530
687.931136	0.290623
688.133401	0.290875
688.335649	0.290652
688.537878	0.290470
688.740089	0.290936
688.942281	0.291237
689.144456	0.291336
689.346612	0.291568
689.548750	0.291732
689.750870	0.291886
689.952971	0.291840
690.155055	0.292239
690.357120	0.292386
690.559167	0.292251
690.761195	0.292527
690.963206	0.292726
691.165198	0.292481
691.367172	0.292912
691.569128	0.293142
691.771065	0.293723
691.972984	0.294044
692.174885	0.294443
692.376768	0.294753
692.578633	0.294803
692.780479	0.294776
692.982308	0.295364
693.184118	0.295417
693.385909	0.295558
