sample name	sample
index	1463
start time	 05-10-2021  02:01:38 PM


Wavelength (nm)	Absorbance
494.344910	-0.048115
494.563924	-0.048115
494.782919	-0.048115
495.001897	0.003802
495.220856	-0.032134
495.439797	-0.030652
495.658719	-0.029944
495.877624	-0.025294
496.096510	-0.030638
496.315378	-0.019127
496.534227	-0.008605
496.753059	-0.005749
496.971872	-0.006210
497.190667	0.046262
497.409444	0.076425
497.628203	0.086240
497.846943	0.088822
498.065665	0.092654
498.284369	0.095470
498.503055	0.097853
498.721723	0.098890
498.940372	0.099271
499.159003	0.099733
499.377616	0.099794
499.596210	0.100653
499.814787	0.102402
500.033345	0.103115
500.251885	0.103401
500.470406	0.104031
500.688910	0.104181
500.907395	0.103954
501.125862	0.103841
501.344311	0.103414
501.562742	0.103048
501.781154	0.102597
501.999548	0.101910
502.217924	0.101776
502.436282	0.101561
502.654621	0.102045
502.872942	0.102714
503.091245	0.103319
503.309530	0.103924
503.527797	0.104998
503.746045	0.104972
503.964275	0.105085
504.182487	0.104015
504.400681	0.103955
504.618856	0.104162
504.837013	0.104193
505.055152	0.104199
505.273273	0.103615
505.491376	0.103156
505.709460	0.102755
505.927526	0.103594
506.145574	0.104591
506.363604	0.103719
506.581615	0.103618
506.799608	0.102820
507.017583	0.103436
507.235540	0.103765
507.453478	0.103801
507.671399	0.104850
507.889301	0.104160
508.107185	0.104833
508.325050	0.106291
508.542898	0.106753
508.760727	0.108055
508.978538	0.106998
509.196330	0.107670
509.414105	0.108261
509.631861	0.108470
509.849599	0.109277
510.067319	0.109688
510.285021	0.109657
510.502704	0.109362
510.720369	0.109602
510.938016	0.110343
511.155645	0.110031
511.373255	0.109041
511.590848	0.108422
511.808422	0.108200
512.025977	0.107454
512.243515	0.107763
512.461034	0.107320
512.678536	0.106888
512.896018	0.106612
513.113483	0.106188
513.330930	0.106649
513.548358	0.107169
513.765768	0.106549
513.983160	0.107189
514.200533	0.106411
514.417889	0.107288
514.635226	0.107710
514.852545	0.108171
515.069845	0.108818
515.287128	0.110037
515.504392	0.110483
515.721638	0.112690
515.938866	0.112111
516.156075	0.112706
516.373267	0.113814
516.590440	0.113830
516.807594	0.114489
517.024731	0.114797
517.241850	0.114377
517.458950	0.114401
517.676032	0.113419
517.893095	0.114133
518.110141	0.114607
518.327168	0.113618
518.544177	0.114013
518.761168	0.114050
518.978141	0.114613
519.195095	0.114181
519.412031	0.114771
519.628949	0.115042
519.845849	0.115057
520.062731	0.115552
520.279594	0.116176
520.496439	0.116371
520.713266	0.116530
520.930074	0.117611
521.146865	0.118649
521.363637	0.118192
521.580391	0.119179
521.797127	0.119907
522.013844	0.120655
522.230543	0.121083
522.447224	0.121182
522.663887	0.121310
522.880532	0.121250
523.097158	0.120682
523.313766	0.121431
523.530356	0.120981
523.746928	0.121266
523.963481	0.120630
524.180017	0.120959
524.396534	0.121272
524.613032	0.121563
524.829513	0.120892
525.045975	0.121874
525.262420	0.121549
525.478845	0.121853
525.695253	0.121822
525.911643	0.122016
526.128014	0.122408
526.344367	0.123007
526.560702	0.123179
526.777018	0.123237
526.993316	0.123480
527.209597	0.124008
527.425858	0.124770
527.642102	0.125259
527.858328	0.125618
528.074535	0.125907
528.290724	0.125806
528.506894	0.126832
528.723047	0.127578
528.939181	0.127469
529.155297	0.127735
529.371395	0.127568
529.587475	0.127675
529.803536	0.127678
530.019579	0.127405
530.235604	0.128078
530.451611	0.127390
530.667600	0.127827
530.883570	0.127839
531.099522	0.127733
531.315456	0.128525
531.531372	0.128578
531.747269	0.128989
531.963148	0.130029
532.179009	0.129850
532.394852	0.130539
532.610676	0.130768
532.826482	0.131220
533.042271	0.131850
533.258040	0.131651
533.473792	0.132022
533.689525	0.132038
533.905240	0.131555
534.120937	0.132238
534.336616	0.132282
534.552277	0.132562
534.767919	0.133536
534.983543	0.133793
535.199149	0.134114
535.414736	0.134100
535.630306	0.134728
535.845857	0.135132
536.061390	0.135069
536.276904	0.135376
536.492401	0.135379
536.707879	0.135059
536.923339	0.135569
537.138781	0.136106
537.354204	0.137368
537.569610	0.137731
537.784997	0.138328
538.000366	0.139047
538.215716	0.139407
538.431049	0.139763
538.646363	0.140094
538.861659	0.140124
539.076937	0.140024
539.292196	0.139724
539.507438	0.139779
539.722661	0.140058
539.937866	0.140105
540.153052	0.140384
540.368221	0.140769
540.583371	0.140977
540.798503	0.141598
541.013617	0.141742
541.228712	0.141703
541.443789	0.141846
541.658848	0.141632
541.873889	0.142136
542.088912	0.142288
542.303916	0.142919
542.518902	0.143155
542.733870	0.143208
542.948820	0.143768
543.163752	0.144393
543.378665	0.144763
543.593560	0.145287
543.808437	0.145016
544.023295	0.145553
544.238136	0.145426
544.452958	0.145685
544.667762	0.145882
544.882548	0.146228
545.097315	0.145549
545.312064	0.145717
545.526795	0.145984
545.741508	0.146182
545.956203	0.146450
546.170879	0.146541
546.385537	0.146768
546.600177	0.146908
546.814799	0.146817
547.029402	0.147649
547.243988	0.147785
547.458555	0.147793
547.673103	0.148225
547.887634	0.148484
548.102146	0.148428
548.316640	0.148832
548.531116	0.148932
548.745574	0.149299
548.960013	0.149548
549.174435	0.150189
549.388838	0.150605
549.603222	0.150874
549.817589	0.150852
550.031937	0.151308
550.246267	0.151598
550.460579	0.152498
550.674873	0.152787
550.889148	0.153306
551.103405	0.153295
551.317644	0.153511
551.531865	0.153702
551.746068	0.154038
551.960252	0.154535
552.174418	0.154099
552.388566	0.153549
552.602696	0.153410
552.816807	0.153481
553.030900	0.153323
553.244975	0.153555
553.459032	0.153547
553.673070	0.153483
553.887091	0.153452
554.101093	0.153679
554.315077	0.154002
554.529042	0.154040
554.742990	0.154319
554.956919	0.154752
555.170830	0.154440
555.384722	0.154650
555.598597	0.154740
555.812453	0.154648
556.026291	0.154970
556.240111	0.155416
556.453913	0.155643
556.667696	0.155212
556.881461	0.155514
557.095208	0.155774
557.308937	0.155978
557.522647	0.156523
557.736339	0.156567
557.950013	0.156422
558.163669	0.156056
558.377307	0.156110
558.590926	0.156082
558.804527	0.155784
559.018110	0.155705
559.231675	0.155779
559.445221	0.155449
559.658749	0.155434
559.872259	0.156137
560.085751	0.156596
560.299225	0.156856
560.512680	0.157265
560.726117	0.157599
560.939536	0.157847
561.152937	0.157377
561.366319	0.157302
561.579683	0.157390
561.793029	0.157221
562.006357	0.157130
562.219667	0.157426
562.432958	0.157202
562.646231	0.157145
562.859486	0.157546
563.072723	0.158342
563.285941	0.158653
563.499141	0.159021
563.712323	0.158836
563.925487	0.159214
564.138632	0.158714
564.351760	0.159281
564.564869	0.159582
564.777960	0.159410
564.991032	0.159560
565.204087	0.159348
565.417123	0.159643
565.630141	0.160264
565.843140	0.160128
566.056122	0.160800
566.269085	0.160854
566.482030	0.160926
566.694957	0.161206
566.907866	0.161233
567.120756	0.161594
567.333628	0.161428
567.546482	0.161040
567.759318	0.161341
567.972135	0.161169
568.184935	0.161254
568.397716	0.161331
568.610478	0.161176
568.823223	0.161220
569.035949	0.161683
569.248657	0.161694
569.461347	0.162515
569.674019	0.162508
569.886672	0.162522
570.099308	0.162634
570.311925	0.162434
570.524523	0.162717
570.737104	0.162742
570.949666	0.162603
571.162210	0.163279
571.374736	0.162856
571.587244	0.162833
571.799733	0.163214
572.012205	0.163462
572.224658	0.164179
572.437092	0.164380
572.649509	0.164288
572.861907	0.164537
573.074287	0.164003
573.286649	0.164259
573.498993	0.164408
573.711318	0.164345
573.923625	0.164669
574.135914	0.164421
574.348185	0.164773
574.560438	0.165070
574.772672	0.165142
574.984888	0.165777
575.197086	0.165999
575.409266	0.166478
575.621427	0.166681
575.833570	0.166460
576.045695	0.166453
576.257802	0.166235
576.469890	0.165930
576.681961	0.165830
576.894013	0.165644
577.106046	0.165571
577.318062	0.165128
577.530059	0.165122
577.742039	0.165086
577.954000	0.165316
578.165942	0.165638
578.377867	0.166472
578.589773	0.166246
578.801661	0.166673
579.013531	0.166835
579.225382	0.167192
579.437216	0.167577
579.649031	0.167820
579.860828	0.168307
580.072606	0.167875
580.284367	0.167573
580.496109	0.168306
580.707833	0.168118
580.919539	0.168071
581.131227	0.168217
581.342896	0.168384
581.554547	0.168369
581.766180	0.168361
581.977795	0.168522
582.189391	0.168880
582.400969	0.168788
582.612529	0.169130
582.824071	0.169545
583.035595	0.169617
583.247100	0.169614
583.458587	0.170000
583.670056	0.169915
583.881506	0.170877
584.092939	0.170976
584.304353	0.171534
584.515749	0.171603
584.727127	0.171460
584.938486	0.171521
585.149828	0.171493
585.361151	0.171609
585.572456	0.172125
585.783742	0.172062
585.995011	0.172276
586.206261	0.172024
586.417493	0.172280
586.628706	0.172447
586.839902	0.172546
587.051079	0.172914
587.262238	0.172881
587.473379	0.172796
587.684502	0.172753
587.895606	0.172751
588.106692	0.173328
588.317760	0.173157
588.528810	0.173644
588.739841	0.173859
588.950855	0.174069
589.161850	0.174313
589.372827	0.174541
589.583785	0.174514
589.794726	0.174975
590.005648	0.174662
590.216552	0.175033
590.427437	0.175136
590.638305	0.175315
590.849154	0.175555
591.059985	0.175779
591.270798	0.175795
591.481592	0.175867
591.692369	0.175833
591.903127	0.176664
592.113867	0.176746
592.324588	0.176996
592.535292	0.177264
592.745977	0.177233
592.956644	0.177144
593.167293	0.177067
593.377923	0.177305
593.588536	0.177213
593.799130	0.176714
594.009706	0.177068
594.220263	0.177177
594.430803	0.177266
594.641324	0.177373
594.851827	0.177695
595.062312	0.177599
595.272778	0.177879
595.483227	0.178056
595.693657	0.178274
595.904069	0.178103
596.114462	0.178301
596.324838	0.178664
596.535195	0.178737
596.745534	0.179103
596.955855	0.179754
597.166157	0.179676
597.376441	0.179917
597.586707	0.180117
597.796955	0.180440
598.007185	0.180146
598.217396	0.180326
598.427589	0.180564
598.637764	0.180533
598.847921	0.180367
599.058060	0.180709
599.268180	0.180900
599.478282	0.180987
599.688366	0.180905
599.898431	0.181413
600.108479	0.181458
600.318508	0.181445
600.528519	0.181526
600.738511	0.181800
600.948486	0.181857
601.158442	0.182065
601.368380	0.182379
601.578300	0.183059
601.788202	0.183198
601.998085	0.182802
602.207950	0.183301
602.417797	0.183590
602.627626	0.183678
602.837436	0.183876
603.047228	0.183843
603.257002	0.184131
603.466758	0.183833
603.676496	0.184038
603.886215	0.184581
604.095916	0.184364
604.305599	0.184341
604.515264	0.184861
604.724910	0.184941
604.934538	0.185420
605.144148	0.185340
605.353740	0.185478
605.563314	0.185571
605.772869	0.185782
605.982406	0.186151
606.191925	0.186165
606.401425	0.186106
606.610908	0.186340
606.820372	0.186234
607.029818	0.186274
607.239246	0.186508
607.448655	0.186805
607.658047	0.187124
607.867420	0.187436
608.076775	0.188138
608.286111	0.188105
608.495430	0.188386
608.704730	0.188531
608.914012	0.188626
609.123275	0.189008
609.332521	0.189069
609.541748	0.189286
609.750957	0.189194
609.960148	0.189206
610.169321	0.189504
610.378475	0.189539
610.587611	0.189786
610.796729	0.190015
611.005829	0.189724
611.214910	0.189893
611.423974	0.189531
611.633019	0.189718
611.842045	0.189898
612.051054	0.190263
612.260044	0.190356
612.469017	0.190465
612.677970	0.190638
612.886906	0.191109
613.095824	0.191172
613.304723	0.191625
613.513604	0.191889
613.722467	0.191981
613.931311	0.192047
614.140138	0.192353
614.348946	0.192436
614.557736	0.192654
614.766507	0.192819
614.975261	0.192897
615.183996	0.192872
615.392713	0.193043
615.601412	0.193217
615.810092	0.193542
616.018754	0.193610
616.227399	0.193602
616.436024	0.193805
616.644632	0.194016
616.853222	0.194211
617.061793	0.194552
617.270346	0.194685
617.478880	0.194631
617.687397	0.194593
617.895895	0.194870
618.104375	0.195634
618.312837	0.195911
618.521281	0.195648
618.729706	0.195713
618.938113	0.195795
619.146502	0.195956
619.354873	0.196155
619.563226	0.196256
619.771560	0.196417
619.979876	0.195950
620.188174	0.195911
620.396453	0.196235
620.604715	0.196267
620.812958	0.196124
621.021183	0.196092
621.229390	0.196063
621.437578	0.195956
621.645748	0.195747
621.853900	0.195975
622.062034	0.195955
622.270150	0.196102
622.478247	0.196400
622.686326	0.196695
622.894387	0.197101
623.102430	0.197244
623.310454	0.197341
623.518461	0.197354
623.726449	0.197474
623.934418	0.197575
624.142370	0.197760
624.350303	0.197588
624.558218	0.197690
624.766115	0.197501
624.973994	0.197739
625.181855	0.198142
625.389697	0.198554
625.597521	0.198480
625.805327	0.198532
626.013114	0.198370
626.220883	0.198627
626.428634	0.199020
626.636367	0.199057
626.844082	0.199266
627.051778	0.199452
627.259457	0.199581
627.467117	0.199607
627.674758	0.199707
627.882382	0.199755
628.089987	0.199775
628.297574	0.199824
628.505143	0.200141
628.712694	0.200218
628.920226	0.200030
629.127740	0.200110
629.335236	0.200721
629.542714	0.201055
629.750174	0.201634
629.957615	0.202018
630.165038	0.201899
630.372443	0.201632
630.579829	0.201850
630.787198	0.202086
630.994548	0.201884
631.201880	0.201869
631.409194	0.202018
631.616489	0.202069
631.823766	0.201909
632.031025	0.202268
632.238266	0.202685
632.445489	0.202583
632.652693	0.202794
632.859879	0.203351
633.067047	0.203507
633.274197	0.203696
633.481329	0.203902
633.688442	0.204121
633.895537	0.204284
634.102614	0.204428
634.309672	0.204442
634.516713	0.204678
634.723735	0.204705
634.930739	0.204878
635.137724	0.204597
635.344692	0.204526
635.551641	0.204899
635.758572	0.204989
635.965485	0.205423
636.172379	0.205628
636.379256	0.205763
636.586114	0.206035
636.792954	0.205939
636.999775	0.206291
637.206579	0.206610
637.413364	0.206784
637.620131	0.206891
637.826880	0.206602
638.033610	0.207015
638.240323	0.207024
638.447017	0.207256
638.653692	0.207548
638.860350	0.207800
639.066990	0.207878
639.273611	0.207875
639.480214	0.208117
639.686798	0.208463
639.893365	0.208508
640.099913	0.208604
640.306443	0.208328
640.512955	0.208455
640.719449	0.208603
640.925924	0.208944
641.132381	0.209110
641.338820	0.209012
641.545241	0.209159
641.751644	0.209412
641.958028	0.209749
642.164394	0.210072
642.370742	0.210248
642.577071	0.210360
642.783383	0.210290
642.989676	0.210539
643.195951	0.210751
643.402207	0.211024
643.608446	0.211018
643.814666	0.210964
644.020868	0.211249
644.227052	0.211452
644.433218	0.211710
644.639365	0.211542
644.845494	0.211733
645.051605	0.211955
645.257698	0.212094
645.463772	0.212511
645.669828	0.212779
645.875866	0.212680
646.081886	0.212805
646.287888	0.212800
646.493871	0.213246
646.699836	0.213161
646.905783	0.213278
647.111712	0.213203
647.317622	0.213139
647.523514	0.213164
647.729388	0.213553
647.935244	0.213717
648.141082	0.213920
648.346901	0.213941
648.552702	0.214242
648.758485	0.214522
648.964250	0.214614
649.169996	0.214699
649.375724	0.215090
649.581434	0.214853
649.787126	0.215063
649.992800	0.215232
650.198455	0.215492
650.404092	0.215581
650.609711	0.215582
650.815311	0.215689
651.020894	0.215736
651.226458	0.215762
651.432004	0.216352
651.637532	0.216308
651.843041	0.216209
652.048532	0.216411
652.254006	0.216491
652.459460	0.216669
652.664897	0.216946
652.870315	0.216960
653.075716	0.217021
653.281097	0.217060
653.486461	0.217151
653.691807	0.217543
653.897134	0.217758
654.102443	0.218125
654.307734	0.218253
654.513006	0.218713
654.718261	0.218976
654.923497	0.219249
655.128715	0.219443
655.333915	0.219693
655.539096	0.219754
655.744259	0.220033
655.949404	0.220133
656.154531	0.220211
656.359640	0.220222
656.564730	0.220410
656.769802	0.220603
656.974856	0.220638
657.179892	0.220861
657.384909	0.221159
657.589908	0.221013
657.794889	0.221330
657.999852	0.221654
658.204797	0.221898
658.409723	0.222101
658.614631	0.222381
658.819521	0.222789
659.024393	0.223081
659.229246	0.223340
659.434081	0.223887
659.638898	0.223855
659.843697	0.224125
660.048478	0.224258
660.253240	0.224551
660.457984	0.224510
660.662710	0.224502
660.867417	0.224527
661.072107	0.224601
661.276778	0.224394
661.481431	0.224666
661.686066	0.224849
661.890682	0.224949
662.095281	0.225370
662.299861	0.225428
662.504422	0.225648
662.708966	0.226020
662.913491	0.226223
663.117999	0.226412
663.322488	0.226658
663.526958	0.226577
663.731411	0.226905
663.935845	0.226883
664.140261	0.227406
664.344659	0.227477
664.549038	0.227505
664.753400	0.227646
664.957743	0.227983
665.162068	0.227968
665.366375	0.228179
665.570663	0.228212
665.774933	0.228574
665.979185	0.228498
666.183419	0.228528
666.387635	0.228976
666.591832	0.229109
666.796011	0.229188
667.000172	0.229349
667.204315	0.229761
667.408439	0.229978
667.612545	0.230186
667.816634	0.230432
668.020703	0.230767
668.224755	0.230847
668.428788	0.230841
668.632803	0.231058
668.836800	0.231008
669.040779	0.231017
669.244739	0.231063
669.448681	0.230929
669.652605	0.230957
669.856511	0.230985
670.060399	0.231279
670.264268	0.231592
670.468119	0.231804
670.671952	0.232130
670.875767	0.232419
671.079563	0.232940
671.283341	0.233177
671.487101	0.233477
671.690843	0.233858
671.894567	0.233586
672.098272	0.233886
672.301959	0.234053
672.505628	0.234464
672.709278	0.234720
672.912911	0.234663
673.116525	0.234892
673.320121	0.235140
673.523699	0.235350
673.727258	0.235580
673.930799	0.235602
674.134322	0.235870
674.337827	0.235950
674.541314	0.236294
674.744782	0.236389
674.948232	0.236431
675.151664	0.236691
675.355078	0.236825
675.558474	0.236972
675.761851	0.237314
675.965210	0.237382
676.168551	0.237266
676.371873	0.236965
676.575178	0.237183
676.778464	0.237445
676.981732	0.237461
677.184981	0.237602
677.388213	0.237985
677.591426	0.237911
677.794621	0.238019
677.997798	0.238469
678.200956	0.238784
678.404097	0.238987
678.607219	0.239080
678.810323	0.239280
679.013408	0.239358
679.216476	0.239337
679.419525	0.239741
679.622556	0.239751
679.825569	0.240027
680.028563	0.240096
680.231540	0.240173
680.434498	0.240368
680.637438	0.240545
680.840359	0.240849
681.043263	0.241120
681.246148	0.241262
681.449015	0.241651
681.651864	0.241727
681.854694	0.242013
682.057506	0.241960
682.260301	0.241994
682.463076	0.241998
682.665834	0.242097
682.868573	0.242212
683.071295	0.242350
683.273998	0.242391
683.476682	0.242504
683.679349	0.242524
683.881997	0.242920
684.084627	0.242911
684.287239	0.243098
684.489833	0.243147
684.692408	0.243394
684.894965	0.243471
685.097504	0.243554
685.300025	0.243607
685.502527	0.243665
685.705012	0.243662
685.907478	0.243921
686.109925	0.243803
686.312355	0.244192
686.514766	0.244171
686.717159	0.244147
686.919534	0.244231
687.121891	0.244306
687.324230	0.244401
687.526550	0.244415
687.728852	0.244484
687.931136	0.244862
688.133401	0.244763
688.335649	0.244682
688.537878	0.244804
688.740089	0.245007
688.942281	0.245057
689.144456	0.245262
689.346612	0.245619
689.548750	0.245839
689.750870	0.245943
689.952971	0.246088
690.155055	0.246364
690.357120	0.246488
690.559167	0.246618
690.761195	0.246700
690.963206	0.246542
691.165198	0.246631
691.367172	0.246966
691.569128	0.246988
691.771065	0.247193
691.972984	0.247183
692.174885	0.247408
692.376768	0.247623
692.578633	0.247822
692.780479	0.248013
692.982308	0.248114
693.184118	0.248050
693.385909	0.248399
