sample name	sample
index	518
start time	 03-11-2021  03:42:13 PM


Wavelength (nm)	Absorbance
494.344910	0.043905
494.563924	0.043905
494.782919	0.043905
495.001897	0.204757
495.220856	0.419085
495.439797	0.838092
495.658719	1.511323
495.877624	NaN
496.096510	NaN
496.315378	NaN
496.534227	0.980763
496.753059	0.450792
496.971872	0.249195
497.190667	0.167509
497.409444	0.160123
497.628203	0.162206
497.846943	0.163340
498.065665	0.165557
498.284369	0.165936
498.503055	0.165505
498.721723	0.166012
498.940372	0.164808
499.159003	0.165228
499.377616	0.166160
499.596210	0.165608
499.814787	0.165940
500.033345	0.165530
500.251885	0.166489
500.470406	0.167896
500.688910	0.167878
500.907395	0.169166
501.125862	0.169145
501.344311	0.169243
501.562742	0.170144
501.781154	0.168495
501.999548	0.167933
502.217924	0.167147
502.436282	0.167118
502.654621	0.168831
502.872942	0.169289
503.091245	0.169536
503.309530	0.169754
503.527797	0.170195
503.746045	0.171251
503.964275	0.172016
504.182487	0.173482
504.400681	0.174411
504.618856	0.173909
504.837013	0.174611
505.055152	0.174736
505.273273	0.175333
505.491376	0.174464
505.709460	0.174908
505.927526	0.175273
506.145574	0.174554
506.363604	0.173497
506.581615	0.173335
506.799608	0.173114
507.017583	0.173174
507.235540	0.172358
507.453478	0.173061
507.671399	0.172945
507.889301	0.173650
508.107185	0.173804
508.325050	0.173904
508.542898	0.173735
508.760727	0.173933
508.978538	0.174272
509.196330	0.175429
509.414105	0.175046
509.631861	0.176070
509.849599	0.175781
510.067319	0.175584
510.285021	0.176743
510.502704	0.177568
510.720369	0.176908
510.938016	0.176937
511.155645	0.175987
511.373255	0.176964
511.590848	0.177251
511.808422	0.177615
512.025977	0.177995
512.243515	0.178401
512.461034	0.178454
512.678536	0.178974
512.896018	0.179257
513.113483	0.179852
513.330930	0.180532
513.548358	0.180921
513.765768	0.181083
513.983160	0.180504
514.200533	0.179788
514.417889	0.179587
514.635226	0.179953
514.852545	0.180706
515.069845	0.181379
515.287128	0.180882
515.504392	0.180287
515.721638	0.180531
515.938866	0.181249
516.156075	0.181346
516.373267	0.182081
516.590440	0.182742
516.807594	0.182649
517.024731	0.182606
517.241850	0.182855
517.458950	0.183184
517.676032	0.183303
517.893095	0.183054
518.110141	0.183480
518.327168	0.183373
518.544177	0.183538
518.761168	0.182911
518.978141	0.182776
519.195095	0.182586
519.412031	0.182634
519.628949	0.182739
519.845849	0.183286
520.062731	0.182951
520.279594	0.183513
520.496439	0.183511
520.713266	0.184406
520.930074	0.184967
521.146865	0.185103
521.363637	0.185113
521.580391	0.185297
521.797127	0.185305
522.013844	0.186102
522.230543	0.184727
522.447224	0.185303
522.663887	0.185534
522.880532	0.186312
523.097158	0.186798
523.313766	0.187160
523.530356	0.186900
523.746928	0.187093
523.963481	0.187585
524.180017	0.188516
524.396534	0.188513
524.613032	0.188398
524.829513	0.188557
525.045975	0.189160
525.262420	0.188901
525.478845	0.189761
525.695253	0.190559
525.911643	0.190902
526.128014	0.192065
526.344367	0.192602
526.560702	0.193597
526.777018	0.193539
526.993316	0.193648
527.209597	0.194688
527.425858	0.194718
527.642102	0.194764
527.858328	0.195054
528.074535	0.195328
528.290724	0.195868
528.506894	0.195887
528.723047	0.196400
528.939181	0.196885
529.155297	0.197715
529.371395	0.198521
529.587475	0.198743
529.803536	0.198740
530.019579	0.198922
530.235604	0.199160
530.451611	0.199842
530.667600	0.200344
530.883570	0.200853
531.099522	0.200981
531.315456	0.200985
531.531372	0.201434
531.747269	0.201739
531.963148	0.201563
532.179009	0.201659
532.394852	0.201662
532.610676	0.201527
532.826482	0.201871
533.042271	0.202186
533.258040	0.202136
533.473792	0.202882
533.689525	0.203803
533.905240	0.204655
534.120937	0.204876
534.336616	0.205211
534.552277	0.205948
534.767919	0.206076
534.983543	0.205967
535.199149	0.206619
535.414736	0.206503
535.630306	0.206273
535.845857	0.206290
536.061390	0.206745
536.276904	0.206756
536.492401	0.207188
536.707879	0.207656
536.923339	0.207635
537.138781	0.208146
537.354204	0.208316
537.569610	0.208946
537.784997	0.208985
538.000366	0.209456
538.215716	0.210284
538.431049	0.210186
538.646363	0.210166
538.861659	0.210939
539.076937	0.211016
539.292196	0.211556
539.507438	0.211502
539.722661	0.211858
539.937866	0.211892
540.153052	0.211584
540.368221	0.211805
540.583371	0.212833
540.798503	0.213082
541.013617	0.213428
541.228712	0.213868
541.443789	0.214516
541.658848	0.215088
541.873889	0.215669
542.088912	0.216341
542.303916	0.216586
542.518902	0.216109
542.733870	0.216743
542.948820	0.217032
543.163752	0.216957
543.378665	0.217053
543.593560	0.217285
543.808437	0.216662
544.023295	0.216952
544.238136	0.216862
544.452958	0.217198
544.667762	0.217072
544.882548	0.217189
545.097315	0.217411
545.312064	0.217705
545.526795	0.217833
545.741508	0.218354
545.956203	0.218674
546.170879	0.219212
546.385537	0.220004
546.600177	0.219947
546.814799	0.219958
547.029402	0.220724
547.243988	0.221204
547.458555	0.221662
547.673103	0.222198
547.887634	0.221873
548.102146	0.222752
548.316640	0.222761
548.531116	0.223138
548.745574	0.223158
548.960013	0.223255
549.174435	0.223382
549.388838	0.223398
549.603222	0.222931
549.817589	0.223543
550.031937	0.223465
550.246267	0.223168
550.460579	0.223528
550.674873	0.224207
550.889148	0.224676
551.103405	0.224654
551.317644	0.224863
551.531865	0.225299
551.746068	0.225659
551.960252	0.225998
552.174418	0.226580
552.388566	0.226993
552.602696	0.227345
552.816807	0.227009
553.030900	0.226959
553.244975	0.227018
553.459032	0.227451
553.673070	0.227587
553.887091	0.227769
554.101093	0.227770
554.315077	0.227585
554.529042	0.227666
554.742990	0.227896
554.956919	0.228153
555.170830	0.228516
555.384722	0.228588
555.598597	0.228454
555.812453	0.227776
556.026291	0.228116
556.240111	0.228187
556.453913	0.228346
556.667696	0.228843
556.881461	0.229097
557.095208	0.229810
557.308937	0.230186
557.522647	0.230615
557.736339	0.231377
557.950013	0.231454
558.163669	0.231617
558.377307	0.232321
558.590926	0.232584
558.804527	0.232597
559.018110	0.232480
559.231675	0.233084
559.445221	0.233031
559.658749	0.232990
559.872259	0.233117
560.085751	0.233598
560.299225	0.233646
560.512680	0.233857
560.726117	0.234816
560.939536	0.234942
561.152937	0.235073
561.366319	0.235376
561.579683	0.235992
561.793029	0.236604
562.006357	0.237015
562.219667	0.237007
562.432958	0.236924
562.646231	0.236553
562.859486	0.236703
563.072723	0.236342
563.285941	0.236466
563.499141	0.236441
563.712323	0.236305
563.925487	0.236468
564.138632	0.236479
564.351760	0.237127
564.564869	0.237492
564.777960	0.237346
564.991032	0.238070
565.204087	0.238190
565.417123	0.238079
565.630141	0.237840
565.843140	0.237791
566.056122	0.237682
566.269085	0.237499
566.482030	0.237706
566.694957	0.237960
566.907866	0.237709
567.120756	0.238492
567.333628	0.239159
567.546482	0.239468
567.759318	0.240088
567.972135	0.240605
568.184935	0.240502
568.397716	0.240546
568.610478	0.240491
568.823223	0.240693
569.035949	0.240615
569.248657	0.240693
569.461347	0.241266
569.674019	0.241348
569.886672	0.241578
570.099308	0.241993
570.311925	0.242223
570.524523	0.242844
570.737104	0.243183
570.949666	0.242990
571.162210	0.242922
571.374736	0.243098
571.587244	0.243148
571.799733	0.243424
572.012205	0.243587
572.224658	0.243864
572.437092	0.244226
572.649509	0.244178
572.861907	0.244765
573.074287	0.244568
573.286649	0.244495
573.498993	0.244412
573.711318	0.243938
573.923625	0.243637
574.135914	0.243424
574.348185	0.243075
574.560438	0.243511
574.772672	0.243520
574.984888	0.244247
575.197086	0.244031
575.409266	0.244219
575.621427	0.244536
575.833570	0.245183
576.045695	0.245805
576.257802	0.246629
576.469890	0.246976
576.681961	0.247103
576.894013	0.247109
577.106046	0.248013
577.318062	0.248303
577.530059	0.248578
577.742039	0.248500
577.954000	0.248389
578.165942	0.248168
578.377867	0.248025
578.589773	0.247968
578.801661	0.248249
579.013531	0.248125
579.225382	0.247864
579.437216	0.248007
579.649031	0.248230
579.860828	0.248511
580.072606	0.249029
580.284367	0.248796
580.496109	0.249369
580.707833	0.249711
580.919539	0.250163
581.131227	0.250759
581.342896	0.251230
581.554547	0.251672
581.766180	0.251727
581.977795	0.251515
582.189391	0.252013
582.400969	0.252101
582.612529	0.252114
582.824071	0.252081
583.035595	0.252523
583.247100	0.252866
583.458587	0.253185
583.670056	0.253548
583.881506	0.253615
584.092939	0.253537
584.304353	0.253244
584.515749	0.253262
584.727127	0.253153
584.938486	0.253064
585.149828	0.252900
585.361151	0.253043
585.572456	0.253323
585.783742	0.253387
585.995011	0.253642
586.206261	0.254110
586.417493	0.254570
586.628706	0.254746
586.839902	0.254663
587.051079	0.254923
587.262238	0.255103
587.473379	0.254966
587.684502	0.255470
587.895606	0.255566
588.106692	0.255750
588.317760	0.255541
588.528810	0.255900
588.739841	0.256521
588.950855	0.256483
589.161850	0.256080
589.372827	0.256166
589.583785	0.256512
589.794726	0.256781
590.005648	0.257191
590.216552	0.256932
590.427437	0.257166
590.638305	0.257164
590.849154	0.257558
591.059985	0.258085
591.270798	0.258240
591.481592	0.258328
591.692369	0.258746
591.903127	0.258621
592.113867	0.259509
592.324588	0.259743
592.535292	0.259946
592.745977	0.260333
592.956644	0.260709
593.167293	0.261237
593.377923	0.260878
593.588536	0.261267
593.799130	0.261214
594.009706	0.261285
594.220263	0.261783
594.430803	0.261658
594.641324	0.261494
594.851827	0.261298
595.062312	0.261240
595.272778	0.262034
595.483227	0.262008
595.693657	0.262639
595.904069	0.262522
596.114462	0.262290
596.324838	0.263121
596.535195	0.262992
596.745534	0.263383
596.955855	0.263850
597.166157	0.263548
597.376441	0.263821
597.586707	0.263747
597.796955	0.264276
598.007185	0.264560
598.217396	0.264509
598.427589	0.265263
598.637764	0.265390
598.847921	0.265663
599.058060	0.266238
599.268180	0.266513
599.478282	0.267014
599.688366	0.267004
599.898431	0.267002
600.108479	0.266878
600.318508	0.266778
600.528519	0.267120
600.738511	0.266962
600.948486	0.267228
601.158442	0.266965
601.368380	0.266948
601.578300	0.267368
601.788202	0.267479
601.998085	0.267756
602.207950	0.268014
602.417797	0.267939
602.627626	0.268229
602.837436	0.268280
603.047228	0.268442
603.257002	0.268422
603.466758	0.268336
603.676496	0.268735
603.886215	0.269071
604.095916	0.268979
604.305599	0.269193
604.515264	0.269817
604.724910	0.270118
604.934538	0.270638
605.144148	0.270770
605.353740	0.271295
605.563314	0.271680
605.772869	0.271617
605.982406	0.272081
606.191925	0.271987
606.401425	0.271636
606.610908	0.271915
606.820372	0.271899
607.029818	0.272054
607.239246	0.271746
607.448655	0.271594
607.658047	0.271669
607.867420	0.271865
608.076775	0.272245
608.286111	0.272151
608.495430	0.271807
608.704730	0.271661
608.914012	0.272038
609.123275	0.272080
609.332521	0.272006
609.541748	0.272417
609.750957	0.272378
609.960148	0.272647
610.169321	0.273012
610.378475	0.273128
610.587611	0.273232
610.796729	0.273377
611.005829	0.273743
611.214910	0.273938
611.423974	0.273680
611.633019	0.273662
611.842045	0.273752
612.051054	0.273736
612.260044	0.274091
612.469017	0.274670
612.677970	0.274885
612.886906	0.274952
613.095824	0.275290
613.304723	0.275568
613.513604	0.276289
613.722467	0.276253
613.931311	0.276694
614.140138	0.276712
614.348946	0.276752
614.557736	0.276627
614.766507	0.276765
614.975261	0.276827
615.183996	0.277103
615.392713	0.277034
615.601412	0.277215
615.810092	0.277090
616.018754	0.277337
616.227399	0.277312
616.436024	0.277686
616.644632	0.277937
616.853222	0.278298
617.061793	0.278647
617.270346	0.278600
617.478880	0.279065
617.687397	0.279466
617.895895	0.279708
618.104375	0.279978
618.312837	0.280037
618.521281	0.280220
618.729706	0.280087
618.938113	0.279902
619.146502	0.280182
619.354873	0.280128
619.563226	0.280037
619.771560	0.280455
619.979876	0.280592
620.188174	0.280776
620.396453	0.280845
620.604715	0.281015
620.812958	0.281344
621.021183	0.281320
621.229390	0.281720
621.437578	0.282159
621.645748	0.281817
621.853900	0.282037
622.062034	0.282128
622.270150	0.282432
622.478247	0.282669
622.686326	0.282753
622.894387	0.282926
623.102430	0.282972
623.310454	0.283110
623.518461	0.283364
623.726449	0.283409
623.934418	0.283452
624.142370	0.283411
624.350303	0.283667
624.558218	0.283822
624.766115	0.283895
624.973994	0.283777
625.181855	0.283627
625.389697	0.283696
625.597521	0.283595
625.805327	0.283887
626.013114	0.284050
626.220883	0.283899
626.428634	0.284055
626.636367	0.284389
626.844082	0.284619
627.051778	0.284870
627.259457	0.285117
627.467117	0.285478
627.674758	0.285432
627.882382	0.285650
628.089987	0.285996
628.297574	0.285912
628.505143	0.286052
628.712694	0.286083
628.920226	0.286197
629.127740	0.286161
629.335236	0.286428
629.542714	0.286943
629.750174	0.287081
629.957615	0.287303
630.165038	0.287651
630.372443	0.287870
630.579829	0.288068
630.787198	0.288382
630.994548	0.288581
631.201880	0.288988
631.409194	0.288943
631.616489	0.289278
631.823766	0.289301
632.031025	0.289473
632.238266	0.289520
632.445489	0.289758
632.652693	0.289948
632.859879	0.290228
633.067047	0.290237
633.274197	0.290271
633.481329	0.290280
633.688442	0.290552
633.895537	0.290674
634.102614	0.290860
634.309672	0.291007
634.516713	0.291103
634.723735	0.291115
634.930739	0.291126
635.137724	0.291558
635.344692	0.291686
635.551641	0.292058
635.758572	0.292034
635.965485	0.291944
636.172379	0.292035
636.379256	0.292211
636.586114	0.292550
636.792954	0.292886
636.999775	0.293094
637.206579	0.293432
637.413364	0.293522
637.620131	0.293658
637.826880	0.294115
638.033610	0.294394
638.240323	0.294454
638.447017	0.294453
638.653692	0.294551
638.860350	0.294272
639.066990	0.294295
639.273611	0.294065
639.480214	0.294601
639.686798	0.294697
639.893365	0.294882
640.099913	0.295161
640.306443	0.295771
640.512955	0.296077
640.719449	0.296621
640.925924	0.296725
641.132381	0.297177
641.338820	0.297177
641.545241	0.297216
641.751644	0.297228
641.958028	0.297241
642.164394	0.297180
642.370742	0.297121
642.577071	0.296940
642.783383	0.297189
642.989676	0.297346
643.195951	0.297635
643.402207	0.298098
643.608446	0.298457
643.814666	0.298547
644.020868	0.298690
644.227052	0.298785
644.433218	0.299100
644.639365	0.299232
644.845494	0.299362
645.051605	0.299689
645.257698	0.299655
645.463772	0.299698
645.669828	0.299949
645.875866	0.300010
646.081886	0.300148
646.287888	0.300219
646.493871	0.300484
646.699836	0.300558
646.905783	0.300455
647.111712	0.300799
647.317622	0.301080
647.523514	0.301332
647.729388	0.301678
647.935244	0.301866
648.141082	0.302362
648.346901	0.302464
648.552702	0.302762
648.758485	0.302828
648.964250	0.302772
649.169996	0.302959
649.375724	0.303120
649.581434	0.303457
649.787126	0.303854
649.992800	0.303875
650.198455	0.303989
650.404092	0.304120
650.609711	0.304544
650.815311	0.304888
651.020894	0.304804
651.226458	0.304929
651.432004	0.304991
651.637532	0.305130
651.843041	0.305325
652.048532	0.305562
652.254006	0.305789
652.459460	0.305937
652.664897	0.306444
652.870315	0.306872
653.075716	0.307099
653.281097	0.307224
653.486461	0.307299
653.691807	0.307355
653.897134	0.307538
654.102443	0.307427
654.307734	0.307696
654.513006	0.307453
654.718261	0.307543
654.923497	0.307612
655.128715	0.307888
655.333915	0.308037
655.539096	0.308301
655.744259	0.308614
655.949404	0.309259
656.154531	0.309195
656.359640	0.309481
656.564730	0.309777
656.769802	0.310162
656.974856	0.310339
657.179892	0.310928
657.384909	0.311302
657.589908	0.311570
657.794889	0.311739
657.999852	0.311988
658.204797	0.312209
658.409723	0.312422
658.614631	0.312619
658.819521	0.312855
659.024393	0.312684
659.229246	0.312915
659.434081	0.312748
659.638898	0.313000
659.843697	0.313073
660.048478	0.313184
660.253240	0.313631
660.457984	0.313918
660.662710	0.314051
660.867417	0.314233
661.072107	0.314515
661.276778	0.314911
661.481431	0.314977
661.686066	0.315457
661.890682	0.315765
662.095281	0.315760
662.299861	0.315659
662.504422	0.315858
662.708966	0.316491
662.913491	0.316481
663.117999	0.316961
663.322488	0.316997
663.526958	0.317188
663.731411	0.317117
663.935845	0.317216
664.140261	0.317684
664.344659	0.317713
664.549038	0.317466
664.753400	0.317560
664.957743	0.317519
665.162068	0.317776
665.366375	0.317905
665.570663	0.318325
665.774933	0.318842
665.979185	0.318855
666.183419	0.319001
666.387635	0.319311
666.591832	0.319551
666.796011	0.319924
667.000172	0.320130
667.204315	0.320274
667.408439	0.320690
667.612545	0.320807
667.816634	0.321262
668.020703	0.321495
668.224755	0.322086
668.428788	0.322515
668.632803	0.322609
668.836800	0.322881
669.040779	0.323493
669.244739	0.323510
669.448681	0.323528
669.652605	0.323805
669.856511	0.324083
670.060399	0.323905
670.264268	0.324160
670.468119	0.324431
670.671952	0.324752
670.875767	0.324621
671.079563	0.324860
671.283341	0.325091
671.487101	0.325353
671.690843	0.325831
671.894567	0.325949
672.098272	0.326182
672.301959	0.326394
672.505628	0.326356
672.709278	0.326629
672.912911	0.326823
673.116525	0.327105
673.320121	0.326837
673.523699	0.326902
673.727258	0.327321
673.930799	0.327386
674.134322	0.327512
674.337827	0.327951
674.541314	0.328280
674.744782	0.328672
674.948232	0.328870
675.151664	0.329305
675.355078	0.329432
675.558474	0.329603
675.761851	0.330026
675.965210	0.330417
676.168551	0.330649
676.371873	0.331036
676.575178	0.330967
676.778464	0.331047
676.981732	0.331334
677.184981	0.331648
677.388213	0.331782
677.591426	0.331906
677.794621	0.331947
677.997798	0.331946
678.200956	0.331686
678.404097	0.332244
678.607219	0.332632
678.810323	0.332968
679.013408	0.333277
679.216476	0.333726
679.419525	0.333855
679.622556	0.334159
679.825569	0.334641
680.028563	0.335346
680.231540	0.335574
680.434498	0.335815
680.637438	0.336136
680.840359	0.336309
681.043263	0.336319
681.246148	0.336703
681.449015	0.337080
681.651864	0.337321
681.854694	0.337470
682.057506	0.337483
682.260301	0.337624
682.463076	0.337630
682.665834	0.337765
682.868573	0.338269
683.071295	0.338306
683.273998	0.338741
683.476682	0.338883
683.679349	0.339002
683.881997	0.339542
684.084627	0.339844
684.287239	0.340131
684.489833	0.340505
684.692408	0.340492
684.894965	0.340675
685.097504	0.340636
685.300025	0.340856
685.502527	0.341020
685.705012	0.341064
685.907478	0.341222
686.109925	0.341497
686.312355	0.341482
686.514766	0.341806
686.717159	0.341928
686.919534	0.341882
687.121891	0.341929
687.324230	0.341993
687.526550	0.342169
687.728852	0.342435
687.931136	0.342554
688.133401	0.342907
688.335649	0.343073
688.537878	0.343439
688.740089	0.343749
688.942281	0.344033
689.144456	0.344221
689.346612	0.344238
689.548750	0.344347
689.750870	0.344554
689.952971	0.344578
690.155055	0.344699
690.357120	0.344843
690.559167	0.344743
690.761195	0.345035
690.963206	0.345209
691.165198	0.345418
691.367172	0.345526
691.569128	0.345649
691.771065	0.345930
691.972984	0.346288
692.174885	0.346529
692.376768	0.346939
692.578633	0.346966
692.780479	0.347324
692.982308	0.347415
693.184118	0.347486
693.385909	0.347349
693.587683	0.347432
