sample name	sample
index	346
start time	 03-01-2021  11:39:24 AM
880	0.426552
Peak Time (s)	92.535
Peak Height 	0.4266
calc peak height	90,93
Baseline Time (s)	11.039
Baseline Value 	-0.004424
subtract baseline	10,4
Abs	0.097910
Peak Time (s)	90.535
Peak Height 	0.09791
calc peak height	90,93
Baseline Time (s)	10.535
Baseline Value 	2.8244E-4
subtract baseline	10,3
PK_550	0.142752
Peak Time (s)	90.535
Peak Height 	0.1428
calc peak height	90,93
Baseline Time (s)	9.534
Baseline Value 	2.232E-4
subtract baseline	10,2
PK_880	0.182154
Peak Time (s)	90.535
Peak Height 	0.1822
calc peak height	90,93
Baseline Time (s)	9.037
Baseline Value 	0.001529
subtract baseline	10,1


Time (s)	A880-A510	A880-A775	A880-A975	A880	I510	I775	I975	I880	
0.034000	0.001477	0.000113	0.002963	0.002077	6932.434042	47921.164827	3993.660269	25226.259151
0.535000	-0.001890	0.000196	-0.002029	0.005101	6872.908320	47617.190646	3972.421869	25070.939152
1.035500	0.000656	0.000018	-0.002995	0.003790	6908.718726	47733.948412	3973.327364	25138.109223
1.538000	-0.003490	-0.000391	-0.007649	0.006736	6843.122089	47388.885893	3953.537743	24987.440533
2.036000	0.002168	-0.000152	0.003390	0.000637	6952.463388	48043.144542	3998.661919	25300.560800
2.539000	-0.000853	-0.000257	0.001308	0.000109	6929.032221	48087.217265	3994.496566	25327.886461
3.036500	0.001779	0.000619	0.003229	-0.000861	6962.942131	48279.823116	4002.258444	25378.167643
3.537000	0.000387	0.000448	0.005156	0.001010	6932.211852	48066.839549	4002.408634	25281.284800
4.040000	-0.001118	-0.000595	-0.001371	-0.000031	6927.859165	48066.546029	3987.722397	25335.112852
4.537500	0.003012	0.000137	0.002830	0.000333	6963.312101	48104.978696	3997.976794	25316.312339
5.035000	0.001740	0.000478	0.002732	0.000855	6946.385013	48086.046077	3996.313806	25289.293857
5.535000	-0.001222	-0.000018	0.002061	-0.000041	6926.986908	48127.796072	3996.916891	25335.674759
6.035500	-0.001341	-0.000179	0.003634	-0.000306	6928.351224	48138.559968	4001.853628	25349.363550
6.535500	0.001042	0.000781	0.001811	0.000271	6945.311318	48178.530915	3995.408758	25319.498179
7.036000	0.000077	0.000026	0.003352	0.000038	6938.431487	48124.073181	4000.171481	25331.579163
7.536000	0.000209	0.000384	-0.000297	-0.000262	6942.482684	48192.630375	3991.197874	25347.079921
8.036500	0.001527	-0.000181	0.004121	-0.000729	6959.305817	48182.474138	4004.307313	25371.299784
8.537000	0.001108	0.000746	0.004938	0.000171	6946.878702	48185.368251	4004.084842	25324.702004
9.037000	0.000000	0.000092	0.004668	-0.000103	6939.029329	48145.621755	4004.095360	25338.866373
9.534500	-0.003509	0.000000	-0.005484	0.004081	6867.375907	47702.105795	3966.046938	25123.194500
10.035000	0.000166	-0.000083	0.002810	-0.000432	6943.680740	48161.687526	3999.976586	25355.921427
10.535000	-0.000875	-0.000287	0.000000	-0.000830	6937.638382	48181.917658	3993.509476	25376.533334
11.038500	0.001347	0.000273	-0.001560	0.000000	6950.735081	48153.805603	3987.137111	25333.530670
11.536000	-0.002866	-0.000605	-0.004259	0.003742	6876.452635	47674.625604	3970.138066	25140.584319
12.036000	0.000995	-0.000109	-0.001073	-0.000796	6954.915135	48196.968376	3990.552633	25374.768323
12.536000	-0.001537	-0.000285	0.003268	-0.000871	6931.815498	48186.486081	4002.391885	25378.689605
13.036000	0.001638	0.000668	0.001525	-0.002075	6973.087811	48412.016510	4000.939267	25441.233754
13.540000	-0.002845	-0.000185	0.001038	0.004383	6870.725010	47651.929756	3982.400984	25107.725355
14.034500	-0.000580	0.000117	0.001600	-0.001270	6944.549884	48270.150134	3998.977775	25399.410433
14.540500	-0.000785	-0.000848	0.004925	0.001499	6916.659653	47881.406026	4000.472464	25256.038943
15.037500	-0.000190	-0.000141	0.003035	-0.000691	6942.764756	48182.612219	4001.278033	25369.319156
15.563000	-0.002176	-0.000452	0.000959	0.004294	6877.729004	47633.471915	3982.428182	25112.265637
16.035500	0.002408	0.000485	0.005675	-0.000689	6967.261171	48247.916997	4008.401505	25369.260498
16.536000	-0.000304	-0.000610	0.002052	-0.001901	6953.088702	48260.051337	4001.890896	25432.171727
17.036500	0.001427	-0.000144	-0.000933	-0.000437	6955.609373	48155.880789	3989.970429	25356.156476
17.536500	-0.001886	0.000397	-0.002977	0.002880	6893.538325	47867.408520	3975.768569	25184.899793
18.036500	-0.000123	0.000476	-0.000569	0.000797	6929.421164	48091.819361	3987.654024	25292.277887
18.537000	-0.000915	0.000069	0.002472	0.000502	6924.767382	48080.161849	3996.561065	25307.527443
19.037500	-0.001309	0.000117	0.001273	0.000618	6919.992055	48073.129798	3993.040729	25301.532070
19.534500	-0.000914	-0.000300	0.003835	0.002121	6909.649335	47873.701863	3995.876009	25223.945682
20.035500	-0.000921	0.000668	0.000162	0.000646	6923.366158	48127.637666	3990.004391	25300.120598
20.535500	-0.001755	-0.000805	0.003545	-0.000053	6922.106490	48047.012490	4000.935651	25336.280913
21.036000	0.000612	0.000812	0.003217	0.000949	6934.893644	48111.029441	3997.360162	25284.426930
21.536000	-0.003057	-0.000467	-0.001504	0.001419	6896.230197	47929.272978	3983.518054	25260.165074
22.039000	-0.002686	0.000130	-0.002251	0.000407	6909.107867	48096.507480	3984.222114	25312.485329
22.536500	-0.000729	-0.000338	0.001990	-0.000174	6932.843885	48108.172371	3997.081953	25342.518131
23.040000	-0.000534	0.000168	0.002657	0.000664	6926.829592	48073.711180	3996.625375	25299.189303
23.537500	0.000570	0.000615	0.003817	0.000932	6934.658707	48092.299723	3999.015869	25285.311451
24.037500	0.000576	0.000691	-0.004081	0.001028	6933.817182	48090.228584	3977.739374	25280.353742
24.535000	0.000175	0.000832	-0.000826	0.001182	6928.616646	48088.861472	3985.948208	25272.411498
25.035000	0.000196	-0.000085	0.003036	0.000439	6935.776376	48070.757759	3998.244330	25310.790072
25.535500	-0.000506	-0.000652	0.002773	-0.000061	6933.879931	48063.800525	3998.879656	25336.678581
26.035500	0.000705	0.000485	0.000589	0.000403	6940.898896	48133.884757	3991.789701	25312.665935
26.539000	-0.000830	-0.000086	-0.001263	0.000242	6928.009614	48091.221114	3987.285941	25321.020381
27.036000	0.000525	-0.000551	0.002991	0.000181	6941.296288	48049.135393	3998.816396	25324.150749
27.539500	0.001480	0.000165	0.004566	-0.002098	6971.816037	48361.777135	4009.215492	25442.446908
28.037000	0.000787	0.000535	0.001872	-0.001738	6961.853860	48362.759539	4000.966980	25423.719884
28.537000	0.002330	0.000197	0.001241	-0.001679	6975.899744	48321.256519	3999.114297	25420.665557
29.038000	0.000383	-0.000183	0.002104	-0.001618	6956.903430	48275.070708	4001.267516	25417.464618
29.538000	-0.000479	-0.000302	0.001607	-0.001770	6950.200679	48278.548986	4000.339177	25425.359669
30.035500	0.000995	0.000646	0.001820	-0.001640	6962.884570	48364.161991	4000.562853	25418.603290
30.535500	-0.000768	-0.000094	0.004685	-0.002097	6950.567487	48334.511162	4009.535702	25442.401548
31.055000	-0.003092	0.001053	-0.001838	0.003877	6873.119047	47832.110952	3976.143778	25133.691585
31.535500	-0.003020	0.000224	0.001347	0.002967	6882.205113	47840.488655	3986.979622	25180.433000
32.067000	0.000503	-0.000193	0.006617	-0.001638	6958.221548	48276.153015	4013.532533	25418.506643
32.586000	0.001707	0.000475	0.002868	-0.001058	6964.118991	48285.272191	4001.817031	25388.362751
33.034500	-0.000298	0.000943	0.005181	0.002881	6908.302707	47923.766756	3997.447178	25184.819865
33.537500	-0.001281	0.000230	0.002004	0.004461	6884.474246	47686.646894	3984.754657	25103.704387
34.035000	0.001379	-0.000260	0.003737	-0.001846	6968.466737	48290.823366	4006.285244	25429.296593
34.538000	0.001409	0.000208	0.001520	-0.002510	6975.043693	48409.450048	4002.097960	25463.887238
35.035500	-0.002986	-0.000008	-0.000510	0.001428	6896.802939	47975.951457	3986.132963	25259.702944
35.536000	-0.001715	0.000107	-0.001824	0.001997	6903.339134	47928.804170	3981.141004	25230.345483
36.036000	-0.000898	-0.000136	0.002632	0.000681	6923.255434	48040.258578	3996.511403	25298.275842
36.536500	0.001060	0.000833	0.002689	0.001696	6932.085120	48035.452299	3993.945622	25245.866335
37.039500	-0.002374	-0.000066	0.003759	0.002267	6894.693594	47882.874030	3995.279379	25216.426876
37.537000	-0.002175	0.000151	0.002303	0.001890	6900.055102	47944.537950	3992.396469	25235.885164
38.037000	-0.001670	-0.000134	0.002350	0.001512	6908.274100	47954.062707	3993.529996	25255.348562
38.537500	-0.001033	0.000035	0.001764	0.001126	6917.827718	48011.804772	3992.997074	25275.276947
39.035000	-0.001608	-0.000071	0.002256	0.002422	6900.379222	47866.367540	3990.850466	25208.489078
39.535500	-0.000394	0.000536	0.001270	0.001832	6917.208185	47990.526848	3989.795898	25238.879116
40.035500	-0.001643	0.000619	0.003905	0.001708	6906.696982	48011.946771	3997.170312	25245.238376
40.536000	-0.000322	0.000098	0.005110	0.001100	6924.718715	48021.035881	4002.041378	25276.619688
41.036500	-0.001411	0.000088	0.000075	0.001267	6912.980650	48002.651301	3988.115559	25268.002308
41.537000	-0.002470	-0.000263	-0.000623	0.001489	6901.044507	47943.216432	3985.672925	25256.569475
42.037000	0.000654	0.000897	0.006756	0.001423	6930.837704	48070.571283	4005.611755	25259.949754
42.537000	0.000333	0.000223	-0.000526	0.001170	6930.205622	48026.749087	3986.775725	25273.017200
43.037500	-0.002170	-0.000543	0.003906	0.000609	6912.038233	48005.484347	4000.125882	25302.011079
43.534500	-0.003586	0.000053	0.000564	0.001496	6890.596348	47975.165745	3988.807604	25256.177222
44.035500	-0.001210	0.000690	0.004078	0.001564	6912.079489	48034.288271	3998.020586	25252.669731
44.536000	-0.001959	0.000398	0.003174	0.000687	6913.278039	48095.289161	3997.949889	25297.996220
45.036000	-0.001009	-0.000196	0.006994	-0.001822	6945.705054	48295.118722	4015.059980	25428.088611
45.536500	-0.002373	0.000166	0.002090	0.003686	6881.542200	47760.116496	3987.043193	25143.493746
46.052500	0.002204	0.000102	0.002326	-0.001615	6974.093124	48304.573916	4001.855883	25417.294001
46.539500	0.001723	0.000701	0.004147	-0.001124	6964.891442	48315.914104	4005.443301	25391.801510
47.036500	-0.000168	0.000180	-0.000328	0.004509	6894.361272	47676.537697	3978.458393	25101.266653
47.537500	-0.002791	0.000718	-0.000159	0.004023	6874.548829	47782.315465	3980.186897	25126.192814
48.035000	-0.000539	0.000013	-0.001630	-0.001419	6946.336494	48274.762228	3990.731605	25407.140373
48.537000	-0.001628	0.000680	-0.000053	0.001526	6908.545599	48037.306457	3987.088276	25254.664918
49.037500	-0.004936	0.000497	-0.000459	0.003611	6858.551805	47802.108264	3980.483748	25147.331282
49.537000	-0.002664	-0.000005	-0.001196	0.004316	6873.018452	47677.361916	3976.678283	25111.174006
50.036000	0.001883	0.000381	0.003024	-0.001199	6967.114625	48290.234989	4002.615991	25395.695419
50.539000	-0.000314	0.000805	0.004566	-0.001097	6945.427674	48324.026302	4006.505012	25390.426706
51.037000	-0.000688	0.000184	0.003278	0.004017	6894.099012	47727.690518	3989.322795	25126.471182
51.537000	-0.003131	-0.000259	0.002115	0.004124	6870.472039	47670.907969	3985.944455	25120.992534
52.037000	0.000581	-0.000693	0.004356	-0.000625	6949.399076	48118.162677	4004.659902	25365.893035
52.540000	0.005194	-0.003225	-0.001851	0.018585	6814.185683	45909.031035	3938.022267	24391.469783
53.035000	-0.113288	-0.014436	-0.187505	0.083811	5449.674835	38964.140354	3452.867851	21386.780900
53.535000	-0.128547	-0.016511	-0.198348	-0.028274	6096.913304	49367.700603	3615.766848	26846.311463
54.035500	-0.069330	-0.177662	-0.142133	-0.319031	10108.340858	65535.000000	4573.987604	49725.280679
54.538000	-0.006355	-0.157372	-0.058376	-0.298742	10857.121255	65535.000000	4848.039837	47585.462580
55.036000	0.047217	-0.026847	-0.011709	-0.167954	9554.207776	65497.108120	4493.099567	35951.542165
55.536000	0.076544	0.064844	0.019829	-0.006975	7803.175052	56262.597987	4065.074691	25697.627884
56.039500	0.105308	0.097006	0.043807	0.062633	7359.313927	51852.235706	3942.129473	22313.328550
56.534000	0.125706	0.111127	0.051458	0.086983	7318.535254	50712.146968	3900.266342	21251.811860
57.037000	0.123477	0.105114	0.049384	0.011143	8142.391250	59056.325504	4097.968105	24763.859527
57.534500	0.152494	0.130317	0.071731	0.092069	7547.086203	52291.134319	3938.271781	21037.513622
58.035000	0.166294	0.139491	0.090386	0.122725	7368.590808	49906.370513	3908.131365	19797.657431
58.535500	0.168447	0.144977	0.091487	0.199524	6656.314562	42784.339893	3736.056585	17049.934240
59.035500	0.170075	0.152443	0.090703	0.224062	6461.157649	41246.040115	3684.873868	16269.624194
59.536000	0.178783	0.156397	0.098152	0.255001	6281.369778	38934.459916	3639.990117	15346.551728
60.036500	0.186510	0.162160	0.109213	0.281733	6134.790959	37234.750849	3611.366854	14600.248314
60.536000	0.188344	0.161722	0.097231	0.300922	6006.435607	35716.519794	3557.413322	14092.163681
61.036500	0.180765	0.161123	0.095971	0.324462	5788.746958	33940.967604	3517.172469	13498.781693
61.534500	0.179354	0.160734	0.098393	0.338861	5683.980189	32900.927973	3498.544623	13151.353602
62.037000	0.177751	0.166792	0.099057	0.359509	5542.851616	31909.005765	3468.585813	12672.834824
62.535000	0.170947	0.156036	0.084266	0.346560	5581.111249	32055.964029	3465.893355	12970.268342
63.035000	0.161226	0.152152	0.080838	0.394872	5240.521002	28751.402148	3394.740256	11904.310430
63.535500	0.154354	0.163240	0.068785	0.393768	5209.087098	29488.125758	3380.740348	11927.372916
64.035500	0.161539	0.165349	0.070612	0.353978	5477.631719	32183.590593	3435.888567	12798.799799
64.536000	0.160664	0.164321	0.075130	0.349254	5500.945739	32434.038028	3448.868696	12907.641226
65.040000	0.165467	0.164863	0.075155	0.342102	5574.706431	32962.403970	3459.140737	13074.731564
65.537000	0.168703	0.166148	0.073762	0.339042	5614.381764	33264.962735	3461.552129	13147.073550
66.039500	0.164368	0.164976	0.074843	0.333412	5622.606740	33578.513621	3471.349638	13281.484081
66.537500	0.165190	0.163779	0.067774	0.326765	5670.553591	33966.128508	3470.728221	13442.426661
67.037500	0.160140	0.163632	0.069425	0.328088	5629.591069	33861.154451	3471.211618	13410.209738
67.535000	0.164274	0.164518	0.070964	0.320721	5703.968082	34455.583984	3484.447802	13590.953040
68.038000	0.167899	0.163830	0.072283	0.318621	5741.721031	34558.374548	3489.600090	13643.023750
68.538500	0.168041	0.161466	0.075111	0.315852	5761.122841	34588.034917	3498.126965	13712.111943
69.035500	0.165914	0.162046	0.074682	0.315903	5746.598683	34626.684713	3497.390216	13710.824552
69.539000	0.166369	0.160978	0.069386	0.314995	5755.673484	34614.968149	3490.704766	13733.562981
70.039000	0.167134	0.161515	0.079282	0.316663	5749.660030	34532.469186	3503.297964	13691.838262
70.536000	0.167946	0.160262	0.078001	0.317195	5751.521642	34402.579898	3500.501226	13678.548698
71.037000	0.166263	0.160912	0.071224	0.325344	5686.753634	33862.849709	3477.928999	13477.169576
71.540000	0.163527	0.160079	0.078160	0.328396	5649.309290	33586.933200	3483.729386	13402.719391
72.034500	0.170389	0.160346	0.078957	0.325788	5710.841835	33790.899656	3488.855525	13466.305747
72.540000	0.171316	0.159705	0.075459	0.329056	5695.505403	33513.862131	3478.707750	13386.685091
73.035500	0.166295	0.158889	0.071596	0.337720	5607.492052	32852.259380	3460.329417	13178.457810
73.535500	0.164806	0.159336	0.077628	0.343743	5560.348137	32469.885063	3460.342345	13036.145850
74.036000	0.170769	0.158262	0.072275	0.341131	5614.228301	32574.840901	3456.392318	13097.617928
74.536000	0.172354	0.159393	0.076291	0.346148	5592.537892	32310.363733	3454.956243	12979.884334
75.036500	0.169042	0.158720	0.075018	0.354273	5521.469170	31720.003144	3441.627569	12792.028588
75.536500	0.167933	0.158511	0.072864	0.359861	5480.715893	31337.550952	3430.863850	12664.865383
76.037000	0.171786	0.157232	0.077526	0.356146	5526.817586	31497.673935	3442.519913	12749.231376
76.539500	0.171195	0.156272	0.073656	0.358046	5511.551461	31309.767372	3434.466985	12705.990777
77.035000	0.170274	0.156582	0.077394	0.360667	5489.996480	31158.847336	3436.016517	12646.655924
77.537500	0.171363	0.156840	0.076780	0.370105	5439.887614	30567.310104	3422.205720	12435.953430
78.035500	0.175119	0.155643	0.077514	0.365869	5487.835503	30761.759694	3428.994401	12529.959933
78.535500	0.179057	0.156936	0.079520	0.369549	5489.403233	30608.937069	3426.699323	12448.246810
79.036000	0.172900	0.155219	0.076241	0.374129	5425.149122	30209.659652	3416.040712	12347.500502
79.539500	0.171408	0.154688	0.071633	0.378529	5390.554757	29901.069716	3404.059326	12251.711872
80.036500	0.175962	0.155158	0.079364	0.374726	5439.761721	30168.330657	3419.447076	12334.457992
80.539500	0.174457	0.154019	0.082011	0.375806	5424.441790	30029.213007	3421.568294	12310.886901
81.037000	0.178201	0.154439	0.084952	0.378932	5428.091988	29860.514730	3421.316526	12242.986443
81.537000	0.171274	0.151846	0.076133	0.385024	5352.198778	29326.246891	3401.438701	12112.080125
82.035500	0.175403	0.152129	0.079401	0.382116	5392.939851	29521.333601	3409.590437	12174.355201
82.536000	0.179216	0.151753	0.087924	0.384630	5400.533288	29344.597267	3417.633295	12120.506878
83.035500	0.176191	0.150227	0.081574	0.389916	5352.346410	28932.682699	3402.159976	12008.296721
83.540000	0.175933	0.150375	0.081919	0.389624	5352.535496	28959.046890	3402.995601	12014.447039
84.036500	0.177293	0.150144	0.085259	0.392269	5345.169240	28786.927172	3403.910186	11958.785512
84.536500	0.177657	0.148992	0.084767	0.393834	5338.296820	28625.296634	3401.208863	11925.992423
85.039000	0.174987	0.147863	0.083217	0.398170	5298.610519	28303.338602	3393.551662	11835.786879
85.536500	0.178291	0.147369	0.082712	0.398992	5312.593803	28226.334418	3391.838634	11818.773786
86.037500	0.179437	0.146619	0.090125	0.400846	5308.598438	28074.799308	3399.046177	11780.547957
86.537500	0.179178	0.146817	0.086176	0.404265	5287.937305	27888.639017	3389.514258	11710.487798
87.035000	0.175974	0.145095	0.086936	0.407947	5249.713642	27579.320022	3385.777614	11635.640822
87.535500	0.174232	0.144100	0.075841	0.414209	5206.042746	27169.934781	3364.096613	11509.800318
88.035500	0.180250	0.143865	0.085464	0.410623	5258.544464	27358.114173	3380.517585	11581.649791
88.536000	0.180900	0.143394	0.096940	0.412899	5249.570110	27203.731991	3392.252986	11535.976240
89.038500	0.180003	0.143042	0.085480	0.416643	5224.158059	26975.431742	3372.992603	11461.392525
89.536500	0.177080	0.140575	0.083042	0.415448	5214.756125	26904.866013	3371.446755	11485.119104
90.037000	0.178567	0.140838	0.080179	0.418187	5207.978026	26768.310595	3364.538232	11430.812768
90.534500	0.182154	0.142752	0.097910	0.422416	5204.504810	26641.285116	3381.342916	11347.609452
91.037500	0.176395	0.138686	0.090869	0.422591	5172.661013	26410.312625	3372.296805	11344.180200
91.535000	0.175571	0.139494	0.093385	0.422742	5167.471297	26445.942916	3375.244852	11341.222764
92.035500	0.178738	0.139049	0.091040	0.425527	5169.505443	26271.275231	3368.869629	11286.918628
92.535500	0.178850	0.139045	0.086894	0.426552	5164.649432	26215.892515	3362.519952	11267.012079
93.036000	0.179524	0.138215	0.096829	0.427475	5163.331758	26121.931342	3373.636483	11249.144970
93.539000	0.174975	0.136757	0.085976	0.434797	5101.173554	25656.622048	3351.451567	11108.634537
94.039500	0.177001	0.136559	0.089217	0.430507	5134.030570	25872.331124	3360.531641	11190.676079
94.537000	0.180235	0.136178	0.084194	0.431215	5147.309487	25814.769766	3353.608245	11177.087517
95.037000	0.182274	0.136041	0.096333	0.432683	5150.319400	25730.118456	3366.574552	11148.972026
95.534000	0.179054	0.136302	0.085474	0.440078	5094.974127	25357.739591	3344.585648	11008.766190
96.040000	0.181639	0.134534	0.098446	0.433973	5140.179995	25583.368806	3367.586670	11124.326908
96.535000	0.180893	0.133259	0.092951	0.433575	5138.356033	25537.574001	3361.342323	11131.927802
97.034500	0.181353	0.133185	0.088425	0.435246	5132.006009	25446.712587	3353.847775	11100.100240
97.535500	0.178830	0.132509	0.082043	0.442046	5083.712311	25061.464007	3338.256937	10971.853262
