sample name	sample
index	36
start time	 02-11-2021  01:03:56 PM


Wavelength (nm)	Absorbance
494.344910	-0.087994
494.563924	-0.087994
494.782919	-0.087994
495.001897	-0.025771
495.220856	-0.183580
495.439797	-0.217181
495.658719	-0.163860
495.877624	-0.185219
496.096510	-0.173816
496.315378	-0.105517
496.534227	-0.118221
496.753059	-0.103135
496.971872	-0.033481
497.190667	0.085265
497.409444	0.099120
497.628203	0.095047
497.846943	0.102052
498.065665	0.103159
498.284369	0.101557
498.503055	0.103171
498.721723	0.103953
498.940372	0.103763
499.159003	0.103212
499.377616	0.105170
499.596210	0.106485
499.814787	0.104634
500.033345	0.103029
500.251885	0.103795
500.470406	0.104774
500.688910	0.105364
500.907395	0.105945
501.125862	0.106305
501.344311	0.105565
501.562742	0.105838
501.781154	0.107522
501.999548	0.109273
502.217924	0.108951
502.436282	0.108246
502.654621	0.105664
502.872942	0.106453
503.091245	0.106818
503.309530	0.106402
503.527797	0.105122
503.746045	0.104059
503.964275	0.102576
504.182487	0.103869
504.400681	0.103858
504.618856	0.106710
504.837013	0.104620
505.055152	0.104187
505.273273	0.103845
505.491376	0.104076
505.709460	0.104561
505.927526	0.104744
506.145574	0.103724
506.363604	0.102607
506.581615	0.100517
506.799608	0.101619
507.017583	0.101330
507.235540	0.101583
507.453478	0.103131
507.671399	0.103684
507.889301	0.104304
508.107185	0.105498
508.325050	0.106494
508.542898	0.107479
508.760727	0.108464
508.978538	0.109261
509.196330	0.108366
509.414105	0.106913
509.631861	0.106437
509.849599	0.107753
510.067319	0.107510
510.285021	0.106836
510.502704	0.105921
510.720369	0.106513
510.938016	0.107315
511.155645	0.109379
511.373255	0.110203
511.590848	0.110723
511.808422	0.109338
512.025977	0.108687
512.243515	0.109964
512.461034	0.110933
512.678536	0.109133
512.896018	0.108915
513.113483	0.108740
513.330930	0.108091
513.548358	0.107644
513.765768	0.107074
513.983160	0.107613
514.200533	0.108057
514.417889	0.108462
514.635226	0.109103
514.852545	0.108429
515.069845	0.106565
515.287128	0.107048
515.504392	0.107381
515.721638	0.108340
515.938866	0.108141
516.156075	0.107258
516.373267	0.107115
516.590440	0.107205
516.807594	0.106839
517.024731	0.107286
517.241850	0.107336
517.458950	0.106640
517.676032	0.107193
517.893095	0.107205
518.110141	0.106952
518.327168	0.107222
518.544177	0.106702
518.761168	0.108395
518.978141	0.108302
519.195095	0.106582
519.412031	0.108115
519.628949	0.106777
519.845849	0.106252
520.062731	0.105836
520.279594	0.105397
520.496439	0.106198
520.713266	0.105133
520.930074	0.106458
521.146865	0.108344
521.363637	0.106957
521.580391	0.107166
521.797127	0.108186
522.013844	0.109727
522.230543	0.108986
522.447224	0.109076
522.663887	0.108971
522.880532	0.107946
523.097158	0.107686
523.313766	0.107735
523.530356	0.108925
523.746928	0.109090
523.963481	0.109267
524.180017	0.109105
524.396534	0.109102
524.613032	0.110082
524.829513	0.110563
525.045975	0.111811
525.262420	0.111972
525.478845	0.111238
525.695253	0.111051
525.911643	0.111250
526.128014	0.112709
526.344367	0.112832
526.560702	0.112058
526.777018	0.112504
526.993316	0.111697
527.209597	0.110775
527.425858	0.111206
527.642102	0.111700
527.858328	0.111162
528.074535	0.112165
528.290724	0.111197
528.506894	0.112879
528.723047	0.112067
528.939181	0.112430
529.155297	0.113341
529.371395	0.112881
529.587475	0.112208
529.803536	0.112771
530.019579	0.111822
530.235604	0.112959
530.451611	0.111934
530.667600	0.113402
530.883570	0.113774
531.099522	0.113905
531.315456	0.114412
531.531372	0.115011
531.747269	0.114127
531.963148	0.115080
532.179009	0.114505
532.394852	0.114655
532.610676	0.115178
532.826482	0.114295
533.042271	0.115203
533.258040	0.116248
533.473792	0.115636
533.689525	0.116088
533.905240	0.115061
534.120937	0.115945
534.336616	0.115623
534.552277	0.114696
534.767919	0.115460
534.983543	0.116103
535.199149	0.115234
535.414736	0.115689
535.630306	0.116480
535.845857	0.117181
536.061390	0.117088
536.276904	0.118156
536.492401	0.119107
536.707879	0.118694
536.923339	0.117744
537.138781	0.118167
537.354204	0.118642
537.569610	0.118326
537.784997	0.118288
538.000366	0.118479
538.215716	0.118161
538.431049	0.118365
538.646363	0.119239
538.861659	0.119277
539.076937	0.119862
539.292196	0.119079
539.507438	0.118516
539.722661	0.118794
539.937866	0.119534
540.153052	0.118668
540.368221	0.118070
540.583371	0.117302
540.798503	0.118295
541.013617	0.118170
541.228712	0.118950
541.443789	0.119651
541.658848	0.119083
541.873889	0.119353
542.088912	0.120452
542.303916	0.119902
542.518902	0.120196
542.733870	0.120085
542.948820	0.120796
543.163752	0.120297
543.378665	0.120190
543.593560	0.120435
543.808437	0.120284
544.023295	0.119793
544.238136	0.120355
544.452958	0.120793
544.667762	0.120437
544.882548	0.119984
545.097315	0.121202
545.312064	0.120984
545.526795	0.121120
545.741508	0.120764
545.956203	0.121867
546.170879	0.122191
546.385537	0.122456
546.600177	0.123159
546.814799	0.123158
547.029402	0.122411
547.243988	0.122530
547.458555	0.122559
547.673103	0.123343
547.887634	0.122270
548.102146	0.121869
548.316640	0.121910
548.531116	0.121523
548.745574	0.122179
548.960013	0.122582
549.174435	0.123124
549.388838	0.123729
549.603222	0.123168
549.817589	0.124154
550.031937	0.124760
550.246267	0.125232
550.460579	0.126123
550.674873	0.125159
550.889148	0.125292
551.103405	0.125298
551.317644	0.125109
551.531865	0.125787
551.746068	0.125456
551.960252	0.125515
552.174418	0.124905
552.388566	0.124799
552.602696	0.125778
552.816807	0.125990
553.030900	0.126075
553.244975	0.125776
553.459032	0.125855
553.673070	0.126274
553.887091	0.126162
554.101093	0.126170
554.315077	0.126335
554.529042	0.126316
554.742990	0.126968
554.956919	0.126724
555.170830	0.128021
555.384722	0.128004
555.598597	0.128320
555.812453	0.128538
556.026291	0.128826
556.240111	0.128718
556.453913	0.128125
556.667696	0.127779
556.881461	0.128248
557.095208	0.127373
557.308937	0.126960
557.522647	0.126759
557.736339	0.126956
557.950013	0.127320
558.163669	0.126987
558.377307	0.127631
558.590926	0.127309
558.804527	0.127014
559.018110	0.127272
559.231675	0.127716
559.445221	0.128077
559.658749	0.128426
559.872259	0.128399
560.085751	0.128778
560.299225	0.129382
560.512680	0.129149
560.726117	0.129700
560.939536	0.129998
561.152937	0.130047
561.366319	0.130344
561.579683	0.130473
561.793029	0.130585
562.006357	0.130532
562.219667	0.130296
562.432958	0.130653
562.646231	0.131249
562.859486	0.131419
563.072723	0.131987
563.285941	0.132049
563.499141	0.131694
563.712323	0.132187
563.925487	0.131934
564.138632	0.131337
564.351760	0.131458
564.564869	0.131188
564.777960	0.131258
564.991032	0.131244
565.204087	0.130924
565.417123	0.131182
565.630141	0.131225
565.843140	0.131665
566.056122	0.132265
566.269085	0.132564
566.482030	0.132971
566.694957	0.133096
566.907866	0.132607
567.120756	0.133204
567.333628	0.133449
567.546482	0.134029
567.759318	0.134759
567.972135	0.135158
568.184935	0.135471
568.397716	0.135261
568.610478	0.135647
568.823223	0.135916
569.035949	0.136280
569.248657	0.136466
569.461347	0.135836
569.674019	0.135267
569.886672	0.135182
570.099308	0.135049
570.311925	0.135513
570.524523	0.135876
570.737104	0.135632
570.949666	0.135462
571.162210	0.135524
571.374736	0.135625
571.587244	0.136393
571.799733	0.136670
572.012205	0.136690
572.224658	0.136457
572.437092	0.136024
572.649509	0.136705
572.861907	0.136562
573.074287	0.136519
573.286649	0.136932
573.498993	0.136529
573.711318	0.136270
573.923625	0.136544
574.135914	0.136366
574.348185	0.136380
574.560438	0.136265
574.772672	0.135899
574.984888	0.136297
575.197086	0.136241
575.409266	0.135806
575.621427	0.135657
575.833570	0.135516
576.045695	0.135600
576.257802	0.135708
576.469890	0.135824
576.681961	0.136468
576.894013	0.136086
577.106046	0.135465
577.318062	0.136299
577.530059	0.137132
577.742039	0.137964
577.954000	0.137995
578.165942	0.138013
578.377867	0.137944
578.589773	0.136918
578.801661	0.137239
579.013531	0.138088
579.225382	0.137780
579.437216	0.137549
579.649031	0.136778
579.860828	0.137492
580.072606	0.137701
580.284367	0.137839
580.496109	0.138748
580.707833	0.139265
580.919539	0.139288
581.131227	0.139345
581.342896	0.139339
581.554547	0.140093
581.766180	0.139979
581.977795	0.140014
582.189391	0.139844
582.400969	0.140354
582.612529	0.140336
582.824071	0.140137
583.035595	0.140824
583.247100	0.140706
583.458587	0.140495
583.670056	0.140559
583.881506	0.140620
584.092939	0.141228
584.304353	0.141204
584.515749	0.140725
584.727127	0.141017
584.938486	0.140647
585.149828	0.140396
585.361151	0.140329
585.572456	0.139996
585.783742	0.139695
585.995011	0.139392
586.206261	0.139195
586.417493	0.139656
586.628706	0.139812
586.839902	0.139972
587.051079	0.140589
587.262238	0.141046
587.473379	0.141634
587.684502	0.142523
587.895606	0.142492
588.106692	0.142580
588.317760	0.142600
588.528810	0.143074
588.739841	0.143166
588.950855	0.143416
589.161850	0.143781
589.372827	0.143878
589.583785	0.143519
589.794726	0.144487
590.005648	0.144430
590.216552	0.144560
590.427437	0.144826
590.638305	0.145175
590.849154	0.145380
591.059985	0.145060
591.270798	0.145228
591.481592	0.145563
591.692369	0.144997
591.903127	0.145494
592.113867	0.145564
592.324588	0.145697
592.535292	0.145714
592.745977	0.146018
592.956644	0.146126
593.167293	0.146016
593.377923	0.145629
593.588536	0.146179
593.799130	0.145934
594.009706	0.145981
594.220263	0.145239
594.430803	0.145586
594.641324	0.145054
594.851827	0.145072
595.062312	0.145481
595.272778	0.146054
595.483227	0.146368
595.693657	0.146932
595.904069	0.147189
596.114462	0.147915
596.324838	0.148309
596.535195	0.148739
596.745534	0.148545
596.955855	0.148542
597.166157	0.148446
597.376441	0.148326
597.586707	0.148316
597.796955	0.148186
598.007185	0.148079
598.217396	0.147702
598.427589	0.147982
598.637764	0.148442
598.847921	0.148400
599.058060	0.148370
599.268180	0.148752
599.478282	0.148256
599.688366	0.148302
599.898431	0.148504
600.108479	0.148108
600.318508	0.147714
600.528519	0.147403
600.738511	0.147371
600.948486	0.147457
601.158442	0.146880
601.368380	0.147436
601.578300	0.147443
601.788202	0.147401
601.998085	0.147319
602.207950	0.147715
602.417797	0.148309
602.627626	0.148224
602.837436	0.148643
603.047228	0.148542
603.257002	0.148429
603.466758	0.148717
603.676496	0.148866
603.886215	0.149228
604.095916	0.149052
604.305599	0.149274
604.515264	0.149380
604.724910	0.148850
604.934538	0.149191
605.144148	0.149752
605.353740	0.149862
605.563314	0.149647
605.772869	0.150100
605.982406	0.150228
606.191925	0.149769
606.401425	0.150435
606.610908	0.151279
606.820372	0.151578
607.029818	0.151182
607.239246	0.151169
607.448655	0.151338
607.658047	0.150942
607.867420	0.151337
608.076775	0.151197
608.286111	0.151010
608.495430	0.151009
608.704730	0.151272
608.914012	0.151644
609.123275	0.151960
609.332521	0.152377
609.541748	0.153269
609.750957	0.153275
609.960148	0.153370
610.169321	0.153131
610.378475	0.153012
610.587611	0.152803
610.796729	0.152611
611.005829	0.152910
611.214910	0.153111
611.423974	0.152951
611.633019	0.152623
611.842045	0.153569
612.051054	0.153756
612.260044	0.153703
612.469017	0.154142
612.677970	0.153801
612.886906	0.153163
613.095824	0.152782
613.304723	0.152270
613.513604	0.152497
613.722467	0.152189
613.931311	0.152222
614.140138	0.152555
614.348946	0.152476
614.557736	0.153398
614.766507	0.153660
614.975261	0.154142
615.183996	0.154707
615.392713	0.154972
615.601412	0.154767
615.810092	0.154860
616.018754	0.154738
616.227399	0.154611
616.436024	0.154661
616.644632	0.154948
616.853222	0.154785
617.061793	0.155035
617.270346	0.154973
617.478880	0.155576
617.687397	0.155824
617.895895	0.156062
618.104375	0.156170
618.312837	0.156203
618.521281	0.156635
618.729706	0.156514
618.938113	0.156206
619.146502	0.156242
619.354873	0.155965
619.563226	0.156012
619.771560	0.156255
619.979876	0.156389
620.188174	0.156608
620.396453	0.156225
620.604715	0.156772
620.812958	0.156751
621.021183	0.157155
621.229390	0.157240
621.437578	0.157200
621.645748	0.156733
621.853900	0.156563
622.062034	0.156483
622.270150	0.156540
622.478247	0.156355
622.686326	0.156292
622.894387	0.156076
623.102430	0.156195
623.310454	0.156584
623.518461	0.157008
623.726449	0.157646
623.934418	0.157699
624.142370	0.157714
624.350303	0.157717
624.558218	0.157912
624.766115	0.158045
624.973994	0.158925
625.181855	0.159120
625.389697	0.159741
625.597521	0.160155
625.805327	0.160493
626.013114	0.160893
626.220883	0.161021
626.428634	0.161632
626.636367	0.162015
626.844082	0.161660
627.051778	0.161472
627.259457	0.161559
627.467117	0.161087
627.674758	0.161009
627.882382	0.160975
628.089987	0.161340
628.297574	0.161233
628.505143	0.160873
628.712694	0.160693
628.920226	0.160932
629.127740	0.160818
629.335236	0.161094
629.542714	0.160872
629.750174	0.160959
629.957615	0.161043
630.165038	0.160970
630.372443	0.161892
630.579829	0.162139
630.787198	0.162250
630.994548	0.162285
631.201880	0.162509
631.409194	0.162791
631.616489	0.163147
631.823766	0.163494
632.031025	0.163819
632.238266	0.163394
632.445489	0.163482
632.652693	0.163787
632.859879	0.163876
633.067047	0.163468
633.274197	0.163318
633.481329	0.163187
633.688442	0.162878
633.895537	0.163070
634.102614	0.163259
634.309672	0.163770
634.516713	0.163303
634.723735	0.163463
634.930739	0.163437
635.137724	0.163878
635.344692	0.164015
635.551641	0.164119
635.758572	0.164418
635.965485	0.164435
636.172379	0.164144
636.379256	0.164651
636.586114	0.164568
636.792954	0.164960
636.999775	0.165268
637.206579	0.165526
637.413364	0.165851
637.620131	0.165483
637.826880	0.165628
638.033610	0.165676
638.240323	0.165993
638.447017	0.166328
638.653692	0.166152
638.860350	0.166148
639.066990	0.165950
639.273611	0.165867
639.480214	0.166131
639.686798	0.166190
639.893365	0.166285
640.099913	0.165988
640.306443	0.166066
640.512955	0.166151
640.719449	0.166291
640.925924	0.166836
641.132381	0.166656
641.338820	0.166576
641.545241	0.166789
641.751644	0.166971
641.958028	0.167035
642.164394	0.167075
642.370742	0.167578
642.577071	0.167856
642.783383	0.168039
642.989676	0.168504
643.195951	0.168974
643.402207	0.168992
643.608446	0.168681
643.814666	0.169031
644.020868	0.169167
644.227052	0.169188
644.433218	0.168777
644.639365	0.168806
644.845494	0.168793
645.051605	0.168910
645.257698	0.169118
645.463772	0.169688
645.669828	0.169908
645.875866	0.170222
646.081886	0.170278
646.287888	0.170926
646.493871	0.170815
646.699836	0.171147
646.905783	0.171199
647.111712	0.171311
647.317622	0.171044
647.523514	0.171156
647.729388	0.170972
647.935244	0.170964
648.141082	0.170602
648.346901	0.170674
648.552702	0.170205
648.758485	0.170044
648.964250	0.170011
649.169996	0.170464
649.375724	0.170219
649.581434	0.169953
649.787126	0.170279
649.992800	0.170511
650.198455	0.170855
650.404092	0.170998
650.609711	0.170991
650.815311	0.170885
651.020894	0.170894
651.226458	0.171146
651.432004	0.171275
651.637532	0.171191
651.843041	0.170972
652.048532	0.171213
652.254006	0.171602
652.459460	0.171824
652.664897	0.172218
652.870315	0.172360
653.075716	0.172387
653.281097	0.173000
653.486461	0.173507
653.691807	0.174025
653.897134	0.173922
654.102443	0.174319
654.307734	0.174734
654.513006	0.174961
654.718261	0.175378
654.923497	0.175651
655.128715	0.175878
655.333915	0.175545
655.539096	0.175659
655.744259	0.175903
655.949404	0.176020
656.154531	0.175722
656.359640	0.175583
656.564730	0.175418
656.769802	0.175598
656.974856	0.175350
657.179892	0.175683
657.384909	0.175507
657.589908	0.175230
657.794889	0.175190
657.999852	0.175187
658.204797	0.175519
658.409723	0.175642
658.614631	0.175541
658.819521	0.175793
659.024393	0.176169
659.229246	0.176343
659.434081	0.176671
659.638898	0.176714
659.843697	0.177541
660.048478	0.177818
660.253240	0.177591
660.457984	0.177861
660.662710	0.178015
660.867417	0.177709
661.072107	0.177833
661.276778	0.177808
661.481431	0.177889
661.686066	0.177988
661.890682	0.177908
662.095281	0.178543
662.299861	0.178783
662.504422	0.178987
662.708966	0.179325
662.913491	0.179705
663.117999	0.180107
663.322488	0.179999
663.526958	0.179403
663.731411	0.179834
663.935845	0.180148
664.140261	0.179928
664.344659	0.179785
664.549038	0.179835
664.753400	0.179850
664.957743	0.179894
665.162068	0.180517
665.366375	0.181054
665.570663	0.181077
665.774933	0.180886
665.979185	0.181125
666.183419	0.181673
666.387635	0.182127
666.591832	0.182616
666.796011	0.182772
667.000172	0.182828
667.204315	0.183114
667.408439	0.182989
667.612545	0.182809
667.816634	0.183355
668.020703	0.182895
668.224755	0.182658
668.428788	0.182393
668.632803	0.182411
668.836800	0.182250
669.040779	0.182172
669.244739	0.182521
669.448681	0.182844
669.652605	0.182607
669.856511	0.182979
670.060399	0.183219
670.264268	0.183776
670.468119	0.183782
670.671952	0.184067
670.875767	0.184174
671.079563	0.184381
671.283341	0.184744
671.487101	0.185174
671.690843	0.185448
671.894567	0.185690
672.098272	0.185741
672.301959	0.186348
672.505628	0.186402
672.709278	0.186873
672.912911	0.187045
673.116525	0.186988
673.320121	0.186877
673.523699	0.186985
673.727258	0.186979
673.930799	0.186935
674.134322	0.186821
674.337827	0.186940
674.541314	0.186994
674.744782	0.187344
674.948232	0.187812
675.151664	0.188148
675.355078	0.188318
675.558474	0.188795
675.761851	0.189119
675.965210	0.189311
676.168551	0.189494
676.371873	0.189387
676.575178	0.188768
676.778464	0.188672
676.981732	0.188478
677.184981	0.188541
677.388213	0.188448
677.591426	0.188531
677.794621	0.188617
677.997798	0.188948
678.200956	0.189278
678.404097	0.189577
678.607219	0.189574
678.810323	0.190176
679.013408	0.190062
679.216476	0.190257
679.419525	0.190094
679.622556	0.190062
679.825569	0.189921
680.028563	0.189690
680.231540	0.189915
680.434498	0.190056
680.637438	0.189744
680.840359	0.189799
681.043263	0.189635
681.246148	0.189923
681.449015	0.190323
681.651864	0.190682
681.854694	0.190925
682.057506	0.190940
682.260301	0.191403
682.463076	0.191701
682.665834	0.192324
682.868573	0.192358
683.071295	0.192265
683.273998	0.192351
683.476682	0.192211
683.679349	0.192421
683.881997	0.192719
684.084627	0.193110
684.287239	0.193137
684.489833	0.192989
684.692408	0.193338
684.894965	0.193198
685.097504	0.192973
685.300025	0.193160
685.502527	0.193223
685.705012	0.193440
685.907478	0.193154
686.109925	0.193368
686.312355	0.193747
686.514766	0.193997
686.717159	0.194391
686.919534	0.194734
687.121891	0.194892
687.324230	0.195472
687.526550	0.195330
687.728852	0.195644
687.931136	0.195737
688.133401	0.195405
688.335649	0.195289
688.537878	0.195304
688.740089	0.195299
688.942281	0.195427
689.144456	0.195185
689.346612	0.195482
689.548750	0.195044
689.750870	0.195074
689.952971	0.195056
690.155055	0.194980
690.357120	0.195046
690.559167	0.195170
690.761195	0.195208
690.963206	0.195183
691.165198	0.195077
691.367172	0.195119
691.569128	0.195096
691.771065	0.195863
691.972984	0.196308
692.174885	0.196424
692.376768	0.196659
692.578633	0.197031
692.780479	0.197112
692.982308	0.197402
693.184118	0.197688
693.385909	0.197863
