sample name	sample
index	1243
start time	 04-29-2021  11:44:03 AM
880	0.455892
Peak Time (s)	91.035
Peak Height 	0.4559
calc peak height	90,93
Baseline Time (s)	10.536
Baseline Value 	-0.002528
subtract baseline	10,4
Abs	0.306354
Peak Time (s)	90.535
Peak Height 	0.3064
calc peak height	90,93
Baseline Time (s)	10.536
Baseline Value 	0.002632
subtract baseline	10,3
PK_550	0.160936
Peak Time (s)	91.035
Peak Height 	0.1609
calc peak height	90,93
Baseline Time (s)	9.034
Baseline Value 	3.4659E-4
subtract baseline	10,2
PK_880	0.287746
Peak Time (s)	91.535
Peak Height 	0.2877
calc peak height	90,93
Baseline Time (s)	10.536
Baseline Value 	3.9748E-4
subtract baseline	10,1


Time (s)	A880-A510	A880-A775	A880-A975	A880	I510	I775	I975	I880	
0.040500	-0.002722	-0.000573	-0.002390	0.004126	6175.091655	43849.355161	3889.031242	22675.113463
0.535500	-0.004944	-0.000242	-0.004242	0.004713	6153.825615	43825.118415	3883.244230	22648.325370
1.038500	-0.003203	-0.000060	-0.004690	0.004094	6171.686473	43900.747742	3883.649649	22676.568944
1.536000	-0.000579	-0.000347	0.001604	0.001270	6213.260326	44141.005687	3905.450493	22805.780553
2.036500	-0.001371	-0.000422	-0.002762	0.003470	6190.363214	43925.461317	3889.704954	22705.054607
2.537000	-0.000894	-0.000107	-0.006304	0.002043	6204.912917	44090.420406	3884.685282	22770.320426
3.037000	0.000738	0.000234	-0.002214	-0.001488	6244.701296	44459.324600	3902.891253	22932.780664
3.537500	-0.000811	-0.000530	-0.000190	0.000365	6218.433243	44209.636509	3903.304021	22847.361755
4.037000	-0.002197	-0.000281	-0.004465	0.003349	6184.984907	43950.212099	3885.947274	22710.560355
4.535000	-0.000698	-0.000253	-0.007899	0.000506	6218.217328	44222.547149	3884.546056	22840.852911
5.035500	-0.002671	-0.000182	0.003032	0.000195	6205.452753	44258.907066	3911.513923	22855.165391
5.535500	-0.002808	-0.000026	-0.004441	0.000003	6205.874553	44292.030186	3893.967084	22864.000167
6.036000	-0.000273	0.000040	-0.002041	0.000173	6224.051676	44282.144012	3899.312390	22856.191140
6.536500	0.000137	-0.000276	-0.001483	-0.000055	6228.970139	44273.714344	3901.198588	22866.665098
7.036500	-0.000359	-0.000163	-0.005243	0.000255	6222.755099	44254.983966	3891.452169	22852.414186
7.537000	0.003806	0.000398	0.001379	0.000675	6251.720112	44268.437737	3906.341787	22833.085218
8.037000	-0.000289	0.000229	-0.001047	0.000299	6222.960787	44288.219074	3901.397390	22850.399478
8.537500	0.000915	0.000592	-0.000582	0.000627	6229.710722	44291.440325	3901.725950	22835.293318
9.034500	0.001231	0.000000	0.001266	0.000239	6235.146591	44272.013630	3907.124601	22853.127220
9.535000	-0.001179	-0.000380	0.001937	-0.000453	6221.898900	44301.767457	3910.428250	22885.019756
10.035500	-0.002053	0.000082	-0.004312	0.000135	6210.663566	44289.813092	3893.963624	22857.953355
10.536000	0.000000	0.000500	0.000000	0.000000	6227.488874	44342.570258	3904.642220	22864.146986
11.036000	-0.000036	-0.000190	0.002322	-0.000071	6227.759731	44283.560508	3910.437047	22867.430527
11.536000	0.000445	-0.000593	-0.001033	-0.000357	6233.683162	44272.397293	3903.012369	22880.611559
12.036500	0.001899	-0.000087	0.001328	-0.000464	6245.760218	44330.799605	3908.978265	22885.517409
12.537000	0.000567	0.000384	-0.003007	0.000032	6231.616752	44328.443424	3897.331291	22862.683922
13.037000	0.002600	-0.000123	0.004142	-0.000622	6252.427444	44342.405425	3916.206328	22892.785067
13.537500	0.001771	-0.000178	0.002208	0.000069	6240.639230	44271.290211	3909.819227	22860.973932
14.035000	-0.003227	-0.000332	-0.006408	0.002333	6184.884114	44041.593023	3883.752657	22757.032008
14.535500	0.001316	0.000565	0.000190	0.002713	6216.734383	44090.595511	3898.570373	22739.647268
15.040500	-0.002544	0.000303	-0.003626	0.000588	6203.420238	44267.638183	3894.517804	22837.100199
15.535500	0.000793	0.000437	-0.000441	0.000035	6233.335524	44333.188123	3903.493063	22862.524531
16.036000	0.000361	0.000407	-0.002781	0.001099	6221.798205	44228.857814	3895.315490	22813.596883
16.539000	-0.000567	-0.000074	-0.000111	0.000076	6222.527573	44280.533039	3904.188792	22860.627161
17.036500	0.001435	-0.000062	-0.001688	-0.003502	6265.784475	44624.082071	3909.030853	23026.030308
17.537000	0.000041	0.000522	-0.003716	0.001125	6219.144478	44237.421151	3893.022134	22812.443020
18.037500	-0.002053	0.000355	-0.003405	0.003213	6187.120686	44023.257149	3888.788493	22716.787438
18.534500	-0.000226	0.000282	-0.002564	0.000938	6218.519313	44232.264113	3896.221055	22820.993380
19.035500	-0.000572	-0.000111	-0.000718	0.000733	6217.441022	44214.510958	3901.144503	22830.439657
19.538500	-0.000129	-0.000123	-0.002584	0.000752	6220.696990	44211.512109	3896.618056	22829.541571
20.035000	0.002188	-0.000276	-0.000021	0.000531	6240.290850	44217.995627	3903.310408	22839.718089
20.536000	-0.001092	0.000567	-0.002283	0.001142	6210.298784	44240.042306	3896.405431	22811.633248
21.036500	-0.001348	-0.000947	-0.003064	0.000057	6216.668027	44199.174392	3897.133316	22861.500042
21.536500	0.000884	-0.000206	0.000270	0.000389	6231.310518	44238.201167	3904.357160	22846.268389
22.037000	-0.000018	-0.000329	-0.003777	0.000268	6225.289703	44237.961169	3894.922912	22851.830143
22.537500	-0.002672	-0.000194	-0.002346	0.000721	6201.428089	44207.728317	3897.265552	22831.003940
23.037000	-0.001516	-0.000208	-0.002825	0.000691	6210.509363	44209.231056	3896.189054	22832.353930
23.538000	-0.000295	0.000119	-0.001654	0.000689	6219.914756	44240.538690	3899.001337	22832.470824
24.035500	0.001708	0.000429	0.001224	0.001059	6232.499780	44234.767696	3905.040719	22815.450093
24.535500	-0.001593	0.000533	-0.000874	0.000986	6207.658495	44251.678724	3900.162285	22818.809254
25.036000	-0.002020	-0.000263	0.002211	0.000157	6210.741236	44254.795769	3909.612610	22856.909528
25.536500	0.001290	0.000377	0.002453	0.001128	6228.734708	44223.262657	3907.844670	22812.274602
26.036500	-0.001194	0.000309	-0.002099	0.000713	6212.809919	44256.288126	3897.875022	22831.330197
26.536500	-0.000465	-0.000487	-0.002273	0.000560	6219.593749	44195.120023	3897.824982	22838.390508
27.037000	0.000758	0.000618	0.002003	-0.001249	6243.000953	44473.184502	3912.521221	22921.727293
27.537000	0.000651	0.000130	0.003022	-0.001698	6245.655522	44469.442532	3916.099102	22942.482565
28.037500	-0.002933	0.000655	-0.002433	0.005740	6161.263514	43812.845811	3885.095279	22601.620143
28.535000	-0.000958	0.000253	0.001080	-0.000604	6224.760292	44376.620723	3908.714327	22891.966152
29.035500	-0.001411	0.000067	-0.002579	-0.000603	6221.261432	44358.789088	3899.883095	22891.921364
29.535500	0.000182	-0.000482	-0.005447	-0.000968	6236.373304	44341.227353	3893.884733	22908.779238
30.036000	-0.004462	-0.000879	-0.001171	0.005106	6154.498014	43728.192889	3889.596095	22630.438738
30.536000	-0.001438	-0.000031	-0.003271	0.001933	6201.592916	44108.079994	3892.155558	22775.372254
31.036500	-0.001224	0.000378	0.002676	0.001641	6205.470046	44174.576870	3907.145102	22788.749864
31.537000	0.000878	-0.000187	-0.000769	-0.000532	6238.377656	44327.676371	3904.069931	22888.646035
32.034500	-0.003890	-0.000607	-0.003098	0.004597	6162.670864	43801.664413	3886.228272	22653.629850
32.537000	0.000795	0.000606	-0.004465	0.000115	6232.733531	44341.656427	3893.644687	22858.849907
33.035000	0.001479	0.000444	0.002140	-0.001124	6247.625387	44444.661391	3912.551947	22915.976331
33.538000	-0.000177	0.000526	-0.001808	0.000773	6220.165503	44271.244709	3898.429271	22828.570087
34.035500	-0.001011	-0.000735	-0.003308	0.002091	6203.649197	44026.283776	3891.689513	22768.110973
34.535500	-0.001078	-0.000147	-0.000135	0.001505	6207.619561	44137.643335	3900.688510	22794.961061
35.036000	0.000497	0.000253	0.001631	0.001260	6221.610799	44198.963343	3905.539298	22806.223490
35.536000	-0.000642	0.001018	-0.000585	0.002371	6204.332515	44166.078042	3897.531522	22755.307423
36.036500	-0.004161	-0.000377	0.000529	0.001985	6180.422333	44070.317771	3901.133004	22772.984157
36.537000	-0.000557	0.000398	-0.002444	0.001778	6209.529988	44163.475691	3894.500074	22782.459098
37.037000	-0.002929	-0.000359	0.001292	0.001175	6195.989750	44148.887080	3904.925765	22810.127894
37.534500	-0.000531	0.000297	-0.000132	0.001706	6210.282528	44160.723432	3900.214202	22785.766437
38.037500	0.000990	-0.000071	0.004798	0.001285	6225.211984	44165.750006	3913.155858	22805.054978
38.535500	0.000175	-0.000267	-0.004256	0.001044	6220.795511	44170.039209	3891.926701	22816.152083
39.036000	0.000634	0.000395	0.001714	0.001742	6218.949166	44166.625879	3904.574966	22784.100272
39.536000	-0.002336	-0.000647	0.001270	0.000802	6203.374337	44156.918894	3905.772063	22827.247470
40.036000	0.000378	0.000231	0.004031	0.001396	6219.650025	44183.884334	3911.022693	22799.979504
40.536500	0.000317	0.000419	0.000229	0.002135	6213.496746	44131.561662	3900.052065	22766.111450
41.036000	-0.002545	0.000253	0.001156	0.001600	6195.671560	44166.647724	3903.571352	22790.621931
41.537000	-0.000691	-0.000125	0.001809	0.001182	6213.076972	44170.417783	3906.157703	22809.797429
42.037500	-0.000091	0.000714	0.002759	0.002173	6210.077434	44156.029526	3906.057416	22764.371169
42.537500	-0.001126	0.000584	-0.001576	0.001713	6205.666988	44187.367227	3896.731065	22785.434528
43.038000	0.000422	0.000468	0.000682	0.002016	6215.212405	44147.460532	3901.426843	22771.532343
43.541500	-0.000303	-0.000260	0.001406	-0.003755	6254.217660	44629.388450	3917.175308	23037.778117
44.036000	-0.002087	0.000589	-0.001906	0.005753	6167.561658	43805.445623	3886.313325	22601.033511
44.536000	-0.000405	-0.000380	0.002034	-0.000501	6228.231482	44306.412986	3910.781597	22887.242078
45.036000	0.000532	0.000943	0.001726	0.000397	6228.532775	44346.926149	3907.854964	22845.875289
45.537000	-0.001643	-0.000686	0.002452	-0.000991	6222.468431	44323.908967	3912.986285	22909.830137
46.037000	-0.001812	0.000800	-0.000873	0.002212	6196.593521	44160.404643	3897.220693	22762.568375
46.537500	0.002074	0.000069	0.003267	-0.000381	6246.481680	44337.789597	3913.486672	22881.713112
47.035000	0.000710	0.000674	-0.001565	0.002263	6215.537414	44143.656305	3895.441254	22760.244556
47.541000	-0.003980	-0.000021	0.001537	0.000866	6190.325911	44210.419602	3906.264704	22824.337410
48.035500	-0.000367	0.000382	0.001981	0.004902	6187.096772	43866.157955	3897.613494	22639.746255
48.536000	0.001622	-0.000115	0.004918	-0.000552	6244.296443	44336.528394	3917.932197	22889.583287
49.035500	0.000412	0.001131	0.002459	0.000150	6229.509926	44388.511512	3910.232151	22857.257949
49.536000	0.000967	0.000782	0.006087	-0.002604	6255.144217	44618.890334	3925.834488	22984.370562
50.036500	-0.000967	-0.000989	-0.001374	0.010363	6141.239503	43226.659123	3876.686662	22392.717251
50.537000	0.050350	-0.029245	0.104601	0.689829	3646.236049	10798.720144	3128.673335	6954.108274
51.037000	0.004885	-0.027938	-0.012621	0.017313	6132.998075	40198.125116	3834.811964	22082.786857
51.534500	0.006371	-0.082324	-0.021626	-0.251604	8944.721861	64029.473901	4636.616015	38556.551665
52.037500	-0.002742	-0.080241	-0.012967	-0.245339	8733.671138	63443.508589	4646.458315	38045.429577
52.535000	0.012227	-0.055658	0.003416	-0.214539	8524.055682	62582.835347	4588.001850	35637.193499
53.035000	0.011707	-0.064734	0.002669	-0.229693	8717.542639	63424.061111	4646.414574	36800.714767
53.535500	0.016334	-0.037124	0.005909	-0.182947	8177.808859	60814.979300	4475.768812	33338.285786
54.036000	0.013315	-0.025591	0.010570	-0.159963	7869.796964	59307.548176	4408.860318	31767.730577
54.536000	0.020167	-0.016978	0.016554	-0.139392	7714.570875	57775.509680	4357.575575	30430.884273
55.036500	0.029859	-0.011235	0.021336	-0.132587	7746.834446	57641.454200	4350.600418	30002.407931
55.536500	0.042396	-0.000727	0.041737	-0.089417	7415.241775	53675.013755	4274.272102	27435.132320
56.037000	0.055201	0.010571	0.051138	-0.021841	6877.639772	47502.924395	4096.490475	23895.358888
56.537500	0.073422	0.022965	0.072292	0.028482	6592.656070	43772.224376	4015.922735	21594.986522
57.035000	0.087236	0.033749	0.088965	0.079396	6288.509547	40164.130939	3928.001082	19523.608319
57.535500	0.102841	0.043765	0.109838	0.123866	6069.199510	37321.507338	3871.318514	17902.765849
58.035500	0.121937	0.053443	0.120308	0.161498	5935.863193	35175.272034	3809.775397	16655.031272
58.536000	0.140255	0.063328	0.144766	0.212011	5717.368988	32292.210307	3754.249404	15141.441494
59.036000	0.153785	0.072570	0.152884	0.244384	5596.810686	30767.356060	3705.470040	14259.994780
59.536000	0.168395	0.084573	0.171768	0.255533	5618.562559	30822.192074	3720.728859	13971.312109
60.037000	0.180385	0.092689	0.191230	0.268808	5610.469504	30492.416737	3733.134375	13637.139229
60.536500	0.197193	0.100342	0.207982	0.315828	5426.843832	28100.647577	3674.098358	12532.308329
61.040000	0.212264	0.109031	0.216773	0.338170	5384.527716	27320.526470	3648.972520	12047.828051
61.534500	0.213815	0.116629	0.220358	0.360873	5265.372218	26485.559076	3614.830626	11580.391789
62.035000	0.220417	0.118752	0.232979	0.369579	5253.833516	26130.614687	3621.701571	11407.525552
62.535000	0.224700	0.124143	0.226199	0.376383	5240.085812	26055.137777	3598.128277	11274.817403
63.046500	0.228049	0.126664	0.240055	0.377055	5254.690407	26153.971367	3620.996529	11261.825577
63.535500	0.231181	0.129151	0.241393	0.381362	5248.266666	26056.677779	3615.784957	11179.005548
64.039500	0.236876	0.131451	0.247692	0.385269	5258.045686	25971.156126	3619.980590	11104.595460
64.536500	0.240758	0.134821	0.247210	0.392178	5241.512728	25783.863355	3607.092038	10974.639448
65.037000	0.241058	0.135322	0.250559	0.396216	5221.257387	25598.191355	3605.902997	10899.638153
65.540000	0.246700	0.138513	0.257099	0.402404	5218.314126	25442.048345	3606.510212	10786.042904
66.037500	0.247562	0.139582	0.256815	0.406096	5203.113220	25306.210742	3599.671491	10719.029252
66.535000	0.253349	0.141259	0.265474	0.407499	5226.698691	25320.393900	3612.198348	10693.712823
67.035500	0.249281	0.142778	0.265348	0.408041	5201.899255	25370.868329	3611.035299	10683.955901
67.535500	0.250960	0.143736	0.261330	0.410124	5199.742032	25312.728794	3600.505843	10646.575276
68.036000	0.253909	0.145627	0.264676	0.414554	5191.833370	25182.047789	3598.650371	10567.646627
68.536000	0.257526	0.147233	0.263319	0.414262	5212.757849	25279.701054	3596.831564	10572.830242
69.036500	0.259755	0.148989	0.268787	0.417333	5208.234258	25211.991681	3600.931023	10518.552486
69.537000	0.259704	0.148264	0.267083	0.419846	5194.516940	25046.159594	3593.735048	10474.419002
70.037000	0.262633	0.152092	0.271860	0.427188	5171.099409	24867.657579	3589.391635	10346.953905
70.537500	0.261385	0.150938	0.270857	0.425939	5171.101534	24872.474990	3589.807193	10368.480624
71.035000	0.263539	0.151898	0.279708	0.427922	5172.009908	24820.785612	3601.501281	10334.335383
71.535500	0.267482	0.154250	0.279132	0.430867	5177.286731	24790.829873	3595.483226	10283.884424
72.035500	0.265101	0.154111	0.281476	0.433605	5150.341930	24646.250202	3594.812148	10237.291425
72.535500	0.267377	0.155623	0.284433	0.433846	5161.015342	24709.991377	3599.444821	10233.198777
73.039000	0.269566	0.155917	0.285478	0.434676	5168.171612	24683.112857	3599.814469	10219.147993
73.536500	0.269348	0.154977	0.280178	0.434651	5167.149055	24637.232669	3590.835302	10219.563350
74.037000	0.271218	0.157691	0.279433	0.438349	5157.541335	24588.034751	3583.360894	10157.263721
74.536500	0.274211	0.157496	0.286036	0.437889	5175.737035	24601.270955	3595.282927	10164.982922
75.034000	0.272663	0.160937	0.292499	0.440471	5153.986693	24644.244615	3601.915702	10121.737535
75.537000	0.273914	0.159024	0.286684	0.439233	5167.067630	24610.450281	3594.097862	10142.434242
76.035000	0.273753	0.161655	0.291864	0.443081	5146.033760	24549.705209	3596.364916	10078.288116
76.535000	0.274575	0.160575	0.285978	0.439798	5167.572486	24659.812080	3591.941855	10132.977976
77.035500	0.277827	0.160997	0.292082	0.440630	5180.365767	24639.283300	3600.926737	10119.078830
77.535500	0.272127	0.161016	0.295948	0.440845	5149.223867	24629.487399	3607.213757	10115.494573
78.036000	0.279178	0.161331	0.293053	0.442773	5176.176721	24548.915726	3598.921746	10083.411478
78.536000	0.278703	0.162775	0.297074	0.442936	5172.796787	24612.858556	3605.547085	10080.696101
79.036500	0.280079	0.163747	0.296279	0.444513	5171.740583	24582.678420	3601.467387	10054.567884
79.540000	0.276930	0.163497	0.288392	0.444287	5156.352221	24581.432561	3588.434446	10058.300922
80.037000	0.280327	0.162804	0.287105	0.445651	5167.042382	24479.005428	3583.979609	10035.768937
80.535000	0.276866	0.163799	0.295665	0.446394	5144.994009	24491.479156	3597.197839	10023.516495
81.035000	0.281885	0.163825	0.295400	0.448328	5161.150721	24396.836423	3593.454653	9991.733185
81.535000	0.282447	0.163625	0.298796	0.449633	5157.249924	24322.424573	3597.012481	9970.362342
82.035500	0.282333	0.164776	0.296671	0.452211	5143.162586	24252.112886	3589.033554	9928.339885
82.536000	0.284695	0.163132	0.292504	0.451513	5159.179225	24205.643845	3583.203560	9939.689215
83.036500	0.284326	0.164141	0.297585	0.453376	5147.485578	24163.791731	3588.611455	9909.434210
83.536500	0.283107	0.163565	0.301092	0.453419	5140.899333	24133.461155	3594.475102	9908.733304
84.039500	0.281043	0.162701	0.300364	0.453734	5128.542872	24075.896941	3592.704839	9903.634154
84.537000	0.282883	0.163048	0.301554	0.453858	5137.453192	24086.771159	3594.515675	9901.626694
85.037500	0.282953	0.162935	0.297346	0.453711	5138.579952	24088.444260	3587.643594	9904.008329
85.535000	0.287740	0.163898	0.299751	0.454809	5157.860661	24081.840697	3589.847611	9886.240783
86.035000	0.284123	0.164088	0.303103	0.455149	5137.185744	24074.577510	3594.953697	9880.760996
86.535500	0.287424	0.162061	0.303172	0.453979	5160.563847	24032.768940	3597.065000	9899.671391
87.036000	0.284573	0.161388	0.296868	0.453830	5146.405806	24007.277546	3586.638998	9902.082355
87.536000	0.286774	0.162132	0.298839	0.455354	5149.944933	23969.437302	3587.390552	9877.452366
88.036500	0.286705	0.161501	0.310094	0.455114	5150.841499	23950.446894	3607.001803	9881.320857
88.536500	0.286363	0.160860	0.303967	0.454917	5150.079275	23928.924486	3596.819394	9884.499777
89.037000	0.286140	0.161208	0.301722	0.454919	5148.906812	23945.723728	3592.998299	9884.474749
89.537000	0.287141	0.161590	0.304176	0.455180	5152.774654	23951.540500	3596.728625	9880.253957
90.037500	0.285965	0.160447	0.298765	0.454902	5148.082729	23909.664747	3588.028201	9884.750498
90.535000	0.286170	0.160548	0.306354	0.455202	5147.581431	23900.006743	3600.413956	9879.897111
91.035500	0.286558	0.160936	0.299723	0.455892	5146.003720	23885.382169	3587.972911	9868.767699
91.535500	0.287746	0.159861	0.306016	0.455293	5155.355999	23862.428305	3599.678412	9878.427883
92.036000	0.287349	0.160277	0.300085	0.455559	5151.883672	23869.680360	3589.145203	9874.140941
92.536500	0.286080	0.160099	0.302097	0.455478	5145.668978	23864.974350	3592.685817	9875.439522
93.076000	0.282773	0.157713	0.307455	0.453513	5138.671802	23844.659843	3605.209815	9907.205839
93.536500	0.286274	0.158413	0.300379	0.454584	5151.357620	23826.747916	3591.289178	9889.878434
94.037000	0.287215	0.159013	0.304242	0.455109	5153.535396	23830.374914	3596.962217	9881.397593
94.537000	0.289882	0.158331	0.294449	0.454947	5168.409416	23805.349545	3580.716154	9884.018156
95.035000	0.286142	0.158199	0.301316	0.454785	5149.619134	23806.771881	3592.537658	9886.638330
95.535000	0.287858	0.158659	0.300024	0.455543	5154.629398	23792.417976	3589.069393	9874.390188
96.035500	0.285864	0.159008	0.302872	0.456221	5140.667805	23776.626865	3592.741573	9863.477539
