sample name	sample
index	47
start time	 02-11-2021  02:12:17 PM


Wavelength (nm)	Absorbance
494.344910	NaN
494.563924	NaN
494.782919	NaN
495.001897	-0.142588
495.220856	0.238444
495.439797	0.166742
495.658719	0.141756
495.877624	0.092983
496.096510	0.218837
496.315378	0.112714
496.534227	0.227189
496.753059	0.303671
496.971872	0.167288
497.190667	0.097927
497.409444	0.081044
497.628203	0.088218
497.846943	0.089183
498.065665	0.086909
498.284369	0.089688
498.503055	0.088278
498.721723	0.089826
498.940372	0.089465
499.159003	0.089848
499.377616	0.090674
499.596210	0.087942
499.814787	0.088249
500.033345	0.087990
500.251885	0.087719
500.470406	0.086149
500.688910	0.084557
500.907395	0.084540
501.125862	0.082918
501.344311	0.083405
501.562742	0.084771
501.781154	0.083443
501.999548	0.081523
502.217924	0.082108
502.436282	0.083159
502.654621	0.084617
502.872942	0.084372
503.091245	0.085561
503.309530	0.085530
503.527797	0.086722
503.746045	0.088068
503.964275	0.089076
504.182487	0.088476
504.400681	0.088039
504.618856	0.086941
504.837013	0.086374
505.055152	0.087084
505.273273	0.088222
505.491376	0.085193
505.709460	0.084405
505.927526	0.084298
506.145574	0.081326
506.363604	0.080278
506.581615	0.080641
506.799608	0.082701
507.017583	0.082077
507.235540	0.080530
507.453478	0.080681
507.671399	0.080543
507.889301	0.082350
508.107185	0.085107
508.325050	0.086623
508.542898	0.085601
508.760727	0.083643
508.978538	0.084626
509.196330	0.086199
509.414105	0.086681
509.631861	0.086958
509.849599	0.085071
510.067319	0.085717
510.285021	0.084985
510.502704	0.084451
510.720369	0.084631
510.938016	0.084925
511.155645	0.083917
511.373255	0.084716
511.590848	0.085041
511.808422	0.086475
512.025977	0.085251
512.243515	0.086102
512.461034	0.087706
512.678536	0.088173
512.896018	0.086429
513.113483	0.086400
513.330930	0.085564
513.548358	0.085073
513.765768	0.084385
513.983160	0.084265
514.200533	0.084071
514.417889	0.084195
514.635226	0.083718
514.852545	0.084488
515.069845	0.085346
515.287128	0.087148
515.504392	0.086977
515.721638	0.086828
515.938866	0.087734
516.156075	0.089091
516.373267	0.089122
516.590440	0.090263
516.807594	0.089807
517.024731	0.090580
517.241850	0.088451
517.458950	0.089290
517.676032	0.090488
517.893095	0.090469
518.110141	0.089351
518.327168	0.089623
518.544177	0.089028
518.761168	0.089883
518.978141	0.089190
519.195095	0.090302
519.412031	0.090215
519.628949	0.089493
519.845849	0.089101
520.062731	0.088973
520.279594	0.087825
520.496439	0.088797
520.713266	0.088511
520.930074	0.088050
521.146865	0.089463
521.363637	0.089397
521.580391	0.089283
521.797127	0.090763
522.013844	0.090694
522.230543	0.092362
522.447224	0.091941
522.663887	0.091643
522.880532	0.091860
523.097158	0.091064
523.313766	0.091136
523.530356	0.091604
523.746928	0.090072
523.963481	0.089989
524.180017	0.087877
524.396534	0.088439
524.613032	0.087975
524.829513	0.087755
525.045975	0.087776
525.262420	0.088403
525.478845	0.088375
525.695253	0.088632
525.911643	0.088750
526.128014	0.089825
526.344367	0.088597
526.560702	0.089737
526.777018	0.090131
526.993316	0.089308
527.209597	0.089006
527.425858	0.089147
527.642102	0.090053
527.858328	0.090225
528.074535	0.090891
528.290724	0.091296
528.506894	0.090698
528.723047	0.091054
528.939181	0.091828
529.155297	0.091722
529.371395	0.092801
529.587475	0.092415
529.803536	0.093040
530.019579	0.092527
530.235604	0.093626
530.451611	0.093641
530.667600	0.093939
530.883570	0.093453
531.099522	0.093856
531.315456	0.094280
531.531372	0.093932
531.747269	0.094178
531.963148	0.094275
532.179009	0.094641
532.394852	0.095064
532.610676	0.095416
532.826482	0.095665
533.042271	0.095806
533.258040	0.095142
533.473792	0.095022
533.689525	0.094913
533.905240	0.095015
534.120937	0.094348
534.336616	0.094596
534.552277	0.094063
534.767919	0.094642
534.983543	0.094647
535.199149	0.094785
535.414736	0.095332
535.630306	0.095201
535.845857	0.096314
536.061390	0.096131
536.276904	0.097362
536.492401	0.097498
536.707879	0.098297
536.923339	0.097795
537.138781	0.097625
537.354204	0.098282
537.569610	0.097931
537.784997	0.097813
538.000366	0.097770
538.215716	0.096833
538.431049	0.096327
538.646363	0.096309
538.861659	0.096687
539.076937	0.097017
539.292196	0.096751
539.507438	0.098514
539.722661	0.099062
539.937866	0.099778
540.153052	0.099842
540.368221	0.100939
540.583371	0.100402
540.798503	0.100811
541.013617	0.100992
541.228712	0.101473
541.443789	0.100747
541.658848	0.099929
541.873889	0.099710
542.088912	0.100081
542.303916	0.099735
542.518902	0.099703
542.733870	0.099623
542.948820	0.099137
543.163752	0.099740
543.378665	0.100146
543.593560	0.100308
543.808437	0.100088
544.023295	0.099817
544.238136	0.100837
544.452958	0.101184
544.667762	0.101597
544.882548	0.101816
545.097315	0.101121
545.312064	0.100560
545.526795	0.100751
545.741508	0.101419
545.956203	0.101925
546.170879	0.101915
546.385537	0.101366
546.600177	0.100770
546.814799	0.100935
547.029402	0.100945
547.243988	0.100843
547.458555	0.101306
547.673103	0.101238
547.887634	0.100963
548.102146	0.100436
548.316640	0.101344
548.531116	0.101943
548.745574	0.102156
548.960013	0.102268
549.174435	0.103521
549.388838	0.103515
549.603222	0.103311
549.817589	0.103547
550.031937	0.103685
550.246267	0.103123
550.460579	0.102864
550.674873	0.102300
550.889148	0.102376
551.103405	0.102528
551.317644	0.102047
551.531865	0.102808
551.746068	0.102841
551.960252	0.103421
552.174418	0.103684
552.388566	0.103998
552.602696	0.103955
552.816807	0.103628
553.030900	0.102338
553.244975	0.102789
553.459032	0.102525
553.673070	0.102716
553.887091	0.102970
554.101093	0.103189
554.315077	0.103142
554.529042	0.104037
554.742990	0.104512
554.956919	0.104767
555.170830	0.104509
555.384722	0.104530
555.598597	0.104050
555.812453	0.103740
556.026291	0.104103
556.240111	0.104670
556.453913	0.103783
556.667696	0.104092
556.881461	0.104367
557.095208	0.104194
557.308937	0.104643
557.522647	0.104910
557.736339	0.105034
557.950013	0.104984
558.163669	0.104606
558.377307	0.105532
558.590926	0.105521
558.804527	0.105646
559.018110	0.106134
559.231675	0.105470
559.445221	0.105680
559.658749	0.105118
559.872259	0.105391
560.085751	0.105575
560.299225	0.105291
560.512680	0.105319
560.726117	0.105261
560.939536	0.104933
561.152937	0.105392
561.366319	0.105764
561.579683	0.106255
561.793029	0.105818
562.006357	0.106161
562.219667	0.106628
562.432958	0.106320
562.646231	0.106660
562.859486	0.107453
563.072723	0.108489
563.285941	0.108268
563.499141	0.108253
563.712323	0.108447
563.925487	0.108232
564.138632	0.108375
564.351760	0.108945
564.564869	0.108648
564.777960	0.108374
564.991032	0.107222
565.204087	0.107300
565.417123	0.107410
565.630141	0.107796
565.843140	0.108038
566.056122	0.107604
566.269085	0.107339
566.482030	0.107689
566.694957	0.107704
566.907866	0.107908
567.120756	0.108158
567.333628	0.108524
567.546482	0.108050
567.759318	0.107891
567.972135	0.108350
568.184935	0.108932
568.397716	0.109175
568.610478	0.109659
568.823223	0.109642
569.035949	0.110029
569.248657	0.109569
569.461347	0.109884
569.674019	0.110164
569.886672	0.109768
570.099308	0.109352
570.311925	0.109162
570.524523	0.109644
570.737104	0.109627
570.949666	0.109340
571.162210	0.109259
571.374736	0.109346
571.587244	0.109241
571.799733	0.109295
572.012205	0.109326
572.224658	0.109305
572.437092	0.108752
572.649509	0.109091
572.861907	0.108885
573.074287	0.108664
573.286649	0.108261
573.498993	0.108357
573.711318	0.108701
573.923625	0.108703
574.135914	0.108659
574.348185	0.108182
574.560438	0.107767
574.772672	0.108029
574.984888	0.108270
575.197086	0.108337
575.409266	0.108005
575.621427	0.108256
575.833570	0.108381
576.045695	0.108536
576.257802	0.108872
576.469890	0.109351
576.681961	0.109288
576.894013	0.109595
577.106046	0.109907
577.318062	0.110370
577.530059	0.110195
577.742039	0.109971
577.954000	0.109979
578.165942	0.110497
578.377867	0.110141
578.589773	0.110278
578.801661	0.109882
579.013531	0.110355
579.225382	0.110285
579.437216	0.110286
579.649031	0.110296
579.860828	0.110417
580.072606	0.109832
580.284367	0.109730
580.496109	0.109734
580.707833	0.110162
580.919539	0.110017
581.131227	0.109808
581.342896	0.110117
581.554547	0.110584
581.766180	0.110446
581.977795	0.110215
582.189391	0.110790
582.400969	0.110499
582.612529	0.110551
582.824071	0.110710
583.035595	0.111378
583.247100	0.110634
583.458587	0.110631
583.670056	0.111118
583.881506	0.111534
584.092939	0.111726
584.304353	0.111890
584.515749	0.111983
584.727127	0.111922
584.938486	0.111256
585.149828	0.111947
585.361151	0.112106
585.572456	0.112120
585.783742	0.112542
585.995011	0.112270
586.206261	0.112646
586.417493	0.112706
586.628706	0.112508
586.839902	0.112593
587.051079	0.113111
587.262238	0.113321
587.473379	0.112945
587.684502	0.112612
587.895606	0.112627
588.106692	0.112108
588.317760	0.112471
588.528810	0.113135
588.739841	0.114009
588.950855	0.113148
589.161850	0.112770
589.372827	0.112927
589.583785	0.113081
589.794726	0.113787
590.005648	0.114504
590.216552	0.114216
590.427437	0.113323
590.638305	0.112812
590.849154	0.113229
591.059985	0.113418
591.270798	0.113009
591.481592	0.113178
591.692369	0.112759
591.903127	0.112289
592.113867	0.112393
592.324588	0.112791
592.535292	0.113148
592.745977	0.113359
592.956644	0.113809
593.167293	0.114559
593.377923	0.114664
593.588536	0.114409
593.799130	0.114565
594.009706	0.114181
594.220263	0.113791
594.430803	0.114212
594.641324	0.113836
594.851827	0.113365
595.062312	0.113372
595.272778	0.113552
595.483227	0.114133
595.693657	0.114249
595.904069	0.114535
596.114462	0.115182
596.324838	0.114391
596.535195	0.114794
596.745534	0.114754
596.955855	0.114381
597.166157	0.114475
597.376441	0.113976
597.586707	0.114358
597.796955	0.114367
598.007185	0.114340
598.217396	0.114868
598.427589	0.114578
598.637764	0.114794
598.847921	0.115424
599.058060	0.115104
599.268180	0.115243
599.478282	0.114476
599.688366	0.114806
599.898431	0.115065
600.108479	0.115234
600.318508	0.115188
600.528519	0.115420
600.738511	0.114943
600.948486	0.114564
601.158442	0.114449
601.368380	0.115401
601.578300	0.115123
601.788202	0.114856
601.998085	0.114949
602.207950	0.115071
602.417797	0.115067
602.627626	0.115166
602.837436	0.115395
603.047228	0.115636
603.257002	0.115117
603.466758	0.115253
603.676496	0.115574
603.886215	0.114954
604.095916	0.114738
604.305599	0.114762
604.515264	0.115018
604.724910	0.115047
604.934538	0.115289
605.144148	0.115694
605.353740	0.115692
605.563314	0.115460
605.772869	0.115617
605.982406	0.116194
606.191925	0.115985
606.401425	0.116417
606.610908	0.117142
606.820372	0.116887
607.029818	0.116780
607.239246	0.117113
607.448655	0.117302
607.658047	0.116966
607.867420	0.116771
608.076775	0.116707
608.286111	0.116648
608.495430	0.116174
608.704730	0.117029
608.914012	0.117144
609.123275	0.116898
609.332521	0.116818
609.541748	0.117396
609.750957	0.117482
609.960148	0.117920
610.169321	0.117425
610.378475	0.117594
610.587611	0.117264
610.796729	0.116871
611.005829	0.117252
611.214910	0.117245
611.423974	0.117054
611.633019	0.117107
611.842045	0.116980
612.051054	0.116995
612.260044	0.116454
612.469017	0.116396
612.677970	0.116757
612.886906	0.116925
613.095824	0.116975
613.304723	0.117232
613.513604	0.117566
613.722467	0.117815
613.931311	0.118130
614.140138	0.118222
614.348946	0.118032
614.557736	0.117825
614.766507	0.117339
614.975261	0.117789
615.183996	0.117859
615.392713	0.117720
615.601412	0.117650
615.810092	0.117894
616.018754	0.118221
616.227399	0.118788
616.436024	0.119186
616.644632	0.119368
616.853222	0.119211
617.061793	0.119036
617.270346	0.118498
617.478880	0.118467
617.687397	0.118165
617.895895	0.118529
618.104375	0.118275
618.312837	0.118590
618.521281	0.118904
618.729706	0.118938
618.938113	0.119309
619.146502	0.120093
619.354873	0.120243
619.563226	0.120100
619.771560	0.120064
619.979876	0.120415
620.188174	0.120304
620.396453	0.120278
620.604715	0.120079
620.812958	0.120169
621.021183	0.120244
621.229390	0.120424
621.437578	0.120740
621.645748	0.120802
621.853900	0.120770
622.062034	0.121033
622.270150	0.121337
622.478247	0.121615
622.686326	0.121494
622.894387	0.121763
623.102430	0.121753
623.310454	0.121918
623.518461	0.122039
623.726449	0.122141
623.934418	0.122377
624.142370	0.122683
624.350303	0.122498
624.558218	0.122544
624.766115	0.122231
624.973994	0.122114
625.181855	0.122200
625.389697	0.122055
625.597521	0.122132
625.805327	0.121879
626.013114	0.121447
626.220883	0.121894
626.428634	0.121922
626.636367	0.122036
626.844082	0.122616
627.051778	0.122602
627.259457	0.123237
627.467117	0.122920
627.674758	0.122869
627.882382	0.123724
628.089987	0.123820
628.297574	0.123934
628.505143	0.123764
628.712694	0.123527
628.920226	0.123752
629.127740	0.123545
629.335236	0.123761
629.542714	0.124055
629.750174	0.123994
629.957615	0.123856
630.165038	0.123917
630.372443	0.124393
630.579829	0.124283
630.787198	0.124233
630.994548	0.124310
631.201880	0.124818
631.409194	0.125133
631.616489	0.124669
631.823766	0.124591
632.031025	0.124841
632.238266	0.125049
632.445489	0.125338
632.652693	0.125308
632.859879	0.125366
633.067047	0.125172
633.274197	0.125080
633.481329	0.125024
633.688442	0.125541
633.895537	0.125384
634.102614	0.125350
634.309672	0.125440
634.516713	0.125836
634.723735	0.125991
634.930739	0.126211
635.137724	0.126120
635.344692	0.126610
635.551641	0.126759
635.758572	0.126913
635.965485	0.127150
636.172379	0.127105
636.379256	0.127082
636.586114	0.126979
636.792954	0.127025
636.999775	0.127215
637.206579	0.126974
637.413364	0.126654
637.620131	0.126847
637.826880	0.126869
638.033610	0.127216
638.240323	0.127162
638.447017	0.127335
638.653692	0.127170
638.860350	0.126940
639.066990	0.126867
639.273611	0.126794
639.480214	0.126886
639.686798	0.126680
639.893365	0.126808
640.099913	0.126707
640.306443	0.126680
640.512955	0.126903
640.719449	0.127186
640.925924	0.127723
641.132381	0.128127
641.338820	0.128120
641.545241	0.128266
641.751644	0.128073
641.958028	0.128360
642.164394	0.128464
642.370742	0.128472
642.577071	0.128540
642.783383	0.128424
642.989676	0.128561
643.195951	0.128723
643.402207	0.128877
643.608446	0.128788
643.814666	0.128922
644.020868	0.129371
644.227052	0.129234
644.433218	0.129106
644.639365	0.129069
644.845494	0.128861
645.051605	0.128503
645.257698	0.128101
645.463772	0.127840
645.669828	0.127454
645.875866	0.126766
646.081886	0.126795
646.287888	0.127230
646.493871	0.127033
646.699836	0.127094
646.905783	0.127118
647.111712	0.127778
647.317622	0.128161
647.523514	0.128373
647.729388	0.128730
647.935244	0.128605
648.141082	0.128525
648.346901	0.128839
648.552702	0.129195
648.758485	0.129581
648.964250	0.129442
649.169996	0.129621
649.375724	0.129911
649.581434	0.130087
649.787126	0.130750
649.992800	0.130587
650.198455	0.130813
650.404092	0.130643
650.609711	0.130839
650.815311	0.130609
651.020894	0.130636
651.226458	0.130774
651.432004	0.130726
651.637532	0.130476
651.843041	0.130793
652.048532	0.130907
652.254006	0.131224
652.459460	0.130988
652.664897	0.131358
652.870315	0.131316
653.075716	0.131590
653.281097	0.131962
653.486461	0.132402
653.691807	0.132441
653.897134	0.132581
654.102443	0.132919
654.307734	0.133494
654.513006	0.133318
654.718261	0.133634
654.923497	0.133685
655.128715	0.133716
655.333915	0.133560
655.539096	0.133822
655.744259	0.133628
655.949404	0.133525
656.154531	0.133324
656.359640	0.133804
656.564730	0.134145
656.769802	0.134390
656.974856	0.134300
657.179892	0.134567
657.384909	0.134280
657.589908	0.134530
657.794889	0.134631
657.999852	0.134838
658.204797	0.134526
658.409723	0.134422
658.614631	0.134194
658.819521	0.134285
659.024393	0.134231
659.229246	0.134651
659.434081	0.134690
659.638898	0.134776
659.843697	0.134870
660.048478	0.135279
660.253240	0.135142
660.457984	0.135284
660.662710	0.135481
660.867417	0.135575
661.072107	0.135458
661.276778	0.135824
661.481431	0.135812
661.686066	0.135797
661.890682	0.135962
662.095281	0.135999
662.299861	0.136023
662.504422	0.136200
662.708966	0.136193
662.913491	0.136371
663.117999	0.136159
663.322488	0.136335
663.526958	0.136578
663.731411	0.136461
663.935845	0.136551
664.140261	0.136697
664.344659	0.136509
664.549038	0.137001
664.753400	0.136982
664.957743	0.136651
665.162068	0.136354
665.366375	0.136065
665.570663	0.136307
665.774933	0.136717
665.979185	0.136987
666.183419	0.137177
666.387635	0.137184
666.591832	0.137560
666.796011	0.138045
667.000172	0.138487
667.204315	0.138836
667.408439	0.139137
667.612545	0.139135
667.816634	0.139258
668.020703	0.139356
668.224755	0.139396
668.428788	0.139194
668.632803	0.139243
668.836800	0.139293
669.040779	0.139633
669.244739	0.139703
669.448681	0.139758
669.652605	0.139428
669.856511	0.139633
670.060399	0.140033
670.264268	0.139941
670.468119	0.140116
670.671952	0.140239
670.875767	0.140173
671.079563	0.139886
671.283341	0.140466
671.487101	0.140907
671.690843	0.141225
671.894567	0.140762
672.098272	0.141132
672.301959	0.141251
672.505628	0.141118
672.709278	0.141347
672.912911	0.141511
673.116525	0.141388
673.320121	0.141583
673.523699	0.141420
673.727258	0.141901
673.930799	0.142080
674.134322	0.142218
674.337827	0.142435
674.541314	0.142418
674.744782	0.142424
674.948232	0.142657
675.151664	0.142707
675.355078	0.142886
675.558474	0.142810
675.761851	0.142683
675.965210	0.142815
676.168551	0.143061
676.371873	0.143466
676.575178	0.143629
676.778464	0.143642
676.981732	0.143713
677.184981	0.143714
677.388213	0.143805
677.591426	0.143626
677.794621	0.143950
677.997798	0.144086
678.200956	0.144208
678.404097	0.144451
678.607219	0.144538
678.810323	0.144582
679.013408	0.144662
679.216476	0.144736
679.419525	0.145224
679.622556	0.144871
679.825569	0.145018
680.028563	0.144910
680.231540	0.144689
680.434498	0.144426
680.637438	0.144321
680.840359	0.144564
681.043263	0.144562
681.246148	0.144462
681.449015	0.144518
681.651864	0.144414
681.854694	0.144155
682.057506	0.144538
682.260301	0.144755
682.463076	0.144917
682.665834	0.144605
682.868573	0.144522
683.071295	0.144898
683.273998	0.145070
683.476682	0.145250
683.679349	0.145598
683.881997	0.145823
684.084627	0.145819
684.287239	0.146067
684.489833	0.146469
684.692408	0.146796
684.894965	0.146762
685.097504	0.146922
685.300025	0.147079
685.502527	0.147031
685.705012	0.146877
685.907478	0.146757
686.109925	0.146639
686.312355	0.146882
686.514766	0.146868
686.717159	0.147226
686.919534	0.147536
687.121891	0.147492
687.324230	0.147739
687.526550	0.147988
687.728852	0.148384
687.931136	0.148352
688.133401	0.148057
688.335649	0.148057
688.537878	0.148211
688.740089	0.148208
688.942281	0.148158
689.144456	0.148011
689.346612	0.147993
689.548750	0.148082
689.750870	0.148275
689.952971	0.148213
690.155055	0.148353
690.357120	0.148283
690.559167	0.147981
690.761195	0.148117
690.963206	0.148197
691.165198	0.148085
691.367172	0.147991
691.569128	0.148047
691.771065	0.148213
691.972984	0.148147
692.174885	0.148020
692.376768	0.148254
692.578633	0.148495
692.780479	0.148462
692.982308	0.148754
693.184118	0.148977
693.385909	0.149051
693.587683	0.149392
