sample name	sample
index	1438
start time	 05-10-2021  12:54:06 PM


Wavelength (nm)	Absorbance
494.344910	0.017088
494.563924	0.017088
494.782919	0.017088
495.001897	0.041891
495.220856	-0.001470
495.439797	-0.011648
495.658719	-0.017604
495.877624	-0.022498
496.096510	-0.028150
496.315378	-0.023377
496.534227	-0.012247
496.753059	-0.000139
496.971872	-0.004931
497.190667	0.053497
497.409444	0.090976
497.628203	0.101962
497.846943	0.106623
498.065665	0.111872
498.284369	0.114234
498.503055	0.116166
498.721723	0.117716
498.940372	0.116888
499.159003	0.117100
499.377616	0.116601
499.596210	0.116217
499.814787	0.116162
500.033345	0.115251
500.251885	0.115237
500.470406	0.114720
500.688910	0.114087
500.907395	0.115603
501.125862	0.116391
501.344311	0.114965
501.562742	0.115725
501.781154	0.116352
501.999548	0.117538
502.217924	0.117084
502.436282	0.117737
502.654621	0.117389
502.872942	0.117356
503.091245	0.118018
503.309530	0.119555
503.527797	0.120056
503.746045	0.120550
503.964275	0.120051
504.182487	0.120646
504.400681	0.120672
504.618856	0.120844
504.837013	0.121528
505.055152	0.120854
505.273273	0.120410
505.491376	0.119316
505.709460	0.119646
505.927526	0.119588
506.145574	0.119482
506.363604	0.119189
506.581615	0.119692
506.799608	0.119030
507.017583	0.119732
507.235540	0.120666
507.453478	0.121637
507.671399	0.122138
507.889301	0.121286
508.107185	0.120982
508.325050	0.121054
508.542898	0.121108
508.760727	0.122108
508.978538	0.121425
509.196330	0.120980
509.414105	0.120535
509.631861	0.119191
509.849599	0.119854
510.067319	0.120261
510.285021	0.120364
510.502704	0.120264
510.720369	0.120009
510.938016	0.121440
511.155645	0.121797
511.373255	0.121717
511.590848	0.121754
511.808422	0.121928
512.025977	0.122386
512.243515	0.121899
512.461034	0.122424
512.678536	0.122225
512.896018	0.121393
513.113483	0.121568
513.330930	0.122224
513.548358	0.122881
513.765768	0.123633
513.983160	0.123750
514.200533	0.124734
514.417889	0.123754
514.635226	0.123762
514.852545	0.123238
515.069845	0.123193
515.287128	0.123232
515.504392	0.123686
515.721638	0.122460
515.938866	0.122084
516.156075	0.122409
516.373267	0.123766
516.590440	0.124186
516.807594	0.124595
517.024731	0.124711
517.241850	0.124565
517.458950	0.124705
517.676032	0.125749
517.893095	0.126427
518.110141	0.127072
518.327168	0.126457
518.544177	0.126090
518.761168	0.126710
518.978141	0.126565
519.195095	0.126968
519.412031	0.126812
519.628949	0.126959
519.845849	0.127202
520.062731	0.126918
520.279594	0.126932
520.496439	0.127986
520.713266	0.127789
520.930074	0.128338
521.146865	0.128480
521.363637	0.128395
521.580391	0.128519
521.797127	0.128268
522.013844	0.127965
522.230543	0.128880
522.447224	0.128518
522.663887	0.128514
522.880532	0.128715
523.097158	0.128762
523.313766	0.129351
523.530356	0.129664
523.746928	0.129940
523.963481	0.130094
524.180017	0.130406
524.396534	0.131005
524.613032	0.131006
524.829513	0.130877
525.045975	0.131429
525.262420	0.131654
525.478845	0.131169
525.695253	0.131176
525.911643	0.131987
526.128014	0.131756
526.344367	0.131975
526.560702	0.132476
526.777018	0.133310
526.993316	0.133461
527.209597	0.133476
527.425858	0.133412
527.642102	0.133051
527.858328	0.131980
528.074535	0.131998
528.290724	0.131725
528.506894	0.131646
528.723047	0.131461
528.939181	0.131191
529.155297	0.130944
529.371395	0.132041
529.587475	0.132745
529.803536	0.134432
530.019579	0.134561
530.235604	0.135267
530.451611	0.135629
530.667600	0.135358
530.883570	0.135936
531.099522	0.136399
531.315456	0.136460
531.531372	0.136551
531.747269	0.136048
531.963148	0.136345
532.179009	0.136098
532.394852	0.136149
532.610676	0.137153
532.826482	0.137175
533.042271	0.137533
533.258040	0.137720
533.473792	0.137993
533.689525	0.138190
533.905240	0.138279
534.120937	0.138572
534.336616	0.138923
534.552277	0.138652
534.767919	0.138566
534.983543	0.138476
535.199149	0.138472
535.414736	0.138554
535.630306	0.138528
535.845857	0.139038
536.061390	0.139289
536.276904	0.139374
536.492401	0.139650
536.707879	0.140570
536.923339	0.140924
537.138781	0.141248
537.354204	0.141303
537.569610	0.141461
537.784997	0.141875
538.000366	0.141818
538.215716	0.142732
538.431049	0.142278
538.646363	0.142045
538.861659	0.142405
539.076937	0.142768
539.292196	0.143657
539.507438	0.143724
539.722661	0.143671
539.937866	0.144265
540.153052	0.143728
540.368221	0.144080
540.583371	0.144511
540.798503	0.144111
541.013617	0.144112
541.228712	0.143541
541.443789	0.143675
541.658848	0.143724
541.873889	0.143729
542.088912	0.143918
542.303916	0.144977
542.518902	0.144701
542.733870	0.145465
542.948820	0.145580
543.163752	0.145893
543.378665	0.146399
543.593560	0.146783
543.808437	0.146664
544.023295	0.146546
544.238136	0.146035
544.452958	0.146677
544.667762	0.146388
544.882548	0.146607
545.097315	0.147125
545.312064	0.147219
545.526795	0.146977
545.741508	0.146898
545.956203	0.147400
546.170879	0.147336
546.385537	0.147147
546.600177	0.147201
546.814799	0.147012
547.029402	0.146660
547.243988	0.147083
547.458555	0.147237
547.673103	0.147889
547.887634	0.148045
548.102146	0.148586
548.316640	0.148825
548.531116	0.149288
548.745574	0.149361
548.960013	0.149820
549.174435	0.149872
549.388838	0.150004
549.603222	0.150248
549.817589	0.150743
550.031937	0.150944
550.246267	0.151061
550.460579	0.151052
550.674873	0.151447
550.889148	0.152143
551.103405	0.152000
551.317644	0.151991
551.531865	0.152036
551.746068	0.151983
551.960252	0.152019
552.174418	0.152353
552.388566	0.152992
552.602696	0.153562
552.816807	0.152859
553.030900	0.152904
553.244975	0.153111
553.459032	0.152975
553.673070	0.152944
553.887091	0.152869
554.101093	0.152892
554.315077	0.152785
554.529042	0.152276
554.742990	0.152410
554.956919	0.152481
555.170830	0.152609
555.384722	0.152623
555.598597	0.152759
555.812453	0.152825
556.026291	0.152778
556.240111	0.152512
556.453913	0.152523
556.667696	0.152627
556.881461	0.153004
557.095208	0.153083
557.308937	0.153549
557.522647	0.153603
557.736339	0.153485
557.950013	0.153508
558.163669	0.153609
558.377307	0.154143
558.590926	0.154418
558.804527	0.154242
559.018110	0.154200
559.231675	0.153745
559.445221	0.153767
559.658749	0.153963
559.872259	0.154371
560.085751	0.154219
560.299225	0.154230
560.512680	0.153920
560.726117	0.154322
560.939536	0.154320
561.152937	0.154669
561.366319	0.154771
561.579683	0.154780
561.793029	0.154556
562.006357	0.154525
562.219667	0.154100
562.432958	0.154223
562.646231	0.153901
562.859486	0.154392
563.072723	0.154502
563.285941	0.154281
563.499141	0.154560
563.712323	0.154690
563.925487	0.155295
564.138632	0.155928
564.351760	0.156487
564.564869	0.156896
564.777960	0.156871
564.991032	0.156866
565.204087	0.157262
565.417123	0.157180
565.630141	0.157303
565.843140	0.157123
566.056122	0.157203
566.269085	0.156894
566.482030	0.157016
566.694957	0.157091
566.907866	0.157266
567.120756	0.157357
567.333628	0.157263
567.546482	0.157279
567.759318	0.157544
567.972135	0.157328
568.184935	0.157785
568.397716	0.157786
568.610478	0.157880
568.823223	0.158154
569.035949	0.158152
569.248657	0.158368
569.461347	0.158426
569.674019	0.158476
569.886672	0.158565
570.099308	0.158435
570.311925	0.158512
570.524523	0.158629
570.737104	0.158797
570.949666	0.158771
571.162210	0.158990
571.374736	0.158996
571.587244	0.159223
571.799733	0.159309
572.012205	0.159530
572.224658	0.159684
572.437092	0.159761
572.649509	0.159779
572.861907	0.159949
573.074287	0.160274
573.286649	0.160808
573.498993	0.160658
573.711318	0.161268
573.923625	0.161432
574.135914	0.161506
574.348185	0.162011
574.560438	0.162091
574.772672	0.162240
574.984888	0.162457
575.197086	0.162321
575.409266	0.162667
575.621427	0.162664
575.833570	0.162548
576.045695	0.162592
576.257802	0.162356
576.469890	0.162606
576.681961	0.162931
576.894013	0.162829
577.106046	0.163138
577.318062	0.163037
577.530059	0.163037
577.742039	0.163115
577.954000	0.163130
578.165942	0.163235
578.377867	0.163153
578.589773	0.163399
578.801661	0.163580
579.013531	0.163427
579.225382	0.163605
579.437216	0.163319
579.649031	0.163633
579.860828	0.163742
580.072606	0.163569
580.284367	0.163802
580.496109	0.163403
580.707833	0.163311
580.919539	0.163010
581.131227	0.163025
581.342896	0.163286
581.554547	0.163171
581.766180	0.163077
581.977795	0.163551
582.189391	0.163663
582.400969	0.164219
582.612529	0.164101
582.824071	0.164759
583.035595	0.164926
583.247100	0.165257
583.458587	0.165834
583.670056	0.166303
583.881506	0.166464
584.092939	0.166758
584.304353	0.166634
584.515749	0.167392
584.727127	0.167324
584.938486	0.167676
585.149828	0.167521
585.361151	0.167572
585.572456	0.167825
585.783742	0.168222
585.995011	0.167894
586.206261	0.168436
586.417493	0.168511
586.628706	0.168847
586.839902	0.168671
587.051079	0.168804
587.262238	0.168296
587.473379	0.168626
587.684502	0.168218
587.895606	0.168194
588.106692	0.167763
588.317760	0.167626
588.528810	0.167420
588.739841	0.167862
588.950855	0.168353
589.161850	0.168526
589.372827	0.168330
589.583785	0.168304
589.794726	0.168481
590.005648	0.168766
590.216552	0.168910
590.427437	0.169142
590.638305	0.169330
590.849154	0.169214
591.059985	0.169794
591.270798	0.169839
591.481592	0.170079
591.692369	0.170107
591.903127	0.170128
592.113867	0.170414
592.324588	0.170397
592.535292	0.170258
592.745977	0.169949
592.956644	0.169883
593.167293	0.169884
593.377923	0.170201
593.588536	0.170295
593.799130	0.170487
594.009706	0.170344
594.220263	0.170337
594.430803	0.170249
594.641324	0.170790
594.851827	0.170714
595.062312	0.170785
595.272778	0.170728
595.483227	0.171070
595.693657	0.171026
595.904069	0.171082
596.114462	0.171813
596.324838	0.172074
596.535195	0.172311
596.745534	0.172484
596.955855	0.172438
597.166157	0.172436
597.376441	0.172246
597.586707	0.172184
597.796955	0.172129
598.007185	0.171677
598.217396	0.171681
598.427589	0.171383
598.637764	0.171550
598.847921	0.171735
599.058060	0.171875
599.268180	0.172180
599.478282	0.172447
599.688366	0.172666
599.898431	0.172822
600.108479	0.173084
600.318508	0.173308
600.528519	0.173350
600.738511	0.173860
600.948486	0.174090
601.158442	0.174272
601.368380	0.174253
601.578300	0.174360
601.788202	0.174429
601.998085	0.174286
602.207950	0.173896
602.417797	0.173948
602.627626	0.173870
602.837436	0.173449
603.047228	0.173405
603.257002	0.173631
603.466758	0.173836
603.676496	0.174026
603.886215	0.174549
604.095916	0.174955
604.305599	0.175012
604.515264	0.174766
604.724910	0.175028
604.934538	0.175040
605.144148	0.175011
605.353740	0.175031
605.563314	0.175031
605.772869	0.174879
605.982406	0.175076
606.191925	0.175092
606.401425	0.175211
606.610908	0.175456
606.820372	0.175699
607.029818	0.175557
607.239246	0.175579
607.448655	0.175910
607.658047	0.176014
607.867420	0.176128
608.076775	0.176554
608.286111	0.176600
608.495430	0.176792
608.704730	0.176726
608.914012	0.177519
609.123275	0.177619
609.332521	0.177350
609.541748	0.177883
609.750957	0.177860
609.960148	0.177655
610.169321	0.178039
610.378475	0.178267
610.587611	0.178470
610.796729	0.178143
611.005829	0.178466
611.214910	0.178652
611.423974	0.178292
611.633019	0.178517
611.842045	0.178457
612.051054	0.178345
612.260044	0.178495
612.469017	0.178234
612.677970	0.178088
612.886906	0.177970
613.095824	0.178254
613.304723	0.178027
613.513604	0.177831
613.722467	0.177918
613.931311	0.177978
614.140138	0.177870
614.348946	0.178288
614.557736	0.178752
614.766507	0.178941
614.975261	0.178796
615.183996	0.179098
615.392713	0.179511
615.601412	0.179676
615.810092	0.179898
616.018754	0.179844
616.227399	0.179931
616.436024	0.179782
616.644632	0.179924
616.853222	0.180060
617.061793	0.180134
617.270346	0.180323
617.478880	0.180653
617.687397	0.180674
617.895895	0.181224
618.104375	0.181197
618.312837	0.181428
618.521281	0.181614
618.729706	0.181761
618.938113	0.181928
619.146502	0.181652
619.354873	0.181632
619.563226	0.181454
619.771560	0.181336
619.979876	0.181316
620.188174	0.181378
620.396453	0.181500
620.604715	0.181680
620.812958	0.181591
621.021183	0.181848
621.229390	0.182125
621.437578	0.182495
621.645748	0.182261
621.853900	0.182476
622.062034	0.182625
622.270150	0.182339
622.478247	0.182150
622.686326	0.182407
622.894387	0.182321
623.102430	0.182495
623.310454	0.182615
623.518461	0.182642
623.726449	0.182713
623.934418	0.182760
624.142370	0.182878
624.350303	0.183263
624.558218	0.183320
624.766115	0.183546
624.973994	0.183610
625.181855	0.183739
625.389697	0.183973
625.597521	0.183960
625.805327	0.184024
626.013114	0.184291
626.220883	0.184083
626.428634	0.183817
626.636367	0.184028
626.844082	0.183579
627.051778	0.183609
627.259457	0.183842
627.467117	0.183951
627.674758	0.183849
627.882382	0.183644
628.089987	0.183944
628.297574	0.184331
628.505143	0.184264
628.712694	0.184465
628.920226	0.184253
629.127740	0.184241
629.335236	0.184639
629.542714	0.185078
629.750174	0.185189
629.957615	0.185491
630.165038	0.185514
630.372443	0.185415
630.579829	0.185797
630.787198	0.185937
630.994548	0.186011
631.201880	0.185851
631.409194	0.185641
631.616489	0.185624
631.823766	0.185381
632.031025	0.185383
632.238266	0.185736
632.445489	0.185392
632.652693	0.185699
632.859879	0.185692
633.067047	0.185994
633.274197	0.186225
633.481329	0.186502
633.688442	0.186574
633.895537	0.186715
634.102614	0.186653
634.309672	0.186902
634.516713	0.186897
634.723735	0.187000
634.930739	0.187110
635.137724	0.187181
635.344692	0.187191
635.551641	0.187208
635.758572	0.187476
635.965485	0.187746
636.172379	0.187981
636.379256	0.188032
636.586114	0.188225
636.792954	0.188020
636.999775	0.188017
637.206579	0.188161
637.413364	0.188426
637.620131	0.188277
637.826880	0.188191
638.033610	0.188316
638.240323	0.188417
638.447017	0.188483
638.653692	0.188982
638.860350	0.189257
639.066990	0.189499
639.273611	0.189376
639.480214	0.189728
639.686798	0.190023
639.893365	0.190184
640.099913	0.190378
640.306443	0.190419
640.512955	0.190468
640.719449	0.190405
640.925924	0.190508
641.132381	0.190939
641.338820	0.190984
641.545241	0.190988
641.751644	0.190959
641.958028	0.190583
642.164394	0.190577
642.370742	0.190526
642.577071	0.190859
642.783383	0.191096
642.989676	0.191100
643.195951	0.191289
643.402207	0.191484
643.608446	0.191728
643.814666	0.192253
644.020868	0.192538
644.227052	0.192493
644.433218	0.192368
644.639365	0.192192
644.845494	0.192382
645.051605	0.192374
645.257698	0.192270
645.463772	0.192356
645.669828	0.192476
645.875866	0.192710
646.081886	0.192947
646.287888	0.192992
646.493871	0.193210
646.699836	0.192934
646.905783	0.193089
647.111712	0.193410
647.317622	0.193307
647.523514	0.193335
647.729388	0.193106
647.935244	0.193139
648.141082	0.193257
648.346901	0.193114
648.552702	0.193405
648.758485	0.193322
648.964250	0.193274
649.169996	0.193122
649.375724	0.193228
649.581434	0.193389
649.787126	0.193368
649.992800	0.193356
650.198455	0.193331
650.404092	0.193384
650.609711	0.193391
650.815311	0.193563
651.020894	0.193858
651.226458	0.193912
651.432004	0.193803
651.637532	0.193907
651.843041	0.194098
652.048532	0.194214
652.254006	0.194198
652.459460	0.194165
652.664897	0.193997
652.870315	0.194237
653.075716	0.194260
653.281097	0.194814
653.486461	0.194986
653.691807	0.195182
653.897134	0.195626
654.102443	0.195843
654.307734	0.196310
654.513006	0.196552
654.718261	0.196611
654.923497	0.197121
655.128715	0.197041
655.333915	0.197243
655.539096	0.197348
655.744259	0.197218
655.949404	0.197397
656.154531	0.197370
656.359640	0.197299
656.564730	0.197255
656.769802	0.197181
656.974856	0.197240
657.179892	0.197186
657.384909	0.197065
657.589908	0.197436
657.794889	0.197269
657.999852	0.197462
658.204797	0.197616
658.409723	0.197933
658.614631	0.197899
658.819521	0.198159
659.024393	0.198158
659.229246	0.198494
659.434081	0.198317
659.638898	0.198535
659.843697	0.198626
660.048478	0.199022
660.253240	0.199059
660.457984	0.199072
660.662710	0.199030
660.867417	0.199286
661.072107	0.199427
661.276778	0.199823
661.481431	0.199969
661.686066	0.200181
661.890682	0.200285
662.095281	0.200435
662.299861	0.200841
662.504422	0.201024
662.708966	0.201023
662.913491	0.201102
663.117999	0.201047
663.322488	0.201420
663.526958	0.201605
663.731411	0.201663
663.935845	0.201549
664.140261	0.201508
664.344659	0.201746
664.549038	0.201962
664.753400	0.201662
664.957743	0.201742
665.162068	0.201567
665.366375	0.201580
665.570663	0.201587
665.774933	0.201707
665.979185	0.201708
666.183419	0.201666
666.387635	0.201681
666.591832	0.202208
666.796011	0.202396
667.000172	0.202653
667.204315	0.202506
667.408439	0.202568
667.612545	0.202682
667.816634	0.202787
668.020703	0.202678
668.224755	0.202958
668.428788	0.202861
668.632803	0.202774
668.836800	0.202657
669.040779	0.202822
669.244739	0.202682
669.448681	0.203019
669.652605	0.203092
669.856511	0.203395
670.060399	0.203170
670.264268	0.203197
670.468119	0.203372
670.671952	0.203761
670.875767	0.203985
671.079563	0.204499
671.283341	0.204511
671.487101	0.204670
671.690843	0.204667
671.894567	0.204877
672.098272	0.205194
672.301959	0.205408
672.505628	0.205121
672.709278	0.205251
672.912911	0.205286
673.116525	0.205437
673.320121	0.205496
673.523699	0.205678
673.727258	0.205911
673.930799	0.205796
674.134322	0.205840
674.337827	0.206096
674.541314	0.206302
674.744782	0.206574
674.948232	0.206469
675.151664	0.206591
675.355078	0.206803
675.558474	0.206999
675.761851	0.207269
675.965210	0.207279
676.168551	0.207591
676.371873	0.207581
676.575178	0.207575
676.778464	0.207925
676.981732	0.208275
677.184981	0.208317
677.388213	0.208176
677.591426	0.208338
677.794621	0.208635
677.997798	0.208664
678.200956	0.208657
678.404097	0.208896
678.607219	0.208869
678.810323	0.208795
679.013408	0.209081
679.216476	0.209436
679.419525	0.209566
679.622556	0.209634
679.825569	0.209705
680.028563	0.210054
680.231540	0.210011
680.434498	0.210270
680.637438	0.210477
680.840359	0.210459
681.043263	0.210475
681.246148	0.210302
681.449015	0.210140
681.651864	0.210034
681.854694	0.209849
682.057506	0.209749
682.260301	0.209712
682.463076	0.209700
682.665834	0.209647
682.868573	0.209754
683.071295	0.210250
683.273998	0.210734
683.476682	0.211271
683.679349	0.211513
683.881997	0.211777
684.084627	0.212110
684.287239	0.212185
684.489833	0.212423
684.692408	0.212521
684.894965	0.212492
685.097504	0.212421
685.300025	0.212170
685.502527	0.212377
685.705012	0.212438
685.907478	0.212180
686.109925	0.212381
686.312355	0.212373
686.514766	0.212512
686.717159	0.212536
686.919534	0.212433
687.121891	0.212586
687.324230	0.212612
687.526550	0.212614
687.728852	0.212795
687.931136	0.212760
688.133401	0.212832
688.335649	0.212714
688.537878	0.212698
688.740089	0.212866
688.942281	0.213046
689.144456	0.212893
689.346612	0.213060
689.548750	0.213006
689.750870	0.213423
689.952971	0.213360
690.155055	0.213470
690.357120	0.213592
690.559167	0.213699
690.761195	0.213778
690.963206	0.213799
691.165198	0.213948
691.367172	0.214265
691.569128	0.214153
691.771065	0.214521
691.972984	0.214840
692.174885	0.215079
692.376768	0.215122
692.578633	0.215319
692.780479	0.215533
692.982308	0.215560
693.184118	0.215764
693.385909	0.215850
