sample name	sample
index	817
start time	 03-31-2021  03:37:55 PM


Wavelength (nm)	Absorbance
494.344910	NaN
494.563924	NaN
494.782919	NaN
495.001897	NaN
495.220856	NaN
495.439797	NaN
495.658719	NaN
495.877624	0.667972
496.096510	0.983437
496.315378	NaN
496.534227	0.769739
496.753059	0.004136
496.971872	0.415726
497.190667	0.150915
497.409444	0.161047
497.628203	0.161434
497.846943	0.160241
498.065665	0.160601
498.284369	0.161949
498.503055	0.162673
498.721723	0.163107
498.940372	0.162903
499.159003	0.163567
499.377616	0.164388
499.596210	0.165382
499.814787	0.165964
500.033345	0.166557
500.251885	0.166273
500.470406	0.165793
500.688910	0.166189
500.907395	0.166038
501.125862	0.166402
501.344311	0.165948
501.562742	0.165313
501.781154	0.165537
501.999548	0.165527
502.217924	0.164597
502.436282	0.163251
502.654621	0.162679
502.872942	0.163551
503.091245	0.163082
503.309530	0.162733
503.527797	0.163725
503.746045	0.164843
503.964275	0.165015
504.182487	0.166345
504.400681	0.168352
504.618856	0.167840
504.837013	0.167850
505.055152	0.167328
505.273273	0.168128
505.491376	0.166530
505.709460	0.165451
505.927526	0.166502
506.145574	0.166193
506.363604	0.166917
506.581615	0.167357
506.799608	0.168004
507.017583	0.169572
507.235540	0.169073
507.453478	0.170267
507.671399	0.170512
507.889301	0.168850
508.107185	0.168802
508.325050	0.167762
508.542898	0.167797
508.760727	0.168213
508.978538	0.167669
509.196330	0.168766
509.414105	0.168144
509.631861	0.168915
509.849599	0.169807
510.067319	0.169842
510.285021	0.170296
510.502704	0.171336
510.720369	0.170369
510.938016	0.170201
511.155645	0.169620
511.373255	0.170557
511.590848	0.169923
511.808422	0.170372
512.025977	0.170957
512.243515	0.171756
512.461034	0.171094
512.678536	0.171467
512.896018	0.171163
513.113483	0.171252
513.330930	0.171997
513.548358	0.171377
513.765768	0.171570
513.983160	0.172070
514.200533	0.172450
514.417889	0.173075
514.635226	0.173519
514.852545	0.174127
515.069845	0.174022
515.287128	0.173216
515.504392	0.174768
515.721638	0.174807
515.938866	0.174847
516.156075	0.174609
516.373267	0.174365
516.590440	0.173990
516.807594	0.174452
517.024731	0.174798
517.241850	0.176752
517.458950	0.177241
517.676032	0.177218
517.893095	0.177227
518.110141	0.177221
518.327168	0.177813
518.544177	0.177741
518.761168	0.178140
518.978141	0.178184
519.195095	0.177138
519.412031	0.176455
519.628949	0.176952
519.845849	0.177202
520.062731	0.178470
520.279594	0.178990
520.496439	0.180408
520.713266	0.180272
520.930074	0.180706
521.146865	0.181055
521.363637	0.182935
521.580391	0.182702
521.797127	0.182478
522.013844	0.181550
522.230543	0.181757
522.447224	0.181497
522.663887	0.181794
522.880532	0.182669
523.097158	0.182463
523.313766	0.182063
523.530356	0.182331
523.746928	0.183226
523.963481	0.183984
524.180017	0.183779
524.396534	0.183806
524.613032	0.184555
524.829513	0.183135
525.045975	0.183446
525.262420	0.183221
525.478845	0.183419
525.695253	0.183346
525.911643	0.183066
526.128014	0.183999
526.344367	0.184736
526.560702	0.184868
526.777018	0.186381
526.993316	0.186521
527.209597	0.186777
527.425858	0.187648
527.642102	0.188478
527.858328	0.188845
528.074535	0.189110
528.290724	0.189064
528.506894	0.189002
528.723047	0.189571
528.939181	0.190455
529.155297	0.190594
529.371395	0.190309
529.587475	0.190378
529.803536	0.190872
530.019579	0.191287
530.235604	0.191948
530.451611	0.192548
530.667600	0.192729
530.883570	0.192563
531.099522	0.192953
531.315456	0.193746
531.531372	0.193862
531.747269	0.193968
531.963148	0.194754
532.179009	0.194520
532.394852	0.193988
532.610676	0.194256
532.826482	0.194965
533.042271	0.195689
533.258040	0.196206
533.473792	0.197020
533.689525	0.197250
533.905240	0.197063
534.120937	0.197398
534.336616	0.198625
534.552277	0.198797
534.767919	0.199739
534.983543	0.199614
535.199149	0.199372
535.414736	0.199676
535.630306	0.200036
535.845857	0.200190
536.061390	0.200758
536.276904	0.201025
536.492401	0.201319
536.707879	0.200893
536.923339	0.201068
537.138781	0.201568
537.354204	0.202000
537.569610	0.203136
537.784997	0.203566
538.000366	0.203850
538.215716	0.204286
538.431049	0.205445
538.646363	0.205673
538.861659	0.206488
539.076937	0.207246
539.292196	0.207372
539.507438	0.206950
539.722661	0.207197
539.937866	0.207831
540.153052	0.207983
540.368221	0.207718
540.583371	0.208548
540.798503	0.208860
541.013617	0.208662
541.228712	0.209132
541.443789	0.209486
541.658848	0.210030
541.873889	0.210404
542.088912	0.210995
542.303916	0.211532
542.518902	0.211794
542.733870	0.212100
542.948820	0.212994
543.163752	0.213759
543.378665	0.213875
543.593560	0.214079
543.808437	0.214035
544.023295	0.213996
544.238136	0.214521
544.452958	0.215652
544.667762	0.215901
544.882548	0.215940
545.097315	0.215803
545.312064	0.216470
545.526795	0.216846
545.741508	0.217152
545.956203	0.217978
546.170879	0.217979
546.385537	0.217425
546.600177	0.218020
546.814799	0.218624
547.029402	0.218421
547.243988	0.218681
547.458555	0.219021
547.673103	0.219258
547.887634	0.219350
548.102146	0.219429
548.316640	0.219982
548.531116	0.220513
548.745574	0.220623
548.960013	0.221187
549.174435	0.221553
549.388838	0.221713
549.603222	0.222504
549.817589	0.222863
550.031937	0.223403
550.246267	0.223091
550.460579	0.223108
550.674873	0.223127
550.889148	0.223640
551.103405	0.224336
551.317644	0.224711
551.531865	0.224599
551.746068	0.224695
551.960252	0.224795
552.174418	0.225506
552.388566	0.225850
552.602696	0.226553
552.816807	0.226619
553.030900	0.226832
553.244975	0.227340
553.459032	0.228137
553.673070	0.228715
553.887091	0.228627
554.101093	0.229021
554.315077	0.228910
554.529042	0.229223
554.742990	0.229187
554.956919	0.228939
555.170830	0.228992
555.384722	0.229196
555.598597	0.228856
555.812453	0.229826
556.026291	0.229789
556.240111	0.230145
556.453913	0.230518
556.667696	0.231135
556.881461	0.231946
557.095208	0.232613
557.308937	0.232725
557.522647	0.233369
557.736339	0.232938
557.950013	0.233180
558.163669	0.233787
558.377307	0.233878
558.590926	0.233968
558.804527	0.234185
559.018110	0.234328
559.231675	0.234277
559.445221	0.234890
559.658749	0.235529
559.872259	0.236159
560.085751	0.236382
560.299225	0.236304
560.512680	0.236863
560.726117	0.237224
560.939536	0.237062
561.152937	0.237151
561.366319	0.237052
561.579683	0.236867
561.793029	0.236950
562.006357	0.237376
562.219667	0.237979
562.432958	0.238235
562.646231	0.238309
562.859486	0.238661
563.072723	0.239242
563.285941	0.239571
563.499141	0.240266
563.712323	0.240689
563.925487	0.240607
564.138632	0.240693
564.351760	0.240890
564.564869	0.240869
564.777960	0.241031
564.991032	0.241542
565.204087	0.241667
565.417123	0.241932
565.630141	0.241474
565.843140	0.241535
566.056122	0.242053
566.269085	0.242499
566.482030	0.242598
566.694957	0.243022
566.907866	0.242683
567.120756	0.243279
567.333628	0.243447
567.546482	0.244293
567.759318	0.245055
567.972135	0.244978
568.184935	0.245075
568.397716	0.245980
568.610478	0.245917
568.823223	0.246605
569.035949	0.246267
569.248657	0.246399
569.461347	0.246748
569.674019	0.246700
569.886672	0.247007
570.099308	0.247375
570.311925	0.246876
570.524523	0.247753
570.737104	0.247796
570.949666	0.248259
571.162210	0.248261
571.374736	0.248138
571.587244	0.248574
571.799733	0.248583
572.012205	0.248164
572.224658	0.248640
572.437092	0.248441
572.649509	0.248979
572.861907	0.249264
573.074287	0.250138
573.286649	0.250335
573.498993	0.250495
573.711318	0.250894
573.923625	0.251906
574.135914	0.252543
574.348185	0.253218
574.560438	0.253445
574.772672	0.253652
574.984888	0.253859
575.197086	0.254053
575.409266	0.253961
575.621427	0.254404
575.833570	0.254369
576.045695	0.254467
576.257802	0.254550
576.469890	0.255046
576.681961	0.255166
576.894013	0.255030
577.106046	0.255193
577.318062	0.256062
577.530059	0.256168
577.742039	0.256441
577.954000	0.256175
578.165942	0.255988
578.377867	0.256366
578.589773	0.256903
578.801661	0.257460
579.013531	0.258260
579.225382	0.258315
579.437216	0.258589
579.649031	0.259054
579.860828	0.259824
580.072606	0.260454
580.284367	0.260121
580.496109	0.260202
580.707833	0.260502
580.919539	0.260853
581.131227	0.261207
581.342896	0.261328
581.554547	0.261198
581.766180	0.261258
581.977795	0.261101
582.189391	0.260946
582.400969	0.261486
582.612529	0.262055
582.824071	0.262100
583.035595	0.262026
583.247100	0.262602
583.458587	0.262696
583.670056	0.263808
583.881506	0.264852
584.092939	0.265708
584.304353	0.265678
584.515749	0.265349
584.727127	0.265345
584.938486	0.265618
585.149828	0.265994
585.361151	0.266592
585.572456	0.266082
585.783742	0.266088
585.995011	0.266181
586.206261	0.266351
586.417493	0.266494
586.628706	0.267189
586.839902	0.267591
587.051079	0.267561
587.262238	0.267784
587.473379	0.268166
587.684502	0.267984
587.895606	0.268119
588.106692	0.268172
588.317760	0.268614
588.528810	0.268573
588.739841	0.268458
588.950855	0.268866
589.161850	0.269380
589.372827	0.269277
589.583785	0.269875
589.794726	0.270097
590.005648	0.270834
590.216552	0.271525
590.427437	0.272134
590.638305	0.272709
590.849154	0.272967
591.059985	0.272754
591.270798	0.273536
591.481592	0.273884
591.692369	0.274137
591.903127	0.274217
592.113867	0.274344
592.324588	0.274274
592.535292	0.274449
592.745977	0.274537
592.956644	0.274957
593.167293	0.274899
593.377923	0.274958
593.588536	0.275339
593.799130	0.275475
594.009706	0.275512
594.220263	0.275625
594.430803	0.275682
594.641324	0.275851
594.851827	0.275962
595.062312	0.276120
595.272778	0.276283
595.483227	0.276314
595.693657	0.276992
595.904069	0.277177
596.114462	0.277337
596.324838	0.277772
596.535195	0.278156
596.745534	0.278110
596.955855	0.278570
597.166157	0.279049
597.376441	0.279647
597.586707	0.279458
597.796955	0.279901
598.007185	0.280735
598.217396	0.280964
598.427589	0.281299
598.637764	0.281610
598.847921	0.281822
599.058060	0.281933
599.268180	0.281997
599.478282	0.282606
599.688366	0.282396
599.898431	0.282417
600.108479	0.282893
600.318508	0.283157
600.528519	0.283777
600.738511	0.283872
600.948486	0.283870
601.158442	0.284211
601.368380	0.284420
601.578300	0.284840
601.788202	0.284768
601.998085	0.284635
602.207950	0.284609
602.417797	0.284852
602.627626	0.285242
602.837436	0.285676
603.047228	0.285680
603.257002	0.285579
603.466758	0.285811
603.676496	0.286049
603.886215	0.286322
604.095916	0.286563
604.305599	0.286655
604.515264	0.286832
604.724910	0.287100
604.934538	0.287822
605.144148	0.288024
605.353740	0.288431
605.563314	0.288469
605.772869	0.288497
605.982406	0.288980
606.191925	0.289308
606.401425	0.289584
606.610908	0.289900
606.820372	0.289795
607.029818	0.290001
607.239246	0.290108
607.448655	0.290622
607.658047	0.291144
607.867420	0.290992
608.076775	0.291000
608.286111	0.290827
608.495430	0.291008
608.704730	0.291007
608.914012	0.291480
609.123275	0.291831
609.332521	0.291933
609.541748	0.292041
609.750957	0.292249
609.960148	0.292591
610.169321	0.293150
610.378475	0.292939
610.587611	0.293561
610.796729	0.293667
611.005829	0.293860
611.214910	0.293823
611.423974	0.294240
611.633019	0.294808
611.842045	0.295180
612.051054	0.295531
612.260044	0.296103
612.469017	0.296179
612.677970	0.296463
612.886906	0.296615
613.095824	0.297058
613.304723	0.297126
613.513604	0.297309
613.722467	0.297882
613.931311	0.298203
614.140138	0.298280
614.348946	0.298525
614.557736	0.298607
614.766507	0.298525
614.975261	0.299302
615.183996	0.299558
615.392713	0.299826
615.601412	0.299888
615.810092	0.300043
616.018754	0.300485
616.227399	0.300696
616.436024	0.300616
616.644632	0.301124
616.853222	0.300913
617.061793	0.301115
617.270346	0.301218
617.478880	0.300752
617.687397	0.300828
617.895895	0.300929
618.104375	0.300982
618.312837	0.301622
618.521281	0.301951
618.729706	0.302070
618.938113	0.302087
619.146502	0.302290
619.354873	0.302966
619.563226	0.303281
619.771560	0.303599
619.979876	0.304139
620.188174	0.304232
620.396453	0.304433
620.604715	0.304708
620.812958	0.305001
621.021183	0.305198
621.229390	0.305508
621.437578	0.305882
621.645748	0.305864
621.853900	0.305836
622.062034	0.306024
622.270150	0.306157
622.478247	0.306333
622.686326	0.307034
622.894387	0.307201
623.102430	0.307153
623.310454	0.306922
623.518461	0.307321
623.726449	0.307653
623.934418	0.308041
624.142370	0.308326
624.350303	0.308657
624.558218	0.308808
624.766115	0.309092
624.973994	0.309382
625.181855	0.309817
625.389697	0.309946
625.597521	0.310272
625.805327	0.310334
626.013114	0.310724
626.220883	0.310986
626.428634	0.310746
626.636367	0.311024
626.844082	0.311111
627.051778	0.311310
627.259457	0.311479
627.467117	0.311289
627.674758	0.311314
627.882382	0.311382
628.089987	0.311582
628.297574	0.312179
628.505143	0.312195
628.712694	0.312704
628.920226	0.312556
629.127740	0.313064
629.335236	0.313873
629.542714	0.314569
629.750174	0.314669
629.957615	0.315050
630.165038	0.314907
630.372443	0.315346
630.579829	0.315412
630.787198	0.316009
630.994548	0.315989
631.201880	0.315931
631.409194	0.316124
631.616489	0.316430
631.823766	0.316408
632.031025	0.316934
632.238266	0.317357
632.445489	0.317933
632.652693	0.318037
632.859879	0.318426
633.067047	0.318440
633.274197	0.318448
633.481329	0.318734
633.688442	0.319080
633.895537	0.319108
634.102614	0.318944
634.309672	0.318893
634.516713	0.319142
634.723735	0.319130
634.930739	0.319319
635.137724	0.319556
635.344692	0.320067
635.551641	0.320250
635.758572	0.320564
635.965485	0.320897
636.172379	0.320961
636.379256	0.321254
636.586114	0.321653
636.792954	0.322095
636.999775	0.322495
637.206579	0.322507
637.413364	0.322887
637.620131	0.322945
637.826880	0.323270
638.033610	0.323429
638.240323	0.323952
638.447017	0.324234
638.653692	0.324521
638.860350	0.324567
639.066990	0.324752
639.273611	0.324864
639.480214	0.325228
639.686798	0.325456
639.893365	0.325858
640.099913	0.325754
640.306443	0.325791
640.512955	0.325711
640.719449	0.325899
640.925924	0.326215
641.132381	0.326560
641.338820	0.326759
641.545241	0.326784
641.751644	0.327239
641.958028	0.327606
642.164394	0.328001
642.370742	0.328328
642.577071	0.328841
642.783383	0.328827
642.989676	0.328817
643.195951	0.329259
643.402207	0.329593
643.608446	0.329654
643.814666	0.329834
644.020868	0.329903
644.227052	0.330295
644.433218	0.329971
644.639365	0.330091
644.845494	0.330164
645.051605	0.330169
645.257698	0.330504
645.463772	0.330868
645.669828	0.331310
645.875866	0.331389
646.081886	0.331681
646.287888	0.332204
646.493871	0.332632
646.699836	0.333102
646.905783	0.333676
647.111712	0.334015
647.317622	0.334202
647.523514	0.334210
647.729388	0.334613
647.935244	0.334626
648.141082	0.334822
648.346901	0.335123
648.552702	0.335270
648.758485	0.335425
648.964250	0.335421
649.169996	0.335717
649.375724	0.335905
649.581434	0.336253
649.787126	0.336456
649.992800	0.336928
650.198455	0.336870
650.404092	0.337289
650.609711	0.337583
650.815311	0.337972
651.020894	0.337835
651.226458	0.337955
651.432004	0.338256
651.637532	0.338879
651.843041	0.339218
652.048532	0.340014
652.254006	0.340242
652.459460	0.340289
652.664897	0.340664
652.870315	0.341335
653.075716	0.341865
653.281097	0.342207
653.486461	0.342336
653.691807	0.342293
653.897134	0.342461
654.102443	0.342697
654.307734	0.343103
654.513006	0.342907
654.718261	0.343314
654.923497	0.343634
655.128715	0.343704
655.333915	0.343903
655.539096	0.344096
655.744259	0.344192
655.949404	0.344354
656.154531	0.344635
656.359640	0.345188
656.564730	0.345396
656.769802	0.345460
656.974856	0.345623
657.179892	0.346068
657.384909	0.346332
657.589908	0.346722
657.794889	0.346973
657.999852	0.347064
658.204797	0.347333
658.409723	0.347531
658.614631	0.348090
658.819521	0.348597
659.024393	0.348834
659.229246	0.349388
659.434081	0.349395
659.638898	0.350010
659.843697	0.350448
660.048478	0.350676
660.253240	0.350909
660.457984	0.350794
660.662710	0.351095
660.867417	0.351478
661.072107	0.351533
661.276778	0.352176
661.481431	0.352157
661.686066	0.352203
661.890682	0.352464
662.095281	0.352617
662.299861	0.353324
662.504422	0.353617
662.708966	0.353710
662.913491	0.354049
663.117999	0.354232
663.322488	0.354650
663.526958	0.355284
663.731411	0.355429
663.935845	0.355518
664.140261	0.355611
664.344659	0.355694
664.549038	0.356052
664.753400	0.356310
664.957743	0.356628
665.162068	0.356793
665.366375	0.356662
665.570663	0.356825
665.774933	0.357282
665.979185	0.357639
666.183419	0.357973
666.387635	0.358150
666.591832	0.358465
666.796011	0.358543
667.000172	0.359009
667.204315	0.359529
667.408439	0.360120
667.612545	0.360368
667.816634	0.360278
668.020703	0.360615
668.224755	0.361088
668.428788	0.361576
668.632803	0.361729
668.836800	0.362031
669.040779	0.362193
669.244739	0.362305
669.448681	0.362632
669.652605	0.363215
669.856511	0.363511
670.060399	0.363732
670.264268	0.363884
670.468119	0.364142
670.671952	0.364648
670.875767	0.365012
671.079563	0.365327
671.283341	0.365701
671.487101	0.365895
671.690843	0.366205
671.894567	0.366379
672.098272	0.366495
672.301959	0.367009
672.505628	0.367016
672.709278	0.367149
672.912911	0.367685
673.116525	0.367910
673.320121	0.368187
673.523699	0.368390
673.727258	0.368514
673.930799	0.368984
674.134322	0.368973
674.337827	0.369019
674.541314	0.369429
674.744782	0.369559
674.948232	0.369731
675.151664	0.370147
675.355078	0.370397
675.558474	0.370756
675.761851	0.371137
675.965210	0.371579
676.168551	0.372042
676.371873	0.372201
676.575178	0.372413
676.778464	0.372792
676.981732	0.373119
677.184981	0.373426
677.388213	0.373960
677.591426	0.374124
677.794621	0.374488
677.997798	0.374776
678.200956	0.375207
678.404097	0.375679
678.607219	0.376222
678.810323	0.376193
679.013408	0.376693
679.216476	0.376757
679.419525	0.377155
679.622556	0.377737
679.825569	0.378199
680.028563	0.378603
680.231540	0.378794
680.434498	0.378741
680.637438	0.379239
680.840359	0.379589
681.043263	0.380068
681.246148	0.380434
681.449015	0.380681
681.651864	0.381021
681.854694	0.381379
682.057506	0.381414
682.260301	0.381727
682.463076	0.382156
682.665834	0.382222
682.868573	0.382342
683.071295	0.382547
683.273998	0.382569
683.476682	0.382404
683.679349	0.382397
683.881997	0.383120
684.084627	0.383372
684.287239	0.383663
684.489833	0.383942
684.692408	0.384247
684.894965	0.384663
685.097504	0.384700
685.300025	0.385286
685.502527	0.385545
685.705012	0.385658
685.907478	0.385961
686.109925	0.386116
686.312355	0.386615
686.514766	0.386967
686.717159	0.387051
686.919534	0.387525
687.121891	0.387557
687.324230	0.387770
687.526550	0.388183
687.728852	0.388688
687.931136	0.388679
688.133401	0.388457
688.335649	0.388504
688.537878	0.388656
688.740089	0.389140
688.942281	0.389426
689.144456	0.389782
689.346612	0.389818
689.548750	0.389784
689.750870	0.390054
689.952971	0.390375
690.155055	0.390804
690.357120	0.391011
690.559167	0.391061
690.761195	0.391284
690.963206	0.391378
691.165198	0.391623
691.367172	0.391924
691.569128	0.391946
691.771065	0.392657
691.972984	0.392680
692.174885	0.393188
692.376768	0.393135
692.578633	0.393391
692.780479	0.393633
692.982308	0.393783
693.184118	0.393905
693.385909	0.394447
693.587683	0.394322
693.789438	0.394663
