sample name	sample
index	385
start time	 03-04-2021  02:48:38 PM


Wavelength (nm)	Absorbance
494.344910	0.012439
494.563924	0.012439
494.782919	0.012439
495.001897	-0.178055
495.220856	-0.012664
495.439797	-0.049778
495.658719	-0.049230
495.877624	-0.079920
496.096510	-0.038682
496.315378	-0.074394
496.534227	-0.014689
496.753059	-0.054477
496.971872	-0.063257
497.190667	0.018387
497.409444	0.039804
497.628203	0.043398
497.846943	0.046998
498.065665	0.047113
498.284369	0.048068
498.503055	0.047822
498.721723	0.048803
498.940372	0.049631
499.159003	0.049267
499.377616	0.049466
499.596210	0.050136
499.814787	0.049650
500.033345	0.049372
500.251885	0.048692
500.470406	0.049650
500.688910	0.050196
500.907395	0.049240
501.125862	0.049404
501.344311	0.049498
501.562742	0.048488
501.781154	0.048296
501.999548	0.049253
502.217924	0.050058
502.436282	0.050063
502.654621	0.050237
502.872942	0.050713
503.091245	0.051371
503.309530	0.050932
503.527797	0.051174
503.746045	0.051495
503.964275	0.051046
504.182487	0.051041
504.400681	0.050774
504.618856	0.050020
504.837013	0.050571
505.055152	0.050525
505.273273	0.050733
505.491376	0.050829
505.709460	0.050565
505.927526	0.050383
506.145574	0.050661
506.363604	0.050713
506.581615	0.049480
506.799608	0.049498
507.017583	0.049847
507.235540	0.049826
507.453478	0.049819
507.671399	0.050226
507.889301	0.049892
508.107185	0.049334
508.325050	0.049408
508.542898	0.051320
508.760727	0.051527
508.978538	0.050890
509.196330	0.050533
509.414105	0.051089
509.631861	0.051558
509.849599	0.051552
510.067319	0.052031
510.285021	0.051121
510.502704	0.049959
510.720369	0.049731
510.938016	0.049585
511.155645	0.049797
511.373255	0.049072
511.590848	0.049201
511.808422	0.049485
512.025977	0.049535
512.243515	0.050862
512.461034	0.050984
512.678536	0.051654
512.896018	0.051721
513.113483	0.052275
513.330930	0.052925
513.548358	0.051612
513.765768	0.051218
513.983160	0.051033
514.200533	0.050135
514.417889	0.050806
514.635226	0.050394
514.852545	0.051209
515.069845	0.050954
515.287128	0.050517
515.504392	0.050745
515.721638	0.051420
515.938866	0.051401
516.156075	0.051487
516.373267	0.051791
516.590440	0.051852
516.807594	0.051620
517.024731	0.052019
517.241850	0.051884
517.458950	0.052795
517.676032	0.053740
517.893095	0.053905
518.110141	0.054074
518.327168	0.053761
518.544177	0.053658
518.761168	0.053661
518.978141	0.053849
519.195095	0.054204
519.412031	0.054193
519.628949	0.053245
519.845849	0.053236
520.062731	0.053553
520.279594	0.053986
520.496439	0.054933
520.713266	0.054820
520.930074	0.054553
521.146865	0.054921
521.363637	0.055199
521.580391	0.055368
521.797127	0.056174
522.013844	0.056176
522.230543	0.056051
522.447224	0.055155
522.663887	0.055451
522.880532	0.055165
523.097158	0.054674
523.313766	0.054281
523.530356	0.054820
523.746928	0.054888
523.963481	0.054855
524.180017	0.054649
524.396534	0.054901
524.613032	0.054919
524.829513	0.055443
525.045975	0.055583
525.262420	0.056336
525.478845	0.056073
525.695253	0.055669
525.911643	0.056239
526.128014	0.056119
526.344367	0.056215
526.560702	0.056502
526.777018	0.056947
526.993316	0.057489
527.209597	0.057225
527.425858	0.057522
527.642102	0.057296
527.858328	0.056391
528.074535	0.057337
528.290724	0.057882
528.506894	0.058039
528.723047	0.058079
528.939181	0.058232
529.155297	0.058261
529.371395	0.058200
529.587475	0.058619
529.803536	0.059294
530.019579	0.059333
530.235604	0.058716
530.451611	0.058564
530.667600	0.058315
530.883570	0.058517
531.099522	0.058442
531.315456	0.058470
531.531372	0.058590
531.747269	0.058738
531.963148	0.058486
532.179009	0.058960
532.394852	0.058713
532.610676	0.058984
532.826482	0.058852
533.042271	0.059446
533.258040	0.059791
533.473792	0.060016
533.689525	0.060100
533.905240	0.060430
534.120937	0.059989
534.336616	0.060068
534.552277	0.059806
534.767919	0.060014
534.983543	0.059919
535.199149	0.059630
535.414736	0.059945
535.630306	0.060324
535.845857	0.060280
536.061390	0.061135
536.276904	0.061852
536.492401	0.062575
536.707879	0.062564
536.923339	0.062523
537.138781	0.063052
537.354204	0.062527
537.569610	0.061851
537.784997	0.062017
538.000366	0.062180
538.215716	0.061701
538.431049	0.061405
538.646363	0.061536
538.861659	0.062095
539.076937	0.061666
539.292196	0.062256
539.507438	0.063039
539.722661	0.063021
539.937866	0.062772
540.153052	0.063344
540.368221	0.063352
540.583371	0.063797
540.798503	0.063604
541.013617	0.064020
541.228712	0.064249
541.443789	0.064167
541.658848	0.064282
541.873889	0.064317
542.088912	0.064089
542.303916	0.064344
542.518902	0.064074
542.733870	0.064533
542.948820	0.064610
543.163752	0.064236
543.378665	0.064360
543.593560	0.064412
543.808437	0.064481
544.023295	0.065111
544.238136	0.065036
544.452958	0.064983
544.667762	0.064700
544.882548	0.065064
545.097315	0.065375
545.312064	0.065589
545.526795	0.065683
545.741508	0.066044
545.956203	0.065954
546.170879	0.066222
546.385537	0.066926
546.600177	0.067066
546.814799	0.066826
547.029402	0.066851
547.243988	0.066961
547.458555	0.067192
547.673103	0.067215
547.887634	0.067222
548.102146	0.067429
548.316640	0.067342
548.531116	0.067253
548.745574	0.067406
548.960013	0.067616
549.174435	0.067272
549.388838	0.066895
549.603222	0.066946
549.817589	0.066708
550.031937	0.066658
550.246267	0.066322
550.460579	0.066448
550.674873	0.066811
550.889148	0.066777
551.103405	0.067154
551.317644	0.067880
551.531865	0.067750
551.746068	0.068058
551.960252	0.067932
552.174418	0.068104
552.388566	0.067909
552.602696	0.068240
552.816807	0.068145
553.030900	0.068369
553.244975	0.068089
553.459032	0.068334
553.673070	0.068669
553.887091	0.069068
554.101093	0.068981
554.315077	0.069682
554.529042	0.069325
554.742990	0.069183
554.956919	0.069134
555.170830	0.069414
555.384722	0.069442
555.598597	0.069783
555.812453	0.069112
556.026291	0.069547
556.240111	0.069544
556.453913	0.069630
556.667696	0.069912
556.881461	0.069979
557.095208	0.070047
557.308937	0.070359
557.522647	0.069561
557.736339	0.070234
557.950013	0.070378
558.163669	0.069900
558.377307	0.070120
558.590926	0.070328
558.804527	0.070564
559.018110	0.070536
559.231675	0.070327
559.445221	0.070681
559.658749	0.070681
559.872259	0.070439
560.085751	0.070861
560.299225	0.070465
560.512680	0.070603
560.726117	0.070449
560.939536	0.070272
561.152937	0.070120
561.366319	0.070265
561.579683	0.070407
561.793029	0.070307
562.006357	0.070179
562.219667	0.070504
562.432958	0.070453
562.646231	0.070790
562.859486	0.070922
563.072723	0.071056
563.285941	0.070983
563.499141	0.071067
563.712323	0.071246
563.925487	0.071712
564.138632	0.071774
564.351760	0.071541
564.564869	0.071357
564.777960	0.071573
564.991032	0.071606
565.204087	0.071460
565.417123	0.071338
565.630141	0.071482
565.843140	0.071243
566.056122	0.071148
566.269085	0.071365
566.482030	0.071449
566.694957	0.071543
566.907866	0.071480
567.120756	0.071961
567.333628	0.071936
567.546482	0.072322
567.759318	0.072234
567.972135	0.072281
568.184935	0.072430
568.397716	0.072419
568.610478	0.072325
568.823223	0.072526
569.035949	0.072328
569.248657	0.072014
569.461347	0.071373
569.674019	0.071283
569.886672	0.071221
570.099308	0.071258
570.311925	0.071019
570.524523	0.070846
570.737104	0.070836
570.949666	0.070858
571.162210	0.071288
571.374736	0.071354
571.587244	0.071635
571.799733	0.071695
572.012205	0.071751
572.224658	0.072013
572.437092	0.072351
572.649509	0.072649
572.861907	0.072634
573.074287	0.072741
573.286649	0.072999
573.498993	0.073053
573.711318	0.073273
573.923625	0.073095
574.135914	0.073313
574.348185	0.073290
574.560438	0.073427
574.772672	0.073519
574.984888	0.073395
575.197086	0.073184
575.409266	0.073169
575.621427	0.072904
575.833570	0.072965
576.045695	0.072680
576.257802	0.072521
576.469890	0.072284
576.681961	0.072441
576.894013	0.072650
577.106046	0.073130
577.318062	0.073124
577.530059	0.073265
577.742039	0.073616
577.954000	0.073410
578.165942	0.073470
578.377867	0.073745
578.589773	0.073581
578.801661	0.073382
579.013531	0.073472
579.225382	0.073575
579.437216	0.073742
579.649031	0.073517
579.860828	0.073828
580.072606	0.074061
580.284367	0.073919
580.496109	0.073997
580.707833	0.074266
580.919539	0.074149
581.131227	0.074102
581.342896	0.074174
581.554547	0.074345
581.766180	0.074336
581.977795	0.074766
582.189391	0.074578
582.400969	0.074798
582.612529	0.074945
582.824071	0.075127
583.035595	0.075250
583.247100	0.075324
583.458587	0.075750
583.670056	0.076070
583.881506	0.075500
584.092939	0.076079
584.304353	0.076233
584.515749	0.076294
584.727127	0.076121
584.938486	0.076056
585.149828	0.076005
585.361151	0.075679
585.572456	0.075655
585.783742	0.076015
585.995011	0.076113
586.206261	0.076136
586.417493	0.076162
586.628706	0.076796
586.839902	0.077142
587.051079	0.077267
587.262238	0.077492
587.473379	0.077694
587.684502	0.077491
587.895606	0.077153
588.106692	0.076876
588.317760	0.076798
588.528810	0.076449
588.739841	0.076328
588.950855	0.076133
589.161850	0.075979
589.372827	0.075821
589.583785	0.076051
589.794726	0.076233
590.005648	0.076544
590.216552	0.077127
590.427437	0.077229
590.638305	0.077594
590.849154	0.077636
591.059985	0.077560
591.270798	0.077419
591.481592	0.077331
591.692369	0.077391
591.903127	0.077211
592.113867	0.076486
592.324588	0.076264
592.535292	0.075868
592.745977	0.076138
592.956644	0.076510
593.167293	0.076758
593.377923	0.076901
593.588536	0.077004
593.799130	0.077135
594.009706	0.077652
594.220263	0.077870
594.430803	0.077939
594.641324	0.078029
594.851827	0.078089
595.062312	0.078177
595.272778	0.078199
595.483227	0.078322
595.693657	0.078427
595.904069	0.078637
596.114462	0.078775
596.324838	0.078988
596.535195	0.079163
596.745534	0.079055
596.955855	0.079085
597.166157	0.079542
597.376441	0.079671
597.586707	0.079652
597.796955	0.079501
598.007185	0.079687
598.217396	0.079900
598.427589	0.079727
598.637764	0.079918
598.847921	0.080055
599.058060	0.079979
599.268180	0.080150
599.478282	0.080263
599.688366	0.080176
599.898431	0.079973
600.108479	0.079788
600.318508	0.079775
600.528519	0.079700
600.738511	0.079805
600.948486	0.079793
601.158442	0.079635
601.368380	0.079842
601.578300	0.079758
601.788202	0.079840
601.998085	0.080144
602.207950	0.080329
602.417797	0.080256
602.627626	0.079865
602.837436	0.080037
603.047228	0.080006
603.257002	0.080119
603.466758	0.080419
603.676496	0.080552
603.886215	0.080086
604.095916	0.080040
604.305599	0.080196
604.515264	0.080662
604.724910	0.080300
604.934538	0.080240
605.144148	0.079881
605.353740	0.079906
605.563314	0.079923
605.772869	0.080165
605.982406	0.080542
606.191925	0.080733
606.401425	0.080675
606.610908	0.080899
606.820372	0.080821
607.029818	0.081021
607.239246	0.081037
607.448655	0.080988
607.658047	0.081118
607.867420	0.080966
608.076775	0.080918
608.286111	0.080914
608.495430	0.080944
608.704730	0.081020
608.914012	0.081288
609.123275	0.081670
609.332521	0.081752
609.541748	0.081946
609.750957	0.082410
609.960148	0.082455
610.169321	0.082390
610.378475	0.082381
610.587611	0.082499
610.796729	0.082346
611.005829	0.082018
611.214910	0.082212
611.423974	0.081995
611.633019	0.081590
611.842045	0.081499
612.051054	0.081458
612.260044	0.081336
612.469017	0.081269
612.677970	0.081273
612.886906	0.081298
613.095824	0.081307
613.304723	0.081417
613.513604	0.081426
613.722467	0.081612
613.931311	0.081806
614.140138	0.082037
614.348946	0.082218
614.557736	0.082390
614.766507	0.082439
614.975261	0.082489
615.183996	0.082623
615.392713	0.082746
615.601412	0.082799
615.810092	0.082888
616.018754	0.082907
616.227399	0.082901
616.436024	0.082846
616.644632	0.083099
616.853222	0.082952
617.061793	0.082877
617.270346	0.082878
617.478880	0.082707
617.687397	0.082618
617.895895	0.082636
618.104375	0.082577
618.312837	0.082813
618.521281	0.082790
618.729706	0.082957
618.938113	0.082923
619.146502	0.082986
619.354873	0.083063
619.563226	0.083063
619.771560	0.083162
619.979876	0.083462
620.188174	0.083501
620.396453	0.083444
620.604715	0.083288
620.812958	0.083518
621.021183	0.083537
621.229390	0.083540
621.437578	0.083895
621.645748	0.083856
621.853900	0.083802
622.062034	0.083580
622.270150	0.083797
622.478247	0.084276
622.686326	0.084240
622.894387	0.084296
623.102430	0.084362
623.310454	0.084230
623.518461	0.084446
623.726449	0.084526
623.934418	0.084596
624.142370	0.084354
624.350303	0.084165
624.558218	0.084259
624.766115	0.084320
624.973994	0.084409
625.181855	0.084422
625.389697	0.084399
625.597521	0.084425
625.805327	0.084561
626.013114	0.084515
626.220883	0.084525
626.428634	0.084559
626.636367	0.084577
626.844082	0.084795
627.051778	0.085081
627.259457	0.085087
627.467117	0.085215
627.674758	0.085333
627.882382	0.085460
628.089987	0.085589
628.297574	0.085652
628.505143	0.085778
628.712694	0.085807
628.920226	0.085716
629.127740	0.085766
629.335236	0.085911
629.542714	0.085893
629.750174	0.086038
629.957615	0.085843
630.165038	0.085990
630.372443	0.085950
630.579829	0.086007
630.787198	0.086145
630.994548	0.086149
631.201880	0.086262
631.409194	0.086286
631.616489	0.086492
631.823766	0.086585
632.031025	0.086497
632.238266	0.086620
632.445489	0.086743
632.652693	0.086723
632.859879	0.086966
633.067047	0.086949
633.274197	0.086985
633.481329	0.086972
633.688442	0.087129
633.895537	0.087118
634.102614	0.087035
634.309672	0.086983
634.516713	0.086937
634.723735	0.086818
634.930739	0.086617
635.137724	0.086947
635.344692	0.087014
635.551641	0.087163
635.758572	0.087205
635.965485	0.087387
636.172379	0.087318
636.379256	0.087639
636.586114	0.087797
636.792954	0.087981
636.999775	0.087885
637.206579	0.087711
637.413364	0.087751
637.620131	0.087853
637.826880	0.087879
638.033610	0.088048
638.240323	0.088135
638.447017	0.088119
638.653692	0.088238
638.860350	0.088202
639.066990	0.088492
639.273611	0.088487
639.480214	0.088506
639.686798	0.088510
639.893365	0.088610
640.099913	0.088378
640.306443	0.088338
640.512955	0.088336
640.719449	0.088194
640.925924	0.088257
641.132381	0.088278
641.338820	0.088605
641.545241	0.088828
641.751644	0.088885
641.958028	0.088951
642.164394	0.089169
642.370742	0.089128
642.577071	0.089469
642.783383	0.089573
642.989676	0.089727
643.195951	0.089606
643.402207	0.089610
643.608446	0.089629
643.814666	0.089714
644.020868	0.089954
644.227052	0.090105
644.433218	0.090020
644.639365	0.089865
644.845494	0.089875
645.051605	0.090054
645.257698	0.090117
645.463772	0.090076
645.669828	0.090341
645.875866	0.090129
646.081886	0.090101
646.287888	0.090299
646.493871	0.090442
646.699836	0.090380
646.905783	0.090494
647.111712	0.090484
647.317622	0.090582
647.523514	0.090381
647.729388	0.090598
647.935244	0.090618
648.141082	0.090653
648.346901	0.090774
648.552702	0.090937
648.758485	0.090955
648.964250	0.091087
649.169996	0.091036
649.375724	0.091256
649.581434	0.091394
649.787126	0.091550
649.992800	0.091603
650.198455	0.091693
650.404092	0.091713
650.609711	0.091604
650.815311	0.091596
651.020894	0.091639
651.226458	0.091722
651.432004	0.091578
651.637532	0.091628
651.843041	0.091580
652.048532	0.091462
652.254006	0.091581
652.459460	0.091668
652.664897	0.091797
652.870315	0.092014
653.075716	0.092034
653.281097	0.092102
653.486461	0.092184
653.691807	0.092378
653.897134	0.092677
654.102443	0.092639
654.307734	0.092626
654.513006	0.092618
654.718261	0.092892
654.923497	0.092886
655.128715	0.093001
655.333915	0.093180
655.539096	0.093404
655.744259	0.093150
655.949404	0.093252
656.154531	0.093435
656.359640	0.093472
656.564730	0.093294
656.769802	0.093410
656.974856	0.093501
657.179892	0.093649
657.384909	0.093512
657.589908	0.094005
657.794889	0.094301
657.999852	0.094584
658.204797	0.094786
658.409723	0.094998
658.614631	0.095069
658.819521	0.095067
659.024393	0.094954
659.229246	0.095081
659.434081	0.094934
659.638898	0.095070
659.843697	0.094975
660.048478	0.094958
660.253240	0.094933
660.457984	0.095040
660.662710	0.095038
660.867417	0.094956
661.072107	0.095015
661.276778	0.095129
661.481431	0.094863
661.686066	0.094905
661.890682	0.094916
662.095281	0.095127
662.299861	0.095155
662.504422	0.095245
662.708966	0.095618
662.913491	0.095828
663.117999	0.095756
663.322488	0.095936
663.526958	0.096107
663.731411	0.096335
663.935845	0.096310
664.140261	0.096533
664.344659	0.096846
664.549038	0.096818
664.753400	0.096848
664.957743	0.097075
665.162068	0.097114
665.366375	0.097036
665.570663	0.096995
665.774933	0.097052
665.979185	0.096996
666.183419	0.097082
666.387635	0.097174
666.591832	0.097057
666.796011	0.097137
667.000172	0.097269
667.204315	0.097341
667.408439	0.097491
667.612545	0.097634
667.816634	0.097836
668.020703	0.097719
668.224755	0.097767
668.428788	0.098105
668.632803	0.098124
668.836800	0.098298
669.040779	0.098570
669.244739	0.098731
669.448681	0.098789
669.652605	0.098792
669.856511	0.099029
670.060399	0.099130
670.264268	0.099026
670.468119	0.099169
670.671952	0.099322
670.875767	0.099405
671.079563	0.099355
671.283341	0.099440
671.487101	0.099433
671.690843	0.099487
671.894567	0.099491
672.098272	0.099654
672.301959	0.099552
672.505628	0.099342
672.709278	0.099481
672.912911	0.099613
673.116525	0.099673
673.320121	0.099851
673.523699	0.099870
673.727258	0.100040
673.930799	0.100005
674.134322	0.100318
674.337827	0.100618
674.541314	0.100695
674.744782	0.100770
674.948232	0.100817
675.151664	0.100905
675.355078	0.100979
675.558474	0.100912
675.761851	0.100967
675.965210	0.101066
676.168551	0.101000
676.371873	0.100959
676.575178	0.101013
676.778464	0.101182
676.981732	0.101190
677.184981	0.101301
677.388213	0.101376
677.591426	0.101553
677.794621	0.101734
677.997798	0.101830
678.200956	0.101895
678.404097	0.101961
678.607219	0.101987
678.810323	0.102054
679.013408	0.102006
679.216476	0.102124
679.419525	0.102175
679.622556	0.102132
679.825569	0.102110
680.028563	0.101982
680.231540	0.102070
680.434498	0.102196
680.637438	0.102370
680.840359	0.102315
681.043263	0.102443
681.246148	0.102418
681.449015	0.102333
681.651864	0.102409
681.854694	0.102577
682.057506	0.102552
682.260301	0.102497
682.463076	0.102272
682.665834	0.102499
682.868573	0.102629
683.071295	0.102677
683.273998	0.102995
683.476682	0.103093
683.679349	0.103208
683.881997	0.103216
684.084627	0.103308
684.287239	0.103576
684.489833	0.103552
684.692408	0.103531
684.894965	0.103483
685.097504	0.103146
685.300025	0.103067
685.502527	0.103235
685.705012	0.103131
685.907478	0.103047
686.109925	0.103034
686.312355	0.103199
686.514766	0.103231
686.717159	0.103482
686.919534	0.103620
687.121891	0.103714
687.324230	0.103657
687.526550	0.104074
687.728852	0.104186
687.931136	0.104141
688.133401	0.104065
688.335649	0.104056
688.537878	0.103996
688.740089	0.104055
688.942281	0.104404
689.144456	0.104535
689.346612	0.104376
689.548750	0.104348
689.750870	0.104479
689.952971	0.104651
690.155055	0.104769
690.357120	0.104802
690.559167	0.105095
690.761195	0.104963
690.963206	0.104725
691.165198	0.104785
691.367172	0.104881
691.569128	0.104797
691.771065	0.104774
691.972984	0.104649
692.174885	0.104587
692.376768	0.104419
692.578633	0.104556
692.780479	0.104774
692.982308	0.104810
693.184118	0.104994
693.385909	0.105029
