sample name	sample
index	1205
start time	 04-26-2021  12:56:14 PM
880	0.421706
Peak Time (s)	91.537
Peak Height 	0.4217
calc peak height	90,93
Baseline Time (s)	11.534
Baseline Value 	-0.003956
subtract baseline	10,4
Abs	0.273411
Peak Time (s)	92.038
Peak Height 	0.2734
calc peak height	90,93
Baseline Time (s)	10.537
Baseline Value 	0.002511
subtract baseline	10,3
PK_550	0.152960
Peak Time (s)	90.036
Peak Height 	0.153
calc peak height	90,93
Baseline Time (s)	10.037
Baseline Value 	7.4048E-4
subtract baseline	10,2
PK_880	0.272780
Peak Time (s)	92.038
Peak Height 	0.2728
calc peak height	90,93
Baseline Time (s)	11.037
Baseline Value 	7.8422E-4
subtract baseline	10,1


Time (s)	A880-A510	A880-A775	A880-A975	A880	I510	I775	I975	I880	
0.036000	-0.003322	-0.000191	-0.003611	0.008232	6085.869279	42903.756772	3854.976725	22227.936173
0.536500	-0.005154	-0.001006	-0.001779	0.004833	6097.354768	43142.292818	3866.584555	22379.713609
1.037500	-0.003510	-0.000343	-0.003514	0.004515	6111.790386	43233.152986	3863.423952	22393.943519
1.539500	0.000546	-0.000836	0.000856	0.001637	6163.359815	43455.229564	3879.690310	22523.528006
2.035000	-0.005569	-0.001125	-0.004413	0.006698	6080.655156	42958.924832	3856.590722	22296.256020
2.535000	0.001285	0.001341	-0.002575	0.002635	6161.419793	43565.349031	3869.718941	22478.485392
3.035500	0.000664	-0.000549	-0.002796	-0.001369	6186.853238	43763.735875	3878.226658	22659.721297
3.538500	0.001068	-0.000333	-0.001848	0.001180	6170.702455	43544.949672	3874.618411	22544.167408
4.036000	-0.000186	0.000199	-0.001840	0.002973	6147.891709	43427.143382	3870.607155	22463.253135
4.535500	0.001517	0.000449	-0.000841	0.001852	6169.032993	43555.232693	3875.373114	22513.805888
5.036500	0.000779	0.000030	-0.006730	0.001090	6169.207849	43587.344404	3863.891357	22548.230521
5.537000	-0.000028	0.000755	0.009393	0.001232	6162.089969	43641.959317	3900.129148	22541.811763
6.037000	-0.001063	-0.000145	-0.002592	-0.000051	6163.953409	43677.888383	3875.715203	22599.896886
6.534500	-0.000286	-0.000066	-0.001269	0.000280	6167.294408	43654.213903	3877.953389	22584.896309
7.035000	0.000931	-0.000008	0.000689	0.000392	6175.595917	43649.100134	3882.130465	22579.801192
7.535000	-0.000128	-0.000649	0.004038	0.000183	6169.210122	43608.652303	3890.233589	22589.267685
8.035000	-0.000744	-0.000238	-0.005120	0.000046	6165.611260	43660.019853	3869.816612	22595.484389
8.535500	0.001536	0.000250	0.000174	0.000119	6182.210919	43699.005173	3881.582826	22592.189416
9.036500	0.001819	0.000310	0.003899	0.000203	6183.709131	43696.691766	3889.870551	22588.380216
9.536000	0.002256	-0.000098	0.000109	-0.000206	6190.103227	43696.823676	3882.170883	22606.925853
10.036500	-0.000082	0.000000	-0.001188	-0.000042	6171.248863	43690.619945	3878.862208	22599.481018
10.537000	-0.000198	-0.000035	0.000000	-0.000439	6173.359147	43724.588487	3882.452036	22617.478891
11.037000	0.000000	-0.000282	-0.001321	0.000039	6171.250592	43656.542875	3878.378948	22595.795302
11.534500	-0.000631	0.000544	-0.001070	0.000000	6166.807834	43737.730940	3879.035533	22597.575382
12.038000	0.000865	0.000372	0.006533	0.000264	6176.070090	43696.800110	3895.770708	22585.621549
12.535500	0.000744	0.000354	-0.001646	-0.000003	6177.163154	43720.191489	3877.739646	22597.700036
13.038500	0.002201	0.000528	-0.000236	0.000579	6183.757601	43681.884726	3879.610146	22571.339330
13.536000	0.000375	0.000498	0.003476	0.000087	6173.711973	43725.307859	3889.170535	22593.653351
14.036000	-0.001622	0.000149	0.002441	0.002152	6143.311348	43499.148110	3882.112580	22500.270416
14.536500	-0.000157	0.000257	-0.000064	0.002005	6155.341268	43522.938094	3876.779444	22506.908939
15.036500	-0.001580	0.000235	0.000223	0.000390	6156.774459	43672.095123	3881.076811	22579.888574
15.537000	-0.000874	-0.000363	-0.001956	-0.000937	6172.022748	43740.620108	3879.151002	22640.117092
16.037500	-0.002107	-0.000898	-0.002171	0.000284	6153.633762	43575.941905	3875.908359	22584.723707
16.534500	0.000640	0.000014	-0.000296	-0.000850	6182.767554	43767.919993	3882.713048	22636.159805
17.035000	0.000383	0.000119	0.002662	-0.002806	6195.600263	43962.145076	3893.928387	22725.197319
17.536500	-0.000037	-0.000198	0.001005	0.000656	6166.342258	43606.585814	3882.248276	22567.878039
18.036000	-0.001848	0.000252	-0.000888	0.000911	6150.881266	43624.847255	3877.386901	22556.315619
18.536500	0.000785	0.000446	0.001657	0.001312	6167.585622	43605.480344	3882.239945	22538.196253
19.036500	0.000385	-0.000472	0.000866	0.000551	6170.303235	43590.814809	3882.172243	22572.631862
19.536500	-0.000800	0.000996	0.007103	0.001257	6156.124886	43662.152571	3894.797062	22540.675230
20.037000	-0.000289	0.000075	0.000213	0.000569	6165.108035	43640.306320	3880.649754	22571.802270
20.534500	-0.001835	0.000438	-0.002814	0.001453	6146.930715	43591.528175	3871.833997	22531.835855
21.037500	-0.002859	0.000036	-0.003750	0.000836	6143.893281	43611.593822	3871.115736	22559.693614
21.535000	-0.002795	-0.000784	0.000140	-0.000146	6151.701941	43626.858390	3882.106280	22604.204282
22.035000	0.000745	-0.000024	-0.002266	0.000762	6171.416951	43612.952254	3874.618789	22563.077566
22.538500	-0.000453	0.000465	0.000930	0.001083	6160.027956	43628.771197	3881.111221	22548.561796
23.036000	-0.001440	0.000526	-0.005633	0.001343	6150.695540	43610.039428	3865.770120	22536.782703
23.536000	0.002547	0.000290	-0.002669	0.000876	6184.124409	43631.637953	3873.453555	22557.889078
24.036500	0.000159	-0.000263	-0.000843	0.000592	6168.293101	43606.497813	3878.208325	22570.749628
24.536500	-0.001462	-0.000055	-0.000557	0.000888	6153.939205	43598.306055	3878.187582	22557.381313
25.037000	-0.000283	0.000891	-0.003272	0.001359	6159.231690	43642.738143	3871.014828	22536.054753
25.537000	-0.000548	0.000160	0.001357	0.000905	6160.641412	43616.746648	3882.481110	22556.574344
26.035000	-0.000102	-0.000607	-0.000358	0.000157	6169.595014	43615.032274	3880.290381	22590.449884
26.535000	-0.000619	-0.000207	-0.004808	0.000355	6164.230294	43633.915253	3869.822327	22581.475598
27.038500	0.000290	0.000621	0.001899	-0.001691	6186.464443	43904.202125	3889.628318	22674.370894
27.535500	-0.000427	0.000254	0.001128	-0.001556	6180.043073	43856.937741	3887.558501	22668.239892
28.036000	0.000810	-0.000298	0.003533	-0.000685	6182.798385	43722.971306	3891.062828	22628.646866
28.536000	0.000732	0.000706	0.004121	-0.000402	6180.074547	43790.807481	3891.761707	22615.789233
29.036500	0.000813	-0.000200	-0.005100	-0.000524	6181.610260	43717.106433	3871.138045	22621.335230
29.537000	-0.000453	0.000573	-0.000938	-0.000435	6171.412405	43781.425950	3880.317218	22617.297925
30.037000	0.001600	0.000648	0.004194	0.000718	6178.186007	43680.120931	3889.368064	22565.075639
30.537500	-0.002309	0.000206	0.000459	0.001865	6140.334093	43531.260115	3878.275114	22513.226834
31.035000	-0.002553	-0.000037	-0.001037	0.001180	6143.617433	43572.619268	3876.444275	22544.153751
31.535000	0.000268	0.000323	0.001528	-0.000106	6174.355271	43726.980484	3885.166802	22602.370716
32.035500	-0.000609	-0.000575	-0.000920	-0.000833	6173.228116	43710.887943	3881.259001	22635.353073
32.535500	0.000430	0.000112	0.005496	-0.000565	6179.035783	43750.276886	3895.291063	22623.210453
33.036000	0.000744	0.000363	0.000557	-0.001618	6189.346438	43873.117276	3886.400100	22671.078448
33.536000	-0.000705	0.000231	0.004545	0.000778	6160.420852	43635.383311	3890.032842	22562.330453
34.037000	-0.000211	0.000115	-0.000518	0.001439	6159.168645	43562.568317	3877.031144	22532.433797
34.537000	-0.002115	-0.000312	0.001242	0.001345	6145.653160	43531.476180	3881.224143	22536.717821
35.037000	-0.000249	-0.000486	0.003619	0.000970	6162.397339	43550.256107	3887.478473	22553.647015
35.535000	-0.001455	0.000289	-0.000826	0.001240	6151.355785	43597.532008	3876.784109	22541.443820
36.035000	-0.000372	-0.000038	-0.004239	0.001227	6159.556254	43568.155619	3869.145086	22542.051203
36.538500	-0.003724	-0.000069	0.002136	0.001316	6133.894196	43556.873055	3883.318766	22538.019350
37.035500	-0.000814	0.000824	-0.001035	0.001992	6150.529923	43577.206074	3874.619839	22507.471809
37.536000	-0.001203	0.000186	0.000333	0.001420	6151.890928	43571.014978	3878.995407	22533.287998
38.036500	-0.001526	0.000333	0.002120	0.001998	6145.169353	43530.709201	3881.733998	22507.217300
38.536500	-0.000917	0.000031	0.002983	0.001508	6153.376047	43548.331929	3884.807516	22529.346323
39.037000	-0.000215	-0.000151	0.002632	0.001440	6159.134503	43537.652098	3884.163257	22532.407417
39.537000	-0.000056	-0.000265	0.004323	0.001482	6160.006711	43523.021426	3887.917631	22530.495642
40.037500	-0.000662	-0.000509	0.000286	0.000884	6159.949743	43556.113546	3880.103389	22557.553167
40.535000	0.000167	-0.000579	0.002606	0.001401	6162.281427	43501.234740	3884.191728	22534.160849
41.035000	-0.001441	-0.000114	-0.004162	0.001295	6151.049551	43554.575321	3869.163935	22538.938914
41.536000	-0.000264	-0.000404	0.001440	0.001358	6159.378482	43521.577776	3881.643608	22536.107002
42.035500	-0.001771	0.000004	0.000117	0.001161	6149.584739	43578.202523	3879.092407	22545.008640
42.536500	0.000565	0.000480	-0.001025	0.002112	6159.942678	43533.852907	3874.373855	22502.088492
43.036500	-0.000715	-0.000176	-0.001358	0.001287	6156.536410	43549.603752	3875.481165	22539.333299
43.536500	0.000338	0.000193	0.007684	-0.003745	6202.373125	44058.024275	3907.705600	22768.093797
44.037000	0.002057	0.000055	0.005792	-0.000499	6190.807890	43738.744546	3895.820904	22620.216829
44.537500	0.001728	0.000411	0.000232	-0.000391	6187.512693	43762.083483	3882.870072	22615.318801
45.034500	0.000209	-0.000146	0.006151	0.000177	6171.783561	43656.411569	3895.090988	22589.552005
45.535500	-0.000808	0.000380	0.001770	-0.000002	6165.494903	43722.474080	3885.479955	22597.649048
46.038000	0.001049	0.000133	0.003930	-0.000213	6181.046065	43719.125368	3890.891758	22607.236949
46.535500	-0.000519	0.001098	0.006521	0.000245	6165.808745	43766.758913	3895.784307	22586.467356
47.036000	-0.001503	-0.000150	0.001935	0.002061	6144.873198	43479.719217	3881.170729	22504.375551
47.536500	-0.001126	0.000139	0.005073	0.001587	6151.222036	43551.006735	3889.390372	22525.764892
48.036500	0.000239	-0.000184	-0.001432	-0.000320	6175.744587	43699.439375	3878.937707	22612.068408
48.537000	0.000100	-0.000322	0.002669	-0.000971	6179.604919	43747.632293	3889.742222	22641.628160
49.037000	-0.000330	0.000313	0.002478	-0.000199	6170.563321	43734.766880	3887.542492	22606.599420
49.537500	0.002968	0.000879	0.000387	-0.001906	6208.378574	43948.898344	3886.667499	22684.172726
50.035000	0.001660	0.001071	-0.001671	0.000250	6182.160868	43763.824645	3877.112445	22586.267715
50.535500	0.005130	-0.011822	0.009347	0.034779	5956.190621	39539.222238	3825.469156	21082.486383
51.035500	0.011571	-0.022042	-0.037064	0.297817	4596.314384	22440.358489	3352.364964	12827.080010
51.536000	-0.002549	-0.030042	-0.024078	-0.042337	6484.651566	44857.152013	3923.724011	24613.415780
52.035500	0.006351	-0.096821	-0.021082	-0.281413	9238.669294	65276.846259	4689.715054	40545.839957
52.536500	0.013028	-0.105643	-0.003845	-0.291997	9495.337309	65530.316019	4808.303640	41474.240030
53.037000	0.014005	-0.048402	0.002350	-0.209391	8366.610610	61978.510028	4499.961268	34794.531428
53.537000	0.020799	-0.026760	0.010718	-0.154517	7794.551993	57628.161746	4337.190462	31010.015143
54.037000	0.024461	-0.014871	0.015912	-0.125291	7515.222149	55487.419573	4259.665581	29181.282867
54.538000	0.038527	-0.005737	0.029033	-0.106080	7460.961194	54281.850622	4240.692203	28044.495244
55.034500	0.055432	0.003374	0.045296	-0.067734	7241.650910	50938.465104	4174.081232	25920.459579
55.538000	0.082021	0.022059	0.077634	0.006516	6791.224834	45171.913545	4056.602056	22304.378750
56.035500	0.106477	0.037203	0.098560	0.094981	6259.087654	38608.874685	3889.601723	18730.251494
56.536000	0.135502	0.056021	0.132398	0.166166	5949.069232	34555.274147	3807.818863	16338.584213
57.036000	0.162490	0.075514	0.158086	0.231016	5695.183556	31418.306409	3729.287734	14475.969477
57.536500	0.185415	0.094462	0.183837	0.283715	5510.505780	29287.702016	3679.218267	13154.350503
58.036500	0.209490	0.109358	0.204902	0.312402	5483.017289	28463.689461	3665.612055	12499.573026
58.537000	0.221567	0.118776	0.217681	0.342568	5377.967558	27272.251300	3635.452481	11856.108960
59.037000	0.228880	0.125709	0.232074	0.377104	5227.900551	25772.806947	3601.987157	11172.275939
59.534500	0.240533	0.137808	0.236541	0.405084	5142.310191	24952.409396	3564.839136	10656.778655
60.038000	0.249530	0.145641	0.238951	0.427616	5073.747960	24219.261881	3534.605112	10265.119045
60.535500	0.252585	0.148276	0.253570	0.445200	5002.497316	23498.749100	3530.268533	9973.295536
61.035500	0.261645	0.153670	0.255296	0.452051	5013.177644	23429.804342	3522.840619	9862.750520
61.535500	0.259127	0.156686	0.255177	0.453498	4994.048273	23504.014958	3520.587406	9839.619180
62.036000	0.260956	0.152600	0.260663	0.443376	5052.245253	23792.029094	3543.402829	10003.011645
62.536500	0.259421	0.155042	0.256701	0.443232	5045.389584	23916.689199	3537.744973	10005.365304
63.053500	0.262568	0.157097	0.260451	0.440547	5074.287105	24147.081351	3547.308822	10049.369231
63.537000	0.262606	0.156793	0.262643	0.439338	5080.513311	24191.355473	3552.421897	10069.270005
64.040500	0.264302	0.157800	0.254360	0.439776	5086.818966	24219.228519	3539.392709	10062.059377
64.535000	0.265993	0.157905	0.264238	0.437503	5106.792777	24336.144581	3557.617616	10099.580688
65.038500	0.265924	0.158629	0.259367	0.437466	5106.630569	24373.698757	3550.306308	10100.190576
65.535500	0.262095	0.157871	0.257186	0.438492	5082.191963	24285.763244	3545.500533	10083.233162
66.036000	0.264446	0.159326	0.260206	0.434016	5116.636769	24579.479984	3556.788377	10157.534146
66.536000	0.265866	0.159930	0.263636	0.434119	5123.347771	24604.536078	3561.862600	10155.825746
67.038500	0.265126	0.159872	0.263090	0.433852	5120.932142	24614.947622	3561.434269	10160.269106
67.536500	0.260314	0.158805	0.261058	0.434293	5094.326086	24539.742919	3557.662612	10152.915625
68.037000	0.266424	0.159542	0.263063	0.429046	5152.257150	24839.667162	3568.786753	10240.953623
68.537000	0.266235	0.158775	0.253762	0.426692	5163.468570	24919.852809	3558.126197	10280.785371
69.035000	0.263515	0.160430	0.260617	0.426857	5148.538670	24995.470253	3568.388168	10277.990456
69.537500	0.262445	0.159736	0.267307	0.428090	5136.683656	24897.761634	3576.876949	10257.099700
70.035500	0.264461	0.159416	0.262102	0.421716	5180.162105	25206.222829	3578.710491	10365.727586
70.535500	0.265753	0.159972	0.263460	0.421531	5187.896158	25244.274286	3581.135240	10368.895286
71.038500	0.267713	0.159144	0.262089	0.419027	5211.455788	25330.599155	3582.922339	10412.035779
71.536500	0.265037	0.158760	0.262647	0.420711	5188.445976	25224.137740	3581.146360	10383.002710
72.036500	0.267239	0.158948	0.262442	0.415721	5226.519141	25491.596455	3588.724533	10469.342986
72.537000	0.265528	0.159669	0.262731	0.417008	5210.574934	25462.212741	3587.136528	10446.979091
73.037000	0.269436	0.159389	0.266437	0.417682	5227.785529	25412.798831	3591.972668	10435.302121
73.537500	0.267787	0.157583	0.261382	0.421640	5198.026719	25116.251278	3577.699199	10367.027129
74.034500	0.270211	0.158797	0.264518	0.417888	5230.826322	25371.469084	3588.580350	10431.726861
74.535000	0.270437	0.158241	0.268983	0.417150	5235.987925	25380.890880	3596.915705	10444.525776
75.038500	0.270063	0.157971	0.267175	0.416660	5236.609779	25392.285707	3594.794418	10453.024124
75.535500	0.265780	0.155748	0.259811	0.420554	5193.175550	25078.054140	3576.940588	10385.701063
76.039000	0.270271	0.157154	0.266015	0.415914	5241.729483	25388.567815	3594.128365	10465.988003
76.535500	0.270724	0.156378	0.266775	0.415625	5245.719957	25363.430440	3595.815315	10471.024403
77.039500	0.268626	0.157002	0.266518	0.415471	5235.277530	25403.652116	3595.648668	10473.702363
77.536000	0.265131	0.156223	0.257930	0.419606	5194.748814	25150.737481	3575.481068	10402.035025
78.037500	0.271107	0.157547	0.264666	0.415557	5248.150507	25427.420878	3592.537882	10472.204043
78.534500	0.270206	0.156512	0.262143	0.414271	5250.223932	25440.465222	3590.560846	10494.632071
79.038000	0.269469	0.155650	0.261919	0.413086	5252.642476	25457.185215	3592.096934	10515.351607
79.535500	0.268265	0.156398	0.263531	0.419300	5212.934089	25175.380322	3584.770753	10407.313063
80.036000	0.267600	0.156048	0.266389	0.412166	5247.521241	25525.669807	3600.775497	10531.472838
80.535500	0.271581	0.157942	0.265863	0.413172	5263.604235	25571.934630	3598.298298	10513.847666
81.039000	0.269494	0.157701	0.272086	0.412397	5256.496385	25599.812601	3609.687943	10527.422182
81.536500	0.264326	0.158034	0.260417	0.416871	5204.935454	25384.614613	3583.687044	10449.362078
82.037000	0.267107	0.157407	0.269489	0.409800	5257.636682	25720.388620	3609.689682	10573.118715
82.537000	0.268130	0.156255	0.264709	0.409223	5266.307866	25690.201580	3602.825640	10583.297456
83.034500	0.269344	0.159010	0.270952	0.412243	5256.516445	25676.293100	3608.081469	10530.120352
83.535000	0.266677	0.155845	0.256389	0.415974	5222.173766	25317.867082	3578.755040	10464.946521
84.035500	0.272184	0.158085	0.277211	0.412989	5267.866653	25588.912089	3617.165140	10517.043251
84.535500	0.271033	0.157360	0.269693	0.414166	5255.252922	25489.911396	3602.891379	10496.462866
85.035500	0.269907	0.156797	0.265946	0.415168	5243.783343	25408.702512	3595.216585	10478.977240
85.536000	0.267930	0.155125	0.261040	0.420829	5203.064356	25032.295920	3578.435948	10380.971276
86.036500	0.271619	0.153818	0.270603	0.414020	5259.212516	25314.121578	3604.609434	10499.008832
86.536000	0.271901	0.155345	0.263745	0.416233	5248.787777	25278.780906	3589.986165	10460.447993
87.037000	0.274042	0.155094	0.272758	0.416805	5257.258905	25236.459600	3603.585748	10450.508150
87.537000	0.268646	0.152819	0.258430	0.421142	5205.197269	24899.359076	3573.865486	10375.591504
88.035000	0.274552	0.154308	0.266183	0.416873	5259.647458	25192.674318	3592.861260	10449.332871
88.538000	0.273486	0.153807	0.270368	0.416758	5254.503297	25172.808953	3599.782469	10451.315394
89.035500	0.270097	0.153579	0.270504	0.417246	5233.654462	25136.195452	3599.215069	10442.860330
89.535500	0.269494	0.153342	0.271053	0.422434	5202.844537	24860.473201	3591.753726	10353.406589
90.036000	0.271885	0.152960	0.270951	0.416831	5245.480079	25125.783689	3600.609453	10450.056308
90.536500	0.272253	0.152687	0.268503	0.416590	5248.758478	25124.127928	3597.043431	10454.237758
91.036500	0.271579	0.152363	0.261706	0.416263	5246.885453	25124.253209	3586.691965	10459.918996
91.536500	0.265454	0.150508	0.267812	0.421706	5185.410469	24754.301021	3587.745930	10365.888427
92.037500	0.272780	0.151854	0.273411	0.415921	5255.210876	25115.743724	3606.089319	10465.862777
92.534500	0.270791	0.151220	0.266769	0.416141	5243.305415	25072.158505	3594.975645	10462.046809
93.055500	0.275120	0.153021	0.268334	0.418069	5256.251368	25065.673668	3594.393130	10428.596548
93.534500	0.272102	0.150898	0.267583	0.415700	5252.740651	25078.242466	3596.995129	10469.714663
94.035500	0.273170	0.151821	0.265211	0.417333	5249.694125	25041.991241	3590.569935	10441.337500
94.535500	0.271697	0.150352	0.269407	0.415880	5249.583451	25041.213806	3599.649183	10466.574963
95.036000	0.272650	0.151128	0.268109	0.416787	5249.831926	25034.548628	3596.091131	10450.814099
95.536000	0.273430	0.149521	0.261366	0.415780	5259.488363	25004.004310	3586.918343	10468.315373
96.036500	0.272532	0.150698	0.267960	0.416384	5251.374754	25033.182065	3596.501576	10457.826888
