sample name	sample
index	878
start time	 04-08-2021  01:56:11 PM


Wavelength (nm)	Absorbance
494.344910	-0.017887
494.563924	-0.017887
494.782919	-0.017887
495.001897	0.020041
495.220856	-0.014299
495.439797	-0.007669
495.658719	-0.005234
495.877624	-0.005349
496.096510	-0.011978
496.315378	-0.014703
496.534227	-0.011073
496.753059	-0.013568
496.971872	-0.005989
497.190667	0.067577
497.409444	0.104831
497.628203	0.124172
497.846943	0.137847
498.065665	0.147686
498.284369	0.151130
498.503055	0.155339
498.721723	0.159273
498.940372	0.160651
499.159003	0.160619
499.377616	0.162280
499.596210	0.162450
499.814787	0.162035
500.033345	0.160720
500.251885	0.161856
500.470406	0.161955
500.688910	0.161559
500.907395	0.162083
501.125862	0.162908
501.344311	0.161681
501.562742	0.162619
501.781154	0.162735
501.999548	0.163601
502.217924	0.163132
502.436282	0.163023
502.654621	0.162880
502.872942	0.163829
503.091245	0.163576
503.309530	0.165008
503.527797	0.164829
503.746045	0.165170
503.964275	0.165858
504.182487	0.166085
504.400681	0.166683
504.618856	0.167192
504.837013	0.166180
505.055152	0.166835
505.273273	0.166663
505.491376	0.167325
505.709460	0.167042
505.927526	0.166421
506.145574	0.168032
506.363604	0.168225
506.581615	0.168918
506.799608	0.170994
507.017583	0.171177
507.235540	0.171606
507.453478	0.171025
507.671399	0.172545
507.889301	0.173394
508.107185	0.172801
508.325050	0.173784
508.542898	0.173455
508.760727	0.172861
508.978538	0.172864
509.196330	0.173205
509.414105	0.173674
509.631861	0.172524
509.849599	0.172673
510.067319	0.173069
510.285021	0.172380
510.502704	0.173319
510.720369	0.174088
510.938016	0.174913
511.155645	0.175671
511.373255	0.176886
511.590848	0.177796
511.808422	0.178113
512.025977	0.178997
512.243515	0.179363
512.461034	0.178922
512.678536	0.179008
512.896018	0.179395
513.113483	0.179305
513.330930	0.179615
513.548358	0.180680
513.765768	0.180589
513.983160	0.179937
514.200533	0.180322
514.417889	0.181027
514.635226	0.180963
514.852545	0.181309
515.069845	0.182829
515.287128	0.182416
515.504392	0.182407
515.721638	0.183364
515.938866	0.184133
516.156075	0.184928
516.373267	0.185784
516.590440	0.186349
516.807594	0.186369
517.024731	0.185958
517.241850	0.187606
517.458950	0.186774
517.676032	0.186545
517.893095	0.187230
518.110141	0.187306
518.327168	0.187555
518.544177	0.188591
518.761168	0.189371
518.978141	0.189304
519.195095	0.188780
519.412031	0.190034
519.628949	0.191121
519.845849	0.191997
520.062731	0.192422
520.279594	0.192661
520.496439	0.192269
520.713266	0.191962
520.930074	0.193015
521.146865	0.193691
521.363637	0.193978
521.580391	0.193299
521.797127	0.192654
522.013844	0.193188
522.230543	0.192599
522.447224	0.192823
522.663887	0.193559
522.880532	0.193374
523.097158	0.193937
523.313766	0.194534
523.530356	0.196255
523.746928	0.196624
523.963481	0.196458
524.180017	0.197772
524.396534	0.198531
524.613032	0.198333
524.829513	0.198787
525.045975	0.199040
525.262420	0.199157
525.478845	0.199086
525.695253	0.199430
525.911643	0.200293
526.128014	0.200329
526.344367	0.200318
526.560702	0.201232
526.777018	0.201598
526.993316	0.201488
527.209597	0.202161
527.425858	0.202775
527.642102	0.203524
527.858328	0.203275
528.074535	0.203524
528.290724	0.203718
528.506894	0.204269
528.723047	0.204856
528.939181	0.205956
529.155297	0.206066
529.371395	0.205941
529.587475	0.206369
529.803536	0.207584
530.019579	0.208590
530.235604	0.209703
530.451611	0.210161
530.667600	0.210519
530.883570	0.210226
531.099522	0.211426
531.315456	0.211902
531.531372	0.212917
531.747269	0.212684
531.963148	0.212905
532.179009	0.213004
532.394852	0.212124
532.610676	0.212187
532.826482	0.212303
533.042271	0.212066
533.258040	0.212313
533.473792	0.211875
533.689525	0.212705
533.905240	0.213098
534.120937	0.213769
534.336616	0.214468
534.552277	0.214973
534.767919	0.216123
534.983543	0.216441
535.199149	0.217798
535.414736	0.218548
535.630306	0.219210
535.845857	0.219414
536.061390	0.219876
536.276904	0.220487
536.492401	0.220755
536.707879	0.220923
536.923339	0.221045
537.138781	0.220615
537.354204	0.220669
537.569610	0.220958
537.784997	0.221113
538.000366	0.221519
538.215716	0.222923
538.431049	0.223597
538.646363	0.223700
538.861659	0.225036
539.076937	0.225586
539.292196	0.226059
539.507438	0.225804
539.722661	0.226384
539.937866	0.226819
540.153052	0.226970
540.368221	0.226961
540.583371	0.227499
540.798503	0.227650
541.013617	0.227807
541.228712	0.228183
541.443789	0.228692
541.658848	0.229507
541.873889	0.229650
542.088912	0.229568
542.303916	0.230438
542.518902	0.230791
542.733870	0.230507
542.948820	0.231117
543.163752	0.231465
543.378665	0.231754
543.593560	0.231670
543.808437	0.232240
544.023295	0.232741
544.238136	0.233062
544.452958	0.233746
544.667762	0.234697
544.882548	0.234785
545.097315	0.235558
545.312064	0.236245
545.526795	0.236186
545.741508	0.236392
545.956203	0.236630
546.170879	0.236748
546.385537	0.236808
546.600177	0.237005
546.814799	0.237238
547.029402	0.237527
547.243988	0.238117
547.458555	0.239045
547.673103	0.239676
547.887634	0.240286
548.102146	0.240605
548.316640	0.241097
548.531116	0.241267
548.745574	0.242020
548.960013	0.242042
549.174435	0.242084
549.388838	0.242061
549.603222	0.242183
549.817589	0.242262
550.031937	0.242481
550.246267	0.242918
550.460579	0.243426
550.674873	0.243458
550.889148	0.243882
551.103405	0.244360
551.317644	0.244477
551.531865	0.244859
551.746068	0.245427
551.960252	0.245621
552.174418	0.245261
552.388566	0.245468
552.602696	0.246358
552.816807	0.246936
553.030900	0.247323
553.244975	0.247654
553.459032	0.247952
553.673070	0.248175
553.887091	0.248719
554.101093	0.249980
554.315077	0.250421
554.529042	0.250608
554.742990	0.250376
554.956919	0.250364
555.170830	0.251117
555.384722	0.251114
555.598597	0.251528
555.812453	0.251892
556.026291	0.251470
556.240111	0.251707
556.453913	0.251588
556.667696	0.251607
556.881461	0.251459
557.095208	0.251438
557.308937	0.251480
557.522647	0.251278
557.736339	0.251471
557.950013	0.251665
558.163669	0.251838
558.377307	0.251850
558.590926	0.252609
558.804527	0.253166
559.018110	0.253179
559.231675	0.253695
559.445221	0.254130
559.658749	0.254201
559.872259	0.254629
560.085751	0.254781
560.299225	0.254992
560.512680	0.254936
560.726117	0.255163
560.939536	0.255747
561.152937	0.255987
561.366319	0.256173
561.579683	0.256664
561.793029	0.256959
562.006357	0.256485
562.219667	0.256582
562.432958	0.257096
562.646231	0.257688
562.859486	0.257585
563.072723	0.257912
563.285941	0.257837
563.499141	0.258102
563.712323	0.257910
563.925487	0.258627
564.138632	0.258892
564.351760	0.258701
564.564869	0.258694
564.777960	0.259085
564.991032	0.259107
565.204087	0.259656
565.417123	0.259807
565.630141	0.259762
565.843140	0.260216
566.056122	0.260553
566.269085	0.261363
566.482030	0.261816
566.694957	0.261952
566.907866	0.261889
567.120756	0.262229
567.333628	0.262075
567.546482	0.262609
567.759318	0.262470
567.972135	0.262885
568.184935	0.262821
568.397716	0.262656
568.610478	0.262820
568.823223	0.263094
569.035949	0.263003
569.248657	0.263116
569.461347	0.263574
569.674019	0.264114
569.886672	0.264478
570.099308	0.264610
570.311925	0.264798
570.524523	0.265144
570.737104	0.265356
570.949666	0.265791
571.162210	0.266226
571.374736	0.266344
571.587244	0.266570
571.799733	0.266443
572.012205	0.266914
572.224658	0.267041
572.437092	0.267507
572.649509	0.267896
572.861907	0.267783
573.074287	0.267808
573.286649	0.267883
573.498993	0.267484
573.711318	0.267770
573.923625	0.267515
574.135914	0.267470
574.348185	0.267023
574.560438	0.267762
574.772672	0.268087
574.984888	0.268303
575.197086	0.268609
575.409266	0.269283
575.621427	0.269464
575.833570	0.270240
576.045695	0.270667
576.257802	0.271370
576.469890	0.271292
576.681961	0.271593
576.894013	0.271951
577.106046	0.271899
577.318062	0.272066
577.530059	0.272073
577.742039	0.271692
577.954000	0.272153
578.165942	0.272291
578.377867	0.272283
578.589773	0.272728
578.801661	0.272766
579.013531	0.273304
579.225382	0.273349
579.437216	0.273499
579.649031	0.273651
579.860828	0.273613
580.072606	0.274036
580.284367	0.274072
580.496109	0.274056
580.707833	0.274472
580.919539	0.274398
581.131227	0.274737
581.342896	0.274929
581.554547	0.274946
581.766180	0.275126
581.977795	0.274897
582.189391	0.275066
582.400969	0.275074
582.612529	0.274973
582.824071	0.275165
583.035595	0.275273
583.247100	0.275266
583.458587	0.275773
583.670056	0.275841
583.881506	0.276136
584.092939	0.276306
584.304353	0.276482
584.515749	0.276884
584.727127	0.277112
584.938486	0.277317
585.149828	0.278151
585.361151	0.278616
585.572456	0.278980
585.783742	0.279338
585.995011	0.279944
586.206261	0.280384
586.417493	0.280772
586.628706	0.281219
586.839902	0.281247
587.051079	0.281221
587.262238	0.280892
587.473379	0.280862
587.684502	0.280992
587.895606	0.280843
588.106692	0.280802
588.317760	0.281258
588.528810	0.281197
588.739841	0.281530
588.950855	0.281253
589.161850	0.281419
589.372827	0.281712
589.583785	0.281824
589.794726	0.282484
590.005648	0.282653
590.216552	0.282580
590.427437	0.282485
590.638305	0.282705
590.849154	0.283268
591.059985	0.283776
591.270798	0.284356
591.481592	0.284516
591.692369	0.284110
591.903127	0.284065
592.113867	0.283758
592.324588	0.284172
592.535292	0.284711
592.745977	0.285257
592.956644	0.285296
593.167293	0.285426
593.377923	0.285769
593.588536	0.286189
593.799130	0.286625
594.009706	0.286987
594.220263	0.287278
594.430803	0.287392
594.641324	0.287464
594.851827	0.287732
595.062312	0.288016
595.272778	0.288135
595.483227	0.288489
595.693657	0.289024
595.904069	0.289348
596.114462	0.289519
596.324838	0.289413
596.535195	0.289372
596.745534	0.289111
596.955855	0.289053
597.166157	0.288873
597.376441	0.289128
597.586707	0.288936
597.796955	0.289379
598.007185	0.289145
598.217396	0.289614
598.427589	0.289926
598.637764	0.290516
598.847921	0.290341
599.058060	0.290759
599.268180	0.290692
599.478282	0.291232
599.688366	0.291107
599.898431	0.291628
600.108479	0.291574
600.318508	0.291993
600.528519	0.292344
600.738511	0.292646
600.948486	0.293070
601.158442	0.293149
601.368380	0.292857
601.578300	0.292922
601.788202	0.293136
601.998085	0.293305
602.207950	0.293493
602.417797	0.293451
602.627626	0.293928
602.837436	0.294005
603.047228	0.294125
603.257002	0.294366
603.466758	0.294802
603.676496	0.294812
603.886215	0.294844
604.095916	0.294963
604.305599	0.295316
604.515264	0.295023
604.724910	0.294661
604.934538	0.295281
605.144148	0.295399
605.353740	0.295537
605.563314	0.295804
605.772869	0.296195
605.982406	0.295895
606.191925	0.296300
606.401425	0.296643
606.610908	0.297129
606.820372	0.296984
607.029818	0.297106
607.239246	0.297396
607.448655	0.297671
607.658047	0.297536
607.867420	0.297914
608.076775	0.297634
608.286111	0.298113
608.495430	0.298569
608.704730	0.298803
608.914012	0.298951
609.123275	0.299248
609.332521	0.299221
609.541748	0.299883
609.750957	0.300081
609.960148	0.300491
610.169321	0.300387
610.378475	0.300190
610.587611	0.299858
610.796729	0.300215
611.005829	0.299830
611.214910	0.300221
611.423974	0.300038
611.633019	0.300590
611.842045	0.300705
612.051054	0.300855
612.260044	0.301669
612.469017	0.302490
612.677970	0.302747
612.886906	0.303259
613.095824	0.303484
613.304723	0.303488
613.513604	0.303108
613.722467	0.303414
613.931311	0.303671
614.140138	0.303452
614.348946	0.303249
614.557736	0.303446
614.766507	0.303402
614.975261	0.303473
615.183996	0.303732
615.392713	0.304099
615.601412	0.304147
615.810092	0.304621
616.018754	0.304708
616.227399	0.305015
616.436024	0.304956
616.644632	0.305289
616.853222	0.305661
617.061793	0.305947
617.270346	0.306240
617.478880	0.306642
617.687397	0.306721
617.895895	0.307045
618.104375	0.307152
618.312837	0.307461
618.521281	0.307566
618.729706	0.307566
618.938113	0.307755
619.146502	0.307784
619.354873	0.307491
619.563226	0.307326
619.771560	0.307500
619.979876	0.307585
620.188174	0.307725
620.396453	0.307818
620.604715	0.308352
620.812958	0.308564
621.021183	0.308715
621.229390	0.308788
621.437578	0.309064
621.645748	0.309022
621.853900	0.309575
622.062034	0.309671
622.270150	0.309773
622.478247	0.309760
622.686326	0.310017
622.894387	0.310186
623.102430	0.310633
623.310454	0.310804
623.518461	0.311088
623.726449	0.310921
623.934418	0.310895
624.142370	0.311257
624.350303	0.311313
624.558218	0.311319
624.766115	0.311422
624.973994	0.311507
625.181855	0.311785
625.389697	0.311674
625.597521	0.311822
625.805327	0.312202
626.013114	0.312177
626.220883	0.312105
626.428634	0.312302
626.636367	0.312708
626.844082	0.313030
627.051778	0.313077
627.259457	0.313471
627.467117	0.313663
627.674758	0.314064
627.882382	0.314473
628.089987	0.315049
628.297574	0.315225
628.505143	0.314999
628.712694	0.315106
628.920226	0.315260
629.127740	0.315539
629.335236	0.315922
629.542714	0.315769
629.750174	0.315974
629.957615	0.315940
630.165038	0.316052
630.372443	0.316654
630.579829	0.316637
630.787198	0.317189
630.994548	0.317451
631.201880	0.317566
631.409194	0.317851
631.616489	0.318143
631.823766	0.318127
632.031025	0.318434
632.238266	0.318513
632.445489	0.319042
632.652693	0.318873
632.859879	0.318780
633.067047	0.318889
633.274197	0.319131
633.481329	0.319260
633.688442	0.319566
633.895537	0.319516
634.102614	0.319671
634.309672	0.319619
634.516713	0.319767
634.723735	0.320107
634.930739	0.320353
635.137724	0.320789
635.344692	0.320630
635.551641	0.320897
635.758572	0.321240
635.965485	0.321431
636.172379	0.321602
636.379256	0.321999
636.586114	0.322232
636.792954	0.322204
636.999775	0.322235
637.206579	0.322397
637.413364	0.322636
637.620131	0.322958
637.826880	0.323051
638.033610	0.323406
638.240323	0.323567
638.447017	0.323550
638.653692	0.323778
638.860350	0.323820
639.066990	0.324166
639.273611	0.324494
639.480214	0.324351
639.686798	0.324505
639.893365	0.324693
640.099913	0.324818
640.306443	0.324775
640.512955	0.324992
640.719449	0.325310
640.925924	0.325644
641.132381	0.325526
641.338820	0.325624
641.545241	0.325851
641.751644	0.325848
641.958028	0.326126
642.164394	0.326648
642.370742	0.326899
642.577071	0.326808
642.783383	0.327230
642.989676	0.327613
643.195951	0.328405
643.402207	0.328607
643.608446	0.328920
643.814666	0.329145
644.020868	0.329283
644.227052	0.329398
644.433218	0.329865
644.639365	0.329726
644.845494	0.329705
645.051605	0.329887
645.257698	0.329956
645.463772	0.330110
645.669828	0.330129
645.875866	0.330517
646.081886	0.330668
646.287888	0.330912
646.493871	0.331126
646.699836	0.331325
646.905783	0.331144
647.111712	0.331474
647.317622	0.331638
647.523514	0.331851
647.729388	0.332238
647.935244	0.332573
648.141082	0.332669
648.346901	0.332725
648.552702	0.332833
648.758485	0.333343
648.964250	0.333741
649.169996	0.334080
649.375724	0.334149
649.581434	0.334043
649.787126	0.334207
649.992800	0.334492
650.198455	0.334833
650.404092	0.335191
650.609711	0.335265
650.815311	0.335019
651.020894	0.335352
651.226458	0.335682
651.432004	0.335965
651.637532	0.336257
651.843041	0.336191
652.048532	0.336706
652.254006	0.336772
652.459460	0.336910
652.664897	0.337371
652.870315	0.337233
653.075716	0.337489
653.281097	0.337909
653.486461	0.338338
653.691807	0.338515
653.897134	0.338429
654.102443	0.338939
654.307734	0.338960
654.513006	0.339412
654.718261	0.339862
654.923497	0.339873
655.128715	0.339690
655.333915	0.339774
655.539096	0.340188
655.744259	0.340529
655.949404	0.340845
656.154531	0.341233
656.359640	0.341412
656.564730	0.341699
656.769802	0.342131
656.974856	0.342417
657.179892	0.342448
657.384909	0.342766
657.589908	0.342940
657.794889	0.342944
657.999852	0.343243
658.204797	0.343380
658.409723	0.343581
658.614631	0.343748
658.819521	0.344072
659.024393	0.344359
659.229246	0.344439
659.434081	0.344735
659.638898	0.345091
659.843697	0.345235
660.048478	0.345405
660.253240	0.345607
660.457984	0.345953
660.662710	0.346049
660.867417	0.346635
661.072107	0.346909
661.276778	0.346823
661.481431	0.346914
661.686066	0.347178
661.890682	0.347403
662.095281	0.347566
662.299861	0.347774
662.504422	0.348170
662.708966	0.348190
662.913491	0.348574
663.117999	0.349016
663.322488	0.349440
663.526958	0.349446
663.731411	0.349630
663.935845	0.349833
664.140261	0.350272
664.344659	0.350423
664.549038	0.350383
664.753400	0.350204
664.957743	0.350112
665.162068	0.350253
665.366375	0.350811
665.570663	0.351042
665.774933	0.351352
665.979185	0.351364
666.183419	0.351675
666.387635	0.352470
666.591832	0.353145
666.796011	0.353577
667.000172	0.353896
667.204315	0.354206
667.408439	0.354423
667.612545	0.354580
667.816634	0.354859
668.020703	0.355255
668.224755	0.355158
668.428788	0.355770
668.632803	0.356289
668.836800	0.356645
669.040779	0.356847
669.244739	0.357109
669.448681	0.357489
669.652605	0.357739
669.856511	0.357981
670.060399	0.358039
670.264268	0.357927
670.468119	0.358023
670.671952	0.358258
670.875767	0.358623
671.079563	0.359091
671.283341	0.359076
671.487101	0.359434
671.690843	0.359597
671.894567	0.359953
672.098272	0.360321
672.301959	0.360857
672.505628	0.360842
672.709278	0.360700
672.912911	0.360610
673.116525	0.361133
673.320121	0.361361
673.523699	0.361439
673.727258	0.361750
673.930799	0.361827
674.134322	0.361765
674.337827	0.362315
674.541314	0.362923
674.744782	0.363457
674.948232	0.363547
675.151664	0.363763
675.355078	0.364172
675.558474	0.364611
675.761851	0.364835
675.965210	0.365045
676.168551	0.365006
676.371873	0.364974
676.575178	0.365069
676.778464	0.365553
676.981732	0.365937
677.184981	0.366334
677.388213	0.366558
677.591426	0.366566
677.794621	0.366871
677.997798	0.367286
678.200956	0.367557
678.404097	0.367755
678.607219	0.367944
678.810323	0.368200
679.013408	0.367979
679.216476	0.368305
679.419525	0.368697
679.622556	0.369021
679.825569	0.369364
680.028563	0.369433
680.231540	0.369718
680.434498	0.369781
680.637438	0.369750
680.840359	0.370103
681.043263	0.369950
681.246148	0.370106
681.449015	0.370344
681.651864	0.370588
681.854694	0.371295
682.057506	0.371434
682.260301	0.371533
682.463076	0.372055
682.665834	0.372243
682.868573	0.372981
683.071295	0.373646
683.273998	0.373838
683.476682	0.373837
683.679349	0.373946
683.881997	0.374120
684.084627	0.374610
684.287239	0.374450
684.489833	0.375227
684.692408	0.375069
684.894965	0.375055
685.097504	0.375377
685.300025	0.375900
685.502527	0.376120
685.705012	0.376694
685.907478	0.376652
686.109925	0.377077
686.312355	0.376801
686.514766	0.377244
686.717159	0.377525
686.919534	0.377645
687.121891	0.377647
687.324230	0.377781
687.526550	0.377798
687.728852	0.378458
687.931136	0.378369
688.133401	0.378494
688.335649	0.378188
688.537878	0.378094
688.740089	0.378078
688.942281	0.378466
689.144456	0.378767
689.346612	0.379096
689.548750	0.379284
689.750870	0.379800
689.952971	0.380185
690.155055	0.380978
690.357120	0.381511
690.559167	0.381751
690.761195	0.381851
690.963206	0.381998
691.165198	0.381899
691.367172	0.382087
691.569128	0.382395
691.771065	0.382726
691.972984	0.382627
692.174885	0.383074
692.376768	0.383524
692.578633	0.383618
692.780479	0.383724
692.982308	0.384039
693.184118	0.384151
693.385909	0.384157
