sample name	sample
index	235
start time	 02-22-2021  11:15:05 AM


Wavelength (nm)	Absorbance
494.344910	-0.233479
494.563924	-0.233479
494.782919	-0.233479
495.001897	0.164794
495.220856	-0.104779
495.439797	-0.113541
495.658719	-0.088052
495.877624	-0.080442
496.096510	-0.081778
496.315378	-0.069656
496.534227	-0.030317
496.753059	-0.024219
496.971872	-0.051557
497.190667	0.094126
497.409444	0.121640
497.628203	0.127093
497.846943	0.131234
498.065665	0.131383
498.284369	0.133082
498.503055	0.132005
498.721723	0.135127
498.940372	0.135926
499.159003	0.135411
499.377616	0.135206
499.596210	0.135361
499.814787	0.134554
500.033345	0.135152
500.251885	0.134989
500.470406	0.135929
500.688910	0.133804
500.907395	0.134026
501.125862	0.134603
501.344311	0.136143
501.562742	0.136877
501.781154	0.137430
501.999548	0.137708
502.217924	0.137611
502.436282	0.138336
502.654621	0.139376
502.872942	0.140104
503.091245	0.141605
503.309530	0.141264
503.527797	0.142104
503.746045	0.142435
503.964275	0.142407
504.182487	0.142636
504.400681	0.142716
504.618856	0.142404
504.837013	0.141914
505.055152	0.140973
505.273273	0.141067
505.491376	0.139231
505.709460	0.138986
505.927526	0.138458
506.145574	0.138776
506.363604	0.139061
506.581615	0.139923
506.799608	0.140140
507.017583	0.140377
507.235540	0.139664
507.453478	0.140171
507.671399	0.141021
507.889301	0.142014
508.107185	0.142125
508.325050	0.141741
508.542898	0.140533
508.760727	0.140612
508.978538	0.141336
509.196330	0.142427
509.414105	0.143052
509.631861	0.142578
509.849599	0.143425
510.067319	0.143820
510.285021	0.144981
510.502704	0.146711
510.720369	0.147304
510.938016	0.147812
511.155645	0.147017
511.373255	0.147657
511.590848	0.149173
511.808422	0.148859
512.025977	0.148509
512.243515	0.148307
512.461034	0.148672
512.678536	0.148338
512.896018	0.147903
513.113483	0.148868
513.330930	0.149248
513.548358	0.148461
513.765768	0.149017
513.983160	0.149609
514.200533	0.149725
514.417889	0.149298
514.635226	0.149735
514.852545	0.149558
515.069845	0.150587
515.287128	0.149931
515.504392	0.150601
515.721638	0.150854
515.938866	0.150849
516.156075	0.151261
516.373267	0.151995
516.590440	0.151834
516.807594	0.152686
517.024731	0.151896
517.241850	0.152535
517.458950	0.152563
517.676032	0.152452
517.893095	0.153098
518.110141	0.153342
518.327168	0.153315
518.544177	0.154029
518.761168	0.153823
518.978141	0.154036
519.195095	0.154596
519.412031	0.154785
519.628949	0.155300
519.845849	0.154957
520.062731	0.154893
520.279594	0.156004
520.496439	0.156093
520.713266	0.155818
520.930074	0.157002
521.146865	0.156974
521.363637	0.157448
521.580391	0.157280
521.797127	0.158223
522.013844	0.158678
522.230543	0.158337
522.447224	0.158289
522.663887	0.159677
522.880532	0.159970
523.097158	0.160534
523.313766	0.161368
523.530356	0.161538
523.746928	0.161796
523.963481	0.162082
524.180017	0.162396
524.396534	0.163259
524.613032	0.163289
524.829513	0.163074
525.045975	0.162952
525.262420	0.162179
525.478845	0.162275
525.695253	0.162529
525.911643	0.162890
526.128014	0.163106
526.344367	0.163022
526.560702	0.163581
526.777018	0.163605
526.993316	0.164079
527.209597	0.164739
527.425858	0.165372
527.642102	0.165738
527.858328	0.165946
528.074535	0.165980
528.290724	0.166458
528.506894	0.166720
528.723047	0.167773
528.939181	0.168727
529.155297	0.169356
529.371395	0.168902
529.587475	0.168593
529.803536	0.169474
530.019579	0.170110
530.235604	0.170871
530.451611	0.170698
530.667600	0.170812
530.883570	0.170587
531.099522	0.171292
531.315456	0.172068
531.531372	0.172887
531.747269	0.172522
531.963148	0.172607
532.179009	0.172265
532.394852	0.172654
532.610676	0.172786
532.826482	0.173245
533.042271	0.172947
533.258040	0.173640
533.473792	0.173675
533.689525	0.174306
533.905240	0.174895
534.120937	0.175696
534.336616	0.176189
534.552277	0.176509
534.767919	0.177109
534.983543	0.177559
535.199149	0.177737
535.414736	0.178338
535.630306	0.178876
535.845857	0.179060
536.061390	0.179349
536.276904	0.179648
536.492401	0.179816
536.707879	0.180239
536.923339	0.180341
537.138781	0.180955
537.354204	0.180819
537.569610	0.180708
537.784997	0.181277
538.000366	0.182251
538.215716	0.182754
538.431049	0.183567
538.646363	0.183383
538.861659	0.184135
539.076937	0.184711
539.292196	0.185500
539.507438	0.186021
539.722661	0.186095
539.937866	0.185892
540.153052	0.186361
540.368221	0.186317
540.583371	0.187133
540.798503	0.187258
541.013617	0.187150
541.228712	0.187246
541.443789	0.187212
541.658848	0.187366
541.873889	0.187641
542.088912	0.187909
542.303916	0.188087
542.518902	0.188026
542.733870	0.188390
542.948820	0.189338
543.163752	0.190129
543.378665	0.191041
543.593560	0.192084
543.808437	0.192241
544.023295	0.192030
544.238136	0.192604
544.452958	0.193513
544.667762	0.194220
544.882548	0.194109
545.097315	0.194375
545.312064	0.194514
545.526795	0.193986
545.741508	0.194103
545.956203	0.194910
546.170879	0.194845
546.385537	0.194447
546.600177	0.194112
546.814799	0.194179
547.029402	0.193943
547.243988	0.194229
547.458555	0.194676
547.673103	0.195702
547.887634	0.196102
548.102146	0.196357
548.316640	0.196969
548.531116	0.197832
548.745574	0.198307
548.960013	0.198838
549.174435	0.199241
549.388838	0.199405
549.603222	0.199338
549.817589	0.199394
550.031937	0.200515
550.246267	0.200688
550.460579	0.200752
550.674873	0.201044
550.889148	0.201540
551.103405	0.201750
551.317644	0.202420
551.531865	0.202835
551.746068	0.202645
551.960252	0.202595
552.174418	0.203083
552.388566	0.202648
552.602696	0.203065
552.816807	0.203256
553.030900	0.203427
553.244975	0.203738
553.459032	0.203513
553.673070	0.204205
553.887091	0.204325
554.101093	0.204076
554.315077	0.204837
554.529042	0.204908
554.742990	0.204626
554.956919	0.204747
555.170830	0.204880
555.384722	0.205487
555.598597	0.205492
555.812453	0.205640
556.026291	0.205736
556.240111	0.205671
556.453913	0.205877
556.667696	0.206141
556.881461	0.205884
557.095208	0.205880
557.308937	0.205703
557.522647	0.206099
557.736339	0.206482
557.950013	0.206929
558.163669	0.207357
558.377307	0.208061
558.590926	0.208257
558.804527	0.208811
559.018110	0.209178
559.231675	0.209556
559.445221	0.209898
559.658749	0.210209
559.872259	0.210483
560.085751	0.211177
560.299225	0.211321
560.512680	0.211781
560.726117	0.212393
560.939536	0.212339
561.152937	0.212617
561.366319	0.212827
561.579683	0.212603
561.793029	0.212920
562.006357	0.212691
562.219667	0.212519
562.432958	0.212993
562.646231	0.212929
562.859486	0.213408
563.072723	0.213575
563.285941	0.214061
563.499141	0.214027
563.712323	0.214056
563.925487	0.214273
564.138632	0.214364
564.351760	0.214525
564.564869	0.215088
564.777960	0.214997
564.991032	0.215103
565.204087	0.214720
565.417123	0.215289
565.630141	0.215510
565.843140	0.215529
566.056122	0.215690
566.269085	0.215550
566.482030	0.215360
566.694957	0.215647
566.907866	0.216211
567.120756	0.216881
567.333628	0.217234
567.546482	0.217351
567.759318	0.217859
567.972135	0.218431
568.184935	0.218871
568.397716	0.219238
568.610478	0.219701
568.823223	0.219925
569.035949	0.219737
569.248657	0.220173
569.461347	0.220210
569.674019	0.220268
569.886672	0.220652
570.099308	0.220589
570.311925	0.220637
570.524523	0.220293
570.737104	0.219837
570.949666	0.219939
571.162210	0.219694
571.374736	0.220280
571.587244	0.220132
571.799733	0.219644
572.012205	0.219906
572.224658	0.219734
572.437092	0.220070
572.649509	0.220467
572.861907	0.220840
573.074287	0.220967
573.286649	0.220716
573.498993	0.220790
573.711318	0.220967
573.923625	0.221534
574.135914	0.221996
574.348185	0.222749
574.560438	0.222816
574.772672	0.222632
574.984888	0.222942
575.197086	0.223380
575.409266	0.223914
575.621427	0.224417
575.833570	0.224133
576.045695	0.224487
576.257802	0.224433
576.469890	0.224707
576.681961	0.224778
576.894013	0.224627
577.106046	0.224759
577.318062	0.224763
577.530059	0.224754
577.742039	0.224949
577.954000	0.225281
578.165942	0.225299
578.377867	0.225423
578.589773	0.226156
578.801661	0.226222
579.013531	0.226481
579.225382	0.226998
579.437216	0.226690
579.649031	0.226851
579.860828	0.226547
580.072606	0.226532
580.284367	0.226989
580.496109	0.226773
580.707833	0.227411
580.919539	0.227571
581.131227	0.227730
581.342896	0.228199
581.554547	0.228399
581.766180	0.228647
581.977795	0.228990
582.189391	0.228849
582.400969	0.229428
582.612529	0.229676
582.824071	0.230129
583.035595	0.230133
583.247100	0.230390
583.458587	0.230833
583.670056	0.230876
583.881506	0.230982
584.092939	0.231438
584.304353	0.231359
584.515749	0.231621
584.727127	0.231700
584.938486	0.231957
585.149828	0.232097
585.361151	0.232402
585.572456	0.232825
585.783742	0.233042
585.995011	0.233313
586.206261	0.233618
586.417493	0.233757
586.628706	0.233798
586.839902	0.233964
587.051079	0.234360
587.262238	0.234326
587.473379	0.234712
587.684502	0.235071
587.895606	0.235136
588.106692	0.235456
588.317760	0.235823
588.528810	0.236051
588.739841	0.236104
588.950855	0.236264
589.161850	0.236288
589.372827	0.236206
589.583785	0.236123
589.794726	0.235920
590.005648	0.235779
590.216552	0.235649
590.427437	0.236024
590.638305	0.236391
590.849154	0.236626
591.059985	0.236942
591.270798	0.237284
591.481592	0.237792
591.692369	0.238295
591.903127	0.238720
592.113867	0.239040
592.324588	0.238597
592.535292	0.238502
592.745977	0.238362
592.956644	0.238409
593.167293	0.238752
593.377923	0.238811
593.588536	0.239013
593.799130	0.239236
594.009706	0.239550
594.220263	0.240434
594.430803	0.241018
594.641324	0.241522
594.851827	0.241459
595.062312	0.241484
595.272778	0.241658
595.483227	0.241918
595.693657	0.242082
595.904069	0.241855
596.114462	0.241961
596.324838	0.242067
596.535195	0.242365
596.745534	0.242832
596.955855	0.243222
597.166157	0.243665
597.376441	0.243778
597.586707	0.244211
597.796955	0.244589
598.007185	0.244689
598.217396	0.245066
598.427589	0.245092
598.637764	0.245643
598.847921	0.245795
599.058060	0.245507
599.268180	0.245811
599.478282	0.245645
599.688366	0.245882
599.898431	0.245768
600.108479	0.245403
600.318508	0.245677
600.528519	0.245379
600.738511	0.245379
600.948486	0.245738
601.158442	0.245894
601.368380	0.246314
601.578300	0.246365
601.788202	0.246768
601.998085	0.247402
602.207950	0.247461
602.417797	0.247891
602.627626	0.247945
602.837436	0.248022
603.047228	0.247879
603.257002	0.247795
603.466758	0.248247
603.676496	0.248409
603.886215	0.248839
604.095916	0.248862
604.305599	0.249093
604.515264	0.249428
604.724910	0.249786
604.934538	0.250282
605.144148	0.250319
605.353740	0.250367
605.563314	0.250605
605.772869	0.250406
605.982406	0.250993
606.191925	0.251044
606.401425	0.251181
606.610908	0.251564
606.820372	0.251635
607.029818	0.251800
607.239246	0.252029
607.448655	0.252008
607.658047	0.251978
607.867420	0.251811
608.076775	0.251904
608.286111	0.252136
608.495430	0.252070
608.704730	0.252188
608.914012	0.252456
609.123275	0.252661
609.332521	0.252758
609.541748	0.253038
609.750957	0.253274
609.960148	0.253588
610.169321	0.253557
610.378475	0.253628
610.587611	0.253789
610.796729	0.254069
611.005829	0.254245
611.214910	0.254768
611.423974	0.254975
611.633019	0.255155
611.842045	0.255180
612.051054	0.255606
612.260044	0.255675
612.469017	0.255954
612.677970	0.255907
612.886906	0.255576
613.095824	0.255420
613.304723	0.255540
613.513604	0.255582
613.722467	0.255647
613.931311	0.255500
614.140138	0.255807
614.348946	0.255966
614.557736	0.256212
614.766507	0.256425
614.975261	0.256604
615.183996	0.256871
615.392713	0.257216
615.601412	0.257556
615.810092	0.257814
616.018754	0.257902
616.227399	0.257953
616.436024	0.258061
616.644632	0.258347
616.853222	0.258468
617.061793	0.258378
617.270346	0.258467
617.478880	0.258560
617.687397	0.258706
617.895895	0.258825
618.104375	0.258891
618.312837	0.259258
618.521281	0.259302
618.729706	0.259346
618.938113	0.259643
619.146502	0.259654
619.354873	0.259939
619.563226	0.259942
619.771560	0.260100
619.979876	0.260335
620.188174	0.260197
620.396453	0.260627
620.604715	0.260960
620.812958	0.260831
621.021183	0.261102
621.229390	0.261117
621.437578	0.261378
621.645748	0.261576
621.853900	0.261887
622.062034	0.262319
622.270150	0.262420
622.478247	0.262475
622.686326	0.262885
622.894387	0.262995
623.102430	0.262972
623.310454	0.263121
623.518461	0.263374
623.726449	0.263452
623.934418	0.263391
624.142370	0.263358
624.350303	0.263577
624.558218	0.264035
624.766115	0.264101
624.973994	0.264723
625.181855	0.265106
625.389697	0.265352
625.597521	0.265479
625.805327	0.265965
626.013114	0.266266
626.220883	0.266208
626.428634	0.266208
626.636367	0.266267
626.844082	0.266114
627.051778	0.266139
627.259457	0.266095
627.467117	0.266368
627.674758	0.266213
627.882382	0.266324
628.089987	0.266597
628.297574	0.266603
628.505143	0.266701
628.712694	0.266791
628.920226	0.266913
629.127740	0.267238
629.335236	0.267388
629.542714	0.267715
629.750174	0.267926
629.957615	0.268414
630.165038	0.268586
630.372443	0.269055
630.579829	0.269220
630.787198	0.269350
630.994548	0.269399
631.201880	0.269521
631.409194	0.269716
631.616489	0.270044
631.823766	0.269879
632.031025	0.270209
632.238266	0.270336
632.445489	0.270721
632.652693	0.270840
632.859879	0.271120
633.067047	0.271159
633.274197	0.271134
633.481329	0.271049
633.688442	0.271241
633.895537	0.271111
634.102614	0.271299
634.309672	0.271504
634.516713	0.271544
634.723735	0.271831
634.930739	0.272027
635.137724	0.272239
635.344692	0.272578
635.551641	0.273008
635.758572	0.273460
635.965485	0.273457
636.172379	0.273410
636.379256	0.273794
636.586114	0.273640
636.792954	0.273723
636.999775	0.274061
637.206579	0.274377
637.413364	0.274256
637.620131	0.274216
637.826880	0.274869
638.033610	0.275173
638.240323	0.275308
638.447017	0.275251
638.653692	0.275506
638.860350	0.275523
639.066990	0.275527
639.273611	0.276025
639.480214	0.276414
639.686798	0.276361
639.893365	0.276567
640.099913	0.276874
640.306443	0.277552
640.512955	0.277694
640.719449	0.277818
640.925924	0.277680
641.132381	0.277790
641.338820	0.277638
641.545241	0.277843
641.751644	0.277613
641.958028	0.277804
642.164394	0.277804
642.370742	0.278171
642.577071	0.278460
642.783383	0.278819
642.989676	0.278795
643.195951	0.279079
643.402207	0.278909
643.608446	0.279351
643.814666	0.279449
644.020868	0.279552
644.227052	0.279425
644.433218	0.279298
644.639365	0.279501
644.845494	0.279746
645.051605	0.279902
645.257698	0.280472
645.463772	0.280809
645.669828	0.281110
645.875866	0.281425
646.081886	0.281571
646.287888	0.282064
646.493871	0.282078
646.699836	0.282400
646.905783	0.282804
647.111712	0.282861
647.317622	0.283044
647.523514	0.283149
647.729388	0.282993
647.935244	0.283202
648.141082	0.283344
648.346901	0.283540
648.552702	0.283892
648.758485	0.283917
648.964250	0.284245
649.169996	0.284239
649.375724	0.284614
649.581434	0.285162
649.787126	0.285568
649.992800	0.285835
650.198455	0.286245
650.404092	0.286280
650.609711	0.286411
650.815311	0.286302
651.020894	0.286444
651.226458	0.286197
651.432004	0.286213
651.637532	0.286378
651.843041	0.286337
652.048532	0.286413
652.254006	0.286391
652.459460	0.286466
652.664897	0.286579
652.870315	0.286834
653.075716	0.287047
653.281097	0.287163
653.486461	0.287220
653.691807	0.287534
653.897134	0.287802
654.102443	0.288183
654.307734	0.288360
654.513006	0.288541
654.718261	0.288775
654.923497	0.288921
655.128715	0.289304
655.333915	0.289550
655.539096	0.289692
655.744259	0.290166
655.949404	0.290385
656.154531	0.290859
656.359640	0.291391
656.564730	0.291646
656.769802	0.291952
656.974856	0.292103
657.179892	0.292416
657.384909	0.292839
657.589908	0.292834
657.794889	0.292885
657.999852	0.293141
658.204797	0.293308
658.409723	0.293548
658.614631	0.293969
658.819521	0.294484
659.024393	0.294613
659.229246	0.294586
659.434081	0.294836
659.638898	0.295139
659.843697	0.295195
660.048478	0.295433
660.253240	0.295558
660.457984	0.295733
660.662710	0.295519
660.867417	0.295772
661.072107	0.296244
661.276778	0.296537
661.481431	0.296773
661.686066	0.297076
661.890682	0.297058
662.095281	0.297567
662.299861	0.297739
662.504422	0.298085
662.708966	0.298140
662.913491	0.297964
663.117999	0.297901
663.322488	0.297976
663.526958	0.298012
663.731411	0.298248
663.935845	0.298065
664.140261	0.298352
664.344659	0.298463
664.549038	0.298632
664.753400	0.299088
664.957743	0.299361
665.162068	0.299634
665.366375	0.299647
665.570663	0.299837
665.774933	0.300359
665.979185	0.300431
666.183419	0.300661
666.387635	0.301177
666.591832	0.301436
666.796011	0.301684
667.000172	0.301835
667.204315	0.302322
667.408439	0.302737
667.612545	0.302861
667.816634	0.303106
668.020703	0.303423
668.224755	0.303551
668.428788	0.303714
668.632803	0.304213
668.836800	0.304522
669.040779	0.304742
669.244739	0.304942
669.448681	0.305009
669.652605	0.305248
669.856511	0.305520
670.060399	0.305648
670.264268	0.305922
670.468119	0.305829
670.671952	0.305791
670.875767	0.306257
671.079563	0.306453
671.283341	0.306916
671.487101	0.306998
671.690843	0.307229
671.894567	0.307438
672.098272	0.307442
672.301959	0.307926
672.505628	0.308457
672.709278	0.308699
672.912911	0.308788
673.116525	0.308938
673.320121	0.309302
673.523699	0.309362
673.727258	0.309613
673.930799	0.310025
674.134322	0.310181
674.337827	0.310347
674.541314	0.310595
674.744782	0.310918
674.948232	0.311063
675.151664	0.311324
675.355078	0.311721
675.558474	0.312071
675.761851	0.312157
675.965210	0.312145
676.168551	0.312307
676.371873	0.312282
676.575178	0.312534
676.778464	0.312590
676.981732	0.312792
677.184981	0.313112
677.388213	0.313295
677.591426	0.313514
677.794621	0.313777
677.997798	0.313939
678.200956	0.314071
678.404097	0.314333
678.607219	0.314607
678.810323	0.314845
679.013408	0.315045
679.216476	0.315396
679.419525	0.315655
679.622556	0.315839
679.825569	0.316228
680.028563	0.316613
680.231540	0.316786
680.434498	0.317242
680.637438	0.317272
680.840359	0.317342
681.043263	0.317502
681.246148	0.317935
681.449015	0.318326
681.651864	0.318205
681.854694	0.318310
682.057506	0.318460
682.260301	0.318520
682.463076	0.318716
682.665834	0.318908
682.868573	0.319082
683.071295	0.319326
683.273998	0.319418
683.476682	0.319614
683.679349	0.319931
683.881997	0.319949
684.084627	0.320165
684.287239	0.320427
684.489833	0.320432
684.692408	0.320493
684.894965	0.320414
685.097504	0.320490
685.300025	0.320855
685.502527	0.321075
685.705012	0.321302
685.907478	0.321645
686.109925	0.321875
686.312355	0.322270
686.514766	0.322512
686.717159	0.322779
686.919534	0.323100
687.121891	0.323332
687.324230	0.323601
687.526550	0.323805
687.728852	0.323595
687.931136	0.323734
688.133401	0.323812
688.335649	0.323873
688.537878	0.324071
688.740089	0.324465
688.942281	0.324868
689.144456	0.324704
689.346612	0.325024
689.548750	0.325325
689.750870	0.325741
689.952971	0.326010
690.155055	0.326409
690.357120	0.326626
690.559167	0.326412
690.761195	0.326340
690.963206	0.326548
691.165198	0.326590
691.367172	0.327021
691.569128	0.327005
691.771065	0.327180
691.972984	0.327077
692.174885	0.327163
692.376768	0.327484
692.578633	0.327580
692.780479	0.327736
692.982308	0.328147
693.184118	0.328122
693.385909	0.328307
