sample name	sample
index	1344
start time	 05-03-2021  12:47:40 PM
880	0.214504
Peak Time (s)	90.036
Peak Height 	0.2145
calc peak height	90,93
Baseline Time (s)	10.04
Baseline Value 	-0.004397
subtract baseline	10,4
Abs	0.126985
Peak Time (s)	91.039
Peak Height 	0.127
calc peak height	90,93
Baseline Time (s)	9.036
Baseline Value 	0.003427
subtract baseline	10,3
PK_550	0.087087
Peak Time (s)	92.038
Peak Height 	0.08709
calc peak height	90,93
Baseline Time (s)	8.536
Baseline Value 	5.2502E-4
subtract baseline	10,2
PK_880	0.123549
Peak Time (s)	91.039
Peak Height 	0.1235
calc peak height	90,93
Baseline Time (s)	11.535
Baseline Value 	0.002102
subtract baseline	10,1


Time (s)	A880-A510	A880-A775	A880-A975	A880	I510	I775	I975	I880	
0.036500	-0.000296	0.000172	-0.001748	0.003118	6114.904354	42551.042770	3888.700582	22028.396239
0.536500	-0.003565	-0.000121	-0.006940	0.007393	6060.383362	42136.884466	3867.919586	21841.392859
1.037000	-0.002681	-0.000949	-0.000287	0.003841	6092.323406	42383.275940	3890.337509	21996.607032
1.535000	-0.001242	0.000786	-0.003517	0.002307	6113.918013	42681.032034	3886.575164	22064.033843
2.035500	-0.002248	0.000216	0.000172	0.001280	6114.068412	42722.800980	3897.073205	22109.321792
2.535500	-0.002775	0.000645	-0.002157	0.006887	6069.683960	42251.832057	3879.474002	21863.451853
3.041000	0.000940	-0.001035	0.001732	-0.001924	6161.003527	42902.013157	3907.794251	22251.255460
3.539000	-0.001575	-0.000153	0.000854	0.000511	6124.595871	42759.476628	3900.324198	22143.278399
4.035500	-0.001449	-0.000227	-0.004299	0.000239	6127.509043	42777.594605	3889.427193	22155.332850
4.536500	-0.000766	-0.000330	0.005246	0.000304	6132.036883	42762.222333	3910.708421	22152.454403
5.036000	0.000762	0.000020	-0.004374	0.000957	6138.456770	42734.474422	3887.667963	22123.601758
5.537000	-0.000082	0.000380	-0.004697	0.000438	6136.074146	42815.063307	3888.101853	22146.526233
6.037500	0.000586	-0.000282	0.000585	0.000372	6141.461100	42760.398644	3900.033956	22149.427632
6.535000	-0.000200	0.000194	0.003814	0.000296	6136.243518	42810.917092	3907.480203	22152.786373
7.035000	-0.000153	0.000171	0.000861	0.000383	6135.954528	42800.866965	3900.629380	22148.944415
7.535500	-0.001553	-0.000756	0.000887	-0.000413	6131.522393	42788.856972	3902.476677	22184.172503
8.038500	0.000247	0.000049	-0.002273	0.000734	6136.316593	42757.602878	3892.833333	22133.457252
8.536000	0.001882	0.000000	0.003031	0.000668	6148.820143	42759.126693	3904.873470	22136.365570
9.036000	0.001147	0.000011	0.000000	-0.000253	6150.188906	42844.503985	3900.123296	22177.092182
9.537000	0.000230	-0.000723	0.003948	0.000153	6140.457812	42740.077252	3908.108677	22159.140004
10.040000	-0.001024	0.000084	-0.002838	0.000000	6132.374441	42828.077731	3893.209437	22165.902279
10.537000	-0.001946	-0.000733	-0.004310	0.000881	6119.180803	42672.537399	3887.976761	22126.928375
11.037000	-0.001173	0.000138	0.000462	-0.000067	6131.771806	42839.140292	3900.742992	22168.874365
11.535000	0.000000	-0.000445	-0.003760	-0.000635	6144.555156	42837.760784	3892.569756	22194.015876
12.035000	-0.001804	0.000193	-0.000474	0.000296	6124.490582	42810.882869	3897.829716	22152.789924
12.538000	-0.001017	-0.000233	-0.000547	0.001149	6124.015124	42693.745358	3895.757488	22115.103319
13.041500	-0.001477	-0.000355	-0.001485	-0.000357	6131.670223	42820.513755	3897.028501	22181.709016
13.536000	-0.000054	-0.000517	-0.002552	-0.000659	6144.335980	42833.387718	3895.319466	22195.106239
14.036500	-0.001613	-0.000465	-0.001925	0.001808	6114.849164	42612.367136	3891.215565	22086.025006
14.536500	-0.002840	-0.000202	-0.007145	0.001806	6105.939783	42636.571857	3879.678295	22086.137088
15.034000	-0.000434	0.000026	0.002294	0.000474	6133.224217	42779.284168	3903.648813	22144.936834
15.535000	0.003129	0.000240	0.005201	0.000365	6160.262103	42808.895336	3910.466499	22149.741493
16.035000	-0.000068	0.000532	0.000859	-0.000153	6140.514731	42883.207046	3901.830075	22172.671986
16.535500	0.000573	0.001069	0.002050	0.001720	6131.468982	42760.603742	3900.294900	22089.895422
17.035500	0.002322	0.001265	0.002953	-0.002398	6174.760865	43157.802439	3911.636381	22272.343274
17.536000	-0.001893	0.000608	-0.003681	0.000524	6122.180341	42828.021811	3890.166645	22142.729490
18.036000	0.000086	0.000386	0.006325	0.001808	6127.265657	42690.111842	3909.744691	22086.038181
18.535500	-0.002444	-0.000039	0.002390	0.000878	6115.571812	42736.270810	3902.953463	22127.075255
19.036500	-0.001675	-0.000175	-0.005767	0.000863	6121.295782	42725.265579	3884.793091	22127.751200
19.536500	-0.000852	-0.000217	-0.005455	0.000854	6127.382261	42722.252301	3885.503022	22128.150190
20.037500	-0.001106	0.000692	0.002343	0.001476	6120.975714	42748.485918	3901.502876	22100.679415
20.535000	-0.000785	0.000351	0.000632	0.001321	6124.452438	42731.387279	3898.010719	22107.501432
21.035000	0.000279	0.000337	-0.000201	0.001293	6132.446775	42732.670527	3896.208282	22108.737506
21.535500	-0.001182	-0.000445	0.000231	0.000994	6123.935823	42688.496821	3897.843762	22121.933455
22.035500	-0.003060	0.000317	-0.002625	0.000835	6111.401887	42772.824124	3891.823091	22128.977498
22.536000	-0.000180	0.000662	-0.001551	0.001771	6125.589870	42718.787353	3892.131287	22087.674872
23.036000	0.000698	0.000131	-0.002828	0.001149	6136.579693	42727.064347	3890.675071	22115.121940
23.536000	-0.003499	0.000382	-0.001379	0.001149	6105.923083	42750.035990	3893.901861	22115.122452
24.036500	-0.000877	-0.000042	-0.006784	0.000770	6127.815721	42745.944652	3882.753397	22131.861628
24.537000	-0.001357	0.000512	-0.003815	0.001368	6119.935518	42741.881971	3887.995541	22105.457425
25.034000	-0.002589	0.000155	-0.005072	0.000812	6114.998724	42760.088589	3886.442394	22129.996900
25.534500	-0.003374	-0.001291	-0.004637	-0.000014	6115.296607	42703.324662	3889.238461	22166.513970
26.035000	-0.002404	0.000246	0.003074	0.001326	6112.599746	42721.392504	3903.486006	22107.304404
26.538000	-0.000081	-0.000289	-0.000355	0.000970	6132.174436	42704.992637	3896.588758	22123.013501
27.035500	0.000388	-0.000174	0.002629	-0.001136	6151.106519	42908.745627	3908.041664	22216.264107
27.536000	-0.000730	0.000119	-0.002282	-0.001852	6148.148386	43001.631889	3898.593370	22248.068688
28.036500	-0.000751	-0.000077	-0.000471	-0.000689	6139.430462	42876.460788	3900.044405	22196.412488
28.536500	-0.005722	-0.000138	-0.003236	0.002279	6081.638779	42599.196210	3887.258120	22065.268229
29.039500	-0.001079	-0.000020	0.000292	-0.000588	6136.283341	42872.497405	3901.532260	22191.937034
29.537500	-0.000621	-0.000237	-0.000218	-0.000635	6139.988481	42856.813320	3900.491515	22194.011636
30.037000	0.001178	0.000482	0.003472	0.000209	6147.021033	42845.434771	3906.905143	22156.659042
30.535000	-0.001670	-0.000011	-0.005918	0.002529	6109.189476	42588.046197	3880.786122	22054.298611
31.038000	-0.001051	0.000527	0.001873	0.002343	6115.050949	42654.065422	3898.501328	22062.466280
31.536000	-0.000359	0.000717	0.001301	-0.000157	6138.406768	42900.661132	3902.834000	22172.864172
32.036500	0.000491	0.000348	0.003341	-0.000304	6145.734240	42880.191863	3907.769308	22179.354066
32.536000	-0.002004	0.000582	0.001642	0.002017	6110.477109	42688.862229	3898.713505	22076.806018
33.036500	0.000264	-0.000445	0.001669	-0.001078	6149.763301	42878.440593	3905.739150	22213.683130
33.537000	0.001988	0.000817	0.004529	-0.001691	6167.034273	43051.120325	3913.613193	22240.902489
34.037000	-0.002421	-0.000116	0.004930	0.001489	6111.286568	42673.304781	3907.306791	22100.093295
34.537000	-0.001626	0.000209	-0.001855	0.001473	6117.204317	42704.613405	3892.118893	22100.818962
35.034500	-0.000988	0.000116	-0.001217	0.001541	6121.366485	42689.890209	3893.388787	22097.823895
35.535500	0.001156	0.000721	0.001648	0.001571	6136.842052	42742.479539	3899.728997	22096.506243
36.035000	0.000552	0.000695	-0.001733	0.001858	6130.302251	42713.786981	3891.531507	22083.812094
36.535500	-0.000802	0.000914	0.000994	0.001771	6121.039846	42741.745006	3897.814396	22087.653754
37.038500	-0.001537	0.000130	0.000178	0.001498	6117.666978	42695.042614	3896.597623	22099.699239
37.536500	-0.001342	-0.000216	0.001001	0.001568	6118.583999	42657.081227	3898.286672	22096.638474
38.036500	-0.001228	0.000212	0.001515	0.001478	6120.069167	42704.363885	3899.640639	22100.601480
38.537000	0.000381	0.001122	-0.002716	0.002463	6124.623935	42697.525835	3888.004716	22057.179884
39.037000	-0.000690	0.000395	0.001721	0.001412	6124.476352	42727.107505	3900.248991	22103.481669
39.534500	-0.000554	-0.000065	-0.001330	0.001323	6126.132326	42693.271166	3893.621999	22107.445875
40.035000	0.001353	-0.000728	-0.002870	0.000870	6143.437735	42673.965101	3891.199264	22127.409485
40.535000	-0.002586	0.000784	0.001418	0.001882	6107.231320	42719.799237	3898.516201	22082.793112
41.035500	-0.001692	-0.000431	0.001604	0.001130	6119.219589	42677.361164	3900.618260	22115.927259
41.536000	-0.000222	0.000247	0.000510	0.001571	6126.738814	42699.010996	3897.177796	22096.468971
42.036000	-0.001886	-0.000245	-0.000482	0.001105	6117.987688	42696.714049	3896.001665	22117.044813
42.536500	-0.001732	-0.000309	-0.002958	0.001047	6119.538274	42696.122322	3890.609847	22119.608827
43.037000	-0.002078	0.000561	0.000160	0.001440	6114.142080	42739.736069	3896.686429	22102.245656
43.536500	0.000098	0.000759	0.000412	0.001496	6129.628616	42752.769775	3897.127153	22099.783558
44.037500	0.000628	0.000074	-0.000363	-0.001052	6152.255167	42923.749159	3901.102570	22212.506017
44.534500	-0.000185	0.000480	0.002367	0.002520	6120.070847	42633.571726	3899.212309	22054.659787
45.038000	0.000990	0.000127	0.001323	-0.000677	6152.161390	42894.172414	3904.055127	22195.897659
45.535000	0.000958	0.000317	0.000835	-0.000798	6152.814421	42922.775342	3903.227472	22201.253212
46.035500	-0.000491	0.000444	0.003859	-0.000261	6138.199451	42885.053513	3908.843103	22177.450684
46.535500	-0.001049	0.000190	0.001356	0.000049	6131.831986	42833.248575	3902.493649	22163.725554
47.035500	-0.000476	-0.000712	0.002774	-0.001384	6146.569984	42882.090918	3908.932287	22227.284270
47.536500	-0.002786	-0.000061	-0.002001	0.001396	6109.309637	42686.907400	3891.962695	22104.201768
48.037000	-0.001314	0.000357	-0.000218	0.000575	6126.036424	42800.325426	3897.777507	22140.458127
48.537000	-0.001824	0.000518	0.000902	0.003888	6098.191698	42512.392865	3892.879759	21994.563927
49.036500	0.000011	0.000024	-0.007544	-0.001038	6147.607660	42917.959230	3885.068529	22211.924228
49.537500	-0.000496	-0.000147	0.000506	-0.002628	6155.591720	43048.663581	3906.615348	22282.600828
50.035000	0.000531	0.000538	0.001849	-0.001945	6158.130672	43048.799666	3908.105148	22252.187029
50.535500	0.000977	0.000176	0.001510	0.005515	6106.725921	42333.564938	3890.612258	21923.337059
51.036000	0.023234	-0.009843	0.006520	0.386099	4332.690747	18988.317497	3331.712657	10843.743022
51.536000	0.015404	-0.018817	-0.007022	0.004462	6221.301305	40740.937506	3874.125994	21969.388970
52.036500	-0.001711	-0.017920	-0.020478	-0.098516	6936.657575	50944.936207	4091.375145	27061.077008
52.536500	-0.016413	-0.029679	-0.025391	-0.139043	7180.976145	54229.772782	4191.043990	29420.191304
53.036500	-0.026197	-0.026694	-0.024477	-0.082210	6579.154865	48253.248059	4038.099078	26172.240870
53.537000	-0.020700	-0.039408	-0.025509	-0.207831	7858.588904	61695.737617	4407.908018	33964.599327
54.037000	-0.006927	-0.073514	-0.020816	-0.265468	8736.037408	64964.843597	4636.752985	38367.528131
54.535000	0.012808	-0.057352	-0.001834	-0.239264	8650.467997	63548.087466	4608.522213	36293.232139
55.040500	0.017595	-0.027704	0.005111	-0.170883	7873.836006	58379.872902	4386.458646	31434.393544
55.536000	0.013337	-0.017494	0.003777	-0.123965	7326.389123	53889.587037	4232.788776	28516.658497
56.041000	0.011326	-0.007403	0.005610	-0.098300	7056.133290	52096.124147	4162.963495	27049.052129
56.536500	0.022094	0.001085	0.010839	-0.084200	7024.744940	51465.507366	4137.934502	26278.936167
57.036500	0.031693	0.008332	0.027787	-0.078904	7065.333044	51683.956195	4170.916497	25996.103694
57.536500	0.042782	0.013539	0.026617	-0.062239	7012.816554	50415.689358	4120.790224	25128.169715
58.037000	0.050753	0.022172	0.038340	-0.041197	6892.320209	49079.406131	4095.406231	24078.805507
58.537500	0.060092	0.025692	0.045491	-0.012368	6719.267155	46469.534086	4038.423438	22721.243011
59.038000	0.067913	0.031791	0.057346	0.009361	6600.435925	44932.110162	4013.397371	21755.947600
59.535000	0.073894	0.034688	0.066934	0.047520	6339.673778	41660.327399	3944.105459	20173.372080
60.034500	0.083871	0.042282	0.069455	0.068669	6253.562751	40471.634704	3901.320531	19354.332143
60.535500	0.086108	0.043879	0.076299	0.095498	6071.637125	38355.408845	3857.415606	18371.081278
61.041500	0.086062	0.047725	0.080906	0.110659	5964.185501	37445.537757	3835.032559	17841.733432
61.536500	0.094752	0.048951	0.089628	0.150247	5757.116457	34531.487312	3772.606255	16543.548859
62.042500	0.088152	0.056745	0.085690	0.176925	5549.984171	33188.971735	3714.918179	15733.156983
62.536500	0.095082	0.059616	0.088400	0.174691	5605.446789	33546.111008	3723.960314	15799.107553
63.036500	0.095384	0.063424	0.087527	0.169227	5640.957780	34205.835449	3732.451642	15961.922262
63.537000	0.097492	0.068129	0.093585	0.164982	5680.621403	34856.045644	3751.832471	16089.799944
64.037000	0.097846	0.069687	0.094730	0.161977	5701.829042	35192.670089	3759.770756	16181.088122
64.535500	0.097901	0.069226	0.090111	0.160198	5713.483557	35290.674261	3754.330171	16235.443874
65.041000	0.098568	0.070250	0.085175	0.156457	5741.684617	35647.082350	3752.051482	16350.445937
65.535500	0.098132	0.070627	0.089861	0.153899	5755.359641	35868.608417	3765.959571	16429.649884
66.036000	0.096283	0.071024	0.093258	0.151313	5760.129632	36095.362347	3777.624361	16510.218859
66.535500	0.100662	0.071289	0.084925	0.149933	5797.658365	36221.012401	3764.085474	16553.410218
67.036000	0.098892	0.071826	0.094643	0.148794	5793.524162	36349.622817	3785.324769	16589.160324
67.537000	0.100773	0.071313	0.093572	0.147514	5814.298835	36408.527866	3785.736953	16629.419695
68.040000	0.101127	0.072212	0.096350	0.148047	5813.120246	36436.750847	3790.197953	16612.650709
68.535000	0.099700	0.071962	0.092374	0.148777	5798.927520	36361.312903	3780.874149	16589.677231
69.035000	0.102095	0.073600	0.092584	0.150120	5805.837737	36384.008604	3778.644811	16547.535596
69.535000	0.103015	0.074111	0.097211	0.151932	5799.978388	36284.077619	3784.196355	16490.902646
70.035500	0.103211	0.075357	0.099824	0.154385	5785.202050	36191.645516	3784.511384	16414.578316
70.535500	0.101596	0.075212	0.097378	0.157256	5756.053583	35961.836266	3774.053692	16325.811557
71.036000	0.102839	0.075308	0.100938	0.156667	5767.917046	36013.843207	3782.203689	16343.962962
71.536500	0.102797	0.076211	0.094336	0.158887	5753.278409	35913.836635	3764.967593	16275.629160
72.037000	0.100513	0.076508	0.096122	0.160694	5726.988419	35799.504008	3764.927399	16220.271748
72.540000	0.103144	0.077017	0.102442	0.163434	5726.291661	35631.325298	3771.879868	16136.758901
73.035000	0.104336	0.077963	0.105031	0.164271	5728.556001	35639.554556	3775.302620	16111.349554
73.538000	0.103710	0.079215	0.099306	0.166994	5707.208437	35529.113571	3758.924234	16029.031660
74.035500	0.102582	0.078689	0.098447	0.169756	5682.610587	35283.612070	3751.999565	15946.063995
74.535500	0.105227	0.080186	0.102578	0.172265	5683.464563	35208.382135	3755.093981	15871.142536
75.036000	0.104678	0.080338	0.106883	0.174903	5663.470741	35024.386788	3758.286808	15792.846574
75.536000	0.104336	0.078963	0.102691	0.176030	5654.310463	34840.321715	3748.145488	15759.551226
76.036500	0.104204	0.080108	0.108939	0.178394	5638.803028	34750.962217	3755.537545	15689.946942
76.537000	0.105598	0.081218	0.106113	0.180992	5631.358804	34642.388591	3745.230801	15613.932020
77.037000	0.105779	0.079646	0.104922	0.181340	5630.324142	34502.672860	3742.329558	15603.762543
77.537500	0.106787	0.081306	0.100764	0.183888	5620.838460	34438.282773	3729.808486	15529.707857
78.035000	0.107503	0.080966	0.109539	0.186174	5611.191263	34248.573122	3741.920077	15463.605618
78.534500	0.109141	0.081566	0.107033	0.187801	5611.256778	34174.706014	3734.183830	15416.777662
79.035500	0.110838	0.081058	0.105943	0.186584	5629.179002	34225.664815	3734.420950	15451.780502
79.535500	0.108711	0.081016	0.107034	0.187366	5611.293637	34166.515666	3734.997662	15429.292708
80.036000	0.108914	0.081778	0.108646	0.188694	5604.399231	34125.851293	3735.525626	15391.146922
80.536000	0.111119	0.082367	0.108772	0.191730	5599.322809	33950.858483	3730.114805	15304.426033
81.036500	0.112428	0.083479	0.115103	0.192471	5602.797952	33977.333746	3740.544628	15283.362796
81.539500	0.110958	0.082237	0.106385	0.193138	5589.772600	33841.377197	3723.111916	15264.423011
82.037000	0.108405	0.082972	0.109547	0.197769	5546.440053	33565.689353	3720.416308	15133.696844
82.535000	0.116059	0.083051	0.109755	0.196568	5599.948419	33656.002691	3723.000267	15167.468214
83.034500	0.113373	0.083773	0.116018	0.197832	5575.946880	33617.757854	3732.236918	15131.929999
83.535500	0.114356	0.084014	0.112214	0.199298	5573.028619	33531.504890	3722.503719	15090.868257
84.035500	0.111307	0.083007	0.116473	0.202637	5534.711030	33227.219630	3724.193750	14997.812333
84.535500	0.114904	0.083074	0.111745	0.200997	5566.076850	33346.298091	3718.530781	15043.411555
85.035500	0.116642	0.084508	0.117380	0.202670	5566.473303	33329.614097	3725.803840	14996.878388
85.536500	0.118437	0.083240	0.120643	0.202875	5576.075144	33226.874327	3731.461093	14991.196006
86.036000	0.114202	0.084362	0.117815	0.208065	5519.675841	32944.838152	3716.712353	14848.063566
86.540000	0.116597	0.083841	0.114846	0.206362	5544.047696	33026.572113	3714.407808	14894.846461
87.034500	0.117999	0.085348	0.121013	0.206742	5550.156755	33104.596294	3724.994362	14884.377681
87.535000	0.115708	0.084641	0.120119	0.207318	5533.046904	33015.788954	3722.293195	14868.566400
88.035000	0.115940	0.084200	0.117558	0.211502	5509.638612	32697.536839	3710.006247	14754.200155
88.535500	0.118746	0.085253	0.118887	0.210387	5532.859152	32846.233409	3714.434782	14784.558276
89.036000	0.119216	0.084463	0.119524	0.209653	5540.032716	32842.402980	3716.931811	14804.602653
89.535500	0.122044	0.084581	0.115916	0.209986	5554.960986	32827.654827	3709.778664	14795.510212
90.036000	0.115414	0.084683	0.114615	0.214504	5488.920809	32525.713241	3699.335758	14672.841112
90.536500	0.118936	0.085128	0.122614	0.211001	5530.343274	32795.489300	3720.115481	14767.845090
91.039000	0.123549	0.085986	0.126985	0.211780	5553.230405	32800.933047	3726.716032	14746.637104
91.536500	0.120495	0.086673	0.120804	0.212261	5532.117729	32815.051202	3714.513449	14733.577777
92.037500	0.122405	0.087087	0.117645	0.212287	5543.346590	32841.707009	3708.745063	14732.864926
92.537500	0.120594	0.086474	0.118183	0.214028	5522.210741	32680.285616	3706.577866	14685.680545
93.035000	0.122524	0.086787	0.122449	0.211869	5546.557497	32849.800109	3718.225375	14744.214050
93.554500	0.120058	0.086103	0.124080	0.211340	5534.999131	32839.143368	3722.179446	14758.600049
94.035500	0.121853	0.087236	0.122866	0.211729	5543.387994	32890.443938	3719.244240	14748.039915
94.535500	0.125009	0.087125	0.118521	0.211479	5563.813844	32899.998504	3711.791762	14754.840540
95.036000	0.123364	0.086325	0.114028	0.210883	5557.502902	32885.889138	3704.763346	14771.051895
95.539500	0.125971	0.086285	0.119862	0.210842	5573.458374	32885.971298	3715.381453	14772.164576
96.037000	0.116861	0.086169	0.114411	0.214946	5494.804911	32596.759497	3698.183227	14660.887943
