sample name	sample
index	871
start time	 04-08-2021  01:29:22 PM


Wavelength (nm)	Absorbance
494.344910	0.114017
494.563924	0.114017
494.782919	0.114017
495.001897	0.005651
495.220856	0.015880
495.439797	0.000703
495.658719	-0.006423
495.877624	-0.023117
496.096510	-0.025289
496.315378	-0.014791
496.534227	-0.005592
496.753059	-0.005995
496.971872	-0.000277
497.190667	0.030345
497.409444	0.044025
497.628203	0.048275
497.846943	0.053152
498.065665	0.055197
498.284369	0.055335
498.503055	0.054808
498.721723	0.056546
498.940372	0.056354
499.159003	0.055799
499.377616	0.055396
499.596210	0.055854
499.814787	0.055796
500.033345	0.056061
500.251885	0.056593
500.470406	0.057359
500.688910	0.056866
500.907395	0.057884
501.125862	0.058746
501.344311	0.060304
501.562742	0.060668
501.781154	0.060699
501.999548	0.061460
502.217924	0.061649
502.436282	0.062181
502.654621	0.063341
502.872942	0.063988
503.091245	0.063631
503.309530	0.063466
503.527797	0.064334
503.746045	0.064459
503.964275	0.063781
504.182487	0.063407
504.400681	0.063320
504.618856	0.062359
504.837013	0.062274
505.055152	0.062548
505.273273	0.062131
505.491376	0.061130
505.709460	0.061321
505.927526	0.061326
506.145574	0.061967
506.363604	0.061821
506.581615	0.062771
506.799608	0.062078
507.017583	0.062249
507.235540	0.062614
507.453478	0.062563
507.671399	0.062438
507.889301	0.062253
508.107185	0.061787
508.325050	0.062638
508.542898	0.062542
508.760727	0.062659
508.978538	0.062820
509.196330	0.063236
509.414105	0.064071
509.631861	0.063960
509.849599	0.064825
510.067319	0.065918
510.285021	0.064342
510.502704	0.064329
510.720369	0.065121
510.938016	0.065774
511.155645	0.066078
511.373255	0.065055
511.590848	0.065435
511.808422	0.065521
512.025977	0.065294
512.243515	0.066725
512.461034	0.066947
512.678536	0.066776
512.896018	0.066204
513.113483	0.066476
513.330930	0.066416
513.548358	0.066667
513.765768	0.066673
513.983160	0.066563
514.200533	0.066376
514.417889	0.066388
514.635226	0.066400
514.852545	0.066210
515.069845	0.066060
515.287128	0.066805
515.504392	0.067460
515.721638	0.068175
515.938866	0.068213
516.156075	0.068439
516.373267	0.069063
516.590440	0.068663
516.807594	0.069082
517.024731	0.069024
517.241850	0.069641
517.458950	0.070002
517.676032	0.069913
517.893095	0.070252
518.110141	0.070322
518.327168	0.069725
518.544177	0.070485
518.761168	0.070818
518.978141	0.071032
519.195095	0.071668
519.412031	0.071777
519.628949	0.071054
519.845849	0.071159
520.062731	0.071902
520.279594	0.071893
520.496439	0.072075
520.713266	0.072578
520.930074	0.072871
521.146865	0.071627
521.363637	0.071355
521.580391	0.072168
521.797127	0.072847
522.013844	0.072606
522.230543	0.073025
522.447224	0.073406
522.663887	0.073265
522.880532	0.073194
523.097158	0.074102
523.313766	0.074272
523.530356	0.074144
523.746928	0.074264
523.963481	0.074817
524.180017	0.074736
524.396534	0.074791
524.613032	0.074742
524.829513	0.075090
525.045975	0.075141
525.262420	0.075450
525.478845	0.076475
525.695253	0.076697
525.911643	0.077513
526.128014	0.077963
526.344367	0.077995
526.560702	0.079190
526.777018	0.079778
526.993316	0.080033
527.209597	0.080089
527.425858	0.079878
527.642102	0.080036
527.858328	0.079786
528.074535	0.080199
528.290724	0.080824
528.506894	0.079974
528.723047	0.079972
528.939181	0.080552
529.155297	0.081114
529.371395	0.081060
529.587475	0.081127
529.803536	0.081444
530.019579	0.082192
530.235604	0.082280
530.451611	0.082579
530.667600	0.082880
530.883570	0.082646
531.099522	0.082644
531.315456	0.083265
531.531372	0.083370
531.747269	0.083237
531.963148	0.082833
532.179009	0.082049
532.394852	0.082249
532.610676	0.082266
532.826482	0.082052
533.042271	0.082474
533.258040	0.082179
533.473792	0.082402
533.689525	0.082905
533.905240	0.082880
534.120937	0.083913
534.336616	0.084612
534.552277	0.084562
534.767919	0.085311
534.983543	0.085205
535.199149	0.085953
535.414736	0.086104
535.630306	0.085493
535.845857	0.086090
536.061390	0.086201
536.276904	0.085991
536.492401	0.086515
536.707879	0.086488
536.923339	0.086390
537.138781	0.086443
537.354204	0.086697
537.569610	0.087687
537.784997	0.087796
538.000366	0.087283
538.215716	0.087837
538.431049	0.087718
538.646363	0.088019
538.861659	0.088374
539.076937	0.087974
539.292196	0.088113
539.507438	0.088219
539.722661	0.088533
539.937866	0.089484
540.153052	0.089208
540.368221	0.089716
540.583371	0.089932
540.798503	0.090351
541.013617	0.091040
541.228712	0.091180
541.443789	0.091051
541.658848	0.090917
541.873889	0.091201
542.088912	0.091686
542.303916	0.091686
542.518902	0.091828
542.733870	0.092097
542.948820	0.092159
543.163752	0.092478
543.378665	0.093046
543.593560	0.093413
543.808437	0.093617
544.023295	0.093700
544.238136	0.093785
544.452958	0.093810
544.667762	0.093646
544.882548	0.093451
545.097315	0.093553
545.312064	0.093381
545.526795	0.092911
545.741508	0.092995
545.956203	0.093066
546.170879	0.093268
546.385537	0.093732
546.600177	0.094148
546.814799	0.094798
547.029402	0.095324
547.243988	0.095718
547.458555	0.096167
547.673103	0.096332
547.887634	0.097101
548.102146	0.097485
548.316640	0.097611
548.531116	0.097550
548.745574	0.097456
548.960013	0.097356
549.174435	0.097376
549.388838	0.097827
549.603222	0.097937
549.817589	0.097929
550.031937	0.097685
550.246267	0.098188
550.460579	0.098723
550.674873	0.098721
550.889148	0.098816
551.103405	0.098926
551.317644	0.099323
551.531865	0.099485
551.746068	0.099490
551.960252	0.099963
552.174418	0.099734
552.388566	0.099909
552.602696	0.100206
552.816807	0.100100
553.030900	0.100380
553.244975	0.100501
553.459032	0.100975
553.673070	0.101104
553.887091	0.101319
554.101093	0.101488
554.315077	0.101084
554.529042	0.100870
554.742990	0.101247
554.956919	0.101363
555.170830	0.101321
555.384722	0.100816
555.598597	0.100817
555.812453	0.100927
556.026291	0.101254
556.240111	0.101945
556.453913	0.102525
556.667696	0.102427
556.881461	0.102540
557.095208	0.102448
557.308937	0.102661
557.522647	0.102781
557.736339	0.102490
557.950013	0.102407
558.163669	0.101970
558.377307	0.102056
558.590926	0.102337
558.804527	0.102061
559.018110	0.102553
559.231675	0.102712
559.445221	0.103003
559.658749	0.103457
559.872259	0.103460
560.085751	0.103914
560.299225	0.104199
560.512680	0.103985
560.726117	0.104513
560.939536	0.104463
561.152937	0.104390
561.366319	0.103924
561.579683	0.103560
561.793029	0.103651
562.006357	0.103935
562.219667	0.103790
562.432958	0.104314
562.646231	0.104371
562.859486	0.104336
563.072723	0.104750
563.285941	0.105354
563.499141	0.105972
563.712323	0.106330
563.925487	0.105923
564.138632	0.106155
564.351760	0.106325
564.564869	0.106333
564.777960	0.106567
564.991032	0.106472
565.204087	0.106773
565.417123	0.106761
565.630141	0.106826
565.843140	0.107213
566.056122	0.107544
566.269085	0.107468
566.482030	0.107660
566.694957	0.107826
566.907866	0.107813
567.120756	0.107847
567.333628	0.108142
567.546482	0.107997
567.759318	0.108027
567.972135	0.107810
568.184935	0.107693
568.397716	0.107574
568.610478	0.107575
568.823223	0.107996
569.035949	0.107712
569.248657	0.107668
569.461347	0.107835
569.674019	0.107535
569.886672	0.107920
570.099308	0.108040
570.311925	0.108230
570.524523	0.108120
570.737104	0.108089
570.949666	0.108412
571.162210	0.108150
571.374736	0.108207
571.587244	0.108832
571.799733	0.108516
572.012205	0.108896
572.224658	0.108992
572.437092	0.109399
572.649509	0.109446
572.861907	0.109734
573.074287	0.110322
573.286649	0.110341
573.498993	0.110070
573.711318	0.110127
573.923625	0.110173
574.135914	0.110211
574.348185	0.110302
574.560438	0.110446
574.772672	0.110313
574.984888	0.110016
575.197086	0.110440
575.409266	0.110869
575.621427	0.111479
575.833570	0.111695
576.045695	0.111751
576.257802	0.112218
576.469890	0.112346
576.681961	0.112487
576.894013	0.112685
577.106046	0.112518
577.318062	0.112411
577.530059	0.112445
577.742039	0.112326
577.954000	0.112638
578.165942	0.112382
578.377867	0.112535
578.589773	0.112662
578.801661	0.112811
579.013531	0.113433
579.225382	0.113851
579.437216	0.114003
579.649031	0.114144
579.860828	0.114228
580.072606	0.114254
580.284367	0.114375
580.496109	0.114166
580.707833	0.114283
580.919539	0.114017
581.131227	0.113899
581.342896	0.113765
581.554547	0.113819
581.766180	0.113741
581.977795	0.113804
582.189391	0.113465
582.400969	0.113796
582.612529	0.113938
582.824071	0.113932
583.035595	0.114188
583.247100	0.114019
583.458587	0.114088
583.670056	0.114684
583.881506	0.114829
584.092939	0.115090
584.304353	0.114846
584.515749	0.114957
584.727127	0.114830
584.938486	0.115145
585.149828	0.115441
585.361151	0.115640
585.572456	0.114988
585.783742	0.115026
585.995011	0.115330
586.206261	0.115597
586.417493	0.115709
586.628706	0.115755
586.839902	0.115276
587.051079	0.115534
587.262238	0.115697
587.473379	0.115936
587.684502	0.116164
587.895606	0.116241
588.106692	0.116379
588.317760	0.116318
588.528810	0.116683
588.739841	0.117285
588.950855	0.117150
589.161850	0.117089
589.372827	0.117310
589.583785	0.117445
589.794726	0.117690
590.005648	0.117538
590.216552	0.117701
590.427437	0.117742
590.638305	0.117371
590.849154	0.117425
591.059985	0.117599
591.270798	0.117872
591.481592	0.117575
591.692369	0.117531
591.903127	0.117746
592.113867	0.117765
592.324588	0.118045
592.535292	0.118196
592.745977	0.118700
592.956644	0.118580
593.167293	0.118458
593.377923	0.118858
593.588536	0.119154
593.799130	0.119291
594.009706	0.119299
594.220263	0.119457
594.430803	0.119682
594.641324	0.119426
594.851827	0.120042
595.062312	0.120011
595.272778	0.119951
595.483227	0.119697
595.693657	0.119650
595.904069	0.119565
596.114462	0.119132
596.324838	0.119083
596.535195	0.119305
596.745534	0.118917
596.955855	0.118985
597.166157	0.118962
597.376441	0.119207
597.586707	0.119401
597.796955	0.119464
598.007185	0.119684
598.217396	0.119721
598.427589	0.119771
598.637764	0.119994
598.847921	0.120383
599.058060	0.120241
599.268180	0.120245
599.478282	0.120436
599.688366	0.120944
599.898431	0.121139
600.108479	0.120907
600.318508	0.120803
600.528519	0.121054
600.738511	0.121053
600.948486	0.121833
601.158442	0.122064
601.368380	0.121981
601.578300	0.121696
601.788202	0.121960
601.998085	0.122656
602.207950	0.122983
602.417797	0.122792
602.627626	0.122831
602.837436	0.122406
603.047228	0.122675
603.257002	0.122998
603.466758	0.123388
603.676496	0.123236
603.886215	0.123030
604.095916	0.122929
604.305599	0.122995
604.515264	0.122974
604.724910	0.123056
604.934538	0.122808
605.144148	0.122771
605.353740	0.122495
605.563314	0.122888
605.772869	0.123240
605.982406	0.123343
606.191925	0.123637
606.401425	0.123821
606.610908	0.124099
606.820372	0.124214
607.029818	0.124490
607.239246	0.124757
607.448655	0.124731
607.658047	0.124513
607.867420	0.124494
608.076775	0.124421
608.286111	0.124467
608.495430	0.124384
608.704730	0.124273
608.914012	0.124459
609.123275	0.124482
609.332521	0.124343
609.541748	0.124599
609.750957	0.124734
609.960148	0.125000
610.169321	0.125175
610.378475	0.125330
610.587611	0.125915
610.796729	0.125772
611.005829	0.126121
611.214910	0.126566
611.423974	0.126590
611.633019	0.126520
611.842045	0.126469
612.051054	0.126434
612.260044	0.126561
612.469017	0.126507
612.677970	0.126519
612.886906	0.126364
613.095824	0.126349
613.304723	0.126637
613.513604	0.126918
613.722467	0.127108
613.931311	0.127121
614.140138	0.126987
614.348946	0.127022
614.557736	0.127101
614.766507	0.127350
614.975261	0.127312
615.183996	0.127036
615.392713	0.127025
615.601412	0.126903
615.810092	0.127021
616.018754	0.127332
616.227399	0.127472
616.436024	0.127683
616.644632	0.127783
616.853222	0.127709
617.061793	0.128058
617.270346	0.128170
617.478880	0.128437
617.687397	0.128522
617.895895	0.128577
618.104375	0.128658
618.312837	0.128631
618.521281	0.128595
618.729706	0.128796
618.938113	0.128748
619.146502	0.129094
619.354873	0.128944
619.563226	0.129373
619.771560	0.129394
619.979876	0.129231
620.188174	0.129315
620.396453	0.129399
620.604715	0.129773
620.812958	0.129784
621.021183	0.129482
621.229390	0.129688
621.437578	0.129455
621.645748	0.129520
621.853900	0.129807
622.062034	0.129939
622.270150	0.129991
622.478247	0.129778
622.686326	0.130075
622.894387	0.130424
623.102430	0.130460
623.310454	0.130704
623.518461	0.130847
623.726449	0.130916
623.934418	0.130833
624.142370	0.131044
624.350303	0.131216
624.558218	0.131439
624.766115	0.131578
624.973994	0.131925
625.181855	0.131926
625.389697	0.131929
625.597521	0.131970
625.805327	0.131985
626.013114	0.131824
626.220883	0.131709
626.428634	0.131412
626.636367	0.131446
626.844082	0.131470
627.051778	0.131554
627.259457	0.131583
627.467117	0.131503
627.674758	0.131779
627.882382	0.132248
628.089987	0.132497
628.297574	0.132655
628.505143	0.132694
628.712694	0.132699
628.920226	0.132940
629.127740	0.133264
629.335236	0.133338
629.542714	0.133397
629.750174	0.133253
629.957615	0.133335
630.165038	0.133435
630.372443	0.133674
630.579829	0.133500
630.787198	0.133377
630.994548	0.133524
631.201880	0.133513
631.409194	0.133435
631.616489	0.133618
631.823766	0.133778
632.031025	0.133886
632.238266	0.133825
632.445489	0.134169
632.652693	0.134234
632.859879	0.134408
633.067047	0.134571
633.274197	0.134833
633.481329	0.134894
633.688442	0.135067
633.895537	0.135256
634.102614	0.135405
634.309672	0.135456
634.516713	0.135412
634.723735	0.135430
634.930739	0.135559
635.137724	0.135697
635.344692	0.135795
635.551641	0.135557
635.758572	0.135773
635.965485	0.135892
636.172379	0.135999
636.379256	0.136103
636.586114	0.136101
636.792954	0.136478
636.999775	0.136735
637.206579	0.137065
637.413364	0.137683
637.620131	0.137694
637.826880	0.137772
638.033610	0.137767
638.240323	0.138203
638.447017	0.138388
638.653692	0.138482
638.860350	0.138431
639.066990	0.138354
639.273611	0.138107
639.480214	0.138169
639.686798	0.138248
639.893365	0.138552
640.099913	0.138494
640.306443	0.138509
640.512955	0.138400
640.719449	0.138572
640.925924	0.138613
641.132381	0.138723
641.338820	0.138735
641.545241	0.138556
641.751644	0.138485
641.958028	0.138845
642.164394	0.138952
642.370742	0.139304
642.577071	0.139536
642.783383	0.139670
642.989676	0.139914
643.195951	0.140191
643.402207	0.140367
643.608446	0.140532
643.814666	0.140445
644.020868	0.140677
644.227052	0.140586
644.433218	0.140608
644.639365	0.140425
644.845494	0.140289
645.051605	0.140345
645.257698	0.140588
645.463772	0.140459
645.669828	0.140406
645.875866	0.140151
646.081886	0.140244
646.287888	0.140167
646.493871	0.140457
646.699836	0.140490
646.905783	0.140505
647.111712	0.140693
647.317622	0.141118
647.523514	0.141467
647.729388	0.141871
647.935244	0.141918
648.141082	0.142123
648.346901	0.142181
648.552702	0.142453
648.758485	0.142598
648.964250	0.142805
649.169996	0.142908
649.375724	0.142963
649.581434	0.143080
649.787126	0.143325
649.992800	0.143469
650.198455	0.143874
650.404092	0.143975
650.609711	0.144182
650.815311	0.144166
651.020894	0.144176
651.226458	0.144211
651.432004	0.144334
651.637532	0.144563
651.843041	0.144636
652.048532	0.144727
652.254006	0.144730
652.459460	0.144656
652.664897	0.144801
652.870315	0.144775
653.075716	0.145045
653.281097	0.144926
653.486461	0.144843
653.691807	0.144947
653.897134	0.145041
654.102443	0.145270
654.307734	0.145427
654.513006	0.145750
654.718261	0.146169
654.923497	0.146195
655.128715	0.146208
655.333915	0.146320
655.539096	0.146489
655.744259	0.146573
655.949404	0.146847
656.154531	0.146816
656.359640	0.146618
656.564730	0.146716
656.769802	0.146802
656.974856	0.147122
657.179892	0.147366
657.384909	0.147310
657.589908	0.147577
657.794889	0.147496
657.999852	0.147873
658.204797	0.148160
658.409723	0.148204
658.614631	0.148230
658.819521	0.148510
659.024393	0.148478
659.229246	0.148883
659.434081	0.148650
659.638898	0.148797
659.843697	0.148859
660.048478	0.149088
660.253240	0.149220
660.457984	0.149524
660.662710	0.149566
660.867417	0.149738
661.072107	0.149861
661.276778	0.150223
661.481431	0.150356
661.686066	0.150380
661.890682	0.150334
662.095281	0.150382
662.299861	0.150547
662.504422	0.150762
662.708966	0.151128
662.913491	0.151291
663.117999	0.151295
663.322488	0.151460
663.526958	0.151879
663.731411	0.152183
663.935845	0.152247
664.140261	0.152265
664.344659	0.152107
664.549038	0.152068
664.753400	0.151780
664.957743	0.151837
665.162068	0.151988
665.366375	0.151983
665.570663	0.152092
665.774933	0.152329
665.979185	0.152292
666.183419	0.152602
666.387635	0.152691
666.591832	0.153212
666.796011	0.153529
667.000172	0.153594
667.204315	0.153736
667.408439	0.153587
667.612545	0.153737
667.816634	0.154069
668.020703	0.154174
668.224755	0.154297
668.428788	0.154408
668.632803	0.154775
668.836800	0.155059
669.040779	0.155103
669.244739	0.155366
669.448681	0.155500
669.652605	0.155506
669.856511	0.155692
670.060399	0.155941
670.264268	0.156046
670.468119	0.155957
670.671952	0.155911
670.875767	0.156096
671.079563	0.156250
671.283341	0.156375
671.487101	0.156535
671.690843	0.156668
671.894567	0.156687
672.098272	0.156787
672.301959	0.156763
672.505628	0.156886
672.709278	0.156976
672.912911	0.157007
673.116525	0.157094
673.320121	0.157142
673.523699	0.157032
673.727258	0.157183
673.930799	0.157126
674.134322	0.157064
674.337827	0.157148
674.541314	0.157124
674.744782	0.157430
674.948232	0.157350
675.151664	0.157344
675.355078	0.157799
675.558474	0.157714
675.761851	0.157879
675.965210	0.158270
676.168551	0.158553
676.371873	0.158893
676.575178	0.159031
676.778464	0.159569
676.981732	0.159798
677.184981	0.159846
677.388213	0.160146
677.591426	0.160320
677.794621	0.160394
677.997798	0.160532
678.200956	0.160470
678.404097	0.160503
678.607219	0.160466
678.810323	0.160758
679.013408	0.160558
679.216476	0.160642
679.419525	0.160642
679.622556	0.160774
679.825569	0.160724
680.028563	0.160951
680.231540	0.161098
680.434498	0.161183
680.637438	0.161296
680.840359	0.161500
681.043263	0.161452
681.246148	0.161737
681.449015	0.161875
681.651864	0.162227
681.854694	0.162333
682.057506	0.162416
682.260301	0.162522
682.463076	0.162642
682.665834	0.162891
682.868573	0.163165
683.071295	0.163204
683.273998	0.163292
683.476682	0.163216
683.679349	0.163323
683.881997	0.163505
684.084627	0.163467
684.287239	0.163563
684.489833	0.163707
684.692408	0.163802
684.894965	0.163858
685.097504	0.163994
685.300025	0.164092
685.502527	0.164325
685.705012	0.164102
685.907478	0.164468
686.109925	0.164445
686.312355	0.164478
686.514766	0.164560
686.717159	0.164650
686.919534	0.164599
687.121891	0.164929
687.324230	0.165134
687.526550	0.165469
687.728852	0.165532
687.931136	0.165666
688.133401	0.165893
688.335649	0.166188
688.537878	0.166439
688.740089	0.166636
688.942281	0.166522
689.144456	0.166290
689.346612	0.166318
689.548750	0.166357
689.750870	0.166554
689.952971	0.166446
690.155055	0.166264
690.357120	0.166196
690.559167	0.166224
690.761195	0.166333
690.963206	0.166544
691.165198	0.166804
691.367172	0.166897
691.569128	0.166941
691.771065	0.167269
691.972984	0.167594
692.174885	0.167746
692.376768	0.167835
692.578633	0.167892
692.780479	0.168092
692.982308	0.168058
693.184118	0.168143
693.385909	0.168093
