sample name	sample
index	405
start time	 03-08-2021  10:40:24 AM


Wavelength (nm)	Absorbance
494.344910	0.042051
494.563924	0.042051
494.782919	0.042051
495.001897	-0.129385
495.220856	-0.018463
495.439797	-0.022802
495.658719	-0.046678
495.877624	-0.072647
496.096510	-0.055551
496.315378	-0.047647
496.534227	-0.071480
496.753059	-0.123519
496.971872	-0.094874
497.190667	0.022976
497.409444	0.046675
497.628203	0.055847
497.846943	0.059002
498.065665	0.060334
498.284369	0.062582
498.503055	0.066123
498.721723	0.067730
498.940372	0.067899
499.159003	0.068977
499.377616	0.069668
499.596210	0.068800
499.814787	0.069203
500.033345	0.069594
500.251885	0.068000
500.470406	0.066323
500.688910	0.066243
500.907395	0.066307
501.125862	0.066792
501.344311	0.066012
501.562742	0.066764
501.781154	0.067180
501.999548	0.066962
502.217924	0.067716
502.436282	0.068414
502.654621	0.068266
502.872942	0.068209
503.091245	0.068315
503.309530	0.068643
503.527797	0.069197
503.746045	0.069246
503.964275	0.068859
504.182487	0.070042
504.400681	0.069720
504.618856	0.070114
504.837013	0.069648
505.055152	0.068627
505.273273	0.069065
505.491376	0.069180
505.709460	0.069626
505.927526	0.070391
506.145574	0.069359
506.363604	0.068492
506.581615	0.068644
506.799608	0.069425
507.017583	0.070378
507.235540	0.069982
507.453478	0.070150
507.671399	0.069606
507.889301	0.069742
508.107185	0.069590
508.325050	0.070706
508.542898	0.071613
508.760727	0.071970
508.978538	0.071659
509.196330	0.072760
509.414105	0.071819
509.631861	0.071947
509.849599	0.071779
510.067319	0.071958
510.285021	0.071732
510.502704	0.070322
510.720369	0.069827
510.938016	0.069731
511.155645	0.069113
511.373255	0.069506
511.590848	0.069315
511.808422	0.069579
512.025977	0.069679
512.243515	0.069749
512.461034	0.070813
512.678536	0.071204
512.896018	0.071867
513.113483	0.072128
513.330930	0.072261
513.548358	0.073077
513.765768	0.073158
513.983160	0.073015
514.200533	0.073674
514.417889	0.073148
514.635226	0.072545
514.852545	0.072621
515.069845	0.072495
515.287128	0.072434
515.504392	0.071685
515.721638	0.071063
515.938866	0.071152
516.156075	0.070944
516.373267	0.071218
516.590440	0.071529
516.807594	0.071330
517.024731	0.071471
517.241850	0.071847
517.458950	0.072470
517.676032	0.073187
517.893095	0.073318
518.110141	0.073361
518.327168	0.073544
518.544177	0.073406
518.761168	0.073111
518.978141	0.073608
519.195095	0.074119
519.412031	0.073743
519.628949	0.074006
519.845849	0.074368
520.062731	0.074918
520.279594	0.075021
520.496439	0.075139
520.713266	0.075741
520.930074	0.075868
521.146865	0.075846
521.363637	0.075928
521.580391	0.076082
521.797127	0.075989
522.013844	0.075475
522.230543	0.076181
522.447224	0.076934
522.663887	0.077302
522.880532	0.077273
523.097158	0.077151
523.313766	0.077422
523.530356	0.077481
523.746928	0.078247
523.963481	0.078108
524.180017	0.077917
524.396534	0.077306
524.613032	0.076992
524.829513	0.077099
525.045975	0.076627
525.262420	0.076858
525.478845	0.077129
525.695253	0.076216
525.911643	0.076432
526.128014	0.075862
526.344367	0.076830
526.560702	0.077323
526.777018	0.077510
526.993316	0.078558
527.209597	0.078336
527.425858	0.078457
527.642102	0.079046
527.858328	0.079323
528.074535	0.079736
528.290724	0.079190
528.506894	0.078828
528.723047	0.078192
528.939181	0.077848
529.155297	0.078200
529.371395	0.078002
529.587475	0.078391
529.803536	0.078911
530.019579	0.079453
530.235604	0.079722
530.451611	0.080523
530.667600	0.081146
530.883570	0.080833
531.099522	0.080786
531.315456	0.081203
531.531372	0.081341
531.747269	0.081379
531.963148	0.081523
532.179009	0.081730
532.394852	0.081420
532.610676	0.081258
532.826482	0.081498
533.042271	0.082252
533.258040	0.082230
533.473792	0.082148
533.689525	0.082281
533.905240	0.082347
534.120937	0.082180
534.336616	0.082775
534.552277	0.083611
534.767919	0.084247
534.983543	0.084250
535.199149	0.084896
535.414736	0.084764
535.630306	0.085521
535.845857	0.085560
536.061390	0.086536
536.276904	0.086100
536.492401	0.086029
536.707879	0.086476
536.923339	0.086324
537.138781	0.085661
537.354204	0.086673
537.569610	0.086619
537.784997	0.087296
538.000366	0.087060
538.215716	0.087780
538.431049	0.088368
538.646363	0.088067
538.861659	0.088357
539.076937	0.088831
539.292196	0.088744
539.507438	0.088332
539.722661	0.087658
539.937866	0.088078
540.153052	0.087860
540.368221	0.087580
540.583371	0.087468
540.798503	0.088015
541.013617	0.088156
541.228712	0.088057
541.443789	0.088129
541.658848	0.088439
541.873889	0.088200
542.088912	0.088082
542.303916	0.088429
542.518902	0.089106
542.733870	0.088629
542.948820	0.088930
543.163752	0.089088
543.378665	0.089536
543.593560	0.089863
543.808437	0.090042
544.023295	0.090456
544.238136	0.089912
544.452958	0.089934
544.667762	0.090595
544.882548	0.090392
545.097315	0.090859
545.312064	0.090635
545.526795	0.090651
545.741508	0.090677
545.956203	0.090864
546.170879	0.091382
546.385537	0.090944
546.600177	0.091027
546.814799	0.091252
547.029402	0.091149
547.243988	0.091932
547.458555	0.091911
547.673103	0.092114
547.887634	0.092009
548.102146	0.092340
548.316640	0.092908
548.531116	0.092704
548.745574	0.092930
548.960013	0.093144
549.174435	0.092921
549.388838	0.093312
549.603222	0.093205
549.817589	0.093500
550.031937	0.092960
550.246267	0.093140
550.460579	0.093697
550.674873	0.093898
550.889148	0.093774
551.103405	0.093577
551.317644	0.093503
551.531865	0.093786
551.746068	0.093717
551.960252	0.094199
552.174418	0.093956
552.388566	0.093815
552.602696	0.093805
552.816807	0.093713
553.030900	0.094067
553.244975	0.094127
553.459032	0.093991
553.673070	0.094038
553.887091	0.094194
554.101093	0.094509
554.315077	0.094377
554.529042	0.094248
554.742990	0.094619
554.956919	0.094817
555.170830	0.094921
555.384722	0.095375
555.598597	0.095590
555.812453	0.095893
556.026291	0.095826
556.240111	0.096027
556.453913	0.096240
556.667696	0.096145
556.881461	0.095749
557.095208	0.095747
557.308937	0.095818
557.522647	0.096150
557.736339	0.095781
557.950013	0.096281
558.163669	0.096405
558.377307	0.096677
558.590926	0.097102
558.804527	0.097549
559.018110	0.097584
559.231675	0.097810
559.445221	0.097694
559.658749	0.098052
559.872259	0.097751
560.085751	0.097821
560.299225	0.097635
560.512680	0.097721
560.726117	0.097723
560.939536	0.097944
561.152937	0.097949
561.366319	0.098144
561.579683	0.098262
561.793029	0.098517
562.006357	0.098396
562.219667	0.098512
562.432958	0.098432
562.646231	0.098954
562.859486	0.099326
563.072723	0.099415
563.285941	0.099661
563.499141	0.099771
563.712323	0.099638
563.925487	0.100018
564.138632	0.100175
564.351760	0.100422
564.564869	0.100026
564.777960	0.100007
564.991032	0.100070
565.204087	0.100129
565.417123	0.100366
565.630141	0.100908
565.843140	0.100658
566.056122	0.100943
566.269085	0.100834
566.482030	0.101235
566.694957	0.101244
566.907866	0.101536
567.120756	0.101519
567.333628	0.101374
567.546482	0.101233
567.759318	0.101626
567.972135	0.101570
568.184935	0.101621
568.397716	0.101353
568.610478	0.101728
568.823223	0.101629
569.035949	0.101608
569.248657	0.101796
569.461347	0.101621
569.674019	0.101792
569.886672	0.101768
570.099308	0.101885
570.311925	0.102305
570.524523	0.102028
570.737104	0.101984
570.949666	0.101854
571.162210	0.101932
571.374736	0.102517
571.587244	0.102727
571.799733	0.103051
572.012205	0.103176
572.224658	0.103045
572.437092	0.103174
572.649509	0.102928
572.861907	0.103441
573.074287	0.103526
573.286649	0.103384
573.498993	0.103020
573.711318	0.102839
573.923625	0.102920
574.135914	0.102880
574.348185	0.102916
574.560438	0.103433
574.772672	0.103279
574.984888	0.103281
575.197086	0.103329
575.409266	0.103844
575.621427	0.104227
575.833570	0.104101
576.045695	0.104429
576.257802	0.104732
576.469890	0.104571
576.681961	0.105179
576.894013	0.105185
577.106046	0.105347
577.318062	0.105181
577.530059	0.105362
577.742039	0.105622
577.954000	0.105794
578.165942	0.105720
578.377867	0.106148
578.589773	0.105842
578.801661	0.105926
579.013531	0.105759
579.225382	0.105577
579.437216	0.105446
579.649031	0.105728
579.860828	0.105460
580.072606	0.105678
580.284367	0.105700
580.496109	0.105696
580.707833	0.105930
580.919539	0.106451
581.131227	0.106982
581.342896	0.107140
581.554547	0.107183
581.766180	0.107496
581.977795	0.107523
582.189391	0.107422
582.400969	0.107461
582.612529	0.107585
582.824071	0.107471
583.035595	0.107273
583.247100	0.107293
583.458587	0.107594
583.670056	0.107463
583.881506	0.107557
584.092939	0.108064
584.304353	0.108197
584.515749	0.108279
584.727127	0.108333
584.938486	0.108529
585.149828	0.108724
585.361151	0.108540
585.572456	0.108937
585.783742	0.109080
585.995011	0.109001
586.206261	0.109253
586.417493	0.109164
586.628706	0.109137
586.839902	0.109410
587.051079	0.109506
587.262238	0.109434
587.473379	0.109401
587.684502	0.109214
587.895606	0.109148
588.106692	0.109292
588.317760	0.109426
588.528810	0.109893
588.739841	0.109667
588.950855	0.109771
589.161850	0.109767
589.372827	0.110217
589.583785	0.110281
589.794726	0.110455
590.005648	0.110353
590.216552	0.110591
590.427437	0.110399
590.638305	0.110692
590.849154	0.110626
591.059985	0.111025
591.270798	0.111010
591.481592	0.111630
591.692369	0.111718
591.903127	0.111920
592.113867	0.111978
592.324588	0.112286
592.535292	0.112221
592.745977	0.112712
592.956644	0.112879
593.167293	0.112875
593.377923	0.112529
593.588536	0.112508
593.799130	0.112687
594.009706	0.112782
594.220263	0.113006
594.430803	0.113230
594.641324	0.112710
594.851827	0.112679
595.062312	0.112632
595.272778	0.112912
595.483227	0.113168
595.693657	0.113083
595.904069	0.113189
596.114462	0.113124
596.324838	0.112986
596.535195	0.113464
596.745534	0.113536
596.955855	0.113750
597.166157	0.113833
597.376441	0.113799
597.586707	0.114043
597.796955	0.114362
598.007185	0.114391
598.217396	0.114932
598.427589	0.114822
598.637764	0.114737
598.847921	0.114908
599.058060	0.115122
599.268180	0.115323
599.478282	0.115655
599.688366	0.115563
599.898431	0.115676
600.108479	0.115468
600.318508	0.115723
600.528519	0.115848
600.738511	0.116092
600.948486	0.116269
601.158442	0.116194
601.368380	0.115746
601.578300	0.115608
601.788202	0.115651
601.998085	0.115907
602.207950	0.115991
602.417797	0.116309
602.627626	0.116153
602.837436	0.116002
603.047228	0.115969
603.257002	0.116259
603.466758	0.116590
603.676496	0.116656
603.886215	0.116635
604.095916	0.116644
604.305599	0.116583
604.515264	0.116679
604.724910	0.116634
604.934538	0.117036
605.144148	0.117251
605.353740	0.117202
605.563314	0.117427
605.772869	0.117449
605.982406	0.117426
606.191925	0.117323
606.401425	0.117475
606.610908	0.117366
606.820372	0.117301
607.029818	0.116989
607.239246	0.117073
607.448655	0.116926
607.658047	0.117146
607.867420	0.117529
608.076775	0.118019
608.286111	0.117943
608.495430	0.118494
608.704730	0.118764
608.914012	0.119260
609.123275	0.119526
609.332521	0.119860
609.541748	0.120063
609.750957	0.119871
609.960148	0.119857
610.169321	0.120129
610.378475	0.120211
610.587611	0.120281
610.796729	0.120530
611.005829	0.120642
611.214910	0.120643
611.423974	0.120781
611.633019	0.120962
611.842045	0.120988
612.051054	0.120972
612.260044	0.120839
612.469017	0.120860
612.677970	0.120464
612.886906	0.120419
613.095824	0.120542
613.304723	0.120498
613.513604	0.120511
613.722467	0.120533
613.931311	0.120324
614.140138	0.120413
614.348946	0.120514
614.557736	0.120674
614.766507	0.120781
614.975261	0.120807
615.183996	0.120416
615.392713	0.120582
615.601412	0.120530
615.810092	0.120946
616.018754	0.121005
616.227399	0.121074
616.436024	0.121302
616.644632	0.121432
616.853222	0.121591
617.061793	0.122100
617.270346	0.122072
617.478880	0.122303
617.687397	0.122437
617.895895	0.122682
618.104375	0.122720
618.312837	0.122600
618.521281	0.122566
618.729706	0.122544
618.938113	0.122334
619.146502	0.122547
619.354873	0.122700
619.563226	0.122844
619.771560	0.122878
619.979876	0.123192
620.188174	0.123451
620.396453	0.123488
620.604715	0.123642
620.812958	0.123754
621.021183	0.123699
621.229390	0.123871
621.437578	0.123529
621.645748	0.123315
621.853900	0.123087
622.062034	0.122960
622.270150	0.122800
622.478247	0.122848
622.686326	0.123136
622.894387	0.123368
623.102430	0.123260
623.310454	0.123579
623.518461	0.123967
623.726449	0.124062
623.934418	0.124416
624.142370	0.124760
624.350303	0.125004
624.558218	0.125027
624.766115	0.125202
624.973994	0.125243
625.181855	0.125193
625.389697	0.125177
625.597521	0.125144
625.805327	0.125022
626.013114	0.124885
626.220883	0.124726
626.428634	0.124945
626.636367	0.124758
626.844082	0.124962
627.051778	0.125326
627.259457	0.125325
627.467117	0.125557
627.674758	0.125576
627.882382	0.125900
628.089987	0.125978
628.297574	0.125972
628.505143	0.125868
628.712694	0.125877
628.920226	0.125913
629.127740	0.126030
629.335236	0.126016
629.542714	0.126072
629.750174	0.126185
629.957615	0.126362
630.165038	0.126230
630.372443	0.126573
630.579829	0.126598
630.787198	0.126450
630.994548	0.126508
631.201880	0.126672
631.409194	0.126644
631.616489	0.126668
631.823766	0.126588
632.031025	0.126852
632.238266	0.126751
632.445489	0.126694
632.652693	0.126821
632.859879	0.126772
633.067047	0.126840
633.274197	0.126788
633.481329	0.126804
633.688442	0.126891
633.895537	0.126815
634.102614	0.126989
634.309672	0.127075
634.516713	0.127212
634.723735	0.127427
634.930739	0.127458
635.137724	0.127671
635.344692	0.127588
635.551641	0.127553
635.758572	0.127646
635.965485	0.127703
636.172379	0.127987
636.379256	0.127948
636.586114	0.128094
636.792954	0.128265
636.999775	0.128547
637.206579	0.128914
637.413364	0.129140
637.620131	0.129513
637.826880	0.129514
638.033610	0.129589
638.240323	0.129653
638.447017	0.129685
638.653692	0.129702
638.860350	0.129724
639.066990	0.129597
639.273611	0.129509
639.480214	0.129367
639.686798	0.129508
639.893365	0.129777
640.099913	0.129641
640.306443	0.129619
640.512955	0.129770
640.719449	0.129879
640.925924	0.130087
641.132381	0.130460
641.338820	0.130687
641.545241	0.130890
641.751644	0.130751
641.958028	0.131209
642.164394	0.131443
642.370742	0.131394
642.577071	0.131611
642.783383	0.131617
642.989676	0.131450
643.195951	0.131391
643.402207	0.131523
643.608446	0.131625
643.814666	0.131538
644.020868	0.131540
644.227052	0.131503
644.433218	0.131729
644.639365	0.131855
644.845494	0.132240
645.051605	0.132267
645.257698	0.132045
645.463772	0.132109
645.669828	0.132260
645.875866	0.132414
646.081886	0.132603
646.287888	0.132536
646.493871	0.132454
646.699836	0.132290
646.905783	0.132341
647.111712	0.132560
647.317622	0.132630
647.523514	0.132681
647.729388	0.132897
647.935244	0.132964
648.141082	0.132873
648.346901	0.133095
648.552702	0.133324
648.758485	0.133497
648.964250	0.133582
649.169996	0.133677
649.375724	0.133666
649.581434	0.133489
649.787126	0.133625
649.992800	0.133889
650.198455	0.134017
650.404092	0.134124
650.609711	0.134101
650.815311	0.134195
651.020894	0.134188
651.226458	0.134347
651.432004	0.134547
651.637532	0.134546
651.843041	0.134453
652.048532	0.134364
652.254006	0.134374
652.459460	0.134500
652.664897	0.134490
652.870315	0.134585
653.075716	0.134503
653.281097	0.134413
653.486461	0.134585
653.691807	0.134800
653.897134	0.135072
654.102443	0.135000
654.307734	0.135078
654.513006	0.135360
654.718261	0.135470
654.923497	0.135752
655.128715	0.136031
655.333915	0.135915
655.539096	0.135888
655.744259	0.135642
655.949404	0.135836
656.154531	0.135965
656.359640	0.136023
656.564730	0.136195
656.769802	0.136190
656.974856	0.136232
657.179892	0.136442
657.384909	0.136339
657.589908	0.136606
657.794889	0.136830
657.999852	0.136914
658.204797	0.137141
658.409723	0.137079
658.614631	0.137193
658.819521	0.137388
659.024393	0.137508
659.229246	0.137709
659.434081	0.137958
659.638898	0.138058
659.843697	0.138026
660.048478	0.137916
660.253240	0.138186
660.457984	0.138234
660.662710	0.137946
660.867417	0.138015
661.072107	0.138086
661.276778	0.137955
661.481431	0.137685
661.686066	0.137763
661.890682	0.137822
662.095281	0.137758
662.299861	0.137948
662.504422	0.138372
662.708966	0.138579
662.913491	0.138973
663.117999	0.139129
663.322488	0.139428
663.526958	0.139633
663.731411	0.139956
663.935845	0.139977
664.140261	0.140124
664.344659	0.140157
664.549038	0.140146
664.753400	0.139853
664.957743	0.140005
665.162068	0.139973
665.366375	0.140049
665.570663	0.140139
665.774933	0.140433
665.979185	0.140491
666.183419	0.140540
666.387635	0.140813
666.591832	0.141156
666.796011	0.141395
667.000172	0.141773
667.204315	0.142051
667.408439	0.141886
667.612545	0.142058
667.816634	0.142100
668.020703	0.142240
668.224755	0.142335
668.428788	0.142278
668.632803	0.142294
668.836800	0.142226
669.040779	0.142209
669.244739	0.142386
669.448681	0.142341
669.652605	0.142675
669.856511	0.142772
670.060399	0.142986
670.264268	0.143067
670.468119	0.143084
670.671952	0.143391
670.875767	0.143367
671.079563	0.143634
671.283341	0.143778
671.487101	0.143648
671.690843	0.143744
671.894567	0.143613
672.098272	0.143740
672.301959	0.143956
672.505628	0.144080
672.709278	0.144210
672.912911	0.144096
673.116525	0.144227
673.320121	0.144118
673.523699	0.144087
673.727258	0.144077
673.930799	0.144411
674.134322	0.144504
674.337827	0.144357
674.541314	0.144458
674.744782	0.144645
674.948232	0.144704
675.151664	0.145026
675.355078	0.145106
675.558474	0.145274
675.761851	0.145237
675.965210	0.145397
676.168551	0.145536
676.371873	0.145689
676.575178	0.145994
676.778464	0.146206
676.981732	0.146255
677.184981	0.146511
677.388213	0.146696
677.591426	0.146935
677.794621	0.146948
677.997798	0.146937
678.200956	0.146950
678.404097	0.146884
678.607219	0.146891
678.810323	0.147030
679.013408	0.147030
679.216476	0.147120
679.419525	0.147061
679.622556	0.147121
679.825569	0.147260
680.028563	0.147364
680.231540	0.147304
680.434498	0.147268
680.637438	0.147366
680.840359	0.147536
681.043263	0.147882
681.246148	0.147971
681.449015	0.148001
681.651864	0.148190
681.854694	0.148200
682.057506	0.148180
682.260301	0.148270
682.463076	0.148209
682.665834	0.148415
682.868573	0.148439
683.071295	0.148561
683.273998	0.148805
683.476682	0.148928
683.679349	0.149242
683.881997	0.149726
684.084627	0.149960
684.287239	0.150242
684.489833	0.150146
684.692408	0.149904
684.894965	0.150097
685.097504	0.150179
685.300025	0.150132
685.502527	0.150152
685.705012	0.149915
685.907478	0.150066
686.109925	0.150100
686.312355	0.150308
686.514766	0.150473
686.717159	0.150579
686.919534	0.150661
687.121891	0.150846
687.324230	0.151104
687.526550	0.151161
687.728852	0.151060
687.931136	0.151151
688.133401	0.151196
688.335649	0.151217
688.537878	0.151078
688.740089	0.151153
688.942281	0.151024
689.144456	0.150933
689.346612	0.151160
689.548750	0.151309
689.750870	0.151449
689.952971	0.151416
690.155055	0.151618
690.357120	0.151684
690.559167	0.151788
690.761195	0.151833
690.963206	0.151956
691.165198	0.151828
691.367172	0.151836
691.569128	0.151688
691.771065	0.151750
691.972984	0.151590
692.174885	0.151785
692.376768	0.151587
692.578633	0.151742
692.780479	0.151733
692.982308	0.151959
693.184118	0.152039
693.385909	0.152168
