sample name	sample
index	837
start time	 04-05-2021  10:52:45 AM


Wavelength (nm)	Absorbance
494.344910	0.037304
494.563924	0.037304
494.782919	0.037304
495.001897	-0.086046
495.220856	-0.000444
495.439797	-0.001993
495.658719	-0.000389
495.877624	-0.000378
496.096510	0.009145
496.315378	-0.002205
496.534227	0.007609
496.753059	0.003995
496.971872	-0.004937
497.190667	0.061692
497.409444	0.088857
497.628203	0.095106
497.846943	0.101562
498.065665	0.104939
498.284369	0.107708
498.503055	0.109217
498.721723	0.110821
498.940372	0.112483
499.159003	0.113719
499.377616	0.113130
499.596210	0.113858
499.814787	0.113154
500.033345	0.112154
500.251885	0.112741
500.470406	0.112156
500.688910	0.111080
500.907395	0.111093
501.125862	0.111382
501.344311	0.111692
501.562742	0.111164
501.781154	0.112112
501.999548	0.113081
502.217924	0.113951
502.436282	0.112932
502.654621	0.113919
502.872942	0.114106
503.091245	0.113354
503.309530	0.113689
503.527797	0.113889
503.746045	0.113109
503.964275	0.113441
504.182487	0.112651
504.400681	0.114272
504.618856	0.114224
504.837013	0.115153
505.055152	0.115207
505.273273	0.115539
505.491376	0.116173
505.709460	0.117200
505.927526	0.117082
506.145574	0.117129
506.363604	0.116304
506.581615	0.117295
506.799608	0.117442
507.017583	0.118120
507.235540	0.118088
507.453478	0.117384
507.671399	0.116530
507.889301	0.116756
508.107185	0.117867
508.325050	0.118783
508.542898	0.118287
508.760727	0.117971
508.978538	0.118113
509.196330	0.118261
509.414105	0.118960
509.631861	0.120022
509.849599	0.121481
510.067319	0.120587
510.285021	0.121227
510.502704	0.121336
510.720369	0.121007
510.938016	0.120642
511.155645	0.119947
511.373255	0.119400
511.590848	0.118629
511.808422	0.117741
512.025977	0.118228
512.243515	0.117687
512.461034	0.118252
512.678536	0.118435
512.896018	0.118576
513.113483	0.119003
513.330930	0.119725
513.548358	0.120661
513.765768	0.120619
513.983160	0.120261
514.200533	0.120388
514.417889	0.120834
514.635226	0.121560
514.852545	0.122157
515.069845	0.123089
515.287128	0.123531
515.504392	0.123623
515.721638	0.123900
515.938866	0.124551
516.156075	0.124625
516.373267	0.124404
516.590440	0.123871
516.807594	0.123830
517.024731	0.124246
517.241850	0.124116
517.458950	0.124326
517.676032	0.124293
517.893095	0.124454
518.110141	0.125001
518.327168	0.125897
518.544177	0.125873
518.761168	0.126002
518.978141	0.126258
519.195095	0.127246
519.412031	0.127600
519.628949	0.127836
519.845849	0.128102
520.062731	0.129212
520.279594	0.128951
520.496439	0.129174
520.713266	0.129777
520.930074	0.129432
521.146865	0.130056
521.363637	0.130123
521.580391	0.130805
521.797127	0.130992
522.013844	0.130956
522.230543	0.130752
522.447224	0.130478
522.663887	0.130181
522.880532	0.130348
523.097158	0.130176
523.313766	0.130547
523.530356	0.130278
523.746928	0.130492
523.963481	0.130036
524.180017	0.130498
524.396534	0.131790
524.613032	0.132539
524.829513	0.132801
525.045975	0.133000
525.262420	0.132562
525.478845	0.132628
525.695253	0.132905
525.911643	0.133816
526.128014	0.134012
526.344367	0.133779
526.560702	0.133809
526.777018	0.134129
526.993316	0.133657
527.209597	0.134782
527.425858	0.135415
527.642102	0.135410
527.858328	0.135149
528.074535	0.135483
528.290724	0.135966
528.506894	0.135619
528.723047	0.136471
528.939181	0.136469
529.155297	0.136766
529.371395	0.137104
529.587475	0.137455
529.803536	0.137871
530.019579	0.138068
530.235604	0.138199
530.451611	0.138809
530.667600	0.138406
530.883570	0.138906
531.099522	0.138029
531.315456	0.138825
531.531372	0.139131
531.747269	0.139526
531.963148	0.139965
532.179009	0.140118
532.394852	0.140661
532.610676	0.140670
532.826482	0.140905
533.042271	0.142095
533.258040	0.141834
533.473792	0.142829
533.689525	0.142816
533.905240	0.142750
534.120937	0.143096
534.336616	0.143272
534.552277	0.144300
534.767919	0.145328
534.983543	0.145740
535.199149	0.146038
535.414736	0.145916
535.630306	0.146476
535.845857	0.146831
536.061390	0.147738
536.276904	0.148140
536.492401	0.148299
536.707879	0.148654
536.923339	0.148339
537.138781	0.148703
537.354204	0.149168
537.569610	0.149171
537.784997	0.149449
538.000366	0.149150
538.215716	0.149061
538.431049	0.149767
538.646363	0.149916
538.861659	0.150778
539.076937	0.151426
539.292196	0.151715
539.507438	0.151993
539.722661	0.152581
539.937866	0.153076
540.153052	0.153627
540.368221	0.153527
540.583371	0.153830
540.798503	0.153412
541.013617	0.153744
541.228712	0.153823
541.443789	0.154707
541.658848	0.154801
541.873889	0.155087
542.088912	0.155505
542.303916	0.155951
542.518902	0.155990
542.733870	0.156300
542.948820	0.156066
543.163752	0.156311
543.378665	0.156124
543.593560	0.156583
543.808437	0.156931
544.023295	0.156837
544.238136	0.156985
544.452958	0.157246
544.667762	0.158118
544.882548	0.158630
545.097315	0.158556
545.312064	0.158876
545.526795	0.158624
545.741508	0.158816
545.956203	0.159238
546.170879	0.159282
546.385537	0.159301
546.600177	0.159295
546.814799	0.159254
547.029402	0.159566
547.243988	0.160269
547.458555	0.161151
547.673103	0.161119
547.887634	0.161172
548.102146	0.161344
548.316640	0.161491
548.531116	0.161391
548.745574	0.161559
548.960013	0.162012
549.174435	0.161778
549.388838	0.161454
549.603222	0.161800
549.817589	0.162546
550.031937	0.162909
550.246267	0.163614
550.460579	0.164188
550.674873	0.164873
550.889148	0.164646
551.103405	0.164805
551.317644	0.165216
551.531865	0.165431
551.746068	0.165246
551.960252	0.165360
552.174418	0.165379
552.388566	0.165271
552.602696	0.164959
552.816807	0.165609
553.030900	0.165824
553.244975	0.166169
553.459032	0.166604
553.673070	0.167082
553.887091	0.167132
554.101093	0.167132
554.315077	0.167505
554.529042	0.168014
554.742990	0.168121
554.956919	0.168543
555.170830	0.168400
555.384722	0.168091
555.598597	0.168178
555.812453	0.168552
556.026291	0.168859
556.240111	0.169022
556.453913	0.168737
556.667696	0.168928
556.881461	0.168635
557.095208	0.168821
557.308937	0.169176
557.522647	0.169434
557.736339	0.169472
557.950013	0.169710
558.163669	0.169665
558.377307	0.169913
558.590926	0.170321
558.804527	0.170630
559.018110	0.171166
559.231675	0.171561
559.445221	0.171719
559.658749	0.171697
559.872259	0.171645
560.085751	0.172063
560.299225	0.172704
560.512680	0.172667
560.726117	0.172941
560.939536	0.172714
561.152937	0.172925
561.366319	0.172887
561.579683	0.173195
561.793029	0.173311
562.006357	0.173431
562.219667	0.173093
562.432958	0.173318
562.646231	0.173430
562.859486	0.173564
563.072723	0.173618
563.285941	0.173967
563.499141	0.174337
563.712323	0.175110
563.925487	0.175578
564.138632	0.175765
564.351760	0.176070
564.564869	0.175747
564.777960	0.176315
564.991032	0.176143
565.204087	0.175787
565.417123	0.175933
565.630141	0.175606
565.843140	0.175181
566.056122	0.175506
566.269085	0.175500
566.482030	0.175921
566.694957	0.175894
566.907866	0.176295
567.120756	0.176785
567.333628	0.177118
567.546482	0.177242
567.759318	0.177780
567.972135	0.178302
568.184935	0.178508
568.397716	0.178975
568.610478	0.179084
568.823223	0.179234
569.035949	0.179568
569.248657	0.179195
569.461347	0.179814
569.674019	0.179469
569.886672	0.179131
570.099308	0.178798
570.311925	0.178716
570.524523	0.178785
570.737104	0.178984
570.949666	0.178969
571.162210	0.179373
571.374736	0.178894
571.587244	0.179229
571.799733	0.179527
572.012205	0.179838
572.224658	0.180110
572.437092	0.179913
572.649509	0.179792
572.861907	0.179377
573.074287	0.179138
573.286649	0.179644
573.498993	0.179478
573.711318	0.179426
573.923625	0.179899
574.135914	0.180101
574.348185	0.180365
574.560438	0.180559
574.772672	0.181088
574.984888	0.181523
575.197086	0.181517
575.409266	0.182284
575.621427	0.182434
575.833570	0.182111
576.045695	0.181915
576.257802	0.182421
576.469890	0.182976
576.681961	0.183383
576.894013	0.183261
577.106046	0.183794
577.318062	0.183906
577.530059	0.184374
577.742039	0.184789
577.954000	0.185075
578.165942	0.184888
578.377867	0.184977
578.589773	0.184919
578.801661	0.185519
579.013531	0.185011
579.225382	0.184824
579.437216	0.184900
579.649031	0.184572
579.860828	0.184717
580.072606	0.185217
580.284367	0.185163
580.496109	0.185334
580.707833	0.185442
580.919539	0.185959
581.131227	0.186365
581.342896	0.186533
581.554547	0.187110
581.766180	0.187413
581.977795	0.187425
582.189391	0.187528
582.400969	0.187567
582.612529	0.187401
582.824071	0.187536
583.035595	0.187548
583.247100	0.187308
583.458587	0.187259
583.670056	0.187572
583.881506	0.187512
584.092939	0.187435
584.304353	0.187595
584.515749	0.187930
584.727127	0.187858
584.938486	0.187934
585.149828	0.188193
585.361151	0.188669
585.572456	0.188471
585.783742	0.188702
585.995011	0.189210
586.206261	0.189508
586.417493	0.189659
586.628706	0.189920
586.839902	0.190263
587.051079	0.190246
587.262238	0.190373
587.473379	0.190747
587.684502	0.191184
587.895606	0.191342
588.106692	0.191145
588.317760	0.191320
588.528810	0.191354
588.739841	0.191348
588.950855	0.191522
589.161850	0.191544
589.372827	0.191568
589.583785	0.191652
589.794726	0.191849
590.005648	0.192262
590.216552	0.192142
590.427437	0.192460
590.638305	0.192342
590.849154	0.192341
591.059985	0.192780
591.270798	0.192907
591.481592	0.193010
591.692369	0.192705
591.903127	0.192656
592.113867	0.193009
592.324588	0.193232
592.535292	0.193635
592.745977	0.194408
592.956644	0.193971
593.167293	0.193976
593.377923	0.193954
593.588536	0.194038
593.799130	0.194205
594.009706	0.194511
594.220263	0.194269
594.430803	0.194617
594.641324	0.194236
594.851827	0.194728
595.062312	0.194827
595.272778	0.195258
595.483227	0.195304
595.693657	0.195863
595.904069	0.195806
596.114462	0.196121
596.324838	0.195936
596.535195	0.196318
596.745534	0.196213
596.955855	0.196314
597.166157	0.196189
597.376441	0.196623
597.586707	0.196184
597.796955	0.196180
598.007185	0.196314
598.217396	0.196701
598.427589	0.196917
598.637764	0.197066
598.847921	0.197433
599.058060	0.197471
599.268180	0.197756
599.478282	0.198363
599.688366	0.198627
599.898431	0.198990
600.108479	0.199379
600.318508	0.199492
600.528519	0.199778
600.738511	0.200011
600.948486	0.200008
601.158442	0.200030
601.368380	0.199961
601.578300	0.200373
601.788202	0.200204
601.998085	0.199900
602.207950	0.200153
602.417797	0.200099
602.627626	0.199851
602.837436	0.200256
603.047228	0.200037
603.257002	0.199801
603.466758	0.199524
603.676496	0.199746
603.886215	0.199773
604.095916	0.199517
604.305599	0.199836
604.515264	0.200270
604.724910	0.200665
604.934538	0.200971
605.144148	0.201353
605.353740	0.201596
605.563314	0.201438
605.772869	0.201730
605.982406	0.202192
606.191925	0.202363
606.401425	0.202403
606.610908	0.202182
606.820372	0.202556
607.029818	0.203078
607.239246	0.203360
607.448655	0.203737
607.658047	0.204021
607.867420	0.204248
608.076775	0.204290
608.286111	0.204536
608.495430	0.204744
608.704730	0.204477
608.914012	0.204081
609.123275	0.204183
609.332521	0.204240
609.541748	0.204402
609.750957	0.204416
609.960148	0.204436
610.169321	0.204541
610.378475	0.204630
610.587611	0.204845
610.796729	0.204944
611.005829	0.204937
611.214910	0.204977
611.423974	0.204773
611.633019	0.204692
611.842045	0.205088
612.051054	0.205452
612.260044	0.205865
612.469017	0.206253
612.677970	0.206555
612.886906	0.206571
613.095824	0.207179
613.304723	0.207415
613.513604	0.207520
613.722467	0.207679
613.931311	0.207416
614.140138	0.207181
614.348946	0.206978
614.557736	0.207043
614.766507	0.206956
614.975261	0.206614
615.183996	0.206890
615.392713	0.206931
615.601412	0.206868
615.810092	0.207167
616.018754	0.207198
616.227399	0.207622
616.436024	0.207905
616.644632	0.208341
616.853222	0.208632
617.061793	0.208838
617.270346	0.208941
617.478880	0.208871
617.687397	0.208706
617.895895	0.208966
618.104375	0.208760
618.312837	0.208989
618.521281	0.209183
618.729706	0.209225
618.938113	0.209119
619.146502	0.209480
619.354873	0.209912
619.563226	0.210292
619.771560	0.210220
619.979876	0.210543
620.188174	0.210532
620.396453	0.210272
620.604715	0.210401
620.812958	0.210521
621.021183	0.210161
621.229390	0.210221
621.437578	0.210264
621.645748	0.210631
621.853900	0.211080
622.062034	0.211032
622.270150	0.211368
622.478247	0.211533
622.686326	0.211509
622.894387	0.211918
623.102430	0.212196
623.310454	0.212350
623.518461	0.212588
623.726449	0.212276
623.934418	0.212303
624.142370	0.212752
624.350303	0.212820
624.558218	0.213244
624.766115	0.213643
624.973994	0.213590
625.181855	0.213855
625.389697	0.213826
625.597521	0.214257
625.805327	0.214599
626.013114	0.214562
626.220883	0.214895
626.428634	0.214892
626.636367	0.214578
626.844082	0.214621
627.051778	0.214505
627.259457	0.214783
627.467117	0.214812
627.674758	0.214666
627.882382	0.215176
628.089987	0.215501
628.297574	0.215690
628.505143	0.216295
628.712694	0.216735
628.920226	0.217171
629.127740	0.217457
629.335236	0.217420
629.542714	0.218058
629.750174	0.217693
629.957615	0.217535
630.165038	0.217652
630.372443	0.217720
630.579829	0.217720
630.787198	0.217752
630.994548	0.217597
631.201880	0.217855
631.409194	0.218060
631.616489	0.218226
631.823766	0.218239
632.031025	0.218344
632.238266	0.218354
632.445489	0.218545
632.652693	0.218836
632.859879	0.219151
633.067047	0.219233
633.274197	0.219069
633.481329	0.219194
633.688442	0.219549
633.895537	0.219909
634.102614	0.220111
634.309672	0.220047
634.516713	0.219911
634.723735	0.220089
634.930739	0.220434
635.137724	0.220556
635.344692	0.220776
635.551641	0.220937
635.758572	0.220784
635.965485	0.220769
636.172379	0.221024
636.379256	0.221392
636.586114	0.221365
636.792954	0.221460
636.999775	0.221565
637.206579	0.221525
637.413364	0.221341
637.620131	0.221353
637.826880	0.221934
638.033610	0.221770
638.240323	0.221629
638.447017	0.221742
638.653692	0.221776
638.860350	0.222206
639.066990	0.222763
639.273611	0.222932
639.480214	0.223130
639.686798	0.223092
639.893365	0.223473
640.099913	0.223847
640.306443	0.224044
640.512955	0.224120
640.719449	0.224109
640.925924	0.224008
641.132381	0.224314
641.338820	0.224378
641.545241	0.224307
641.751644	0.224536
641.958028	0.224712
642.164394	0.224904
642.370742	0.225158
642.577071	0.225448
642.783383	0.225739
642.989676	0.225797
643.195951	0.226402
643.402207	0.226560
643.608446	0.226696
643.814666	0.226681
644.020868	0.227028
644.227052	0.227436
644.433218	0.226994
644.639365	0.226973
644.845494	0.227156
645.051605	0.227107
645.257698	0.227247
645.463772	0.227233
645.669828	0.227495
645.875866	0.227395
646.081886	0.227338
646.287888	0.227983
646.493871	0.228200
646.699836	0.228476
646.905783	0.228744
647.111712	0.228931
647.317622	0.229259
647.523514	0.229414
647.729388	0.229777
647.935244	0.229832
648.141082	0.229935
648.346901	0.229886
648.552702	0.230155
648.758485	0.230201
648.964250	0.230306
649.169996	0.230549
649.375724	0.230639
649.581434	0.230255
649.787126	0.230710
649.992800	0.230810
650.198455	0.231247
650.404092	0.231426
650.609711	0.231623
650.815311	0.232034
651.020894	0.232181
651.226458	0.232369
651.432004	0.232771
651.637532	0.232929
651.843041	0.232943
652.048532	0.233205
652.254006	0.233123
652.459460	0.233236
652.664897	0.233501
652.870315	0.233462
653.075716	0.233647
653.281097	0.234035
653.486461	0.234335
653.691807	0.234800
653.897134	0.234870
654.102443	0.235188
654.307734	0.235192
654.513006	0.235105
654.718261	0.235298
654.923497	0.235355
655.128715	0.235590
655.333915	0.235399
655.539096	0.235420
655.744259	0.235649
655.949404	0.235620
656.154531	0.236103
656.359640	0.236593
656.564730	0.237190
656.769802	0.237505
656.974856	0.237698
657.179892	0.238111
657.384909	0.238377
657.589908	0.238637
657.794889	0.239066
657.999852	0.239261
658.204797	0.239333
658.409723	0.239304
658.614631	0.239504
658.819521	0.239528
659.024393	0.239600
659.229246	0.239736
659.434081	0.239812
659.638898	0.239951
659.843697	0.239985
660.048478	0.240386
660.253240	0.240507
660.457984	0.240529
660.662710	0.240761
660.867417	0.241069
661.072107	0.241389
661.276778	0.241457
661.481431	0.241903
661.686066	0.242090
661.890682	0.241862
662.095281	0.241879
662.299861	0.242172
662.504422	0.242494
662.708966	0.242625
662.913491	0.243009
663.117999	0.243312
663.322488	0.243242
663.526958	0.243487
663.731411	0.243889
663.935845	0.244270
664.140261	0.244389
664.344659	0.244448
664.549038	0.244762
664.753400	0.244492
664.957743	0.244792
665.162068	0.245163
665.366375	0.245497
665.570663	0.245704
665.774933	0.246014
665.979185	0.246235
666.183419	0.246375
666.387635	0.246400
666.591832	0.246952
666.796011	0.246967
667.000172	0.246964
667.204315	0.247097
667.408439	0.247126
667.612545	0.247203
667.816634	0.247358
668.020703	0.247886
668.224755	0.247916
668.428788	0.248031
668.632803	0.248312
668.836800	0.248691
669.040779	0.248904
669.244739	0.249211
669.448681	0.249371
669.652605	0.249522
669.856511	0.249184
670.060399	0.249726
670.264268	0.249820
670.468119	0.250040
670.671952	0.250189
670.875767	0.250331
671.079563	0.250562
671.283341	0.250797
671.487101	0.251064
671.690843	0.251774
671.894567	0.251795
672.098272	0.252193
672.301959	0.252224
672.505628	0.252444
672.709278	0.252652
672.912911	0.252795
673.116525	0.253085
673.320121	0.253554
673.523699	0.253489
673.727258	0.253600
673.930799	0.253698
674.134322	0.254079
674.337827	0.254127
674.541314	0.254528
674.744782	0.254759
674.948232	0.254916
675.151664	0.254975
675.355078	0.255210
675.558474	0.255440
675.761851	0.255792
675.965210	0.255942
676.168551	0.256230
676.371873	0.256361
676.575178	0.256670
676.778464	0.256742
676.981732	0.256882
677.184981	0.257089
677.388213	0.257298
677.591426	0.257184
677.794621	0.257393
677.997798	0.257640
678.200956	0.257820
678.404097	0.257935
678.607219	0.258186
678.810323	0.258656
679.013408	0.258908
679.216476	0.259135
679.419525	0.259261
679.622556	0.259617
679.825569	0.259679
680.028563	0.259887
680.231540	0.260229
680.434498	0.260465
680.637438	0.260466
680.840359	0.260606
681.043263	0.260792
681.246148	0.261312
681.449015	0.261394
681.651864	0.261825
681.854694	0.262080
682.057506	0.262028
682.260301	0.262057
682.463076	0.262315
682.665834	0.262618
682.868573	0.262937
683.071295	0.262896
683.273998	0.263127
683.476682	0.263327
683.679349	0.263335
683.881997	0.263604
684.084627	0.264098
684.287239	0.264344
684.489833	0.264421
684.692408	0.264617
684.894965	0.264665
685.097504	0.264809
685.300025	0.264935
685.502527	0.265206
685.705012	0.265385
685.907478	0.265407
686.109925	0.265193
686.312355	0.265402
686.514766	0.265430
686.717159	0.265736
686.919534	0.265999
687.121891	0.266038
687.324230	0.266414
687.526550	0.266516
687.728852	0.266714
687.931136	0.266999
688.133401	0.267238
688.335649	0.267518
688.537878	0.267692
688.740089	0.267653
688.942281	0.267929
689.144456	0.267813
689.346612	0.268051
689.548750	0.268308
689.750870	0.268449
689.952971	0.268528
690.155055	0.268805
690.357120	0.268966
690.559167	0.269111
690.761195	0.269352
690.963206	0.269590
691.165198	0.269802
691.367172	0.269921
691.569128	0.270180
691.771065	0.270445
691.972984	0.270515
692.174885	0.270792
692.376768	0.270994
692.578633	0.271195
692.780479	0.271318
692.982308	0.271519
693.184118	0.271686
693.385909	0.271955
