sample name	sample
index	1461
start time	 05-10-2021  01:56:56 PM


Wavelength (nm)	Absorbance
494.344910	-0.087773
494.563924	-0.087773
494.782919	-0.087773
495.001897	-0.001081
495.220856	-0.031236
495.439797	-0.017915
495.658719	-0.005212
495.877624	0.001500
496.096510	0.003068
496.315378	0.012467
496.534227	0.019846
496.753059	0.006856
496.971872	-0.003479
497.190667	0.050144
497.409444	0.085022
497.628203	0.097061
497.846943	0.103955
498.065665	0.109053
498.284369	0.112042
498.503055	0.115304
498.721723	0.117472
498.940372	0.119505
499.159003	0.121876
499.377616	0.121759
499.596210	0.121514
499.814787	0.121283
500.033345	0.120620
500.251885	0.120104
500.470406	0.119297
500.688910	0.118875
500.907395	0.119558
501.125862	0.118207
501.344311	0.118066
501.562742	0.117953
501.781154	0.119567
501.999548	0.120071
502.217924	0.120259
502.436282	0.120323
502.654621	0.121183
502.872942	0.120027
503.091245	0.120879
503.309530	0.121383
503.527797	0.121884
503.746045	0.121548
503.964275	0.121414
504.182487	0.122212
504.400681	0.121988
504.618856	0.121329
504.837013	0.122055
505.055152	0.123217
505.273273	0.123303
505.491376	0.123663
505.709460	0.123931
505.927526	0.124241
506.145574	0.124551
506.363604	0.125141
506.581615	0.124628
506.799608	0.124769
507.017583	0.124069
507.235540	0.123763
507.453478	0.124086
507.671399	0.123020
507.889301	0.123726
508.107185	0.122620
508.325050	0.122372
508.542898	0.123419
508.760727	0.124031
508.978538	0.124503
509.196330	0.124503
509.414105	0.123957
509.631861	0.124831
509.849599	0.124847
510.067319	0.125882
510.285021	0.125899
510.502704	0.126450
510.720369	0.126217
510.938016	0.126428
511.155645	0.126791
511.373255	0.127362
511.590848	0.126987
511.808422	0.126301
512.025977	0.125643
512.243515	0.125675
512.461034	0.125429
512.678536	0.126113
512.896018	0.125588
513.113483	0.126270
513.330930	0.126238
513.548358	0.127728
513.765768	0.128617
513.983160	0.129810
514.200533	0.130735
514.417889	0.131334
514.635226	0.131526
514.852545	0.131494
515.069845	0.130831
515.287128	0.130776
515.504392	0.130231
515.721638	0.130445
515.938866	0.130003
516.156075	0.129590
516.373267	0.129343
516.590440	0.128878
516.807594	0.129974
517.024731	0.130811
517.241850	0.131409
517.458950	0.131194
517.676032	0.131130
517.893095	0.131188
518.110141	0.132023
518.327168	0.132399
518.544177	0.133031
518.761168	0.132803
518.978141	0.133330
519.195095	0.133116
519.412031	0.134177
519.628949	0.134225
519.845849	0.135088
520.062731	0.135099
520.279594	0.135465
520.496439	0.135530
520.713266	0.135650
520.930074	0.136409
521.146865	0.137228
521.363637	0.137552
521.580391	0.138157
521.797127	0.138809
522.013844	0.138836
522.230543	0.139235
522.447224	0.139583
522.663887	0.139990
522.880532	0.139947
523.097158	0.139779
523.313766	0.139857
523.530356	0.139862
523.746928	0.139446
523.963481	0.139772
524.180017	0.139971
524.396534	0.139980
524.613032	0.139916
524.829513	0.139526
525.045975	0.140374
525.262420	0.140655
525.478845	0.141331
525.695253	0.141084
525.911643	0.141768
526.128014	0.141097
526.344367	0.141379
526.560702	0.141420
526.777018	0.142159
526.993316	0.142037
527.209597	0.142370
527.425858	0.142479
527.642102	0.143503
527.858328	0.143101
528.074535	0.144353
528.290724	0.145266
528.506894	0.146590
528.723047	0.146450
528.939181	0.147465
529.155297	0.147416
529.371395	0.147154
529.587475	0.147255
529.803536	0.148154
530.019579	0.148231
530.235604	0.147947
530.451611	0.147250
530.667600	0.147182
530.883570	0.146715
531.099522	0.147341
531.315456	0.147924
531.531372	0.148357
531.747269	0.148648
531.963148	0.148928
532.179009	0.149156
532.394852	0.150035
532.610676	0.150944
532.826482	0.151496
533.042271	0.151734
533.258040	0.152012
533.473792	0.152035
533.689525	0.151983
533.905240	0.152706
534.120937	0.153111
534.336616	0.154213
534.552277	0.155166
534.767919	0.156088
534.983543	0.155853
535.199149	0.156209
535.414736	0.156479
535.630306	0.157019
535.845857	0.156395
536.061390	0.156289
536.276904	0.155449
536.492401	0.155241
536.707879	0.154878
536.923339	0.155687
537.138781	0.155770
537.354204	0.156150
537.569610	0.156600
537.784997	0.157937
538.000366	0.158655
538.215716	0.158811
538.431049	0.159526
538.646363	0.160325
538.861659	0.160582
539.076937	0.160827
539.292196	0.161442
539.507438	0.161390
539.722661	0.161328
539.937866	0.161146
540.153052	0.161990
540.368221	0.161251
540.583371	0.161065
540.798503	0.161030
541.013617	0.161354
541.228712	0.161034
541.443789	0.161518
541.658848	0.161051
541.873889	0.161283
542.088912	0.161368
542.303916	0.161323
542.518902	0.161777
542.733870	0.161847
542.948820	0.162397
543.163752	0.163417
543.378665	0.163407
543.593560	0.163929
543.808437	0.164616
544.023295	0.164051
544.238136	0.164325
544.452958	0.164295
544.667762	0.164716
544.882548	0.164621
545.097315	0.164289
545.312064	0.163728
545.526795	0.163727
545.741508	0.163934
545.956203	0.164624
546.170879	0.165389
546.385537	0.165548
546.600177	0.165470
546.814799	0.166458
547.029402	0.166238
547.243988	0.167534
547.458555	0.167824
547.673103	0.167954
547.887634	0.168211
548.102146	0.167981
548.316640	0.168145
548.531116	0.168393
548.745574	0.167965
548.960013	0.168420
549.174435	0.168696
549.388838	0.169490
549.603222	0.169516
549.817589	0.170003
550.031937	0.170441
550.246267	0.171068
550.460579	0.171614
550.674873	0.171391
550.889148	0.171604
551.103405	0.171458
551.317644	0.170975
551.531865	0.171604
551.746068	0.171893
551.960252	0.171973
552.174418	0.171850
552.388566	0.171941
552.602696	0.172716
552.816807	0.173090
553.030900	0.173517
553.244975	0.174019
553.459032	0.173891
553.673070	0.173778
553.887091	0.174224
554.101093	0.174309
554.315077	0.174245
554.529042	0.174230
554.742990	0.174413
554.956919	0.174270
555.170830	0.174156
555.384722	0.174351
555.598597	0.174622
555.812453	0.174555
556.026291	0.174500
556.240111	0.174719
556.453913	0.174618
556.667696	0.174671
556.881461	0.174836
557.095208	0.175400
557.308937	0.175515
557.522647	0.175251
557.736339	0.175178
557.950013	0.175230
558.163669	0.175207
558.377307	0.175565
558.590926	0.175557
558.804527	0.175549
559.018110	0.175156
559.231675	0.174875
559.445221	0.174743
559.658749	0.174456
559.872259	0.174639
560.085751	0.174881
560.299225	0.175066
560.512680	0.174823
560.726117	0.175125
560.939536	0.175116
561.152937	0.175386
561.366319	0.175770
561.579683	0.176078
561.793029	0.176301
562.006357	0.176217
562.219667	0.176158
562.432958	0.176519
562.646231	0.176444
562.859486	0.176734
563.072723	0.177271
563.285941	0.177639
563.499141	0.178403
563.712323	0.178520
563.925487	0.179084
564.138632	0.179170
564.351760	0.179528
564.564869	0.179807
564.777960	0.180167
564.991032	0.179885
565.204087	0.180362
565.417123	0.180408
565.630141	0.180757
565.843140	0.180382
566.056122	0.180393
566.269085	0.180784
566.482030	0.180831
566.694957	0.180744
566.907866	0.180829
567.120756	0.180218
567.333628	0.179783
567.546482	0.179570
567.759318	0.180002
567.972135	0.180377
568.184935	0.180258
568.397716	0.180214
568.610478	0.180210
568.823223	0.180251
569.035949	0.180425
569.248657	0.180958
569.461347	0.181097
569.674019	0.181336
569.886672	0.181349
570.099308	0.180917
570.311925	0.180960
570.524523	0.180931
570.737104	0.181294
570.949666	0.181509
571.162210	0.181460
571.374736	0.181477
571.587244	0.181370
571.799733	0.181621
572.012205	0.181931
572.224658	0.182169
572.437092	0.182454
572.649509	0.182529
572.861907	0.182272
573.074287	0.182365
573.286649	0.182850
573.498993	0.182804
573.711318	0.182663
573.923625	0.183449
574.135914	0.183964
574.348185	0.183977
574.560438	0.184255
574.772672	0.185099
574.984888	0.185197
575.197086	0.184914
575.409266	0.185607
575.621427	0.185718
575.833570	0.185606
576.045695	0.185306
576.257802	0.186038
576.469890	0.186092
576.681961	0.186023
576.894013	0.186118
577.106046	0.186732
577.318062	0.186601
577.530059	0.186615
577.742039	0.186097
577.954000	0.186235
578.165942	0.185980
578.377867	0.185720
578.589773	0.185782
578.801661	0.186524
579.013531	0.186252
579.225382	0.186199
579.437216	0.186288
579.649031	0.186975
579.860828	0.186973
580.072606	0.187055
580.284367	0.187336
580.496109	0.187361
580.707833	0.186963
580.919539	0.187318
581.131227	0.187559
581.342896	0.187658
581.554547	0.187769
581.766180	0.188201
581.977795	0.188366
582.189391	0.188749
582.400969	0.188944
582.612529	0.188842
582.824071	0.188620
583.035595	0.188859
583.247100	0.189391
583.458587	0.189474
583.670056	0.189542
583.881506	0.189894
584.092939	0.189673
584.304353	0.189752
584.515749	0.190082
584.727127	0.190659
584.938486	0.190810
585.149828	0.191014
585.361151	0.191085
585.572456	0.191070
585.783742	0.191074
585.995011	0.191735
586.206261	0.191825
586.417493	0.192081
586.628706	0.192020
586.839902	0.191989
587.051079	0.191904
587.262238	0.192015
587.473379	0.192443
587.684502	0.193028
587.895606	0.192976
588.106692	0.193516
588.317760	0.193898
588.528810	0.194017
588.739841	0.194110
588.950855	0.194382
589.161850	0.194747
589.372827	0.194689
589.583785	0.194461
589.794726	0.194826
590.005648	0.194955
590.216552	0.194922
590.427437	0.195242
590.638305	0.195616
590.849154	0.195673
591.059985	0.195672
591.270798	0.196040
591.481592	0.196322
591.692369	0.196244
591.903127	0.196098
592.113867	0.196190
592.324588	0.196360
592.535292	0.196356
592.745977	0.196399
592.956644	0.196229
593.167293	0.195674
593.377923	0.195585
593.588536	0.195533
593.799130	0.195578
594.009706	0.195338
594.220263	0.194962
594.430803	0.195075
594.641324	0.195320
594.851827	0.195631
595.062312	0.195975
595.272778	0.195751
595.483227	0.195976
595.693657	0.196265
595.904069	0.196749
596.114462	0.197019
596.324838	0.197364
596.535195	0.197333
596.745534	0.197398
596.955855	0.198023
597.166157	0.198480
597.376441	0.198475
597.586707	0.198664
597.796955	0.198714
598.007185	0.199100
598.217396	0.199038
598.427589	0.199272
598.637764	0.199284
598.847921	0.199300
599.058060	0.199455
599.268180	0.199887
599.478282	0.200115
599.688366	0.200329
599.898431	0.200191
600.108479	0.200460
600.318508	0.200391
600.528519	0.200929
600.738511	0.200944
600.948486	0.201095
601.158442	0.201136
601.368380	0.200648
601.578300	0.200539
601.788202	0.200794
601.998085	0.200780
602.207950	0.201046
602.417797	0.200913
602.627626	0.201202
602.837436	0.201425
603.047228	0.201579
603.257002	0.202039
603.466758	0.202199
603.676496	0.202005
603.886215	0.202207
604.095916	0.202472
604.305599	0.202850
604.515264	0.202742
604.724910	0.203013
604.934538	0.203090
605.144148	0.203454
605.353740	0.203497
605.563314	0.204215
605.772869	0.204212
605.982406	0.204274
606.191925	0.204756
606.401425	0.205083
606.610908	0.205311
606.820372	0.205596
607.029818	0.205444
607.239246	0.206244
607.448655	0.206256
607.658047	0.206620
607.867420	0.206683
608.076775	0.206548
608.286111	0.206905
608.495430	0.206989
608.704730	0.206800
608.914012	0.207107
609.123275	0.206871
609.332521	0.207144
609.541748	0.207180
609.750957	0.207538
609.960148	0.207735
610.169321	0.207879
610.378475	0.208171
610.587611	0.208455
610.796729	0.208588
611.005829	0.208663
611.214910	0.208608
611.423974	0.208754
611.633019	0.208922
611.842045	0.208828
612.051054	0.209055
612.260044	0.208768
612.469017	0.208918
612.677970	0.209242
612.886906	0.209471
613.095824	0.209673
613.304723	0.209798
613.513604	0.209947
613.722467	0.210157
613.931311	0.210046
614.140138	0.210333
614.348946	0.210472
614.557736	0.210827
614.766507	0.210506
614.975261	0.210634
615.183996	0.210879
615.392713	0.211040
615.601412	0.210878
615.810092	0.211226
616.018754	0.211436
616.227399	0.211463
616.436024	0.211375
616.644632	0.211947
616.853222	0.212114
617.061793	0.212295
617.270346	0.212556
617.478880	0.213198
617.687397	0.213270
617.895895	0.213339
618.104375	0.213662
618.312837	0.213937
618.521281	0.214191
618.729706	0.214499
618.938113	0.214671
619.146502	0.214559
619.354873	0.214469
619.563226	0.214543
619.771560	0.214440
619.979876	0.214525
620.188174	0.214409
620.396453	0.214269
620.604715	0.214151
620.812958	0.213968
621.021183	0.214108
621.229390	0.214274
621.437578	0.214284
621.645748	0.214484
621.853900	0.214644
622.062034	0.214853
622.270150	0.214966
622.478247	0.215153
622.686326	0.215413
622.894387	0.215496
623.102430	0.215864
623.310454	0.216027
623.518461	0.215914
623.726449	0.216297
623.934418	0.216550
624.142370	0.216803
624.350303	0.217001
624.558218	0.217115
624.766115	0.217252
624.973994	0.217181
625.181855	0.216955
625.389697	0.217358
625.597521	0.217304
625.805327	0.217087
626.013114	0.217144
626.220883	0.216989
626.428634	0.217125
626.636367	0.217151
626.844082	0.217126
627.051778	0.217131
627.259457	0.216876
627.467117	0.216823
627.674758	0.217021
627.882382	0.217023
628.089987	0.217359
628.297574	0.217095
628.505143	0.217190
628.712694	0.217152
628.920226	0.217621
629.127740	0.218039
629.335236	0.217981
629.542714	0.218159
629.750174	0.218379
629.957615	0.218147
630.165038	0.218580
630.372443	0.218807
630.579829	0.218931
630.787198	0.218902
630.994548	0.219094
631.201880	0.219314
631.409194	0.219380
631.616489	0.219610
631.823766	0.219885
632.031025	0.220186
632.238266	0.220251
632.445489	0.220701
632.652693	0.221062
632.859879	0.221301
633.067047	0.221491
633.274197	0.221783
633.481329	0.221723
633.688442	0.221892
633.895537	0.222038
634.102614	0.222303
634.309672	0.222407
634.516713	0.222447
634.723735	0.222507
634.930739	0.222801
635.137724	0.222714
635.344692	0.223056
635.551641	0.223527
635.758572	0.223721
635.965485	0.223881
636.172379	0.224309
636.379256	0.224580
636.586114	0.224689
636.792954	0.224917
636.999775	0.225294
637.206579	0.225570
637.413364	0.225652
637.620131	0.225582
637.826880	0.225822
638.033610	0.225655
638.240323	0.225951
638.447017	0.226216
638.653692	0.226339
638.860350	0.226633
639.066990	0.226714
639.273611	0.226924
639.480214	0.227322
639.686798	0.227380
639.893365	0.227809
640.099913	0.227722
640.306443	0.227654
640.512955	0.227715
640.719449	0.227568
640.925924	0.227672
641.132381	0.227718
641.338820	0.227608
641.545241	0.227725
641.751644	0.227483
641.958028	0.227576
642.164394	0.228019
642.370742	0.228141
642.577071	0.228192
642.783383	0.228532
642.989676	0.228473
643.195951	0.228711
643.402207	0.228741
643.608446	0.229002
643.814666	0.229102
644.020868	0.229070
644.227052	0.229218
644.433218	0.229587
644.639365	0.229531
644.845494	0.229801
645.051605	0.229799
645.257698	0.230066
645.463772	0.230034
645.669828	0.230072
645.875866	0.230305
646.081886	0.230509
646.287888	0.230451
646.493871	0.230358
646.699836	0.230405
646.905783	0.230856
647.111712	0.230938
647.317622	0.231186
647.523514	0.231568
647.729388	0.231621
647.935244	0.231785
648.141082	0.232147
648.346901	0.232608
648.552702	0.232893
648.758485	0.232736
648.964250	0.233167
649.169996	0.233063
649.375724	0.232996
649.581434	0.233135
649.787126	0.233037
649.992800	0.233122
650.198455	0.232989
650.404092	0.232900
650.609711	0.233095
650.815311	0.233020
651.020894	0.233320
651.226458	0.233513
651.432004	0.233515
651.637532	0.233612
651.843041	0.233641
652.048532	0.233924
652.254006	0.234303
652.459460	0.234634
652.664897	0.234832
652.870315	0.234938
653.075716	0.235157
653.281097	0.235474
653.486461	0.235926
653.691807	0.236201
653.897134	0.236455
654.102443	0.236695
654.307734	0.236776
654.513006	0.237023
654.718261	0.237512
654.923497	0.237775
655.128715	0.237918
655.333915	0.237913
655.539096	0.238127
655.744259	0.238224
655.949404	0.238379
656.154531	0.238824
656.359640	0.238912
656.564730	0.239044
656.769802	0.239186
656.974856	0.239431
657.179892	0.239759
657.384909	0.239795
657.589908	0.240019
657.794889	0.240029
657.999852	0.239875
658.204797	0.239952
658.409723	0.240269
658.614631	0.240350
658.819521	0.240470
659.024393	0.240816
659.229246	0.240949
659.434081	0.241035
659.638898	0.241106
659.843697	0.241228
660.048478	0.241417
660.253240	0.241118
660.457984	0.241413
660.662710	0.241754
660.867417	0.241628
661.072107	0.242022
661.276778	0.242182
661.481431	0.242568
661.686066	0.242843
661.890682	0.243179
662.095281	0.243573
662.299861	0.243682
662.504422	0.243758
662.708966	0.243920
662.913491	0.243964
663.117999	0.244335
663.322488	0.244721
663.526958	0.245043
663.731411	0.244963
663.935845	0.245219
664.140261	0.245270
664.344659	0.245257
664.549038	0.245492
664.753400	0.245748
664.957743	0.245994
665.162068	0.245820
665.366375	0.245723
665.570663	0.246049
665.774933	0.246283
665.979185	0.246625
666.183419	0.246790
666.387635	0.247125
666.591832	0.247014
666.796011	0.247111
667.000172	0.247394
667.204315	0.247424
667.408439	0.247276
667.612545	0.247300
667.816634	0.247399
668.020703	0.247720
668.224755	0.247551
668.428788	0.247893
668.632803	0.247868
668.836800	0.247847
669.040779	0.248348
669.244739	0.248742
669.448681	0.248799
669.652605	0.248923
669.856511	0.249011
670.060399	0.249236
670.264268	0.249552
670.468119	0.249958
670.671952	0.250280
670.875767	0.250380
671.079563	0.250679
671.283341	0.250643
671.487101	0.250732
671.690843	0.250915
671.894567	0.251465
672.098272	0.251154
672.301959	0.251245
672.505628	0.251457
672.709278	0.251746
672.912911	0.251821
673.116525	0.252241
673.320121	0.252684
673.523699	0.252784
673.727258	0.252713
673.930799	0.253318
674.134322	0.253336
674.337827	0.253394
674.541314	0.253210
674.744782	0.253496
674.948232	0.253610
675.151664	0.253697
675.355078	0.253972
675.558474	0.254152
675.761851	0.254185
675.965210	0.254320
676.168551	0.254470
676.371873	0.254900
676.575178	0.254948
676.778464	0.255188
676.981732	0.255448
677.184981	0.255673
677.388213	0.255889
677.591426	0.256087
677.794621	0.256267
677.997798	0.256467
678.200956	0.256497
678.404097	0.256709
678.607219	0.256921
678.810323	0.257045
679.013408	0.257142
679.216476	0.257390
679.419525	0.257544
679.622556	0.257762
679.825569	0.258036
680.028563	0.258037
680.231540	0.258076
680.434498	0.258424
680.637438	0.258533
680.840359	0.258949
681.043263	0.258842
681.246148	0.259037
681.449015	0.259221
681.651864	0.259338
681.854694	0.259677
682.057506	0.259872
682.260301	0.259797
682.463076	0.260137
682.665834	0.260109
682.868573	0.260581
683.071295	0.260743
683.273998	0.261004
683.476682	0.261179
683.679349	0.261342
683.881997	0.261393
684.084627	0.261747
684.287239	0.261755
684.489833	0.261757
684.692408	0.261795
684.894965	0.261795
685.097504	0.261745
685.300025	0.261794
685.502527	0.261691
685.705012	0.262131
685.907478	0.262052
686.109925	0.261969
686.312355	0.262104
686.514766	0.261973
686.717159	0.262122
686.919534	0.262024
687.121891	0.261897
687.324230	0.262162
687.526550	0.262059
687.728852	0.262143
687.931136	0.262327
688.133401	0.262414
688.335649	0.262279
688.537878	0.262350
688.740089	0.262636
688.942281	0.263033
689.144456	0.263435
689.346612	0.263456
689.548750	0.263557
689.750870	0.263544
689.952971	0.263650
690.155055	0.264133
690.357120	0.264543
690.559167	0.264690
690.761195	0.264953
690.963206	0.265131
691.165198	0.265195
691.367172	0.265335
691.569128	0.265576
691.771065	0.265996
691.972984	0.266222
692.174885	0.266351
692.376768	0.266544
692.578633	0.266491
692.780479	0.266289
692.982308	0.266563
693.184118	0.266862
693.385909	0.267107
