sample name	sample
index	867
start time	 04-08-2021  01:15:08 PM


Wavelength (nm)	Absorbance
494.344910	0.003483
494.563924	0.003483
494.782919	0.003483
495.001897	-0.013307
495.220856	0.000599
495.439797	0.003773
495.658719	0.005742
495.877624	-0.002469
496.096510	0.002895
496.315378	-0.004732
496.534227	-0.013473
496.753059	-0.006772
496.971872	-0.001411
497.190667	0.030361
497.409444	0.044863
497.628203	0.052539
497.846943	0.059591
498.065665	0.063018
498.284369	0.065802
498.503055	0.067418
498.721723	0.068923
498.940372	0.070023
499.159003	0.071341
499.377616	0.071896
499.596210	0.072811
499.814787	0.073404
500.033345	0.074083
500.251885	0.075130
500.470406	0.076617
500.688910	0.076766
500.907395	0.077466
501.125862	0.077420
501.344311	0.078656
501.562742	0.078768
501.781154	0.078037
501.999548	0.077431
502.217924	0.077418
502.436282	0.076401
502.654621	0.077029
502.872942	0.076327
503.091245	0.076712
503.309530	0.077253
503.527797	0.077439
503.746045	0.078212
503.964275	0.079576
504.182487	0.079719
504.400681	0.080729
504.618856	0.080592
504.837013	0.081261
505.055152	0.082337
505.273273	0.082497
505.491376	0.082156
505.709460	0.082839
505.927526	0.082292
506.145574	0.082551
506.363604	0.081912
506.581615	0.082598
506.799608	0.082746
507.017583	0.081600
507.235540	0.082026
507.453478	0.082852
507.671399	0.082133
507.889301	0.081650
508.107185	0.081428
508.325050	0.081607
508.542898	0.081914
508.760727	0.081919
508.978538	0.082643
509.196330	0.082339
509.414105	0.082605
509.631861	0.083174
509.849599	0.083565
510.067319	0.084459
510.285021	0.085066
510.502704	0.084987
510.720369	0.085163
510.938016	0.084961
511.155645	0.085308
511.373255	0.084899
511.590848	0.085088
511.808422	0.084887
512.025977	0.084701
512.243515	0.084629
512.461034	0.085131
512.678536	0.086058
512.896018	0.087023
513.113483	0.086719
513.330930	0.087227
513.548358	0.087378
513.765768	0.087651
513.983160	0.088322
514.200533	0.088371
514.417889	0.087747
514.635226	0.087501
514.852545	0.087633
515.069845	0.088128
515.287128	0.088695
515.504392	0.089435
515.721638	0.090389
515.938866	0.089936
516.156075	0.090406
516.373267	0.090289
516.590440	0.089963
516.807594	0.089660
517.024731	0.089976
517.241850	0.090472
517.458950	0.090600
517.676032	0.090270
517.893095	0.090866
518.110141	0.090692
518.327168	0.091166
518.544177	0.091588
518.761168	0.092106
518.978141	0.091479
519.195095	0.090878
519.412031	0.090676
519.628949	0.091319
519.845849	0.091856
520.062731	0.092195
520.279594	0.092639
520.496439	0.093399
520.713266	0.093688
520.930074	0.094416
521.146865	0.095044
521.363637	0.095422
521.580391	0.095400
521.797127	0.094747
522.013844	0.095023
522.230543	0.095400
522.447224	0.095011
522.663887	0.095161
522.880532	0.095464
523.097158	0.095300
523.313766	0.095656
523.530356	0.095955
523.746928	0.096685
523.963481	0.097530
524.180017	0.097444
524.396534	0.097615
524.613032	0.097825
524.829513	0.097854
525.045975	0.099308
525.262420	0.100044
525.478845	0.100563
525.695253	0.100286
525.911643	0.099922
526.128014	0.100590
526.344367	0.100731
526.560702	0.101481
526.777018	0.102712
526.993316	0.101432
527.209597	0.100909
527.425858	0.101433
527.642102	0.102293
527.858328	0.102816
528.074535	0.103003
528.290724	0.104050
528.506894	0.103816
528.723047	0.103215
528.939181	0.103755
529.155297	0.104630
529.371395	0.104665
529.587475	0.104743
529.803536	0.104717
530.019579	0.104810
530.235604	0.104961
530.451611	0.105324
530.667600	0.105659
530.883570	0.105977
531.099522	0.106110
531.315456	0.105994
531.531372	0.106368
531.747269	0.107369
531.963148	0.107677
532.179009	0.107854
532.394852	0.108244
532.610676	0.108198
532.826482	0.108482
533.042271	0.108377
533.258040	0.108717
533.473792	0.108637
533.689525	0.108116
533.905240	0.108328
534.120937	0.108392
534.336616	0.108274
534.552277	0.109126
534.767919	0.109579
534.983543	0.110044
535.199149	0.110675
535.414736	0.111180
535.630306	0.112063
535.845857	0.111765
536.061390	0.111944
536.276904	0.112209
536.492401	0.112253
536.707879	0.112535
536.923339	0.112849
537.138781	0.112751
537.354204	0.112329
537.569610	0.111904
537.784997	0.112573
538.000366	0.112826
538.215716	0.113221
538.431049	0.113349
538.646363	0.113734
538.861659	0.113969
539.076937	0.114384
539.292196	0.115406
539.507438	0.115964
539.722661	0.116386
539.937866	0.116455
540.153052	0.116171
540.368221	0.116373
540.583371	0.116385
540.798503	0.116551
541.013617	0.116742
541.228712	0.117063
541.443789	0.116688
541.658848	0.116459
541.873889	0.116587
542.088912	0.116857
542.303916	0.117095
542.518902	0.117458
542.733870	0.117745
542.948820	0.118035
543.163752	0.117834
543.378665	0.118575
543.593560	0.118686
543.808437	0.119202
544.023295	0.120195
544.238136	0.120681
544.452958	0.120874
544.667762	0.121023
544.882548	0.120936
545.097315	0.121387
545.312064	0.121674
545.526795	0.122321
545.741508	0.122686
545.956203	0.122363
546.170879	0.122140
546.385537	0.122488
546.600177	0.122867
546.814799	0.123154
547.029402	0.123063
547.243988	0.123382
547.458555	0.123756
547.673103	0.123590
547.887634	0.123960
548.102146	0.124624
548.316640	0.124853
548.531116	0.124618
548.745574	0.124743
548.960013	0.125090
549.174435	0.125278
549.388838	0.125296
549.603222	0.125932
549.817589	0.126074
550.031937	0.126126
550.246267	0.126342
550.460579	0.126451
550.674873	0.126690
550.889148	0.127143
551.103405	0.126912
551.317644	0.127123
551.531865	0.127166
551.746068	0.127194
551.960252	0.127240
552.174418	0.126947
552.388566	0.127735
552.602696	0.128140
552.816807	0.128005
553.030900	0.128206
553.244975	0.128289
553.459032	0.128343
553.673070	0.128926
553.887091	0.129422
554.101093	0.129928
554.315077	0.129596
554.529042	0.129266
554.742990	0.129522
554.956919	0.130071
555.170830	0.130450
555.384722	0.131055
555.598597	0.131116
555.812453	0.130879
556.026291	0.130618
556.240111	0.131097
556.453913	0.131742
556.667696	0.132038
556.881461	0.131805
557.095208	0.132139
557.308937	0.131726
557.522647	0.131759
557.736339	0.132208
557.950013	0.132729
558.163669	0.132556
558.377307	0.132996
558.590926	0.133023
558.804527	0.133577
559.018110	0.133387
559.231675	0.133688
559.445221	0.133858
559.658749	0.133679
559.872259	0.133647
560.085751	0.134310
560.299225	0.134215
560.512680	0.134407
560.726117	0.134429
560.939536	0.134485
561.152937	0.134895
561.366319	0.135222
561.579683	0.135473
561.793029	0.135636
562.006357	0.135301
562.219667	0.135067
562.432958	0.135223
562.646231	0.135233
562.859486	0.135452
563.072723	0.135102
563.285941	0.135196
563.499141	0.135516
563.712323	0.135874
563.925487	0.136170
564.138632	0.136353
564.351760	0.136461
564.564869	0.136617
564.777960	0.136670
564.991032	0.137089
565.204087	0.137294
565.417123	0.137296
565.630141	0.137566
565.843140	0.137787
566.056122	0.138153
566.269085	0.138393
566.482030	0.138682
566.694957	0.139165
566.907866	0.139367
567.120756	0.139303
567.333628	0.139254
567.546482	0.139190
567.759318	0.139192
567.972135	0.139201
568.184935	0.139495
568.397716	0.139632
568.610478	0.139209
568.823223	0.139255
569.035949	0.139541
569.248657	0.139906
569.461347	0.139920
569.674019	0.140109
569.886672	0.140291
570.099308	0.140110
570.311925	0.140479
570.524523	0.140801
570.737104	0.140883
570.949666	0.140812
571.162210	0.140859
571.374736	0.141322
571.587244	0.141485
571.799733	0.141654
572.012205	0.141935
572.224658	0.141941
572.437092	0.142244
572.649509	0.142317
572.861907	0.142546
573.074287	0.142660
573.286649	0.142716
573.498993	0.142920
573.711318	0.142953
573.923625	0.142790
574.135914	0.142830
574.348185	0.143147
574.560438	0.143487
574.772672	0.143748
574.984888	0.144131
575.197086	0.144214
575.409266	0.144211
575.621427	0.144472
575.833570	0.144972
576.045695	0.145231
576.257802	0.145005
576.469890	0.145138
576.681961	0.144950
576.894013	0.144963
577.106046	0.144935
577.318062	0.145175
577.530059	0.145330
577.742039	0.145170
577.954000	0.144971
578.165942	0.145322
578.377867	0.145641
578.589773	0.145705
578.801661	0.145673
579.013531	0.145758
579.225382	0.145968
579.437216	0.146181
579.649031	0.146339
579.860828	0.146717
580.072606	0.146847
580.284367	0.146550
580.496109	0.147169
580.707833	0.147237
580.919539	0.147809
581.131227	0.147717
581.342896	0.147813
581.554547	0.148106
581.766180	0.148195
581.977795	0.148177
582.189391	0.148382
582.400969	0.148279
582.612529	0.148882
582.824071	0.148657
583.035595	0.148645
583.247100	0.148452
583.458587	0.148220
583.670056	0.148084
583.881506	0.148304
584.092939	0.148143
584.304353	0.147898
584.515749	0.147917
584.727127	0.148055
584.938486	0.148359
585.149828	0.148940
585.361151	0.149322
585.572456	0.149365
585.783742	0.149826
585.995011	0.150374
586.206261	0.150864
586.417493	0.150865
586.628706	0.150798
586.839902	0.150792
587.051079	0.150711
587.262238	0.150632
587.473379	0.150905
587.684502	0.150714
587.895606	0.150714
588.106692	0.150994
588.317760	0.151014
588.528810	0.150924
588.739841	0.151117
588.950855	0.151182
589.161850	0.151667
589.372827	0.151972
589.583785	0.152289
589.794726	0.152203
590.005648	0.152304
590.216552	0.152892
590.427437	0.153549
590.638305	0.153751
590.849154	0.153802
591.059985	0.154115
591.270798	0.154376
591.481592	0.154087
591.692369	0.154446
591.903127	0.154418
592.113867	0.154152
592.324588	0.154182
592.535292	0.154257
592.745977	0.154233
592.956644	0.154169
593.167293	0.153796
593.377923	0.153976
593.588536	0.154068
593.799130	0.154097
594.009706	0.154109
594.220263	0.153994
594.430803	0.153856
594.641324	0.154292
594.851827	0.154420
595.062312	0.154968
595.272778	0.155357
595.483227	0.155545
595.693657	0.155791
595.904069	0.155917
596.114462	0.156182
596.324838	0.156349
596.535195	0.156642
596.745534	0.156816
596.955855	0.156714
597.166157	0.156616
597.376441	0.156577
597.586707	0.156470
597.796955	0.156702
598.007185	0.156898
598.217396	0.157233
598.427589	0.157218
598.637764	0.157444
598.847921	0.157802
599.058060	0.158168
599.268180	0.158676
599.478282	0.159031
599.688366	0.159070
599.898431	0.159284
600.108479	0.159735
600.318508	0.159244
600.528519	0.159253
600.738511	0.159433
600.948486	0.159493
601.158442	0.159669
601.368380	0.159636
601.578300	0.159714
601.788202	0.159826
601.998085	0.159624
602.207950	0.160225
602.417797	0.160350
602.627626	0.160468
602.837436	0.160576
603.047228	0.160463
603.257002	0.160652
603.466758	0.160803
603.676496	0.161189
603.886215	0.161316
604.095916	0.161337
604.305599	0.160974
604.515264	0.160895
604.724910	0.160938
604.934538	0.160864
605.144148	0.161330
605.353740	0.161429
605.563314	0.161112
605.772869	0.161271
605.982406	0.161498
606.191925	0.161948
606.401425	0.162130
606.610908	0.162136
606.820372	0.162071
607.029818	0.161600
607.239246	0.161689
607.448655	0.161770
607.658047	0.161923
607.867420	0.162142
608.076775	0.162093
608.286111	0.162318
608.495430	0.162699
608.704730	0.163238
608.914012	0.163444
609.123275	0.163630
609.332521	0.163619
609.541748	0.163950
609.750957	0.163874
609.960148	0.164165
610.169321	0.164051
610.378475	0.164046
610.587611	0.163992
610.796729	0.164203
611.005829	0.164376
611.214910	0.164740
611.423974	0.164809
611.633019	0.164816
611.842045	0.164870
612.051054	0.165201
612.260044	0.165372
612.469017	0.165341
612.677970	0.165413
612.886906	0.165524
613.095824	0.165685
613.304723	0.165283
613.513604	0.165518
613.722467	0.165672
613.931311	0.165665
614.140138	0.165652
614.348946	0.165915
614.557736	0.165929
614.766507	0.166022
614.975261	0.166158
615.183996	0.166676
615.392713	0.166529
615.601412	0.166622
615.810092	0.166508
616.018754	0.166616
616.227399	0.166667
616.436024	0.166728
616.644632	0.166829
616.853222	0.166817
617.061793	0.166772
617.270346	0.167077
617.478880	0.167167
617.687397	0.167324
617.895895	0.167481
618.104375	0.167474
618.312837	0.167639
618.521281	0.167755
618.729706	0.167754
618.938113	0.167861
619.146502	0.168076
619.354873	0.168193
619.563226	0.168364
619.771560	0.168366
619.979876	0.168515
620.188174	0.168651
620.396453	0.168640
620.604715	0.168805
620.812958	0.168840
621.021183	0.168812
621.229390	0.168917
621.437578	0.168948
621.645748	0.168889
621.853900	0.169023
622.062034	0.169322
622.270150	0.169558
622.478247	0.169775
622.686326	0.169844
622.894387	0.170260
623.102430	0.170387
623.310454	0.170487
623.518461	0.170945
623.726449	0.170939
623.934418	0.170922
624.142370	0.170949
624.350303	0.171077
624.558218	0.171285
624.766115	0.171317
624.973994	0.171388
625.181855	0.171535
625.389697	0.171456
625.597521	0.172120
625.805327	0.172293
626.013114	0.172108
626.220883	0.172139
626.428634	0.172215
626.636367	0.172159
626.844082	0.172323
627.051778	0.172530
627.259457	0.172905
627.467117	0.172778
627.674758	0.172802
627.882382	0.173127
628.089987	0.173129
628.297574	0.173502
628.505143	0.173739
628.712694	0.173772
628.920226	0.174067
629.127740	0.173790
629.335236	0.173792
629.542714	0.173862
629.750174	0.174136
629.957615	0.174474
630.165038	0.174254
630.372443	0.174186
630.579829	0.174322
630.787198	0.174196
630.994548	0.174530
631.201880	0.174620
631.409194	0.174939
631.616489	0.175121
631.823766	0.175122
632.031025	0.175578
632.238266	0.175933
632.445489	0.176221
632.652693	0.176452
632.859879	0.176650
633.067047	0.176788
633.274197	0.176688
633.481329	0.176709
633.688442	0.176647
633.895537	0.176661
634.102614	0.176789
634.309672	0.177076
634.516713	0.177068
634.723735	0.177255
634.930739	0.177409
635.137724	0.177716
635.344692	0.177949
635.551641	0.178240
635.758572	0.178206
635.965485	0.178032
636.172379	0.177936
636.379256	0.177925
636.586114	0.177784
636.792954	0.177940
636.999775	0.177907
637.206579	0.178091
637.413364	0.178365
637.620131	0.178631
637.826880	0.179050
638.033610	0.179065
638.240323	0.179359
638.447017	0.179617
638.653692	0.179748
638.860350	0.180189
639.066990	0.180282
639.273611	0.180358
639.480214	0.180424
639.686798	0.180504
639.893365	0.180649
640.099913	0.180862
640.306443	0.181063
640.512955	0.181324
640.719449	0.181260
640.925924	0.181346
641.132381	0.181736
641.338820	0.181820
641.545241	0.181910
641.751644	0.182127
641.958028	0.182263
642.164394	0.182311
642.370742	0.182352
642.577071	0.182521
642.783383	0.182312
642.989676	0.182364
643.195951	0.182515
643.402207	0.182695
643.608446	0.182736
643.814666	0.182813
644.020868	0.182958
644.227052	0.183006
644.433218	0.183339
644.639365	0.183716
644.845494	0.183655
645.051605	0.183860
645.257698	0.183877
645.463772	0.184105
645.669828	0.184554
645.875866	0.184582
646.081886	0.184864
646.287888	0.184936
646.493871	0.185297
646.699836	0.185658
646.905783	0.185487
647.111712	0.185805
647.317622	0.185732
647.523514	0.185891
647.729388	0.186076
647.935244	0.186049
648.141082	0.186306
648.346901	0.186373
648.552702	0.186393
648.758485	0.186803
648.964250	0.186696
649.169996	0.187050
649.375724	0.186976
649.581434	0.187296
649.787126	0.187482
649.992800	0.187359
650.198455	0.187376
650.404092	0.187407
650.609711	0.187649
650.815311	0.187997
651.020894	0.187955
651.226458	0.188254
651.432004	0.188526
651.637532	0.188737
651.843041	0.188985
652.048532	0.189281
652.254006	0.189350
652.459460	0.189464
652.664897	0.189446
652.870315	0.189841
653.075716	0.189975
653.281097	0.190020
653.486461	0.190085
653.691807	0.190099
653.897134	0.190000
654.102443	0.190265
654.307734	0.190555
654.513006	0.190987
654.718261	0.191197
654.923497	0.191388
655.128715	0.191574
655.333915	0.191948
655.539096	0.192292
655.744259	0.192580
655.949404	0.192734
656.154531	0.192928
656.359640	0.193000
656.564730	0.193084
656.769802	0.193109
656.974856	0.193120
657.179892	0.193136
657.384909	0.193323
657.589908	0.193514
657.794889	0.193840
657.999852	0.194061
658.204797	0.194155
658.409723	0.194334
658.614631	0.194346
658.819521	0.194567
659.024393	0.194796
659.229246	0.194898
659.434081	0.194764
659.638898	0.194834
659.843697	0.194814
660.048478	0.194994
660.253240	0.195101
660.457984	0.195405
660.662710	0.195683
660.867417	0.195805
661.072107	0.196159
661.276778	0.196576
661.481431	0.196725
661.686066	0.196749
661.890682	0.196749
662.095281	0.196736
662.299861	0.196919
662.504422	0.197017
662.708966	0.197239
662.913491	0.197164
663.117999	0.197415
663.322488	0.197457
663.526958	0.197731
663.731411	0.197988
663.935845	0.198306
664.140261	0.198547
664.344659	0.198737
664.549038	0.198990
664.753400	0.199083
664.957743	0.199413
665.162068	0.199853
665.366375	0.200121
665.570663	0.200297
665.774933	0.200493
665.979185	0.200668
666.183419	0.200933
666.387635	0.200856
666.591832	0.201136
666.796011	0.201017
667.000172	0.201225
667.204315	0.201354
667.408439	0.201691
667.612545	0.201948
667.816634	0.202096
668.020703	0.202061
668.224755	0.202353
668.428788	0.202411
668.632803	0.202685
668.836800	0.202796
669.040779	0.203130
669.244739	0.203203
669.448681	0.203240
669.652605	0.203460
669.856511	0.203725
670.060399	0.203954
670.264268	0.204294
670.468119	0.204443
670.671952	0.204518
670.875767	0.204433
671.079563	0.204734
671.283341	0.204934
671.487101	0.204929
671.690843	0.205042
671.894567	0.205015
672.098272	0.205134
672.301959	0.205393
672.505628	0.205603
672.709278	0.206094
672.912911	0.206179
673.116525	0.206369
673.320121	0.206598
673.523699	0.206876
673.727258	0.207064
673.930799	0.207194
674.134322	0.207305
674.337827	0.207217
674.541314	0.207239
674.744782	0.207405
674.948232	0.207691
675.151664	0.207871
675.355078	0.207899
675.558474	0.208356
675.761851	0.208774
675.965210	0.208978
676.168551	0.209365
676.371873	0.209293
676.575178	0.209587
676.778464	0.209590
676.981732	0.209642
677.184981	0.209689
677.388213	0.209521
677.591426	0.209364
677.794621	0.209692
677.997798	0.209598
678.200956	0.209776
678.404097	0.209806
678.607219	0.210169
678.810323	0.210420
679.013408	0.210919
679.216476	0.211030
679.419525	0.211264
679.622556	0.211131
679.825569	0.211643
680.028563	0.211978
680.231540	0.212059
680.434498	0.212175
680.637438	0.212512
680.840359	0.212661
681.043263	0.213173
681.246148	0.213421
681.449015	0.213783
681.651864	0.213858
681.854694	0.213958
682.057506	0.213949
682.260301	0.214059
682.463076	0.214043
682.665834	0.213980
682.868573	0.214211
683.071295	0.214401
683.273998	0.214399
683.476682	0.214481
683.679349	0.214579
683.881997	0.215035
684.084627	0.215387
684.287239	0.215506
684.489833	0.215644
684.692408	0.215475
684.894965	0.215648
685.097504	0.215809
685.300025	0.215921
685.502527	0.216060
685.705012	0.215902
685.907478	0.215912
686.109925	0.216119
686.312355	0.216326
686.514766	0.216610
686.717159	0.216538
686.919534	0.216738
687.121891	0.216853
687.324230	0.217142
687.526550	0.217380
687.728852	0.217346
687.931136	0.217419
688.133401	0.217717
688.335649	0.217948
688.537878	0.218019
688.740089	0.218151
688.942281	0.218349
689.144456	0.218502
689.346612	0.218709
689.548750	0.218874
689.750870	0.219108
689.952971	0.219038
690.155055	0.219126
690.357120	0.219241
690.559167	0.219387
690.761195	0.219569
690.963206	0.219582
691.165198	0.219649
691.367172	0.219904
691.569128	0.220206
691.771065	0.220435
691.972984	0.220493
692.174885	0.220681
692.376768	0.220769
692.578633	0.220951
692.780479	0.220901
692.982308	0.220988
693.184118	0.221018
693.385909	0.221029
