sample name	sample
index	1061
start time	 04-22-2021  10:06:22 AM


Wavelength (nm)	Absorbance
494.344910	0.097838
494.563924	0.097838
494.782919	0.097838
495.001897	-0.034028
495.220856	0.002674
495.439797	-0.015374
495.658719	-0.038478
495.877624	-0.056867
496.096510	-0.070604
496.315378	-0.062011
496.534227	-0.064072
496.753059	-0.056113
496.971872	-0.032583
497.190667	0.059104
497.409444	0.095941
497.628203	0.106871
497.846943	0.111843
498.065665	0.116171
498.284369	0.117003
498.503055	0.118853
498.721723	0.119222
498.940372	0.117837
499.159003	0.117433
499.377616	0.115810
499.596210	0.115867
499.814787	0.114850
500.033345	0.114478
500.251885	0.114547
500.470406	0.114064
500.688910	0.113732
500.907395	0.114598
501.125862	0.115802
501.344311	0.116223
501.562742	0.115196
501.781154	0.115866
501.999548	0.115508
502.217924	0.115956
502.436282	0.115322
502.654621	0.114438
502.872942	0.115119
503.091245	0.115376
503.309530	0.116107
503.527797	0.116531
503.746045	0.116588
503.964275	0.116745
504.182487	0.115874
504.400681	0.116185
504.618856	0.117007
504.837013	0.116831
505.055152	0.116011
505.273273	0.115400
505.491376	0.115302
505.709460	0.115964
505.927526	0.115984
506.145574	0.116326
506.363604	0.116599
506.581615	0.116030
506.799608	0.116307
507.017583	0.116243
507.235540	0.116814
507.453478	0.117082
507.671399	0.116264
507.889301	0.115548
508.107185	0.116268
508.325050	0.115869
508.542898	0.116110
508.760727	0.115583
508.978538	0.115939
509.196330	0.115845
509.414105	0.116139
509.631861	0.116724
509.849599	0.116513
510.067319	0.115731
510.285021	0.116133
510.502704	0.115863
510.720369	0.116073
510.938016	0.116291
511.155645	0.116918
511.373255	0.117227
511.590848	0.116826
511.808422	0.117441
512.025977	0.117981
512.243515	0.117724
512.461034	0.117652
512.678536	0.118269
512.896018	0.117448
513.113483	0.116996
513.330930	0.117328
513.548358	0.117840
513.765768	0.118207
513.983160	0.117912
514.200533	0.118841
514.417889	0.119413
514.635226	0.119744
514.852545	0.120858
515.069845	0.120731
515.287128	0.120523
515.504392	0.120668
515.721638	0.120162
515.938866	0.120067
516.156075	0.120970
516.373267	0.120609
516.590440	0.119630
516.807594	0.118764
517.024731	0.118985
517.241850	0.118201
517.458950	0.118556
517.676032	0.118598
517.893095	0.119585
518.110141	0.118701
518.327168	0.119480
518.544177	0.120761
518.761168	0.120753
518.978141	0.120752
519.195095	0.121145
519.412031	0.120818
519.628949	0.120654
519.845849	0.120901
520.062731	0.121731
520.279594	0.121811
520.496439	0.121053
520.713266	0.122237
520.930074	0.122266
521.146865	0.122787
521.363637	0.122999
521.580391	0.123060
521.797127	0.122975
522.013844	0.122532
522.230543	0.123022
522.447224	0.123428
522.663887	0.123519
522.880532	0.123751
523.097158	0.123849
523.313766	0.123834
523.530356	0.124180
523.746928	0.123959
523.963481	0.123755
524.180017	0.123513
524.396534	0.123242
524.613032	0.122523
524.829513	0.122463
525.045975	0.122241
525.262420	0.122024
525.478845	0.122145
525.695253	0.121672
525.911643	0.122009
526.128014	0.121481
526.344367	0.121600
526.560702	0.121908
526.777018	0.122427
526.993316	0.123132
527.209597	0.123451
527.425858	0.123653
527.642102	0.124106
527.858328	0.124287
528.074535	0.124203
528.290724	0.124363
528.506894	0.124137
528.723047	0.123788
528.939181	0.123410
529.155297	0.123202
529.371395	0.123479
529.587475	0.123987
529.803536	0.123543
530.019579	0.123991
530.235604	0.123808
530.451611	0.124054
530.667600	0.124678
530.883570	0.124872
531.099522	0.125451
531.315456	0.126084
531.531372	0.125446
531.747269	0.126569
531.963148	0.127602
532.179009	0.127620
532.394852	0.127914
532.610676	0.127444
532.826482	0.127204
533.042271	0.126631
533.258040	0.126438
533.473792	0.127415
533.689525	0.127198
533.905240	0.127239
534.120937	0.128160
534.336616	0.127980
534.552277	0.128259
534.767919	0.128777
534.983543	0.129968
535.199149	0.129906
535.414736	0.129732
535.630306	0.129676
535.845857	0.129581
536.061390	0.129932
536.276904	0.130509
536.492401	0.131038
536.707879	0.131158
536.923339	0.130579
537.138781	0.130700
537.354204	0.130865
537.569610	0.130662
537.784997	0.130669
538.000366	0.130149
538.215716	0.130439
538.431049	0.130286
538.646363	0.130041
538.861659	0.130040
539.076937	0.130146
539.292196	0.130048
539.507438	0.130422
539.722661	0.130116
539.937866	0.129644
540.153052	0.129405
540.368221	0.130236
540.583371	0.131003
540.798503	0.131402
541.013617	0.131722
541.228712	0.132275
541.443789	0.131960
541.658848	0.132500
541.873889	0.132949
542.088912	0.133089
542.303916	0.132929
542.518902	0.132705
542.733870	0.132899
542.948820	0.132769
543.163752	0.132317
543.378665	0.132429
543.593560	0.132699
543.808437	0.133154
544.023295	0.133295
544.238136	0.133300
544.452958	0.133057
544.667762	0.132928
544.882548	0.133691
545.097315	0.134620
545.312064	0.135216
545.526795	0.134803
545.741508	0.134784
545.956203	0.134644
546.170879	0.134649
546.385537	0.134917
546.600177	0.135147
546.814799	0.135561
547.029402	0.135011
547.243988	0.134710
547.458555	0.134695
547.673103	0.135188
547.887634	0.135182
548.102146	0.134994
548.316640	0.135112
548.531116	0.134814
548.745574	0.134242
548.960013	0.134832
549.174435	0.135187
549.388838	0.135651
549.603222	0.135086
549.817589	0.135817
550.031937	0.136051
550.246267	0.136066
550.460579	0.136521
550.674873	0.136672
550.889148	0.136269
551.103405	0.136594
551.317644	0.136475
551.531865	0.136604
551.746068	0.135981
551.960252	0.136112
552.174418	0.136267
552.388566	0.135832
552.602696	0.135702
552.816807	0.135859
553.030900	0.135982
553.244975	0.136466
553.459032	0.136841
553.673070	0.137557
553.887091	0.137262
554.101093	0.137312
554.315077	0.137852
554.529042	0.137552
554.742990	0.137383
554.956919	0.137202
555.170830	0.136912
555.384722	0.137019
555.598597	0.136859
555.812453	0.137117
556.026291	0.137136
556.240111	0.137124
556.453913	0.137359
556.667696	0.137240
556.881461	0.137189
557.095208	0.136861
557.308937	0.136238
557.522647	0.136012
557.736339	0.136059
557.950013	0.136278
558.163669	0.136683
558.377307	0.136801
558.590926	0.137402
558.804527	0.137274
559.018110	0.137869
559.231675	0.138214
559.445221	0.138552
559.658749	0.138836
559.872259	0.138798
560.085751	0.138619
560.299225	0.139477
560.512680	0.139403
560.726117	0.139552
560.939536	0.139144
561.152937	0.139258
561.366319	0.139173
561.579683	0.138976
561.793029	0.138965
562.006357	0.138994
562.219667	0.138523
562.432958	0.138195
562.646231	0.138039
562.859486	0.138729
563.072723	0.138831
563.285941	0.138807
563.499141	0.139128
563.712323	0.138985
563.925487	0.139066
564.138632	0.139217
564.351760	0.139540
564.564869	0.140047
564.777960	0.139960
564.991032	0.139661
565.204087	0.140164
565.417123	0.140042
565.630141	0.140125
565.843140	0.140002
566.056122	0.139807
566.269085	0.139868
566.482030	0.139863
566.694957	0.139775
566.907866	0.139830
567.120756	0.139501
567.333628	0.139708
567.546482	0.140087
567.759318	0.140102
567.972135	0.140178
568.184935	0.140325
568.397716	0.140381
568.610478	0.140465
568.823223	0.141194
569.035949	0.141447
569.248657	0.141621
569.461347	0.141851
569.674019	0.142092
569.886672	0.142476
570.099308	0.142506
570.311925	0.142464
570.524523	0.142416
570.737104	0.142216
570.949666	0.142083
571.162210	0.141673
571.374736	0.141513
571.587244	0.141298
571.799733	0.141171
572.012205	0.141209
572.224658	0.141148
572.437092	0.141729
572.649509	0.141547
572.861907	0.141478
573.074287	0.141593
573.286649	0.141524
573.498993	0.141909
573.711318	0.141838
573.923625	0.141963
574.135914	0.141696
574.348185	0.141218
574.560438	0.141686
574.772672	0.141904
574.984888	0.141989
575.197086	0.142127
575.409266	0.141884
575.621427	0.141809
575.833570	0.141556
576.045695	0.142047
576.257802	0.142072
576.469890	0.141739
576.681961	0.141998
576.894013	0.142227
577.106046	0.141944
577.318062	0.142100
577.530059	0.142345
577.742039	0.142584
577.954000	0.143172
578.165942	0.143405
578.377867	0.143797
578.589773	0.143702
578.801661	0.143947
579.013531	0.144290
579.225382	0.144387
579.437216	0.144240
579.649031	0.144440
579.860828	0.143573
580.072606	0.143516
580.284367	0.143707
580.496109	0.143869
580.707833	0.143765
580.919539	0.144150
581.131227	0.144150
581.342896	0.144517
581.554547	0.144304
581.766180	0.144679
581.977795	0.145067
582.189391	0.145100
582.400969	0.144964
582.612529	0.144832
582.824071	0.144894
583.035595	0.144919
583.247100	0.144636
583.458587	0.144881
583.670056	0.144626
583.881506	0.144284
584.092939	0.144129
584.304353	0.144268
584.515749	0.144566
584.727127	0.144678
584.938486	0.144816
585.149828	0.145094
585.361151	0.144973
585.572456	0.145544
585.783742	0.145505
585.995011	0.145493
586.206261	0.145398
586.417493	0.145052
586.628706	0.144874
586.839902	0.145071
587.051079	0.145320
587.262238	0.145350
587.473379	0.145441
587.684502	0.145832
587.895606	0.145864
588.106692	0.145946
588.317760	0.146542
588.528810	0.146689
588.739841	0.146664
588.950855	0.146542
589.161850	0.146831
589.372827	0.146588
589.583785	0.146455
589.794726	0.146586
590.005648	0.146520
590.216552	0.146583
590.427437	0.146398
590.638305	0.146374
590.849154	0.146545
591.059985	0.146592
591.270798	0.146972
591.481592	0.147140
591.692369	0.147108
591.903127	0.147141
592.113867	0.146757
592.324588	0.146852
592.535292	0.147094
592.745977	0.147204
592.956644	0.147426
593.167293	0.147430
593.377923	0.147861
593.588536	0.147960
593.799130	0.148625
594.009706	0.148795
594.220263	0.148954
594.430803	0.149106
594.641324	0.148960
594.851827	0.148567
595.062312	0.148454
595.272778	0.148318
595.483227	0.148325
595.693657	0.148148
595.904069	0.148252
596.114462	0.148378
596.324838	0.148442
596.535195	0.148546
596.745534	0.149014
596.955855	0.149030
597.166157	0.148816
597.376441	0.148960
597.586707	0.148897
597.796955	0.149082
598.007185	0.149193
598.217396	0.149041
598.427589	0.149411
598.637764	0.149589
598.847921	0.149936
599.058060	0.149849
599.268180	0.150215
599.478282	0.150406
599.688366	0.150208
599.898431	0.150330
600.108479	0.150855
600.318508	0.150554
600.528519	0.150133
600.738511	0.149968
600.948486	0.150240
601.158442	0.150064
601.368380	0.149913
601.578300	0.149848
601.788202	0.149655
601.998085	0.149591
602.207950	0.149510
602.417797	0.149904
602.627626	0.150122
602.837436	0.150296
603.047228	0.150129
603.257002	0.150455
603.466758	0.150922
603.676496	0.151089
603.886215	0.150892
604.095916	0.150993
604.305599	0.151122
604.515264	0.150975
604.724910	0.150945
604.934538	0.151033
605.144148	0.150695
605.353740	0.150567
605.563314	0.150855
605.772869	0.150766
605.982406	0.151151
606.191925	0.151027
606.401425	0.150782
606.610908	0.150976
606.820372	0.151374
607.029818	0.151644
607.239246	0.151815
607.448655	0.151479
607.658047	0.151783
607.867420	0.151828
608.076775	0.151994
608.286111	0.152470
608.495430	0.152360
608.704730	0.152416
608.914012	0.152375
609.123275	0.152317
609.332521	0.152241
609.541748	0.152199
609.750957	0.152388
609.960148	0.152055
610.169321	0.152043
610.378475	0.151946
610.587611	0.151695
610.796729	0.151634
611.005829	0.151631
611.214910	0.151771
611.423974	0.151599
611.633019	0.151235
611.842045	0.151495
612.051054	0.151586
612.260044	0.151796
612.469017	0.151751
612.677970	0.151719
612.886906	0.151726
613.095824	0.151805
613.304723	0.152031
613.513604	0.152073
613.722467	0.152113
613.931311	0.152111
614.140138	0.152112
614.348946	0.152271
614.557736	0.152555
614.766507	0.152669
614.975261	0.152847
615.183996	0.152865
615.392713	0.153058
615.601412	0.152713
615.810092	0.152754
616.018754	0.152731
616.227399	0.152547
616.436024	0.152530
616.644632	0.152276
616.853222	0.152231
617.061793	0.152078
617.270346	0.151908
617.478880	0.152153
617.687397	0.152002
617.895895	0.151807
618.104375	0.152103
618.312837	0.152055
618.521281	0.152232
618.729706	0.152373
618.938113	0.152499
619.146502	0.152640
619.354873	0.152739
619.563226	0.152638
619.771560	0.153082
619.979876	0.152960
620.188174	0.153069
620.396453	0.152983
620.604715	0.152914
620.812958	0.152754
621.021183	0.152898
621.229390	0.153241
621.437578	0.153521
621.645748	0.153474
621.853900	0.153359
622.062034	0.153475
622.270150	0.153641
622.478247	0.153509
622.686326	0.153572
622.894387	0.153437
623.102430	0.153276
623.310454	0.153434
623.518461	0.153356
623.726449	0.153406
623.934418	0.153239
624.142370	0.153439
624.350303	0.153443
624.558218	0.153536
624.766115	0.153576
624.973994	0.153482
625.181855	0.153258
625.389697	0.153474
625.597521	0.153742
625.805327	0.153992
626.013114	0.153714
626.220883	0.154047
626.428634	0.154145
626.636367	0.154132
626.844082	0.154170
627.051778	0.154675
627.259457	0.154689
627.467117	0.154846
627.674758	0.154676
627.882382	0.154873
628.089987	0.154740
628.297574	0.154978
628.505143	0.155032
628.712694	0.155160
628.920226	0.154729
629.127740	0.154552
629.335236	0.154580
629.542714	0.154822
629.750174	0.154798
629.957615	0.154904
630.165038	0.154678
630.372443	0.154874
630.579829	0.154924
630.787198	0.155048
630.994548	0.155195
631.201880	0.155275
631.409194	0.155217
631.616489	0.155547
631.823766	0.155734
632.031025	0.156147
632.238266	0.156020
632.445489	0.156082
632.652693	0.156214
632.859879	0.156274
633.067047	0.156357
633.274197	0.156627
633.481329	0.156564
633.688442	0.156477
633.895537	0.156377
634.102614	0.156689
634.309672	0.156841
634.516713	0.156801
634.723735	0.156902
634.930739	0.156803
635.137724	0.156682
635.344692	0.157031
635.551641	0.157003
635.758572	0.156804
635.965485	0.156699
636.172379	0.156622
636.379256	0.156737
636.586114	0.156903
636.792954	0.156958
636.999775	0.157034
637.206579	0.156883
637.413364	0.157048
637.620131	0.157384
637.826880	0.157531
638.033610	0.157751
638.240323	0.157887
638.447017	0.157672
638.653692	0.157637
638.860350	0.157760
639.066990	0.158020
639.273611	0.158274
639.480214	0.158385
639.686798	0.158576
639.893365	0.158615
640.099913	0.158931
640.306443	0.159352
640.512955	0.159651
640.719449	0.159717
640.925924	0.159592
641.132381	0.159868
641.338820	0.159981
641.545241	0.159867
641.751644	0.160100
641.958028	0.160229
642.164394	0.160319
642.370742	0.160316
642.577071	0.160452
642.783383	0.160689
642.989676	0.160364
643.195951	0.160616
643.402207	0.160878
643.608446	0.160748
643.814666	0.160662
644.020868	0.160598
644.227052	0.160526
644.433218	0.160501
644.639365	0.160150
644.845494	0.160210
645.051605	0.159966
645.257698	0.159933
645.463772	0.160049
645.669828	0.160294
645.875866	0.160338
646.081886	0.160619
646.287888	0.160839
646.493871	0.160965
646.699836	0.161089
646.905783	0.160943
647.111712	0.161071
647.317622	0.161083
647.523514	0.160922
647.729388	0.161049
647.935244	0.161023
648.141082	0.161026
648.346901	0.161212
648.552702	0.161319
648.758485	0.161787
648.964250	0.161640
649.169996	0.161675
649.375724	0.161815
649.581434	0.161925
649.787126	0.161982
649.992800	0.161926
650.198455	0.162251
650.404092	0.162458
650.609711	0.162424
650.815311	0.162781
651.020894	0.162922
651.226458	0.162875
651.432004	0.162915
651.637532	0.163047
651.843041	0.163313
652.048532	0.163350
652.254006	0.163340
652.459460	0.163582
652.664897	0.163513
652.870315	0.163636
653.075716	0.163933
653.281097	0.164064
653.486461	0.164399
653.691807	0.164555
653.897134	0.164551
654.102443	0.164656
654.307734	0.164719
654.513006	0.165062
654.718261	0.165253
654.923497	0.165215
655.128715	0.165201
655.333915	0.165187
655.539096	0.165289
655.744259	0.165309
655.949404	0.165465
656.154531	0.165356
656.359640	0.165128
656.564730	0.164919
656.769802	0.165089
656.974856	0.165216
657.179892	0.165407
657.384909	0.165339
657.589908	0.165387
657.794889	0.165383
657.999852	0.165799
658.204797	0.166216
658.409723	0.166467
658.614631	0.166497
658.819521	0.166433
659.024393	0.166385
659.229246	0.166648
659.434081	0.166665
659.638898	0.166894
659.843697	0.166674
660.048478	0.166606
660.253240	0.166765
660.457984	0.166839
660.662710	0.167069
660.867417	0.167342
661.072107	0.167314
661.276778	0.167549
661.481431	0.167672
661.686066	0.167883
661.890682	0.167883
662.095281	0.168160
662.299861	0.168330
662.504422	0.168461
662.708966	0.168187
662.913491	0.168370
663.117999	0.168622
663.322488	0.168364
663.526958	0.168582
663.731411	0.168825
663.935845	0.168776
664.140261	0.168886
664.344659	0.168719
664.549038	0.169046
664.753400	0.168847
664.957743	0.168792
665.162068	0.169135
665.366375	0.168926
665.570663	0.168818
665.774933	0.168796
665.979185	0.168848
666.183419	0.168952
666.387635	0.168798
666.591832	0.168965
666.796011	0.169074
667.000172	0.168973
667.204315	0.169355
667.408439	0.169695
667.612545	0.169776
667.816634	0.169566
668.020703	0.169788
668.224755	0.170202
668.428788	0.170397
668.632803	0.170623
668.836800	0.170791
669.040779	0.170717
669.244739	0.170503
669.448681	0.170581
669.652605	0.170846
669.856511	0.171025
670.060399	0.170857
670.264268	0.170967
670.468119	0.170969
670.671952	0.170965
670.875767	0.170887
671.079563	0.171174
671.283341	0.171318
671.487101	0.171386
671.690843	0.171327
671.894567	0.171452
672.098272	0.171276
672.301959	0.171332
672.505628	0.171386
672.709278	0.171621
672.912911	0.171736
673.116525	0.171643
673.320121	0.171818
673.523699	0.171945
673.727258	0.172014
673.930799	0.172236
674.134322	0.172300
674.337827	0.172463
674.541314	0.172428
674.744782	0.172299
674.948232	0.172642
675.151664	0.172580
675.355078	0.172824
675.558474	0.172978
675.761851	0.173162
675.965210	0.173129
676.168551	0.173307
676.371873	0.173505
676.575178	0.173844
676.778464	0.173882
676.981732	0.174147
677.184981	0.174197
677.388213	0.174384
677.591426	0.174537
677.794621	0.174960
677.997798	0.175163
678.200956	0.175344
678.404097	0.175300
678.607219	0.175487
678.810323	0.175488
679.013408	0.175567
679.216476	0.175363
679.419525	0.175442
679.622556	0.175392
679.825569	0.175252
680.028563	0.175180
680.231540	0.175112
680.434498	0.175134
680.637438	0.175133
680.840359	0.175003
681.043263	0.175308
681.246148	0.175228
681.449015	0.175199
681.651864	0.175332
681.854694	0.175579
682.057506	0.175865
682.260301	0.175865
682.463076	0.176241
682.665834	0.176548
682.868573	0.176692
683.071295	0.176917
683.273998	0.176941
683.476682	0.177031
683.679349	0.176996
683.881997	0.177034
684.084627	0.177172
684.287239	0.176909
684.489833	0.176921
684.692408	0.176804
684.894965	0.176780
685.097504	0.177003
685.300025	0.177015
685.502527	0.177033
685.705012	0.177039
685.907478	0.177071
686.109925	0.177315
686.312355	0.177316
686.514766	0.177391
686.717159	0.177440
686.919534	0.177185
687.121891	0.177418
687.324230	0.177581
687.526550	0.177469
687.728852	0.177466
687.931136	0.177403
688.133401	0.177347
688.335649	0.177524
688.537878	0.177664
688.740089	0.177965
688.942281	0.177831
689.144456	0.177843
689.346612	0.177922
689.548750	0.178091
689.750870	0.178303
689.952971	0.178532
690.155055	0.178678
690.357120	0.178534
690.559167	0.178470
690.761195	0.178727
690.963206	0.178969
691.165198	0.179248
691.367172	0.179171
691.569128	0.179166
691.771065	0.179266
691.972984	0.179373
692.174885	0.179842
692.376768	0.180162
692.578633	0.180325
692.780479	0.180343
692.982308	0.180428
693.184118	0.180673
693.385909	0.180685
