sample name	sample
index	621
start time	 03-19-2021  02:33:15 PM
880	0.025924
Peak Time (s)	92.037
Peak Height 	0.02592
calc peak height	90,93
Baseline Time (s)	11.537
Baseline Value 	-0.004266
subtract baseline	10,4
Abs	0.012316
Peak Time (s)	90.535
Peak Height 	0.01232
calc peak height	90,93
Baseline Time (s)	8.536
Baseline Value 	0.002257
subtract baseline	10,3
PK_550	0.009437
Peak Time (s)	91.035
Peak Height 	0.009437
calc peak height	90,93
Baseline Time (s)	11.537
Baseline Value 	3.7027E-5
subtract baseline	10,2
PK_880	0.011004
Peak Time (s)	91.035
Peak Height 	0.011
calc peak height	90,93
Baseline Time (s)	8.536
Baseline Value 	0.00136
subtract baseline	10,1


Time (s)	A880-A510	A880-A775	A880-A975	A880	I510	I775	I975	I880	
0.038500	-0.004446	-0.000086	-0.005347	0.007922	7002.668255	46383.890667	4031.853992	24495.295173
0.536000	-0.002182	0.000027	-0.005385	0.005293	7048.607740	46658.786080	4038.417723	24626.111098
1.037000	-0.001264	0.000117	-0.002596	0.004404	7065.713094	46757.401223	4047.804185	24670.544367
1.536500	-0.001722	-0.000348	-0.002223	0.001726	7086.811146	46980.923593	4055.650583	24804.876932
2.039500	-0.005885	-0.000729	-0.007316	0.007157	6996.384192	46396.099513	4028.817208	24533.285831
2.537500	-0.000454	0.000949	-0.001732	0.002365	7092.799055	47047.601544	4055.267404	24772.725434
3.035000	0.001964	-0.000102	-0.001594	-0.001455	7152.765846	47329.453514	4065.526157	24965.507813
3.534500	-0.000789	0.000265	-0.001502	0.000741	7105.126711	47143.180209	4060.062437	24854.497848
4.035500	-0.002674	0.000179	0.001896	0.002037	7074.788587	47002.837172	4065.520528	24789.230915
4.535500	0.002167	0.000516	0.001567	0.000680	7134.100865	47174.893517	4068.200195	24857.574432
5.036000	0.002079	0.000217	0.005546	0.000355	7136.385956	47177.568341	4079.487970	24873.974780
5.536000	-0.001350	-0.000239	0.002776	0.000662	7100.510232	47099.929233	4071.406639	24858.462681
6.039500	-0.001051	-0.000571	-0.002759	-0.000706	7116.484775	47205.254251	4060.554562	24927.592507
6.537000	0.001154	-0.000080	-0.000216	0.000008	7130.820292	47182.636773	4065.305201	24891.521414
7.037000	-0.000690	0.000309	0.003939	0.000456	7108.799389	47176.593004	4074.994212	24868.870520
7.537500	0.000175	0.000258	0.001132	0.000063	7120.868293	47211.415099	4068.675571	24888.717808
8.035000	0.002603	0.000722	0.000471	0.000323	7141.754481	47232.275887	4066.275902	24875.604971
8.535500	0.000000	-0.000072	0.000000	-0.000399	7123.631263	47224.912596	4066.927840	24912.065942
9.035500	-0.000665	-0.000429	-0.002029	-0.000124	7114.601720	47160.512841	4060.936983	24898.160266
9.535500	0.001292	0.000111	0.002929	-0.000059	7132.794604	47208.917284	4073.698256	24894.902747
10.036000	-0.004076	-0.000205	-0.002161	0.004675	7036.580537	46697.601184	4048.223495	24656.974815
10.539000	0.001028	0.000862	0.001376	0.000505	7124.822748	47227.896724	4068.157833	24866.392987
11.037000	-0.000333	0.000506	-0.000740	0.000036	7116.247071	47239.362779	4063.869710	24890.068035
11.537000	0.000802	0.000000	0.002457	0.000000	7127.508443	47191.571762	4072.305593	24891.903197
12.037000	-0.000089	-0.000365	0.001209	-0.000374	7122.535186	47192.512436	4070.020809	24910.823460
12.534500	-0.000212	0.000668	-0.000683	0.000563	7112.361393	47202.324689	4062.649633	24863.489335
13.035000	-0.000239	-0.000090	0.004253	0.000590	7111.839442	47122.377777	4075.469433	24862.122680
13.535000	-0.000995	0.000438	0.001116	0.000650	7104.021394	47169.899774	4067.100407	24859.065290
14.035500	-0.001990	-0.000149	-0.001313	0.002717	7074.833895	46900.818330	4055.442537	24755.071682
14.536000	-0.001818	0.000560	-0.004075	0.002697	7076.656078	46974.598499	4048.389247	24756.082545
15.039000	0.000797	0.000529	0.000309	0.001166	7116.254532	47126.774391	4063.660167	24833.081310
15.536500	-0.002620	0.000003	0.000129	0.000391	7090.979341	47152.139643	4065.206170	24872.159926
16.036500	-0.004227	0.000336	-0.004039	0.005009	7032.012825	46718.413449	4042.567068	24640.286115
16.537000	-0.000679	0.000667	0.003270	0.001026	7103.453049	47155.065396	4071.748934	24840.151550
17.037000	0.002370	0.000344	0.005258	-0.002772	7169.479144	47509.814063	4086.995738	25032.369140
17.535500	0.001029	0.000429	-0.005361	0.001703	7113.326043	47062.130793	4047.641377	24806.044299
18.035500	-0.003512	-0.000332	-0.003614	0.002961	7058.082404	46857.566823	4048.892784	24742.799512
18.535500	-0.000056	0.000417	0.005951	0.002128	7098.880791	47017.772131	4075.889948	24784.684499
19.036000	0.000832	0.000175	-0.002518	0.001656	7111.889295	47041.107571	4055.070857	24808.415317
19.536000	-0.002059	-0.000032	-0.000187	0.001114	7089.430732	47075.123684	4062.506208	24835.714086
20.039000	-0.001804	-0.000184	-0.000804	0.002882	7075.026390	46880.494759	4056.328495	24746.769699
20.536500	0.000615	0.000079	0.002711	0.001498	7111.319220	47047.324357	4069.051606	24816.337230
21.037000	-0.000205	-0.000531	-0.001697	0.000769	7110.456549	47059.524158	4059.486103	24853.105806
21.537000	-0.000182	0.000271	0.002077	0.001252	7106.040273	47091.770800	4068.036716	24828.721154
22.034500	0.000762	0.000048	-0.003981	0.002912	7099.198882	46901.013723	4048.079691	24745.286096
22.535000	-0.000147	-0.000249	0.002589	0.001211	7106.776656	47043.149980	4069.483620	24830.803516
23.035000	-0.000047	0.000605	-0.001562	0.001997	7100.209829	47050.072625	4056.657433	24791.250496
23.535500	-0.002202	0.000229	-0.001310	0.001523	7084.168782	47060.045957	4058.534319	24815.075378
24.036000	0.001081	0.000352	0.000543	0.001659	7114.249981	47058.709315	4062.986076	24808.243013
24.536000	-0.000880	0.000782	0.002431	0.002206	7090.266723	47046.928572	4066.474412	24780.757802
25.036500	-0.001922	-0.000672	-0.000964	0.000817	7093.578473	47040.269985	4061.260740	24850.685608
25.536500	-0.001455	0.000546	0.001969	0.002091	7085.869569	47034.560533	4065.569811	24786.508527
26.034000	0.000527	0.000404	0.002624	0.001713	7108.425762	47058.502367	4068.263834	24805.539519
26.537500	0.000080	-0.000143	0.001578	0.001323	7107.878564	47042.641309	4066.554129	24825.174375
27.034500	0.001119	0.000514	0.004427	-0.001195	7142.085517	47365.874406	4080.625852	24952.359362
27.535500	0.000898	0.000829	0.007670	0.000601	7122.652432	47214.855291	4084.450097	24861.580301
28.035500	-0.001300	0.000833	0.000496	0.006356	7046.908781	46632.938909	4050.730147	24573.155569
28.535500	0.000473	-0.000071	0.002006	0.000559	7118.975010	47127.499036	4069.663710	24863.675862
29.036000	0.000966	0.000084	0.003233	0.000621	7123.117118	47136.968879	4072.711528	24860.572088
29.539000	0.002881	0.000703	0.003265	0.000915	7138.722877	47170.024946	4072.027006	24845.739180
30.036500	-0.003124	-0.000488	-0.004248	0.005401	7038.704013	46596.185624	4041.036471	24620.728171
30.537500	-0.002565	-0.000881	-0.002134	0.001878	7077.341423	46911.614434	4055.489049	24797.247464
31.037000	-0.003117	0.000114	0.000920	0.002010	7070.840654	46999.070354	4063.054070	24790.607102
31.535000	-0.000263	0.000058	0.001356	0.000373	7113.687268	47159.442344	4068.451516	24873.052597
32.035000	-0.004693	0.000003	0.000370	0.006243	7016.062541	46560.919276	4050.696942	24578.775469
32.535000	0.000492	0.000094	-0.000717	0.000590	7118.854602	47141.116083	4062.488770	24862.100905
33.041000	0.000530	-0.000150	0.003272	0.000378	7121.261238	47137.918599	4073.452787	24872.834787
33.536000	0.001523	0.000114	0.003944	-0.001239	7146.409893	47329.466936	4079.465730	24954.566798
34.036500	0.000025	0.000627	-0.003962	0.002574	7095.380646	46993.792924	4048.993312	24762.229549
34.536500	0.000794	0.000674	0.005207	0.002339	7104.987082	47022.494070	4073.383072	24774.075509
35.037000	-0.001081	0.000051	0.000380	0.001797	7092.238812	47014.197374	4062.202143	24801.290568
35.537000	-0.000709	0.000566	-0.000036	0.002458	7089.496050	46999.445852	4059.411878	24768.098129
36.037000	0.001220	0.000289	-0.000655	0.001914	7113.138835	47026.400159	4059.215915	24795.406772
36.537500	-0.001755	-0.000663	-0.002172	0.001228	7091.249408	46999.592923	4057.068928	24829.975818
37.035500	-0.000492	0.000489	0.002359	0.002264	7093.416512	47011.258619	4066.137056	24777.841426
37.535000	-0.001581	0.000250	0.003731	0.002028	7085.276964	47010.968560	4070.331415	24789.692984
38.036000	-0.002193	-0.000729	0.000957	0.001156	7087.756873	47000.180018	4065.370940	24833.598186
38.535500	-0.000243	0.000069	0.002363	0.002017	7098.142628	46993.735282	4066.787857	24790.221768
39.039000	-0.000673	-0.000526	0.003186	0.001331	7100.587358	47002.968808	4070.729690	24824.755084
39.536500	0.000767	0.000659	0.003839	0.002498	7103.201263	47004.782535	4069.384365	24766.050213
40.037000	-0.000725	0.000043	-0.002228	0.003581	7078.645411	46832.950368	4050.860954	24711.737019
40.534500	-0.000707	0.000409	0.005736	0.001801	7095.773295	47050.011650	4076.181910	24801.082320
41.037500	0.000479	0.000078	0.004610	0.001763	7107.483938	47020.404108	4073.326645	24803.016566
41.535000	-0.001207	0.000695	0.000651	0.002409	7085.202604	47017.384402	4061.318440	24770.517425
42.035000	-0.001612	0.000497	0.001278	0.003838	7067.769474	46852.795921	4059.240566	24698.846933
42.535500	-0.000011	0.000252	-0.002464	0.001837	7102.084385	47030.490124	4054.742229	24799.283528
43.036000	-0.001373	0.000725	0.002150	0.002139	7086.198876	47047.859121	4065.915119	24784.093775
43.538500	0.000734	0.000081	0.000774	0.001647	7111.039667	47032.477693	4063.618768	24808.876363
44.036500	-0.003167	0.000388	0.001529	0.003815	7053.266117	46844.121768	4059.951323	24700.004882
44.542000	-0.001140	-0.000335	0.002865	0.000078	7108.111376	47149.512591	4073.169311	24887.965853
45.037000	-0.001368	0.000236	0.000590	0.000484	7102.044463	47166.304436	4066.165235	24867.468823
45.537500	0.002723	0.000505	0.000062	0.000835	7137.972659	47157.961962	4063.877146	24849.750159
46.037500	-0.001617	0.000180	0.003631	0.004353	7062.850616	46768.837084	4064.010811	24673.092410
46.537500	0.001527	0.000042	-0.003009	0.000192	7132.641784	47176.398087	4057.582914	24882.227883
47.035500	0.001131	0.000715	0.002797	0.000168	7129.058435	47247.270117	4072.757300	24883.426266
47.535500	-0.001722	0.000205	-0.000553	0.003393	7070.952762	46868.271484	4055.657795	24721.168592
48.036000	-0.002239	0.000524	-0.005044	0.004969	7051.136218	46741.448631	4040.111214	24642.318031
48.536000	0.001572	-0.000213	-0.002446	0.000551	7129.616899	47113.866186	4058.109673	24864.090408
49.036500	0.000509	0.002086	0.005847	0.001658	7108.769497	47235.112468	4076.849013	24808.283591
49.536500	-0.000492	0.000531	-0.001798	0.002455	7091.583113	46996.195322	4054.866874	24768.226060
50.040000	-0.003262	0.000214	0.002117	0.005033	7040.874230	46703.665479	4058.318992	24639.079339
50.535000	0.000355	0.000356	0.004162	0.004568	7079.516976	46764.813679	4064.831633	24662.316231
51.035000	-0.013100	-0.012818	0.004831	0.196555	5522.421864	30281.607618	3662.213283	16905.158916
51.535000	-0.044753	-0.034122	0.006944	-0.083844	7512.702911	52553.947193	4328.859531	29564.198489
52.035500	-0.022383	-0.034683	0.005948	-0.149021	8532.143895	60506.037322	4550.873144	33873.431442
52.536000	-0.020125	-0.020944	0.010803	-0.075805	7690.432771	53144.042222	4315.508238	29076.122137
53.038500	-0.033132	-0.024255	0.004301	-0.084723	7645.984829	53795.795384	4323.206924	29618.104872
53.536500	-0.029257	-0.025684	-0.007776	-0.122137	8114.539310	58185.308248	4406.616418	32017.317637
54.036500	-0.010988	-0.038553	-0.004441	-0.172984	9005.778998	63229.854522	4602.177338	35627.551065
54.537000	-0.001496	-0.041687	-0.000528	-0.180633	9249.644245	63859.379656	4647.163115	36208.120507
55.037000	0.008302	-0.038912	-0.002505	-0.178155	9356.751887	63901.049724	4629.685630	36018.906316
55.534500	0.004796	-0.020072	0.002449	-0.141116	8785.533609	61401.117757	4508.986499	33315.641239
56.035000	0.000163	-0.015340	-0.002390	-0.119737	8446.170125	59204.302024	4416.769684	31857.103581
56.535500	0.005531	-0.009530	0.000698	-0.098132	8244.410464	57196.252650	4354.913931	30454.288329
57.036000	-0.001119	-0.012013	-0.003225	-0.098125	8163.853540	56886.458804	4342.122310	30453.860316
57.536000	-0.004440	-0.008227	0.000790	-0.060539	7695.010069	52850.419525	4237.435358	28173.749564
58.036000	-0.001910	-0.005970	0.002698	-0.046695	7572.940016	51537.608666	4202.122962	27382.419423
58.536500	-0.003141	-0.005091	0.000691	-0.028995	7375.679439	49692.965726	4145.902463	26406.712354
59.037000	-0.002706	-0.004454	-0.001502	-0.015431	7243.832688	48323.200363	4102.752173	25685.490710
59.536500	-0.005593	-0.004006	-0.000042	-0.007768	7140.736222	47576.157294	4086.188739	25287.853415
60.034500	-0.003231	-0.002912	-0.000054	-0.000380	7092.508632	46934.629053	4066.740227	24911.133922
60.534500	-0.003721	-0.002328	0.000476	0.006570	7022.111716	46295.122146	4050.128939	24562.505792
61.035000	-0.003179	-0.002332	0.004810	0.012370	6973.090824	45720.074209	4046.370123	24275.807119
61.535500	-0.001869	0.001487	0.003321	0.027573	6846.368471	44614.429889	4004.460429	23542.219806
62.035500	-0.001045	0.001365	-0.004289	0.018246	6938.553872	45506.207097	4008.696325	23989.225577
62.539000	-0.000149	0.001906	0.003741	0.014454	6981.860182	45932.646867	4038.329141	24173.719001
63.036500	0.002635	0.002366	-0.000821	0.011944	7031.327282	46227.223605	4033.126365	24296.698868
63.542000	0.001067	0.002269	0.000508	0.014297	6994.634639	45984.012879	4030.541046	24181.366310
64.042500	0.002015	0.002694	-0.000602	0.008266	7060.184338	46628.076307	4043.026882	24478.266621
64.536500	0.003371	0.003245	0.002362	0.007866	7076.840817	46723.668266	4051.644216	24498.073300
65.035000	0.001977	0.003017	0.006298	0.007762	7064.596661	46711.152460	4062.080580	24503.232879
65.535500	-0.001419	0.004059	0.000342	0.013918	6975.051203	46199.319650	4031.079372	24199.937335
66.035500	0.003721	0.004126	0.005545	0.008705	7072.190345	46727.858189	4057.686524	24456.480605
66.535500	0.005008	0.004356	0.009721	0.008770	7083.811015	46744.531398	4068.367668	24453.274640
67.036000	0.003840	0.004840	0.008019	0.009807	7062.874727	46688.889000	4061.241116	24402.018606
67.536500	0.001794	0.004982	0.001708	0.015715	6988.204228	46112.448903	4029.992426	24112.175390
68.036500	0.002000	0.004052	-0.001330	0.015518	6991.952303	46039.729454	4022.851380	24121.775924
68.536500	0.003977	0.004865	0.003604	0.010397	7058.584542	46631.980254	4048.335143	24372.869033
69.037500	0.003850	0.005109	0.001796	0.010941	7052.235160	46601.879604	4042.321169	24346.068247
69.537500	-0.000738	0.004900	0.000258	0.016582	6956.699521	46018.312845	4024.164618	24069.961923
70.035000	0.002780	0.005792	0.001201	0.017556	6980.253271	46010.124236	4024.085882	24022.659472
70.535000	0.006177	0.006311	0.008363	0.012963	7055.118045	46519.560379	4053.971070	24246.676526
71.035500	0.004836	0.005138	0.002694	0.011796	7053.479562	46519.061193	4042.432284	24304.007196
71.536000	0.002975	0.005913	0.006729	0.017981	6978.116504	45980.051071	4036.959097	24002.030059
72.039000	0.002424	0.005695	0.005588	0.017931	6973.479224	45963.488714	4034.195719	24004.494204
72.536000	0.004700	0.006629	0.006408	0.012968	7041.126707	46550.957077	4048.931394	24246.440783
73.036500	0.008530	0.006706	0.005914	0.013044	7076.661069	46551.098252	4047.471649	24242.726007
73.537000	0.002210	0.006095	0.000584	0.018590	6965.391802	45937.877385	4019.954715	23972.573484
74.037000	0.002654	0.006481	0.005897	0.018944	6966.216972	45940.909652	4032.415006	23955.405898
74.537500	0.007734	0.007141	0.007539	0.014599	7054.370841	46438.874063	4047.650242	24166.612544
75.035000	0.008819	0.006326	0.010097	0.013634	7073.802691	46453.935768	4056.714979	24213.823970
75.535000	0.003329	0.006522	0.003583	0.019641	6966.021315	45876.135499	4024.832478	23921.751238
76.035500	0.008980	0.007262	0.006366	0.014602	7066.145567	46450.700729	4044.641034	24166.482475
76.538500	0.008910	0.006786	0.006696	0.014144	7069.827781	46448.901210	4046.657438	24188.867366
77.036000	0.006635	0.007757	0.013979	0.015172	7038.600305	46443.206498	4062.787876	24138.667189
77.536500	0.007973	0.008506	0.008564	0.015771	7045.568527	46458.264467	4047.274879	24109.455232
78.036000	0.005399	0.006874	0.004957	0.020582	6976.479306	45818.033373	4025.918220	23876.356475
78.540000	0.008168	0.007757	0.008900	0.016092	7044.376301	46351.237582	4047.312147	24093.818838
79.037500	0.009544	0.008081	0.010537	0.016673	7051.872848	46325.526404	4050.020440	24065.531134
79.534500	0.008635	0.008241	0.008115	0.016092	7048.780917	46399.611610	4045.304143	24093.828943
80.035000	0.003161	0.008062	0.004079	0.022245	6940.455554	45771.152671	4019.553136	23796.370610
80.535500	0.008579	0.008165	0.005434	0.017001	7039.676767	46301.280558	4036.162839	24049.606962
81.035500	0.010281	0.008188	0.009701	0.017005	7055.712923	46303.174065	4047.026415	24049.419801
81.536000	0.006449	0.007713	0.006874	0.022149	6971.683177	45746.280892	4026.797412	23800.981280
82.036500	0.009294	0.007834	0.006732	0.017349	7043.141683	46233.574187	4038.574970	24032.726107
82.539500	0.008478	0.007194	0.006343	0.016626	7042.262114	46241.840946	4039.423747	24067.830138
83.037000	0.008828	0.008073	0.009467	0.017647	7035.949739	46227.774207	4044.785131	24018.270292
83.537000	0.005565	0.007463	0.004635	0.022658	6958.795082	45671.605093	4019.909719	23776.563931
84.037500	0.010672	0.008676	0.012346	0.018149	7048.592127	46237.743309	4050.875827	23993.927089
84.535500	0.009382	0.008351	0.002177	0.018219	7035.771128	46198.426529	4024.871399	23990.509387
85.035000	0.009262	0.008232	0.005850	0.018373	7033.197145	46171.278934	4033.739743	23983.063924
85.535500	0.005152	0.007360	0.006493	0.023377	6948.358732	45590.889059	4022.760319	23742.112078
86.038500	0.007516	0.008000	0.006930	0.018224	7018.199061	46163.018565	4036.853835	23990.279814
86.536000	0.008381	0.008809	0.012047	0.019108	7018.021240	46155.593421	4047.650019	23947.517133
87.036500	0.008676	0.009410	0.010546	0.019447	7017.608828	46181.558842	4042.941605	23931.098614
87.537000	0.006273	0.008099	0.001773	0.022659	6965.328707	45734.022515	4012.780464	23776.507711
88.036500	0.010303	0.008603	0.007809	0.018957	7037.500917	46150.082255	4037.224843	23954.817792
88.534500	0.007521	0.008388	0.011720	0.019059	7010.429681	46118.638022	4046.937833	23949.879185
89.034500	0.008450	0.008847	0.006965	0.019739	7012.758598	46096.675316	4033.106827	23917.022115
89.534500	0.007513	0.009901	0.013272	0.025163	6953.665150	45665.004936	4035.342465	23656.814424
90.062500	0.005244	0.008686	0.005673	0.025255	6931.946035	45536.782469	4016.023332	23652.422021
90.535500	0.009571	0.008542	0.012316	0.019998	7020.835299	46040.684191	4046.058932	23904.518586
91.035500	0.011004	0.009437	0.009416	0.020491	7029.660043	46080.548351	4037.411096	23880.753750
91.536000	0.006361	0.008820	0.007211	0.024472	6949.410934	45626.786045	4021.816729	23689.784751
92.036500	0.005840	0.008793	0.002751	0.025924	6931.267262	45481.692138	4007.119372	23620.534358
92.537000	0.007993	0.008548	0.010100	0.019975	7006.273985	46043.495338	4040.460429	23905.599418
93.036500	0.009980	0.009790	0.006971	0.020950	7015.747957	46070.028499	4030.063123	23858.639047
93.539500	0.005345	0.008450	0.004093	0.025258	6932.834843	45513.286371	4012.087438	23652.244217
94.035000	0.005473	0.009236	0.003523	0.026585	6921.861177	45460.429851	4007.394654	23589.130966
94.535500	0.009844	0.008878	0.012987	0.020623	7017.533628	46012.002545	4046.174333	23874.373830
95.035500	0.008549	0.008490	0.008520	0.020441	7007.121637	45991.603809	4035.263127	23883.142694
95.538500	0.008076	0.008713	0.001857	0.022815	6980.597895	45779.200745	4012.603524	23769.038779
96.036000	0.010124	0.009506	0.007282	0.021068	7015.989021	46030.274717	4030.549929	23852.970832
