sample name	sample
index	326
start time	 02-25-2021  03:38:01 PM


Wavelength (nm)	Absorbance
494.344910	NaN
494.563924	NaN
494.782919	NaN
495.001897	0.328647
495.220856	NaN
495.439797	NaN
495.658719	1.059685
495.877624	0.383925
496.096510	0.373112
496.315378	0.326863
496.534227	0.214175
496.753059	0.255305
496.971872	0.095510
497.190667	0.132203
497.409444	0.138630
497.628203	0.142225
497.846943	0.142473
498.065665	0.143659
498.284369	0.146055
498.503055	0.147285
498.721723	0.146812
498.940372	0.146148
499.159003	0.145960
499.377616	0.145185
499.596210	0.144525
499.814787	0.144612
500.033345	0.144438
500.251885	0.143238
500.470406	0.142564
500.688910	0.143052
500.907395	0.144281
501.125862	0.144374
501.344311	0.146013
501.562742	0.146299
501.781154	0.147705
501.999548	0.148317
502.217924	0.149688
502.436282	0.149308
502.654621	0.149936
502.872942	0.148792
503.091245	0.149682
503.309530	0.149620
503.527797	0.149743
503.746045	0.149068
503.964275	0.148674
504.182487	0.148675
504.400681	0.150070
504.618856	0.149899
504.837013	0.151242
505.055152	0.150319
505.273273	0.150545
505.491376	0.151010
505.709460	0.151261
505.927526	0.151044
506.145574	0.151501
506.363604	0.150654
506.581615	0.150272
506.799608	0.150503
507.017583	0.150803
507.235540	0.150025
507.453478	0.149698
507.671399	0.149435
507.889301	0.149197
508.107185	0.148705
508.325050	0.148769
508.542898	0.148419
508.760727	0.148738
508.978538	0.148813
509.196330	0.149717
509.414105	0.150348
509.631861	0.150777
509.849599	0.151558
510.067319	0.151404
510.285021	0.151417
510.502704	0.152477
510.720369	0.151911
510.938016	0.152572
511.155645	0.152516
511.373255	0.151792
511.590848	0.152324
511.808422	0.153387
512.025977	0.153390
512.243515	0.154125
512.461034	0.154472
512.678536	0.154582
512.896018	0.154879
513.113483	0.155996
513.330930	0.157561
513.548358	0.157572
513.765768	0.156829
513.983160	0.157574
514.200533	0.157823
514.417889	0.156909
514.635226	0.157490
514.852545	0.157379
515.069845	0.157107
515.287128	0.156386
515.504392	0.156008
515.721638	0.157096
515.938866	0.157411
516.156075	0.158136
516.373267	0.158663
516.590440	0.158523
516.807594	0.159129
517.024731	0.158237
517.241850	0.158802
517.458950	0.159596
517.676032	0.159655
517.893095	0.158976
518.110141	0.158051
518.327168	0.158538
518.544177	0.159685
518.761168	0.160530
518.978141	0.161124
519.195095	0.161512
519.412031	0.161867
519.628949	0.161343
519.845849	0.162348
520.062731	0.163529
520.279594	0.163630
520.496439	0.162953
520.713266	0.162760
520.930074	0.163063
521.146865	0.162841
521.363637	0.163146
521.580391	0.163658
521.797127	0.163494
522.013844	0.163420
522.230543	0.164030
522.447224	0.164102
522.663887	0.163923
522.880532	0.164477
523.097158	0.164862
523.313766	0.165382
523.530356	0.165251
523.746928	0.165145
523.963481	0.164985
524.180017	0.165116
524.396534	0.165940
524.613032	0.166619
524.829513	0.167254
525.045975	0.167498
525.262420	0.167512
525.478845	0.168630
525.695253	0.169530
525.911643	0.170106
526.128014	0.170771
526.344367	0.171256
526.560702	0.170893
526.777018	0.169993
526.993316	0.170896
527.209597	0.171287
527.425858	0.170917
527.642102	0.171188
527.858328	0.171462
528.074535	0.171670
528.290724	0.171670
528.506894	0.172827
528.723047	0.174102
528.939181	0.173438
529.155297	0.173145
529.371395	0.173616
529.587475	0.173857
529.803536	0.174137
530.019579	0.173798
530.235604	0.174183
530.451611	0.174336
530.667600	0.174378
530.883570	0.175145
531.099522	0.175846
531.315456	0.176319
531.531372	0.176581
531.747269	0.176468
531.963148	0.177524
532.179009	0.177751
532.394852	0.177998
532.610676	0.178373
532.826482	0.178661
533.042271	0.178865
533.258040	0.179046
533.473792	0.179208
533.689525	0.179620
533.905240	0.179618
534.120937	0.180357
534.336616	0.180596
534.552277	0.181455
534.767919	0.181680
534.983543	0.181804
535.199149	0.182310
535.414736	0.182449
535.630306	0.183122
535.845857	0.183308
536.061390	0.183527
536.276904	0.183714
536.492401	0.183959
536.707879	0.184510
536.923339	0.185173
537.138781	0.185502
537.354204	0.185950
537.569610	0.185927
537.784997	0.186288
538.000366	0.186475
538.215716	0.186343
538.431049	0.185799
538.646363	0.185795
538.861659	0.185812
539.076937	0.185904
539.292196	0.186057
539.507438	0.186554
539.722661	0.187366
539.937866	0.187249
540.153052	0.188170
540.368221	0.188693
540.583371	0.189381
540.798503	0.189952
541.013617	0.190254
541.228712	0.191006
541.443789	0.191536
541.658848	0.191434
541.873889	0.192024
542.088912	0.192551
542.303916	0.192946
542.518902	0.193077
542.733870	0.193409
542.948820	0.193282
543.163752	0.193739
543.378665	0.193760
543.593560	0.194226
543.808437	0.194585
544.023295	0.194393
544.238136	0.194933
544.452958	0.195133
544.667762	0.195236
544.882548	0.196094
545.097315	0.196044
545.312064	0.196364
545.526795	0.196467
545.741508	0.196896
545.956203	0.197286
546.170879	0.197002
546.385537	0.197467
546.600177	0.198340
546.814799	0.198309
547.029402	0.198583
547.243988	0.198856
547.458555	0.199369
547.673103	0.199651
547.887634	0.199666
548.102146	0.200316
548.316640	0.200335
548.531116	0.200092
548.745574	0.200041
548.960013	0.200379
549.174435	0.200465
549.388838	0.200372
549.603222	0.199959
549.817589	0.200350
550.031937	0.200483
550.246267	0.200973
550.460579	0.201036
550.674873	0.201714
550.889148	0.201768
551.103405	0.202375
551.317644	0.203025
551.531865	0.203730
551.746068	0.203968
551.960252	0.204598
552.174418	0.204747
552.388566	0.205026
552.602696	0.205040
552.816807	0.205089
553.030900	0.205479
553.244975	0.205772
553.459032	0.205924
553.673070	0.206122
553.887091	0.205763
554.101093	0.205980
554.315077	0.206553
554.529042	0.206931
554.742990	0.207873
554.956919	0.207749
555.170830	0.207557
555.384722	0.207808
555.598597	0.207835
555.812453	0.208263
556.026291	0.208372
556.240111	0.208285
556.453913	0.208313
556.667696	0.207715
556.881461	0.207949
557.095208	0.208361
557.308937	0.208820
557.522647	0.209252
557.736339	0.209969
557.950013	0.210058
558.163669	0.210234
558.377307	0.210789
558.590926	0.211569
558.804527	0.211675
559.018110	0.211124
559.231675	0.211197
559.445221	0.211658
559.658749	0.211641
559.872259	0.212173
560.085751	0.212325
560.299225	0.212402
560.512680	0.212673
560.726117	0.212800
560.939536	0.213708
561.152937	0.213783
561.366319	0.214008
561.579683	0.213976
561.793029	0.213966
562.006357	0.214297
562.219667	0.214565
562.432958	0.214745
562.646231	0.215329
562.859486	0.215362
563.072723	0.215706
563.285941	0.215552
563.499141	0.215743
563.712323	0.216188
563.925487	0.216437
564.138632	0.216546
564.351760	0.216579
564.564869	0.216800
564.777960	0.216962
564.991032	0.216930
565.204087	0.217635
565.417123	0.217893
565.630141	0.217749
565.843140	0.217809
566.056122	0.218134
566.269085	0.218387
566.482030	0.218433
566.694957	0.218816
566.907866	0.219015
567.120756	0.218713
567.333628	0.218970
567.546482	0.219800
567.759318	0.219991
567.972135	0.220185
568.184935	0.220093
568.397716	0.220304
568.610478	0.220253
568.823223	0.220295
569.035949	0.220621
569.248657	0.220383
569.461347	0.220061
569.674019	0.220450
569.886672	0.220631
570.099308	0.221240
570.311925	0.221432
570.524523	0.221724
570.737104	0.222217
570.949666	0.222411
571.162210	0.222659
571.374736	0.222859
571.587244	0.223176
571.799733	0.222844
572.012205	0.223045
572.224658	0.222873
572.437092	0.223558
572.649509	0.223896
572.861907	0.224084
573.074287	0.224516
573.286649	0.224641
573.498993	0.224404
573.711318	0.224953
573.923625	0.225203
574.135914	0.225849
574.348185	0.225571
574.560438	0.225631
574.772672	0.225918
574.984888	0.226002
575.197086	0.226263
575.409266	0.226568
575.621427	0.227047
575.833570	0.227137
576.045695	0.227293
576.257802	0.227772
576.469890	0.227762
576.681961	0.228199
576.894013	0.228674
577.106046	0.228678
577.318062	0.229150
577.530059	0.229313
577.742039	0.229373
577.954000	0.229422
578.165942	0.229680
578.377867	0.230307
578.589773	0.230186
578.801661	0.230326
579.013531	0.230716
579.225382	0.231011
579.437216	0.231289
579.649031	0.231301
579.860828	0.231619
580.072606	0.231760
580.284367	0.231480
580.496109	0.231823
580.707833	0.232024
580.919539	0.232337
581.131227	0.232509
581.342896	0.232563
581.554547	0.232981
581.766180	0.233360
581.977795	0.233435
582.189391	0.234057
582.400969	0.234268
582.612529	0.234253
582.824071	0.234191
583.035595	0.234036
583.247100	0.234543
583.458587	0.234639
583.670056	0.234436
583.881506	0.234594
584.092939	0.234746
584.304353	0.234965
584.515749	0.235544
584.727127	0.236256
584.938486	0.236387
585.149828	0.236321
585.361151	0.236541
585.572456	0.237067
585.783742	0.237498
585.995011	0.237611
586.206261	0.237360
586.417493	0.237326
586.628706	0.237338
586.839902	0.237710
587.051079	0.237828
587.262238	0.238118
587.473379	0.237976
587.684502	0.238017
587.895606	0.238556
588.106692	0.238810
588.317760	0.239123
588.528810	0.239072
588.739841	0.239014
588.950855	0.239370
589.161850	0.239495
589.372827	0.240059
589.583785	0.240176
589.794726	0.240403
590.005648	0.241010
590.216552	0.241484
590.427437	0.241749
590.638305	0.242240
590.849154	0.242250
591.059985	0.242389
591.270798	0.242383
591.481592	0.242474
591.692369	0.242361
591.903127	0.242358
592.113867	0.242113
592.324588	0.242592
592.535292	0.242827
592.745977	0.243008
592.956644	0.243498
593.167293	0.243954
593.377923	0.244396
593.588536	0.244267
593.799130	0.244598
594.009706	0.244775
594.220263	0.244563
594.430803	0.244769
594.641324	0.245223
594.851827	0.245555
595.062312	0.245689
595.272778	0.245926
595.483227	0.246651
595.693657	0.247059
595.904069	0.247266
596.114462	0.247828
596.324838	0.248058
596.535195	0.248027
596.745534	0.247868
596.955855	0.248134
597.166157	0.248021
597.376441	0.247833
597.586707	0.247936
597.796955	0.248062
598.007185	0.248108
598.217396	0.248254
598.427589	0.248837
598.637764	0.248792
598.847921	0.248911
599.058060	0.249406
599.268180	0.249678
599.478282	0.249882
599.688366	0.250338
599.898431	0.250308
600.108479	0.250515
600.318508	0.249966
600.528519	0.250750
600.738511	0.250693
600.948486	0.250973
601.158442	0.251067
601.368380	0.250927
601.578300	0.250947
601.788202	0.251533
601.998085	0.251643
602.207950	0.252221
602.417797	0.251952
602.627626	0.252294
602.837436	0.252319
603.047228	0.252924
603.257002	0.253280
603.466758	0.253688
603.676496	0.253518
603.886215	0.253984
604.095916	0.254407
604.305599	0.254670
604.515264	0.255175
604.724910	0.255362
604.934538	0.255062
605.144148	0.255080
605.353740	0.255212
605.563314	0.255472
605.772869	0.255595
605.982406	0.255611
606.191925	0.255989
606.401425	0.256102
606.610908	0.256099
606.820372	0.256544
607.029818	0.256706
607.239246	0.256723
607.448655	0.256941
607.658047	0.257116
607.867420	0.257129
608.076775	0.257210
608.286111	0.256896
608.495430	0.256898
608.704730	0.256935
608.914012	0.257167
609.123275	0.257439
609.332521	0.257665
609.541748	0.257750
609.750957	0.257998
609.960148	0.258159
610.169321	0.258378
610.378475	0.258841
610.587611	0.258949
610.796729	0.259072
611.005829	0.258967
611.214910	0.258778
611.423974	0.258885
611.633019	0.258699
611.842045	0.258792
612.051054	0.258892
612.260044	0.258803
612.469017	0.259066
612.677970	0.259277
612.886906	0.259777
613.095824	0.260401
613.304723	0.260396
613.513604	0.261035
613.722467	0.261196
613.931311	0.261703
614.140138	0.261921
614.348946	0.261929
614.557736	0.262000
614.766507	0.262017
614.975261	0.261945
615.183996	0.262338
615.392713	0.262670
615.601412	0.262579
615.810092	0.262559
616.018754	0.262850
616.227399	0.263124
616.436024	0.263307
616.644632	0.263263
616.853222	0.263346
617.061793	0.263370
617.270346	0.262924
617.478880	0.263389
617.687397	0.263682
617.895895	0.263718
618.104375	0.263879
618.312837	0.264184
618.521281	0.264416
618.729706	0.264508
618.938113	0.264739
619.146502	0.265139
619.354873	0.265330
619.563226	0.265398
619.771560	0.265638
619.979876	0.265776
620.188174	0.265879
620.396453	0.266176
620.604715	0.266613
620.812958	0.266697
621.021183	0.266789
621.229390	0.267041
621.437578	0.267122
621.645748	0.267447
621.853900	0.267445
622.062034	0.267377
622.270150	0.267675
622.478247	0.267782
622.686326	0.267737
622.894387	0.268130
623.102430	0.268079
623.310454	0.268303
623.518461	0.268358
623.726449	0.268564
623.934418	0.268829
624.142370	0.268775
624.350303	0.269256
624.558218	0.269770
624.766115	0.269845
624.973994	0.269965
625.181855	0.270108
625.389697	0.270281
625.597521	0.270587
625.805327	0.270963
626.013114	0.271241
626.220883	0.271099
626.428634	0.271061
626.636367	0.271143
626.844082	0.271576
627.051778	0.271638
627.259457	0.271641
627.467117	0.271636
627.674758	0.271620
627.882382	0.271741
628.089987	0.271812
628.297574	0.272071
628.505143	0.272056
628.712694	0.272012
628.920226	0.272187
629.127740	0.272534
629.335236	0.272726
629.542714	0.273060
629.750174	0.273274
629.957615	0.273667
630.165038	0.273836
630.372443	0.274009
630.579829	0.274080
630.787198	0.274076
630.994548	0.274409
631.201880	0.274432
631.409194	0.274570
631.616489	0.274841
631.823766	0.274769
632.031025	0.275122
632.238266	0.275426
632.445489	0.275630
632.652693	0.276233
632.859879	0.276227
633.067047	0.276792
633.274197	0.276989
633.481329	0.276920
633.688442	0.277175
633.895537	0.277459
634.102614	0.277802
634.309672	0.278266
634.516713	0.278327
634.723735	0.278585
634.930739	0.278787
635.137724	0.278828
635.344692	0.279204
635.551641	0.279611
635.758572	0.279458
635.965485	0.279530
636.172379	0.279479
636.379256	0.279634
636.586114	0.279406
636.792954	0.279546
636.999775	0.279934
637.206579	0.279907
637.413364	0.279990
637.620131	0.280220
637.826880	0.280472
638.033610	0.280681
638.240323	0.280594
638.447017	0.281075
638.653692	0.281089
638.860350	0.281122
639.066990	0.281469
639.273611	0.281506
639.480214	0.281500
639.686798	0.281431
639.893365	0.281927
640.099913	0.282542
640.306443	0.282741
640.512955	0.283195
640.719449	0.283526
640.925924	0.283483
641.132381	0.283913
641.338820	0.284199
641.545241	0.284680
641.751644	0.284279
641.958028	0.284187
642.164394	0.283964
642.370742	0.284200
642.577071	0.284379
642.783383	0.284708
642.989676	0.284705
643.195951	0.285041
643.402207	0.285026
643.608446	0.285675
643.814666	0.285757
644.020868	0.286370
644.227052	0.286062
644.433218	0.286261
644.639365	0.286472
644.845494	0.286780
645.051605	0.286912
645.257698	0.287137
645.463772	0.287088
645.669828	0.287612
645.875866	0.287702
646.081886	0.288229
646.287888	0.288293
646.493871	0.288438
646.699836	0.288250
646.905783	0.288403
647.111712	0.288456
647.317622	0.288597
647.523514	0.288549
647.729388	0.288576
647.935244	0.288785
648.141082	0.288942
648.346901	0.289022
648.552702	0.289364
648.758485	0.289598
648.964250	0.289906
649.169996	0.290114
649.375724	0.290399
649.581434	0.290873
649.787126	0.290991
649.992800	0.291244
650.198455	0.291451
650.404092	0.291312
650.609711	0.291389
650.815311	0.291671
651.020894	0.291940
651.226458	0.292080
651.432004	0.292228
651.637532	0.292093
651.843041	0.292074
652.048532	0.292338
652.254006	0.292781
652.459460	0.293069
652.664897	0.293148
652.870315	0.293330
653.075716	0.293686
653.281097	0.293560
653.486461	0.293922
653.691807	0.294202
653.897134	0.294360
654.102443	0.294604
654.307734	0.294863
654.513006	0.295144
654.718261	0.295552
654.923497	0.295667
655.128715	0.296264
655.333915	0.296438
655.539096	0.296624
655.744259	0.296949
655.949404	0.297315
656.154531	0.297554
656.359640	0.297929
656.564730	0.298078
656.769802	0.298388
656.974856	0.298586
657.179892	0.299018
657.384909	0.299228
657.589908	0.299343
657.794889	0.299553
657.999852	0.299820
658.204797	0.299852
658.409723	0.300033
658.614631	0.300199
658.819521	0.300430
659.024393	0.300465
659.229246	0.300838
659.434081	0.301260
659.638898	0.301466
659.843697	0.301624
660.048478	0.301659
660.253240	0.301691
660.457984	0.301708
660.662710	0.301799
660.867417	0.302251
661.072107	0.302363
661.276778	0.302141
661.481431	0.302458
661.686066	0.302603
661.890682	0.302859
662.095281	0.303242
662.299861	0.303643
662.504422	0.303923
662.708966	0.303974
662.913491	0.304220
663.117999	0.304813
663.322488	0.304819
663.526958	0.304864
663.731411	0.305120
663.935845	0.305216
664.140261	0.305362
664.344659	0.305390
664.549038	0.305530
664.753400	0.305645
664.957743	0.305764
665.162068	0.305980
665.366375	0.306170
665.570663	0.306362
665.774933	0.306707
665.979185	0.306805
666.183419	0.307182
666.387635	0.307385
666.591832	0.307457
666.796011	0.307742
667.000172	0.308041
667.204315	0.308298
667.408439	0.308893
667.612545	0.309278
667.816634	0.309506
668.020703	0.309590
668.224755	0.310029
668.428788	0.310534
668.632803	0.310719
668.836800	0.311076
669.040779	0.311592
669.244739	0.311524
669.448681	0.311559
669.652605	0.311933
669.856511	0.312289
670.060399	0.312226
670.264268	0.312280
670.468119	0.312457
670.671952	0.312350
670.875767	0.312457
671.079563	0.312773
671.283341	0.312688
671.487101	0.313035
671.690843	0.313157
671.894567	0.313658
672.098272	0.314056
672.301959	0.314334
672.505628	0.314869
672.709278	0.315194
672.912911	0.315339
673.116525	0.315588
673.320121	0.315697
673.523699	0.316013
673.727258	0.316062
673.930799	0.316398
674.134322	0.316853
674.337827	0.317074
674.541314	0.317143
674.744782	0.317454
674.948232	0.317658
675.151664	0.317760
675.355078	0.318191
675.558474	0.318838
675.761851	0.319023
675.965210	0.319153
676.168551	0.319418
676.371873	0.319627
676.575178	0.319932
676.778464	0.320230
676.981732	0.320564
677.184981	0.320901
677.388213	0.320741
677.591426	0.320862
677.794621	0.320744
677.997798	0.320814
678.200956	0.321095
678.404097	0.321256
678.607219	0.321532
678.810323	0.321632
679.013408	0.321380
679.216476	0.321695
679.419525	0.321911
679.622556	0.322316
679.825569	0.322654
680.028563	0.322714
680.231540	0.322979
680.434498	0.323404
680.637438	0.323890
680.840359	0.324167
681.043263	0.324323
681.246148	0.324498
681.449015	0.324865
681.651864	0.324992
681.854694	0.325348
682.057506	0.325407
682.260301	0.325450
682.463076	0.325222
682.665834	0.325422
682.868573	0.325913
683.071295	0.326365
683.273998	0.326400
683.476682	0.326445
683.679349	0.326607
683.881997	0.326996
684.084627	0.327367
684.287239	0.327718
684.489833	0.327913
684.692408	0.327993
684.894965	0.327834
685.097504	0.328011
685.300025	0.328250
685.502527	0.328346
685.705012	0.328457
685.907478	0.328577
686.109925	0.329106
686.312355	0.329404
686.514766	0.329265
686.717159	0.329803
686.919534	0.329949
687.121891	0.330301
687.324230	0.330649
687.526550	0.330649
687.728852	0.330872
687.931136	0.330782
688.133401	0.330746
688.335649	0.331061
688.537878	0.331174
688.740089	0.331444
688.942281	0.331658
689.144456	0.331838
689.346612	0.332025
689.548750	0.332103
689.750870	0.332458
689.952971	0.332846
690.155055	0.333158
690.357120	0.333140
690.559167	0.333480
690.761195	0.333295
690.963206	0.333446
691.165198	0.333861
691.367172	0.334046
691.569128	0.333801
691.771065	0.334191
691.972984	0.334368
692.174885	0.334720
692.376768	0.334830
692.578633	0.335517
692.780479	0.335414
692.982308	0.335632
693.184118	0.335940
693.385909	0.336440
693.587683	0.336480
