sample name	sample
index	1249
start time	 04-29-2021  12:42:49 PM


Wavelength (nm)	Absorbance
494.344910	-0.363929
494.563924	-0.363929
494.782919	-0.363929
495.001897	-0.425331
495.220856	0.026424
495.439797	0.206878
495.658719	0.202302
495.877624	0.212525
496.096510	0.279636
496.315378	0.159848
496.534227	0.098674
496.753059	-0.008874
496.971872	-0.036149
497.190667	0.055377
497.409444	0.056651
497.628203	0.058835
497.846943	0.059889
498.065665	0.060501
498.284369	0.061177
498.503055	0.061997
498.721723	0.062537
498.940372	0.061684
499.159003	0.060665
499.377616	0.060366
499.596210	0.061671
499.814787	0.061678
500.033345	0.062203
500.251885	0.063451
500.470406	0.061544
500.688910	0.061004
500.907395	0.062218
501.125862	0.063490
501.344311	0.064644
501.562742	0.063649
501.781154	0.063260
501.999548	0.063103
502.217924	0.060589
502.436282	0.061066
502.654621	0.061046
502.872942	0.060282
503.091245	0.058967
503.309530	0.057663
503.527797	0.057908
503.746045	0.059009
503.964275	0.058311
504.182487	0.060165
504.400681	0.061013
504.618856	0.060496
504.837013	0.060281
505.055152	0.061176
505.273273	0.061519
505.491376	0.060683
505.709460	0.060102
505.927526	0.059478
506.145574	0.059126
506.363604	0.059865
506.581615	0.059882
506.799608	0.059621
507.017583	0.059046
507.235540	0.059133
507.453478	0.059460
507.671399	0.059838
507.889301	0.060481
508.107185	0.060139
508.325050	0.059885
508.542898	0.059621
508.760727	0.060368
508.978538	0.060799
509.196330	0.060349
509.414105	0.060112
509.631861	0.059706
509.849599	0.059839
510.067319	0.059677
510.285021	0.058585
510.502704	0.058675
510.720369	0.058651
510.938016	0.058717
511.155645	0.058667
511.373255	0.059539
511.590848	0.059965
511.808422	0.060095
512.025977	0.060907
512.243515	0.060155
512.461034	0.060707
512.678536	0.060709
512.896018	0.060964
513.113483	0.061500
513.330930	0.060617
513.548358	0.060202
513.765768	0.059384
513.983160	0.059117
514.200533	0.060088
514.417889	0.060521
514.635226	0.060011
514.852545	0.060144
515.069845	0.059883
515.287128	0.059859
515.504392	0.060129
515.721638	0.060750
515.938866	0.060678
516.156075	0.060528
516.373267	0.059811
516.590440	0.060155
516.807594	0.060276
517.024731	0.060584
517.241850	0.060734
517.458950	0.060508
517.676032	0.060193
517.893095	0.060212
518.110141	0.060684
518.327168	0.060285
518.544177	0.060302
518.761168	0.060054
518.978141	0.059251
519.195095	0.059604
519.412031	0.059632
519.628949	0.059831
519.845849	0.059291
520.062731	0.058836
520.279594	0.059518
520.496439	0.058608
520.713266	0.058385
520.930074	0.058596
521.146865	0.058620
521.363637	0.057943
521.580391	0.058214
521.797127	0.058163
522.013844	0.058290
522.230543	0.058208
522.447224	0.058736
522.663887	0.059015
522.880532	0.059187
523.097158	0.059249
523.313766	0.059617
523.530356	0.059584
523.746928	0.059966
523.963481	0.059952
524.180017	0.059866
524.396534	0.060188
524.613032	0.060135
524.829513	0.060345
525.045975	0.059807
525.262420	0.060015
525.478845	0.059972
525.695253	0.059660
525.911643	0.059838
526.128014	0.059456
526.344367	0.059412
526.560702	0.059849
526.777018	0.058871
526.993316	0.059642
527.209597	0.059710
527.425858	0.059955
527.642102	0.060528
527.858328	0.060989
528.074535	0.061315
528.290724	0.061067
528.506894	0.060125
528.723047	0.061146
528.939181	0.060921
529.155297	0.060354
529.371395	0.059843
529.587475	0.059608
529.803536	0.058408
530.019579	0.058070
530.235604	0.058155
530.451611	0.057667
530.667600	0.057206
530.883570	0.057251
531.099522	0.057506
531.315456	0.057578
531.531372	0.057663
531.747269	0.057912
531.963148	0.057859
532.179009	0.057910
532.394852	0.058337
532.610676	0.058533
532.826482	0.058243
533.042271	0.058583
533.258040	0.058861
533.473792	0.058598
533.689525	0.059175
533.905240	0.059469
534.120937	0.059731
534.336616	0.060141
534.552277	0.060259
534.767919	0.060652
534.983543	0.060700
535.199149	0.060219
535.414736	0.060492
535.630306	0.060119
535.845857	0.060372
536.061390	0.060714
536.276904	0.060678
536.492401	0.060568
536.707879	0.060126
536.923339	0.060078
537.138781	0.060416
537.354204	0.060177
537.569610	0.060159
537.784997	0.059889
538.000366	0.059368
538.215716	0.059253
538.431049	0.058725
538.646363	0.058805
538.861659	0.058693
539.076937	0.058620
539.292196	0.058815
539.507438	0.059014
539.722661	0.059122
539.937866	0.059494
540.153052	0.059587
540.368221	0.060128
540.583371	0.060272
540.798503	0.060123
541.013617	0.059892
541.228712	0.059797
541.443789	0.059584
541.658848	0.059567
541.873889	0.059020
542.088912	0.058818
542.303916	0.059167
542.518902	0.058860
542.733870	0.059221
542.948820	0.059106
543.163752	0.059192
543.378665	0.059559
543.593560	0.059623
543.808437	0.059933
544.023295	0.060562
544.238136	0.060437
544.452958	0.060470
544.667762	0.060132
544.882548	0.060470
545.097315	0.060345
545.312064	0.060314
545.526795	0.060172
545.741508	0.060083
545.956203	0.059396
546.170879	0.058987
546.385537	0.059321
546.600177	0.059209
546.814799	0.059438
547.029402	0.059352
547.243988	0.058827
547.458555	0.058691
547.673103	0.058907
547.887634	0.059324
548.102146	0.059365
548.316640	0.059028
548.531116	0.059228
548.745574	0.059026
548.960013	0.058746
549.174435	0.059384
549.388838	0.060066
549.603222	0.059724
549.817589	0.059608
550.031937	0.059825
550.246267	0.060047
550.460579	0.060003
550.674873	0.060197
550.889148	0.060435
551.103405	0.060223
551.317644	0.060324
551.531865	0.060456
551.746068	0.060301
551.960252	0.060273
552.174418	0.060423
552.388566	0.060298
552.602696	0.060077
552.816807	0.060272
553.030900	0.060433
553.244975	0.059871
553.459032	0.059910
553.673070	0.060268
553.887091	0.059969
554.101093	0.059586
554.315077	0.059755
554.529042	0.059820
554.742990	0.059545
554.956919	0.059693
555.170830	0.060082
555.384722	0.060034
555.598597	0.060183
555.812453	0.060518
556.026291	0.060527
556.240111	0.060496
556.453913	0.060336
556.667696	0.060464
556.881461	0.060022
557.095208	0.059521
557.308937	0.059468
557.522647	0.059083
557.736339	0.059294
557.950013	0.059405
558.163669	0.059337
558.377307	0.059562
558.590926	0.059574
558.804527	0.059826
559.018110	0.060069
559.231675	0.060327
559.445221	0.060611
559.658749	0.060314
559.872259	0.060354
560.085751	0.060677
560.299225	0.060677
560.512680	0.060657
560.726117	0.060660
560.939536	0.060477
561.152937	0.060319
561.366319	0.059933
561.579683	0.060020
561.793029	0.060179
562.006357	0.059897
562.219667	0.060075
562.432958	0.060138
562.646231	0.060064
562.859486	0.060216
563.072723	0.060110
563.285941	0.060609
563.499141	0.060673
563.712323	0.060694
563.925487	0.060758
564.138632	0.060460
564.351760	0.060536
564.564869	0.060391
564.777960	0.060414
564.991032	0.060416
565.204087	0.060049
565.417123	0.059915
565.630141	0.059812
565.843140	0.059841
566.056122	0.059882
566.269085	0.059859
566.482030	0.060319
566.694957	0.060592
566.907866	0.060778
567.120756	0.060932
567.333628	0.060941
567.546482	0.060827
567.759318	0.060863
567.972135	0.060451
568.184935	0.060381
568.397716	0.060008
568.610478	0.059845
568.823223	0.059727
569.035949	0.059610
569.248657	0.059747
569.461347	0.059648
569.674019	0.059771
569.886672	0.060288
570.099308	0.060393
570.311925	0.060311
570.524523	0.060205
570.737104	0.060324
570.949666	0.060328
571.162210	0.060375
571.374736	0.060732
571.587244	0.060357
571.799733	0.060411
572.012205	0.060566
572.224658	0.060813
572.437092	0.060701
572.649509	0.060735
572.861907	0.060863
573.074287	0.060947
573.286649	0.060687
573.498993	0.060984
573.711318	0.060781
573.923625	0.060733
574.135914	0.061091
574.348185	0.061434
574.560438	0.061383
574.772672	0.061252
574.984888	0.061359
575.197086	0.061380
575.409266	0.061355
575.621427	0.061394
575.833570	0.061270
576.045695	0.060622
576.257802	0.060457
576.469890	0.060265
576.681961	0.060686
576.894013	0.060529
577.106046	0.060486
577.318062	0.060749
577.530059	0.060793
577.742039	0.060492
577.954000	0.060538
578.165942	0.060415
578.377867	0.060651
578.589773	0.060561
578.801661	0.060493
579.013531	0.060716
579.225382	0.060399
579.437216	0.060097
579.649031	0.060507
579.860828	0.060683
580.072606	0.060639
580.284367	0.060492
580.496109	0.060287
580.707833	0.060247
580.919539	0.060441
581.131227	0.060690
581.342896	0.061146
581.554547	0.060937
581.766180	0.060966
581.977795	0.061043
582.189391	0.061371
582.400969	0.061248
582.612529	0.061378
582.824071	0.060972
583.035595	0.060684
583.247100	0.060662
583.458587	0.060657
583.670056	0.060546
583.881506	0.060500
584.092939	0.060268
584.304353	0.059955
584.515749	0.059693
584.727127	0.059981
584.938486	0.059861
585.149828	0.059802
585.361151	0.059942
585.572456	0.060041
585.783742	0.059989
585.995011	0.059771
586.206261	0.060110
586.417493	0.060238
586.628706	0.060188
586.839902	0.060516
587.051079	0.060416
587.262238	0.060336
587.473379	0.060221
587.684502	0.060435
587.895606	0.060928
588.106692	0.060656
588.317760	0.060751
588.528810	0.060892
588.739841	0.060912
588.950855	0.061067
589.161850	0.061170
589.372827	0.061198
589.583785	0.061081
589.794726	0.060784
590.005648	0.060938
590.216552	0.060522
590.427437	0.059964
590.638305	0.059766
590.849154	0.059565
591.059985	0.059514
591.270798	0.059656
591.481592	0.059740
591.692369	0.059828
591.903127	0.060075
592.113867	0.060447
592.324588	0.060938
592.535292	0.060767
592.745977	0.060785
592.956644	0.060621
593.167293	0.060707
593.377923	0.060550
593.588536	0.060371
593.799130	0.060316
594.009706	0.060400
594.220263	0.060187
594.430803	0.060174
594.641324	0.060176
594.851827	0.060372
595.062312	0.060497
595.272778	0.060665
595.483227	0.060674
595.693657	0.060773
595.904069	0.060526
596.114462	0.060583
596.324838	0.060939
596.535195	0.061242
596.745534	0.060765
596.955855	0.060789
597.166157	0.060740
597.376441	0.060969
597.586707	0.060974
597.796955	0.061039
598.007185	0.061057
598.217396	0.060987
598.427589	0.060990
598.637764	0.061476
598.847921	0.060994
599.058060	0.060868
599.268180	0.060649
599.478282	0.060567
599.688366	0.060696
599.898431	0.060759
600.108479	0.060870
600.318508	0.060575
600.528519	0.060589
600.738511	0.060766
600.948486	0.060972
601.158442	0.061284
601.368380	0.061227
601.578300	0.061224
601.788202	0.061066
601.998085	0.060894
602.207950	0.060884
602.417797	0.060809
602.627626	0.060855
602.837436	0.060647
603.047228	0.060182
603.257002	0.060066
603.466758	0.059950
603.676496	0.060096
603.886215	0.060069
604.095916	0.060348
604.305599	0.060143
604.515264	0.060109
604.724910	0.060019
604.934538	0.060117
605.144148	0.060139
605.353740	0.060367
605.563314	0.060272
605.772869	0.060331
605.982406	0.060169
606.191925	0.059975
606.401425	0.059868
606.610908	0.059879
606.820372	0.059962
607.029818	0.059909
607.239246	0.059867
607.448655	0.060130
607.658047	0.060019
607.867420	0.059885
608.076775	0.060340
608.286111	0.060402
608.495430	0.060596
608.704730	0.060802
608.914012	0.060921
609.123275	0.060753
609.332521	0.060472
609.541748	0.060492
609.750957	0.060331
609.960148	0.060278
610.169321	0.060226
610.378475	0.060230
610.587611	0.060030
610.796729	0.060009
611.005829	0.059994
611.214910	0.059984
611.423974	0.060123
611.633019	0.060272
611.842045	0.060206
612.051054	0.060216
612.260044	0.060265
612.469017	0.060570
612.677970	0.060894
612.886906	0.060781
613.095824	0.060704
613.304723	0.060561
613.513604	0.060652
613.722467	0.060704
613.931311	0.060667
614.140138	0.060634
614.348946	0.060204
614.557736	0.059979
614.766507	0.059960
614.975261	0.060012
615.183996	0.059855
615.392713	0.059976
615.601412	0.059795
615.810092	0.059698
616.018754	0.059410
616.227399	0.059378
616.436024	0.059264
616.644632	0.059224
616.853222	0.059260
617.061793	0.059218
617.270346	0.059091
617.478880	0.059235
617.687397	0.059457
617.895895	0.059649
618.104375	0.059914
618.312837	0.060102
618.521281	0.060075
618.729706	0.059911
618.938113	0.060235
619.146502	0.060181
619.354873	0.060067
619.563226	0.059845
619.771560	0.059663
619.979876	0.059395
620.188174	0.059152
620.396453	0.059060
620.604715	0.058886
620.812958	0.058741
621.021183	0.058775
621.229390	0.058855
621.437578	0.059151
621.645748	0.059308
621.853900	0.059461
622.062034	0.059450
622.270150	0.059417
622.478247	0.059908
622.686326	0.059902
622.894387	0.059985
623.102430	0.060044
623.310454	0.059832
623.518461	0.059972
623.726449	0.060105
623.934418	0.060098
624.142370	0.060475
624.350303	0.060261
624.558218	0.060169
624.766115	0.060032
624.973994	0.059955
625.181855	0.060307
625.389697	0.060056
625.597521	0.060023
625.805327	0.060019
626.013114	0.059975
626.220883	0.059997
626.428634	0.060166
626.636367	0.060219
626.844082	0.060196
627.051778	0.060099
627.259457	0.060309
627.467117	0.060191
627.674758	0.060481
627.882382	0.060372
628.089987	0.060491
628.297574	0.060680
628.505143	0.060599
628.712694	0.060939
628.920226	0.060718
629.127740	0.060762
629.335236	0.060570
629.542714	0.060410
629.750174	0.060386
629.957615	0.060357
630.165038	0.060300
630.372443	0.060341
630.579829	0.059873
630.787198	0.059744
630.994548	0.059719
631.201880	0.060019
631.409194	0.060093
631.616489	0.060286
631.823766	0.060171
632.031025	0.059937
632.238266	0.060083
632.445489	0.060213
632.652693	0.060355
632.859879	0.060255
633.067047	0.060136
633.274197	0.060127
633.481329	0.060080
633.688442	0.059950
633.895537	0.060048
634.102614	0.059783
634.309672	0.059902
634.516713	0.060065
634.723735	0.060152
634.930739	0.060253
635.137724	0.060292
635.344692	0.060336
635.551641	0.060762
635.758572	0.060866
635.965485	0.061082
636.172379	0.061036
636.379256	0.060868
636.586114	0.060821
636.792954	0.060980
636.999775	0.060838
637.206579	0.060843
637.413364	0.060626
637.620131	0.060566
637.826880	0.060459
638.033610	0.060292
638.240323	0.060187
638.447017	0.060202
638.653692	0.060063
638.860350	0.060307
639.066990	0.060133
639.273611	0.060212
639.480214	0.060362
639.686798	0.060483
639.893365	0.060673
640.099913	0.060954
640.306443	0.061050
640.512955	0.061159
640.719449	0.060872
640.925924	0.061231
641.132381	0.061192
641.338820	0.061140
641.545241	0.061050
641.751644	0.061356
641.958028	0.061188
642.164394	0.061216
642.370742	0.061249
642.577071	0.061601
642.783383	0.061363
642.989676	0.061484
643.195951	0.061457
643.402207	0.061511
643.608446	0.061406
643.814666	0.061789
644.020868	0.061726
644.227052	0.061645
644.433218	0.061621
644.639365	0.061728
644.845494	0.061822
645.051605	0.061813
645.257698	0.061989
645.463772	0.061883
645.669828	0.061601
645.875866	0.061616
646.081886	0.061590
646.287888	0.061623
646.493871	0.061677
646.699836	0.061493
646.905783	0.061384
647.111712	0.061290
647.317622	0.061341
647.523514	0.061510
647.729388	0.061702
647.935244	0.061812
648.141082	0.061608
648.346901	0.061639
648.552702	0.061868
648.758485	0.062013
648.964250	0.061984
649.169996	0.062146
649.375724	0.062058
649.581434	0.061794
649.787126	0.061602
649.992800	0.061492
650.198455	0.061477
650.404092	0.061116
650.609711	0.061073
650.815311	0.061238
651.020894	0.061101
651.226458	0.061098
651.432004	0.061043
651.637532	0.060910
651.843041	0.061101
652.048532	0.060912
652.254006	0.060897
652.459460	0.060847
652.664897	0.060740
652.870315	0.060584
653.075716	0.060561
653.281097	0.060735
653.486461	0.060949
653.691807	0.060826
653.897134	0.060889
654.102443	0.061056
654.307734	0.061148
654.513006	0.061245
654.718261	0.061433
654.923497	0.061275
655.128715	0.061307
655.333915	0.061185
655.539096	0.061196
655.744259	0.061229
655.949404	0.061346
656.154531	0.061456
656.359640	0.061294
656.564730	0.061163
656.769802	0.061394
656.974856	0.061334
657.179892	0.061591
657.384909	0.061716
657.589908	0.061899
657.794889	0.061937
657.999852	0.061740
658.204797	0.062061
658.409723	0.062068
658.614631	0.062079
658.819521	0.062277
659.024393	0.062327
659.229246	0.062271
659.434081	0.062329
659.638898	0.062245
659.843697	0.062459
660.048478	0.062212
660.253240	0.062335
660.457984	0.062508
660.662710	0.062419
660.867417	0.062398
661.072107	0.062460
661.276778	0.062474
661.481431	0.062602
661.686066	0.062740
661.890682	0.062916
662.095281	0.062945
662.299861	0.062729
662.504422	0.062795
662.708966	0.062806
662.913491	0.062899
663.117999	0.062689
663.322488	0.062586
663.526958	0.062438
663.731411	0.062400
663.935845	0.062361
664.140261	0.062282
664.344659	0.062243
664.549038	0.062168
664.753400	0.062098
664.957743	0.062212
665.162068	0.062208
665.366375	0.062302
665.570663	0.062100
665.774933	0.062241
665.979185	0.062439
666.183419	0.062514
666.387635	0.062694
666.591832	0.062678
666.796011	0.062665
667.000172	0.062734
667.204315	0.062807
667.408439	0.062989
667.612545	0.063183
667.816634	0.063348
668.020703	0.063598
668.224755	0.063661
668.428788	0.063914
668.632803	0.064180
668.836800	0.064340
669.040779	0.064280
669.244739	0.064442
669.448681	0.064516
669.652605	0.064495
669.856511	0.064443
670.060399	0.064423
670.264268	0.064219
670.468119	0.064131
670.671952	0.064195
670.875767	0.064186
671.079563	0.064357
671.283341	0.064150
671.487101	0.064314
671.690843	0.064356
671.894567	0.064565
672.098272	0.064975
672.301959	0.064807
672.505628	0.064823
672.709278	0.064946
672.912911	0.064642
673.116525	0.064655
673.320121	0.064540
673.523699	0.064477
673.727258	0.064326
673.930799	0.064117
674.134322	0.064201
674.337827	0.063888
674.541314	0.064014
674.744782	0.064365
674.948232	0.064346
675.151664	0.064291
675.355078	0.064224
675.558474	0.064249
675.761851	0.064405
675.965210	0.064410
676.168551	0.064450
676.371873	0.064303
676.575178	0.064101
676.778464	0.064127
676.981732	0.064072
677.184981	0.064189
677.388213	0.064037
677.591426	0.063792
677.794621	0.064121
677.997798	0.064174
678.200956	0.064083
678.404097	0.064080
678.607219	0.064101
678.810323	0.064042
679.013408	0.063992
679.216476	0.064107
679.419525	0.064300
679.622556	0.064124
679.825569	0.064260
680.028563	0.064203
680.231540	0.064395
680.434498	0.064454
680.637438	0.064582
680.840359	0.064523
681.043263	0.064378
681.246148	0.064242
681.449015	0.064262
681.651864	0.064313
681.854694	0.064516
682.057506	0.064370
682.260301	0.064331
682.463076	0.064377
682.665834	0.064487
682.868573	0.064675
683.071295	0.064735
683.273998	0.064662
683.476682	0.064729
683.679349	0.064630
683.881997	0.064570
684.084627	0.064584
684.287239	0.064537
684.489833	0.064458
684.692408	0.064349
684.894965	0.064204
685.097504	0.064261
685.300025	0.064303
685.502527	0.064321
685.705012	0.064625
685.907478	0.064613
686.109925	0.064662
686.312355	0.064696
686.514766	0.064980
686.717159	0.065268
686.919534	0.065411
687.121891	0.065411
687.324230	0.065522
687.526550	0.065405
687.728852	0.065568
687.931136	0.065584
688.133401	0.065697
688.335649	0.065697
688.537878	0.065560
688.740089	0.065387
688.942281	0.065402
689.144456	0.065390
689.346612	0.065252
689.548750	0.065134
689.750870	0.065111
689.952971	0.064981
690.155055	0.064840
690.357120	0.064820
690.559167	0.065051
690.761195	0.065021
690.963206	0.065104
691.165198	0.065240
691.367172	0.065424
691.569128	0.065530
691.771065	0.065696
691.972984	0.065916
692.174885	0.065925
692.376768	0.065675
692.578633	0.065803
692.780479	0.065792
692.982308	0.065634
693.184118	0.065518
693.385909	0.065483
