sample name	sample
index	1105
start time	 04-22-2021  12:48:53 PM
880	0.216872
Peak Time (s)	101.537
Peak Height 	0.2169
calc peak height	100,103
Baseline Time (s)	10.537
Baseline Value 	-0.004672
subtract baseline	10,4
Abs	0.149524
Peak Time (s)	100.536
Peak Height 	0.1495
calc peak height	100,103
Baseline Time (s)	9.036
Baseline Value 	0.003288
subtract baseline	10,3
PK_550	0.088573
Peak Time (s)	102.537
Peak Height 	0.08857
calc peak height	100,103
Baseline Time (s)	9.536
Baseline Value 	5.3128E-4
subtract baseline	10,2
PK_880	0.136248
Peak Time (s)	102.537
Peak Height 	0.1362
calc peak height	100,103
Baseline Time (s)	11.534
Baseline Value 	0.002315
subtract baseline	10,1


Time (s)	A880-A510	A880-A775	A880-A975	A880	I510	I775	I975	I880	
0.035500	-0.003109	-0.001059	-0.002636	0.007269	6221.867624	42735.304940	3893.376238	22466.372046
0.536500	-0.001732	-0.000808	-0.002684	0.004992	6249.732213	42967.471214	3898.473907	22569.090170
1.036500	-0.001956	-0.000170	-0.003931	0.004593	6251.073208	43063.082838	3896.533158	22587.159844
1.537500	-0.001819	-0.000568	0.000182	0.001586	6275.239326	43304.723734	3912.961118	22723.770777
2.037000	-0.004419	-0.000109	-0.002174	0.006335	6219.016213	42908.169866	3896.567413	22508.440467
2.537500	-0.001187	-0.000366	0.004090	0.001514	6280.675442	43330.151608	3922.260806	22727.048512
3.035500	-0.004241	-0.000627	-0.000226	0.003416	6242.591209	43129.543569	3907.766227	22640.490389
3.535000	-0.000407	-0.001405	-0.002511	-0.000345	6301.126835	43406.387605	3911.188513	22811.978125
4.035500	-0.002937	0.000580	0.001843	0.004464	6244.553170	43144.293242	3910.133138	22592.981110
4.536000	-0.003631	-0.001577	-0.001699	-0.000475	6277.161710	43402.423746	3913.378484	22817.925068
5.036500	-0.000560	0.000447	0.001691	0.000752	6291.431019	43476.757721	3918.427093	22761.834772
5.536500	0.001441	-0.000022	0.004597	0.000427	6309.507052	43463.331947	3926.010068	22776.656972
6.036500	-0.001899	-0.000439	0.004763	0.000338	6284.259234	43432.762984	3926.610003	22780.722758
6.537000	-0.000319	0.000192	0.003024	0.000843	6292.586139	43444.485022	3921.333139	22757.654375
7.037500	0.000864	0.000545	0.001698	0.000999	6300.567828	43462.888902	3917.865098	22750.541449
7.538000	-0.003095	0.000143	0.001155	0.000578	6273.170940	43464.555723	3917.578248	22769.758548
8.035500	-0.001266	0.000191	0.000734	0.000152	6290.604317	43508.755668	3917.589213	22789.214972
8.535500	-0.002556	0.000575	-0.000612	-0.000013	6281.894645	43560.060706	3914.832823	22796.766322
9.035500	0.000779	0.000457	0.000000	0.000160	6306.431277	43532.958540	3915.859212	22788.890403
9.536000	0.000818	0.000000	0.002786	0.000440	6304.555238	43464.141060	3921.721206	22776.068233
10.036500	-0.000459	-0.000979	-0.000104	-0.000560	6302.396385	43466.103909	3917.295666	22821.828509
10.536500	-0.001065	-0.000286	0.003016	0.000000	6293.339618	43478.538380	3923.294028	22796.189406
11.037000	0.001149	0.000072	0.004120	0.000064	6310.059241	43505.983670	3925.742601	22793.267943
11.534500	0.000000	-0.000115	-0.001665	-0.000087	6302.289119	43502.570431	3912.555252	22800.169643
12.037500	0.000410	0.000278	0.006174	0.000669	6299.600410	43468.661710	3929.158880	22765.590005
12.534000	-0.001950	0.000767	-0.002210	0.000417	6283.257527	43537.862396	3910.119607	22777.119552
13.035000	-0.001793	0.000173	0.002147	0.003542	6260.385861	43192.025060	3912.981930	22634.808549
13.536500	-0.002552	-0.000604	-0.001626	-0.000091	6282.532508	43457.404561	3912.655626	22800.371124
14.035500	-0.002649	-0.000068	-0.004556	0.002549	6261.440138	43261.705743	3899.787300	22679.924231
14.538500	-0.002578	0.000011	-0.001232	0.002440	6262.822636	43279.128152	3907.698387	22684.878870
15.036500	-0.003156	0.000424	0.003230	0.003709	6248.651304	43199.714081	3915.113287	22627.201642
15.536500	0.000499	-0.000378	-0.005496	0.000053	6305.081092	43464.907453	3903.362411	22793.743401
16.037500	0.000323	-0.000219	-0.001576	0.000317	6301.662670	43455.211015	3911.824373	22781.690752
16.534500	-0.001730	-0.000421	0.001236	0.000090	6287.493116	43457.502743	3918.910198	22792.071699
17.037500	-0.001348	-0.000381	-0.000794	0.000871	6284.409337	43388.513270	3912.354574	22756.397366
17.535000	-0.003145	-0.000005	0.000331	0.001428	6266.241108	43371.689657	3913.675559	22730.959415
18.035500	-0.001896	0.000088	-0.003025	0.001408	6276.019535	43382.184239	3905.938778	22731.858403
18.535500	-0.001514	-0.000442	0.003066	0.001205	6280.531762	43351.720489	3920.583995	22741.113159
19.036000	-0.003113	-0.000449	-0.000994	0.001952	6262.457607	43281.704391	3909.379174	22707.071606
19.536000	-0.002281	-0.000760	-0.001385	0.001275	6274.073188	43315.694284	3910.041922	22737.919017
20.037000	-0.001610	0.000324	0.000816	0.002035	6273.388535	43345.852154	3913.390878	22703.297539
20.537000	-0.001878	0.000350	0.003237	0.002109	6270.754965	43341.403172	3918.868420	22699.931909
21.034500	-0.003372	0.000362	0.000879	0.002377	6257.201931	43317.521415	3912.741126	22687.720375
21.537500	-0.001307	-0.000962	0.002977	0.000973	6283.929038	43324.963406	3920.919612	22751.710144
22.035000	-0.001172	0.000105	-0.002514	0.001789	6278.667729	43348.335320	3906.238556	22714.502365
22.535000	-0.000236	0.000016	0.001194	0.001596	6287.401365	43357.970033	3915.293309	22723.308525
23.036000	-0.001456	-0.000253	0.008958	0.002487	6271.094253	43250.305625	3931.445832	22682.726150
23.535500	-0.000990	-0.000427	0.002059	0.001191	6284.697092	43354.487928	3918.259620	22741.788470
24.036000	0.001362	0.000409	-0.000137	0.001611	6299.675412	43393.127506	3912.160127	22722.603708
24.536500	-0.001396	0.000546	0.005746	0.001849	6276.475773	43383.762033	3925.367908	22711.782834
25.033500	-0.000452	0.000228	0.003251	0.001631	6285.453782	43374.474821	3920.018695	22721.693166
25.537000	-0.004341	-0.000036	0.003074	0.001509	6256.431653	43361.214667	3919.890745	22727.259678
26.037500	-0.003431	-0.000927	-0.002310	0.000503	6271.159324	43371.899223	3909.686612	22773.167078
26.534500	0.001598	0.000484	-0.000987	0.001963	6298.774845	43367.447091	3909.371359	22706.594644
27.035000	-0.000627	0.000230	0.002656	-0.001335	6307.125268	43651.505406	3925.588951	22857.367327
27.535500	-0.001002	-0.000503	0.002820	-0.000679	6299.106771	43521.636297	3924.431307	22827.293135
28.035500	-0.005037	-0.000699	-0.001119	0.002127	6246.366163	43242.320337	3908.684271	22699.123733
28.536000	-0.001144	-0.000531	-0.000650	-0.000146	6293.861767	43469.252119	3915.056499	22802.876932
29.036000	-0.000334	0.000064	0.000953	0.000504	6295.096435	43464.105610	3917.280036	22773.124842
29.537000	-0.002552	-0.000209	0.000270	-0.000108	6282.661414	43495.774075	3917.114147	22801.120162
30.036500	-0.003044	-0.000766	-0.002010	0.002121	6261.687773	43236.622842	3906.636762	22699.394786
30.536000	-0.002255	-0.000223	-0.000167	0.002394	6265.650233	43261.675512	3910.271226	22686.936807
31.040000	0.000335	0.000438	-0.000182	0.001440	6293.030124	43411.743002	3912.453450	22730.410293
31.537500	-0.000976	-0.000725	0.005954	-0.000119	6294.949692	43448.677014	3930.501950	22801.618631
32.038500	-0.000916	-0.000250	-0.000236	0.002412	6275.829411	43257.435235	3910.069946	22686.122040
32.535500	0.000366	0.000689	0.006182	0.000916	6297.342494	43484.010306	3928.595456	22754.334136
33.035500	0.000756	0.000565	0.005995	0.001222	6297.989942	43443.852864	3927.432253	22740.345080
33.541000	-0.000105	0.000099	-0.000999	0.000425	6297.495561	43474.710295	3912.912886	22776.746912
34.036500	-0.002265	-0.000412	0.002673	0.001635	6271.422276	43314.634279	3918.656398	22721.531904
34.536500	-0.001371	0.000775	-0.003698	0.002763	6269.614075	43320.008353	3901.264706	22670.155273
35.037000	0.000573	-0.000475	0.002265	0.002105	6289.726131	43265.156061	3916.605429	22700.122591
35.537500	-0.001153	-0.000567	-0.001609	0.002129	6276.185498	43254.319801	3907.545271	22699.014027
36.037500	-0.000543	-0.000140	0.000745	0.001962	6282.195888	43309.511885	3913.395232	22706.644342
36.538000	0.000015	-0.000349	-0.002686	0.002071	6285.662879	43279.939059	3905.190306	22701.653631
37.035500	-0.001182	-0.000415	0.003537	0.002198	6275.433600	43262.112130	3919.362799	22695.887027
37.535500	-0.002392	-0.000246	0.002071	0.002551	6263.394588	43245.015999	3915.112461	22679.819428
38.036000	-0.002163	-0.000664	-0.004891	0.001530	6273.013574	43300.898175	3901.355544	22726.301613
38.536000	-0.001695	-0.000204	0.001427	0.001855	6274.118495	43313.445495	3915.231253	22711.483622
39.036500	0.000901	0.000073	0.003057	0.002067	6292.555309	43319.476538	3918.545196	22701.840737
39.537000	-0.002459	0.000093	0.003195	0.001982	6267.252302	43329.238052	3919.064588	22705.698123
40.037000	-0.000697	0.000331	0.006081	0.002136	6279.654614	43337.073392	3925.481365	22698.707987
40.537500	-0.001124	-0.000143	-0.002909	0.001900	6278.182044	43315.011937	3905.071824	22709.468188
41.035000	-0.000474	-0.000645	0.003729	0.002843	6275.919335	43181.013220	3918.302672	22666.547163
41.535000	-0.001641	0.000070	0.003204	0.001752	6275.328162	43348.462744	3919.624775	22716.176198
42.035500	-0.000126	-0.000341	0.000256	0.001523	6288.810395	43331.590846	3913.278850	22726.615169
42.535500	-0.002311	-0.000186	0.001826	0.002289	6266.034433	43274.842446	3915.152741	22691.746728
43.036000	-0.004927	-0.000141	-0.000182	0.002960	6240.836616	43216.756049	3908.924249	22661.198407
43.536000	-0.001767	-0.000286	0.002976	0.001822	6273.819426	43308.886575	3918.927033	22712.988465
44.039500	0.002503	-0.000035	0.005481	-0.002845	6343.450856	43768.237263	3935.849132	22926.769710
44.537000	0.000665	0.000533	0.002408	0.000453	6303.261725	43512.637825	3920.803832	22775.467250
45.037500	-0.003888	0.000088	0.000793	0.003583	6244.017384	43180.375495	3909.742660	22632.943973
45.537500	-0.000314	0.000053	0.001009	0.000238	6297.319864	43487.857343	3918.032794	22785.293782
46.035000	-0.001932	-0.000645	-0.001358	0.000524	6282.568230	43396.220344	3911.848558	22772.208860
46.535000	-0.002847	-0.000681	0.000820	0.000220	6277.851156	43421.178221	3917.632109	22786.135105
47.035500	-0.003023	-0.000859	-0.003780	0.002549	6258.563974	43188.452024	3901.568771	22679.925254
47.536000	-0.002898	-0.001016	0.001520	0.002217	6262.080472	43204.641044	3914.608029	22695.035263
48.036500	-0.001068	0.000078	0.000885	0.002352	6275.124056	43293.530892	3912.811910	22688.856038
48.536500	0.000562	0.000380	0.005503	0.000875	6299.175893	43459.041828	3927.088752	22756.188187
49.036500	-0.002041	-0.001109	0.002491	0.003161	6261.405701	43108.638305	3914.669258	22652.103622
49.537000	-0.002634	0.000097	0.003880	0.000443	6277.775808	43472.956919	3924.285627	22775.945802
50.037500	0.002060	-0.000172	0.001956	-0.001061	6325.973950	43588.262978	3923.296731	22844.807700
50.535000	-0.000373	0.000196	0.005521	0.006090	6251.726486	42958.832620	3914.903073	22519.480565
51.035000	0.002196	-0.001975	0.007236	0.025840	6122.680009	40990.671099	3873.732074	21648.432127
51.535000	0.020192	-0.011791	0.014160	0.461155	4148.031301	16614.740985	3264.816265	9797.346843
52.035500	-0.004401	-0.018880	-0.011709	-0.099331	7126.655950	51753.898593	4142.807376	27902.628506
52.536000	-0.026360	-0.030829	-0.015643	-0.148205	7395.313419	56082.720163	4278.004994	30877.698974
53.036000	-0.020620	-0.038209	-0.007578	-0.185540	7861.465612	59875.113032	4429.554695	33386.919753
53.536500	-0.006153	-0.037847	0.004014	-0.196337	8157.163735	61356.114047	4510.331532	34153.680793
54.040000	-0.001098	-0.034675	0.009771	-0.188944	8129.079279	60791.517260	4504.289963	33626.634654
54.540000	-0.005746	-0.019687	0.006040	-0.134446	7466.434712	55763.644415	4303.328808	30006.019805
55.034500	-0.001802	-0.011173	0.010982	-0.094535	7105.456018	52081.998630	4194.970572	27628.327924
55.535000	0.005902	-0.008264	0.014853	-0.108961	7324.010699	54081.784048	4250.576195	28462.627192
56.035500	0.014528	-0.000717	0.017731	-0.095470	7275.010015	53387.038621	4218.039881	27681.571026
56.535500	0.020290	0.006729	0.016675	-0.070076	7082.731144	51346.098544	4140.322585	26275.551009
57.036000	0.029697	0.010808	0.034528	-0.047830	6961.602075	49364.380309	4127.865910	25109.630662
57.536500	0.038901	0.014278	0.042471	-0.041828	6991.475462	49094.671743	4133.354193	24805.164382
58.036500	0.044123	0.019042	0.045863	-0.018793	6828.047620	47194.608405	4078.931466	23674.919445
58.536500	0.049690	0.025206	0.051760	0.015536	6577.912736	44417.793913	4004.393709	22097.949030
59.037500	0.053304	0.025404	0.062683	0.060056	6249.517533	40396.829962	3922.381922	20229.964091
59.537500	0.057858	0.028974	0.066826	0.102485	5971.834028	37193.814269	3836.338739	18619.366298
60.035000	0.052059	0.031097	0.063388	0.151823	5608.520785	33668.651286	3729.505627	16934.053102
60.538000	0.055992	0.033200	0.065110	0.161252	5574.775109	33155.197194	3714.963485	16633.210786
61.035500	0.052622	0.036385	0.068339	0.171593	5492.407365	32661.934874	3701.768632	16310.653690
61.535500	0.059842	0.040896	0.073711	0.173972	5521.196336	32808.091277	3707.296059	16237.564470
62.036000	0.063698	0.043118	0.071974	0.174010	5544.125910	32958.500445	3704.013290	16236.392230
62.539000	0.064017	0.044973	0.073637	0.171788	5559.496237	33241.315977	3711.213621	16304.671614
63.036500	0.058080	0.045285	0.070443	0.170705	5530.211847	33338.658913	3707.293804	16338.070766
63.536500	0.062919	0.045903	0.076258	0.159171	5630.314260	34200.297165	3740.083763	16699.039353
64.040000	0.066361	0.047039	0.079730	0.150421	5707.352660	34919.281718	3763.986598	16979.361986
64.537500	0.067231	0.049049	0.077259	0.142949	5761.315929	35624.374876	3773.958637	17223.220945
65.035000	0.067313	0.051241	0.080543	0.139890	5781.904036	36021.579267	3786.777835	17324.287163
65.535000	0.068101	0.051737	0.078244	0.128411	5863.762773	36945.470841	3805.663613	17709.924569
66.035500	0.072862	0.054141	0.079384	0.122363	5937.830638	37613.071438	3820.732357	17917.250396
66.536000	0.070829	0.054603	0.078836	0.114945	5975.424195	38247.399920	3835.371704	18175.527508
67.035500	0.073403	0.055563	0.075255	0.114101	5999.529492	38394.190386	3829.511139	18205.166340
67.536500	0.076680	0.055454	0.083666	0.105345	6085.915031	39106.511280	3866.880735	18516.363642
68.037000	0.077683	0.055931	0.088165	0.101894	6118.501684	39434.727518	3884.692115	18640.735307
68.534500	0.080980	0.057488	0.084971	0.099962	6157.192307	39728.828141	3881.842323	18710.796788
69.037500	0.080487	0.058143	0.086906	0.098235	6166.386281	39931.043309	3890.134489	18773.690961
69.534500	0.082807	0.059517	0.090621	0.099300	6175.778037	39957.406950	3896.179432	18734.900452
70.035000	0.083374	0.060310	0.088405	0.097905	6190.491034	40144.116012	3894.302701	18785.751759
70.535500	0.085545	0.061167	0.088569	0.097775	6207.845802	40228.743921	3894.973177	18790.500977
71.038500	0.085686	0.061840	0.093361	0.102913	6170.280111	39847.663401	3894.181740	18603.905760
71.536000	0.086987	0.062456	0.093049	0.099800	6203.434418	40165.581877	3900.597225	18716.685853
72.036000	0.091409	0.063914	0.098603	0.099513	6239.183212	40315.389923	3914.110120	18727.144796
72.537000	0.091170	0.064016	0.096056	0.099178	6239.915840	40352.892482	3908.970674	18739.320807
73.037000	0.095458	0.067043	0.101682	0.101885	6252.007571	40380.479606	3915.759131	18641.070676
73.540000	0.096241	0.066141	0.100239	0.104560	6237.540974	40073.694498	3906.198741	18544.577558
74.037500	0.097868	0.067282	0.102382	0.103914	6254.928055	40226.706785	3912.664198	18567.828497
74.535000	0.100824	0.067599	0.104606	0.105833	6262.890770	40089.434174	3913.372769	18498.851904
75.035000	0.098291	0.067804	0.107309	0.112174	6195.369378	39568.838717	3904.943427	18273.146604
75.535000	0.100152	0.067314	0.104700	0.111259	6216.342574	39604.535073	3901.039757	18305.486682
76.035500	0.102868	0.070349	0.107787	0.114157	6214.964572	39616.162720	3901.475299	18203.231315
76.536000	0.103163	0.068757	0.109416	0.114688	6213.172774	39437.491973	3904.002160	18184.539303
77.036500	0.100125	0.069857	0.110191	0.122178	6134.412935	38904.844335	3888.638217	17923.630316
77.537000	0.105712	0.070630	0.113769	0.122898	6170.586394	38909.307087	3895.149136	17898.807241
78.039500	0.105163	0.071497	0.112847	0.122342	6170.639657	39027.228368	3894.314647	17917.991071
78.537500	0.107097	0.071460	0.107018	0.123876	6173.630301	38897.077531	3877.643472	17865.131104
79.034500	0.105071	0.072230	0.114889	0.131880	6099.451959	38303.613081	3877.345347	17592.307961
79.535000	0.102105	0.072103	0.114325	0.132417	6073.953888	38249.689433	3874.878597	17574.205590
80.035000	0.107527	0.072331	0.113559	0.130581	6127.025976	38417.717154	3877.274650	17636.253292
80.535500	0.110165	0.073430	0.119004	0.133264	6126.694643	38288.633920	3883.491576	17545.641839
81.036000	0.106490	0.072963	0.112218	0.139586	6053.827651	37740.944519	3854.332999	17334.386251
81.536000	0.108421	0.074068	0.113788	0.140112	6063.964931	37787.223275	3856.622809	17316.919215
82.036500	0.109902	0.074266	0.118220	0.137847	6091.159887	37985.218050	3871.447290	17392.177004
82.536500	0.111907	0.074796	0.120355	0.139630	6092.779002	37884.420348	3872.231601	17332.913502
83.037000	0.111018	0.075982	0.121516	0.147543	6029.217647	37347.831410	3857.276915	17072.802823
83.537500	0.109272	0.075379	0.121065	0.147380	6017.922974	37313.009791	3856.643018	17078.093526
84.037000	0.116895	0.077645	0.124285	0.145713	6084.803440	37625.413549	3867.437686	17132.517534
84.535500	0.114582	0.078071	0.122836	0.147604	6054.355234	37508.663711	3860.047195	17070.793530
85.035500	0.115238	0.077071	0.116846	0.147966	6056.482762	37400.588265	3846.147145	17059.024604
85.536000	0.112803	0.077110	0.120322	0.153653	5998.454265	36955.745530	3841.354815	16875.146329
86.036500	0.112668	0.077951	0.123251	0.151889	6010.006307	37160.178926	3851.554662	16931.919002
86.536000	0.115379	0.077901	0.123970	0.153460	6018.116457	37032.878201	3849.694679	16881.362491
87.036500	0.116343	0.078561	0.122535	0.155968	6007.132316	36888.203920	3841.134530	16800.978392
87.539500	0.114799	0.078632	0.122115	0.162717	5948.834789	36370.709430	3825.772170	16587.040094
88.037000	0.119652	0.078536	0.130218	0.160236	6000.337369	36554.574899	3848.542373	16665.290574
88.535000	0.120081	0.078242	0.127489	0.161663	5993.275073	36421.761946	3839.534958	16620.224620
89.035000	0.116407	0.078511	0.131718	0.164501	5947.608471	36224.525525	3842.539879	16531.025784
89.535000	0.118667	0.078053	0.126221	0.166090	5952.280041	36068.174121	3827.329965	16481.336435
90.036000	0.120065	0.079170	0.130969	0.169521	5938.145617	35892.355188	3830.140078	16374.684848
90.536000	0.119949	0.080492	0.134733	0.173309	5911.175568	35705.892624	3830.088385	16257.879212
91.036500	0.118425	0.080151	0.131120	0.180185	5853.966016	35166.523668	3807.959361	16048.475268
91.536500	0.124704	0.081320	0.134900	0.178583	5907.603041	35372.510011	3819.246155	16096.949027
92.039500	0.125512	0.081046	0.132181	0.180873	5897.441451	35181.775511	3808.736305	16027.684862
92.537000	0.124970	0.080941	0.130339	0.182445	5883.011614	35057.733683	3801.642442	15980.358528
93.034500	0.124851	0.082134	0.136963	0.184837	5865.957744	34969.285013	3810.444221	15908.658073
93.537500	0.126056	0.082937	0.138128	0.188045	5852.426004	34792.627983	3806.184656	15813.120255
94.040500	0.128767	0.084280	0.139918	0.190635	5853.231312	34701.312757	3804.521668	15736.470180
94.535000	0.128643	0.083724	0.140431	0.191823	5844.400490	34574.129843	3803.120674	15701.479163
95.038500	0.125295	0.082679	0.137392	0.198732	5776.249189	34000.664590	3782.729466	15499.847091
95.536000	0.130256	0.084298	0.143665	0.195891	5827.948563	34320.979129	3801.393823	15582.382527
96.042000	0.130920	0.085919	0.145823	0.198380	5815.769330	34258.370067	3800.708319	15510.040183
96.536500	0.131139	0.085224	0.147365	0.199205	5811.734734	34149.036658	3802.193162	15486.156826
97.042000	0.128335	0.084925	0.135106	0.205917	5749.162636	33649.831113	3763.746018	15293.533089
