sample name	sample
index	470
start time	 03-11-2021  12:18:29 PM


Wavelength (nm)	Absorbance
494.344910	-0.237986
494.563924	-0.237986
494.782919	-0.237986
495.001897	-0.042711
495.220856	-0.107100
495.439797	-0.059605
495.658719	0.008434
495.877624	0.009234
496.096510	0.000852
496.315378	0.021770
496.534227	0.016633
496.753059	0.098345
496.971872	0.075748
497.190667	0.159991
497.409444	0.163826
497.628203	0.164611
497.846943	0.169461
498.065665	0.169249
498.284369	0.169360
498.503055	0.170280
498.721723	0.170245
498.940372	0.172282
499.159003	0.172021
499.377616	0.172380
499.596210	0.173209
499.814787	0.171876
500.033345	0.173158
500.251885	0.173959
500.470406	0.175035
500.688910	0.174518
500.907395	0.173922
501.125862	0.174556
501.344311	0.175106
501.562742	0.173992
501.781154	0.175272
501.999548	0.175163
502.217924	0.175355
502.436282	0.175023
502.654621	0.176382
502.872942	0.175508
503.091245	0.175531
503.309530	0.175893
503.527797	0.178205
503.746045	0.178272
503.964275	0.179202
504.182487	0.179477
504.400681	0.179783
504.618856	0.179465
504.837013	0.179956
505.055152	0.180048
505.273273	0.180125
505.491376	0.179312
505.709460	0.179037
505.927526	0.178962
506.145574	0.178822
506.363604	0.178291
506.581615	0.178333
506.799608	0.178878
507.017583	0.178613
507.235540	0.178344
507.453478	0.178167
507.671399	0.178803
507.889301	0.177886
508.107185	0.178152
508.325050	0.178724
508.542898	0.179027
508.760727	0.178359
508.978538	0.179458
509.196330	0.179906
509.414105	0.180504
509.631861	0.180274
509.849599	0.181591
510.067319	0.181833
510.285021	0.182003
510.502704	0.181804
510.720369	0.182724
510.938016	0.182172
511.155645	0.182774
511.373255	0.181985
511.590848	0.181908
511.808422	0.181450
512.025977	0.181480
512.243515	0.182450
512.461034	0.183014
512.678536	0.182851
512.896018	0.182681
513.113483	0.182391
513.330930	0.183724
513.548358	0.184547
513.765768	0.184552
513.983160	0.185367
514.200533	0.185099
514.417889	0.185842
514.635226	0.186607
514.852545	0.187486
515.069845	0.188284
515.287128	0.188766
515.504392	0.189166
515.721638	0.190314
515.938866	0.190051
516.156075	0.190221
516.373267	0.189845
516.590440	0.189656
516.807594	0.189828
517.024731	0.189509
517.241850	0.189328
517.458950	0.189220
517.676032	0.188756
517.893095	0.188983
518.110141	0.188324
518.327168	0.189200
518.544177	0.189670
518.761168	0.189587
518.978141	0.190021
519.195095	0.189828
519.412031	0.190537
519.628949	0.190563
519.845849	0.191481
520.062731	0.192099
520.279594	0.191962
520.496439	0.192028
520.713266	0.192282
520.930074	0.193197
521.146865	0.193243
521.363637	0.192831
521.580391	0.193122
521.797127	0.192641
522.013844	0.193130
522.230543	0.193572
522.447224	0.193773
522.663887	0.193603
522.880532	0.192435
523.097158	0.192732
523.313766	0.193706
523.530356	0.194896
523.746928	0.195075
523.963481	0.196080
524.180017	0.196055
524.396534	0.196231
524.613032	0.197200
524.829513	0.198018
525.045975	0.198510
525.262420	0.198720
525.478845	0.198383
525.695253	0.198310
525.911643	0.198239
526.128014	0.198869
526.344367	0.199344
526.560702	0.199359
526.777018	0.199307
526.993316	0.199692
527.209597	0.199689
527.425858	0.199951
527.642102	0.200706
527.858328	0.200803
528.074535	0.200358
528.290724	0.200801
528.506894	0.201650
528.723047	0.202141
528.939181	0.202229
529.155297	0.202972
529.371395	0.203350
529.587475	0.203696
529.803536	0.204744
530.019579	0.206102
530.235604	0.206356
530.451611	0.205647
530.667600	0.206406
530.883570	0.207038
531.099522	0.207282
531.315456	0.207861
531.531372	0.207588
531.747269	0.207125
531.963148	0.207125
532.179009	0.207094
532.394852	0.208055
532.610676	0.208127
532.826482	0.208146
533.042271	0.207939
533.258040	0.207837
533.473792	0.208329
533.689525	0.208913
533.905240	0.209128
534.120937	0.209734
534.336616	0.210439
534.552277	0.211079
534.767919	0.211544
534.983543	0.211955
535.199149	0.212400
535.414736	0.213400
535.630306	0.213161
535.845857	0.213508
536.061390	0.213560
536.276904	0.213476
536.492401	0.213755
536.707879	0.214169
536.923339	0.214489
537.138781	0.214695
537.354204	0.214612
537.569610	0.215762
537.784997	0.215915
538.000366	0.216558
538.215716	0.216814
538.431049	0.216714
538.646363	0.217460
538.861659	0.218183
539.076937	0.218785
539.292196	0.219428
539.507438	0.218780
539.722661	0.219252
539.937866	0.219662
540.153052	0.219782
540.368221	0.220828
540.583371	0.221028
540.798503	0.220455
541.013617	0.220660
541.228712	0.220157
541.443789	0.221295
541.658848	0.221735
541.873889	0.221869
542.088912	0.222316
542.303916	0.221898
542.518902	0.221567
542.733870	0.222490
542.948820	0.222795
543.163752	0.223427
543.378665	0.223030
543.593560	0.223019
543.808437	0.222751
544.023295	0.222841
544.238136	0.223366
544.452958	0.224034
544.667762	0.224483
544.882548	0.224588
545.097315	0.224761
545.312064	0.225135
545.526795	0.225619
545.741508	0.226673
545.956203	0.227122
546.170879	0.227490
546.385537	0.228019
546.600177	0.227683
546.814799	0.228216
547.029402	0.228867
547.243988	0.229021
547.458555	0.229219
547.673103	0.229393
547.887634	0.229582
548.102146	0.229555
548.316640	0.229463
548.531116	0.230290
548.745574	0.230266
548.960013	0.230749
549.174435	0.230997
549.388838	0.230733
549.603222	0.230802
549.817589	0.231024
550.031937	0.230921
550.246267	0.231358
550.460579	0.231400
550.674873	0.231998
550.889148	0.232264
551.103405	0.232858
551.317644	0.233216
551.531865	0.233294
551.746068	0.233388
551.960252	0.234232
552.174418	0.234247
552.388566	0.234740
552.602696	0.234551
552.816807	0.234258
553.030900	0.234491
553.244975	0.234456
553.459032	0.234854
553.673070	0.235180
553.887091	0.234896
554.101093	0.234994
554.315077	0.234777
554.529042	0.235228
554.742990	0.235287
554.956919	0.235193
555.170830	0.235819
555.384722	0.235969
555.598597	0.236186
555.812453	0.236738
556.026291	0.237089
556.240111	0.237550
556.453913	0.237515
556.667696	0.238062
556.881461	0.238590
557.095208	0.239035
557.308937	0.239707
557.522647	0.239720
557.736339	0.239701
557.950013	0.239936
558.163669	0.239997
558.377307	0.240198
558.590926	0.240442
558.804527	0.240833
559.018110	0.241034
559.231675	0.241254
559.445221	0.241675
559.658749	0.241855
559.872259	0.242210
560.085751	0.242031
560.299225	0.242569
560.512680	0.242847
560.726117	0.242657
560.939536	0.242789
561.152937	0.242771
561.366319	0.243070
561.579683	0.243464
561.793029	0.243761
562.006357	0.244313
562.219667	0.244361
562.432958	0.244576
562.646231	0.244791
562.859486	0.244984
563.072723	0.245060
563.285941	0.245216
563.499141	0.245673
563.712323	0.245681
563.925487	0.245931
564.138632	0.246094
564.351760	0.246161
564.564869	0.246166
564.777960	0.246389
564.991032	0.246882
565.204087	0.247503
565.417123	0.247314
565.630141	0.247784
565.843140	0.247948
566.056122	0.248087
566.269085	0.248347
566.482030	0.248684
566.694957	0.248999
566.907866	0.249084
567.120756	0.248729
567.333628	0.248794
567.546482	0.248381
567.759318	0.248701
567.972135	0.248837
568.184935	0.248960
568.397716	0.248980
568.610478	0.249445
568.823223	0.249400
569.035949	0.249725
569.248657	0.250375
569.461347	0.250714
569.674019	0.250616
569.886672	0.251253
570.099308	0.251349
570.311925	0.251858
570.524523	0.251533
570.737104	0.251782
570.949666	0.252330
571.162210	0.252292
571.374736	0.252777
571.587244	0.253206
571.799733	0.253194
572.012205	0.253569
572.224658	0.253649
572.437092	0.254091
572.649509	0.254461
572.861907	0.254306
573.074287	0.254345
573.286649	0.254204
573.498993	0.254114
573.711318	0.253926
573.923625	0.253994
574.135914	0.254111
574.348185	0.254197
574.560438	0.254390
574.772672	0.254497
574.984888	0.254986
575.197086	0.255330
575.409266	0.255749
575.621427	0.256284
575.833570	0.256569
576.045695	0.256783
576.257802	0.256858
576.469890	0.256751
576.681961	0.257134
576.894013	0.257174
577.106046	0.257151
577.318062	0.257201
577.530059	0.257305
577.742039	0.257515
577.954000	0.257479
578.165942	0.257523
578.377867	0.257617
578.589773	0.257903
578.801661	0.258208
579.013531	0.258683
579.225382	0.258884
579.437216	0.259091
579.649031	0.259433
579.860828	0.259910
580.072606	0.260129
580.284367	0.260080
580.496109	0.260112
580.707833	0.259940
580.919539	0.260626
581.131227	0.260875
581.342896	0.260743
581.554547	0.260733
581.766180	0.260903
581.977795	0.261172
582.189391	0.261320
582.400969	0.261618
582.612529	0.262044
582.824071	0.261396
583.035595	0.261623
583.247100	0.262012
583.458587	0.262034
583.670056	0.262302
583.881506	0.262702
584.092939	0.263217
584.304353	0.263488
584.515749	0.263883
584.727127	0.264750
584.938486	0.264924
585.149828	0.265296
585.361151	0.265556
585.572456	0.265665
585.783742	0.265635
585.995011	0.266013
586.206261	0.266043
586.417493	0.266079
586.628706	0.265947
586.839902	0.266123
587.051079	0.266075
587.262238	0.266355
587.473379	0.266670
587.684502	0.266684
587.895606	0.267122
588.106692	0.267775
588.317760	0.267665
588.528810	0.267883
588.739841	0.268071
588.950855	0.268381
589.161850	0.268663
589.372827	0.269109
589.583785	0.269748
589.794726	0.269868
590.005648	0.269973
590.216552	0.270586
590.427437	0.270689
590.638305	0.271236
590.849154	0.271618
591.059985	0.271744
591.270798	0.271532
591.481592	0.271728
591.692369	0.271834
591.903127	0.271474
592.113867	0.271667
592.324588	0.271552
592.535292	0.271414
592.745977	0.271578
592.956644	0.271539
593.167293	0.271922
593.377923	0.271762
593.588536	0.272019
593.799130	0.272481
594.009706	0.272557
594.220263	0.273024
594.430803	0.273504
594.641324	0.273484
594.851827	0.273685
595.062312	0.273856
595.272778	0.274382
595.483227	0.274212
595.693657	0.273943
595.904069	0.274018
596.114462	0.274423
596.324838	0.274676
596.535195	0.275069
596.745534	0.275536
596.955855	0.275591
597.166157	0.275872
597.376441	0.276169
597.586707	0.276708
597.796955	0.277380
598.007185	0.277471
598.217396	0.277667
598.427589	0.277358
598.637764	0.277284
598.847921	0.277672
599.058060	0.277517
599.268180	0.277543
599.478282	0.277724
599.688366	0.277515
599.898431	0.277529
600.108479	0.277315
600.318508	0.278054
600.528519	0.278360
600.738511	0.278679
600.948486	0.279033
601.158442	0.279379
601.368380	0.279658
601.578300	0.279957
601.788202	0.280372
601.998085	0.280917
602.207950	0.280961
602.417797	0.281164
602.627626	0.281009
602.837436	0.281213
603.047228	0.281481
603.257002	0.281753
603.466758	0.282017
603.676496	0.282139
603.886215	0.282178
604.095916	0.282248
604.305599	0.282566
604.515264	0.282941
604.724910	0.283212
604.934538	0.283368
605.144148	0.283119
605.353740	0.283047
605.563314	0.283180
605.772869	0.283118
605.982406	0.283296
606.191925	0.283509
606.401425	0.283466
606.610908	0.283526
606.820372	0.283435
607.029818	0.283930
607.239246	0.284473
607.448655	0.284575
607.658047	0.284478
607.867420	0.284572
608.076775	0.284306
608.286111	0.284779
608.495430	0.284755
608.704730	0.285394
608.914012	0.285369
609.123275	0.285489
609.332521	0.285463
609.541748	0.285756
609.750957	0.286266
609.960148	0.286726
610.169321	0.286844
610.378475	0.287325
610.587611	0.287402
610.796729	0.287679
611.005829	0.287669
611.214910	0.287928
611.423974	0.288483
611.633019	0.288694
611.842045	0.288755
612.051054	0.288862
612.260044	0.288956
612.469017	0.289182
612.677970	0.289342
612.886906	0.289831
613.095824	0.290301
613.304723	0.290094
613.513604	0.290201
613.722467	0.290624
613.931311	0.290775
614.140138	0.290951
614.348946	0.291106
614.557736	0.291300
614.766507	0.291169
614.975261	0.291009
615.183996	0.291227
615.392713	0.291097
615.601412	0.290958
615.810092	0.290972
616.018754	0.290874
616.227399	0.290761
616.436024	0.291029
616.644632	0.291085
616.853222	0.291100
617.061793	0.291645
617.270346	0.291817
617.478880	0.291853
617.687397	0.291935
617.895895	0.292421
618.104375	0.292500
618.312837	0.292795
618.521281	0.293184
618.729706	0.293577
618.938113	0.293322
619.146502	0.293598
619.354873	0.294057
619.563226	0.294360
619.771560	0.294313
619.979876	0.294485
620.188174	0.294238
620.396453	0.294277
620.604715	0.294601
620.812958	0.295032
621.021183	0.295113
621.229390	0.295368
621.437578	0.295685
621.645748	0.295777
621.853900	0.296172
622.062034	0.296606
622.270150	0.296661
622.478247	0.296658
622.686326	0.296725
622.894387	0.296921
623.102430	0.297028
623.310454	0.297147
623.518461	0.297702
623.726449	0.298110
623.934418	0.298434
624.142370	0.298841
624.350303	0.298976
624.558218	0.299169
624.766115	0.299627
624.973994	0.299869
625.181855	0.300094
625.389697	0.299894
625.597521	0.299615
625.805327	0.299497
626.013114	0.299484
626.220883	0.299580
626.428634	0.299805
626.636367	0.299614
626.844082	0.299569
627.051778	0.299472
627.259457	0.299768
627.467117	0.300199
627.674758	0.300256
627.882382	0.300355
628.089987	0.300502
628.297574	0.300699
628.505143	0.301053
628.712694	0.301081
628.920226	0.301445
629.127740	0.301887
629.335236	0.301863
629.542714	0.302287
629.750174	0.302363
629.957615	0.302710
630.165038	0.302785
630.372443	0.302751
630.579829	0.303264
630.787198	0.303598
630.994548	0.303412
631.201880	0.303680
631.409194	0.303691
631.616489	0.303819
631.823766	0.303931
632.031025	0.304092
632.238266	0.304453
632.445489	0.304241
632.652693	0.303952
632.859879	0.303900
633.067047	0.304114
633.274197	0.304346
633.481329	0.304735
633.688442	0.305108
633.895537	0.305314
634.102614	0.305394
634.309672	0.305976
634.516713	0.306391
634.723735	0.307055
634.930739	0.307237
635.137724	0.307567
635.344692	0.307675
635.551641	0.307601
635.758572	0.307976
635.965485	0.308131
636.172379	0.307837
636.379256	0.307858
636.586114	0.307836
636.792954	0.308216
636.999775	0.308564
637.206579	0.308635
637.413364	0.308638
637.620131	0.308383
637.826880	0.308640
638.033610	0.308956
638.240323	0.309332
638.447017	0.309416
638.653692	0.309238
638.860350	0.309243
639.066990	0.309473
639.273611	0.309807
639.480214	0.310274
639.686798	0.310530
639.893365	0.310859
640.099913	0.311005
640.306443	0.311296
640.512955	0.311639
640.719449	0.311839
640.925924	0.312251
641.132381	0.312581
641.338820	0.312826
641.545241	0.313040
641.751644	0.313157
641.958028	0.313551
642.164394	0.313846
642.370742	0.314153
642.577071	0.314262
642.783383	0.314296
642.989676	0.314443
643.195951	0.314744
643.402207	0.314707
643.608446	0.315063
643.814666	0.314880
644.020868	0.314790
644.227052	0.314677
644.433218	0.314517
644.639365	0.314845
644.845494	0.315149
645.051605	0.314953
645.257698	0.315272
645.463772	0.315258
645.669828	0.315385
645.875866	0.315718
646.081886	0.315721
646.287888	0.315754
646.493871	0.315937
646.699836	0.316030
646.905783	0.316250
647.111712	0.316422
647.317622	0.316605
647.523514	0.316932
647.729388	0.317124
647.935244	0.317650
648.141082	0.318348
648.346901	0.318279
648.552702	0.318641
648.758485	0.318952
648.964250	0.319202
649.169996	0.319526
649.375724	0.319864
649.581434	0.320168
649.787126	0.320236
649.992800	0.320546
650.198455	0.320853
650.404092	0.320838
650.609711	0.321232
650.815311	0.321301
651.020894	0.321393
651.226458	0.321507
651.432004	0.321568
651.637532	0.321994
651.843041	0.321732
652.048532	0.321913
652.254006	0.322042
652.459460	0.322053
652.664897	0.322052
652.870315	0.322020
653.075716	0.322224
653.281097	0.322643
653.486461	0.322627
653.691807	0.323206
653.897134	0.323351
654.102443	0.323903
654.307734	0.324014
654.513006	0.324636
654.718261	0.325443
654.923497	0.325688
655.128715	0.325639
655.333915	0.325836
655.539096	0.325771
655.744259	0.326471
655.949404	0.326468
656.154531	0.326616
656.359640	0.326639
656.564730	0.326625
656.769802	0.326854
656.974856	0.327174
657.179892	0.327307
657.384909	0.327413
657.589908	0.327060
657.794889	0.327322
657.999852	0.327675
658.204797	0.327790
658.409723	0.327873
658.614631	0.327852
658.819521	0.327775
659.024393	0.328148
659.229246	0.328405
659.434081	0.328876
659.638898	0.329054
659.843697	0.329220
660.048478	0.329596
660.253240	0.330006
660.457984	0.330563
660.662710	0.330992
660.867417	0.331344
661.072107	0.331515
661.276778	0.331634
661.481431	0.331853
661.686066	0.332180
661.890682	0.332159
662.095281	0.331970
662.299861	0.331790
662.504422	0.331916
662.708966	0.332000
662.913491	0.332496
663.117999	0.332686
663.322488	0.332868
663.526958	0.332912
663.731411	0.333370
663.935845	0.333920
664.140261	0.334383
664.344659	0.334510
664.549038	0.334571
664.753400	0.334839
664.957743	0.335319
665.162068	0.335633
665.366375	0.336005
665.570663	0.336131
665.774933	0.336107
665.979185	0.336218
666.183419	0.336398
666.387635	0.336901
666.591832	0.337180
666.796011	0.337253
667.000172	0.337313
667.204315	0.337310
667.408439	0.337537
667.612545	0.337802
667.816634	0.338311
668.020703	0.338518
668.224755	0.338727
668.428788	0.338847
668.632803	0.339101
668.836800	0.339267
669.040779	0.339935
669.244739	0.340081
669.448681	0.340394
669.652605	0.340534
669.856511	0.341027
670.060399	0.340980
670.264268	0.341022
670.468119	0.341005
670.671952	0.340960
670.875767	0.340625
671.079563	0.340874
671.283341	0.340961
671.487101	0.341128
671.690843	0.341217
671.894567	0.341560
672.098272	0.341812
672.301959	0.342025
672.505628	0.342597
672.709278	0.343487
672.912911	0.343808
673.116525	0.344101
673.320121	0.344267
673.523699	0.344537
673.727258	0.344914
673.930799	0.345249
674.134322	0.345832
674.337827	0.346022
674.541314	0.345761
674.744782	0.345922
674.948232	0.346019
675.151664	0.346098
675.355078	0.346035
675.558474	0.346039
675.761851	0.346255
675.965210	0.346277
676.168551	0.346445
676.371873	0.346849
676.575178	0.346913
676.778464	0.347272
676.981732	0.347505
677.184981	0.348170
677.388213	0.348651
677.591426	0.348967
677.794621	0.349010
677.997798	0.349234
678.200956	0.349164
678.404097	0.349417
678.607219	0.349762
678.810323	0.350021
679.013408	0.350146
679.216476	0.350205
679.419525	0.350022
679.622556	0.350180
679.825569	0.350402
680.028563	0.350706
680.231540	0.351064
680.434498	0.351015
680.637438	0.351196
680.840359	0.351184
681.043263	0.351216
681.246148	0.351650
681.449015	0.351948
681.651864	0.352305
681.854694	0.352665
682.057506	0.352681
682.260301	0.353184
682.463076	0.353504
682.665834	0.353715
682.868573	0.354075
683.071295	0.354339
683.273998	0.354599
683.476682	0.354849
683.679349	0.354871
683.881997	0.355054
684.084627	0.355025
684.287239	0.355084
684.489833	0.355418
684.692408	0.355714
684.894965	0.355692
685.097504	0.356013
685.300025	0.356044
685.502527	0.356485
685.705012	0.357001
685.907478	0.357364
686.109925	0.357613
686.312355	0.357891
686.514766	0.358037
686.717159	0.358196
686.919534	0.358296
687.121891	0.358510
687.324230	0.358807
687.526550	0.358773
687.728852	0.358760
687.931136	0.358947
688.133401	0.358900
688.335649	0.358962
688.537878	0.359022
688.740089	0.359302
688.942281	0.359265
689.144456	0.359085
689.346612	0.359427
689.548750	0.359841
689.750870	0.360225
689.952971	0.360602
690.155055	0.360996
690.357120	0.361667
690.559167	0.362008
690.761195	0.362221
690.963206	0.362559
691.165198	0.362834
691.367172	0.363035
691.569128	0.362833
691.771065	0.363173
691.972984	0.363141
692.174885	0.363096
692.376768	0.363063
692.578633	0.363544
692.780479	0.363689
692.982308	0.363791
693.184118	0.363855
693.385909	0.364236
