sample name	sample
index	803
start time	 03-31-2021  02:54:31 PM


Wavelength (nm)	Absorbance
494.344910	NaN
494.563924	NaN
494.782919	NaN
495.001897	-0.084126
495.220856	NaN
495.439797	-0.254902
495.658719	-0.803796
495.877624	NaN
496.096510	NaN
496.315378	NaN
496.534227	NaN
496.753059	NaN
496.971872	NaN
497.190667	0.182385
497.409444	0.146534
497.628203	0.143704
497.846943	0.138587
498.065665	0.138319
498.284369	0.136882
498.503055	0.134327
498.721723	0.133590
498.940372	0.133849
499.159003	0.134397
499.377616	0.134748
499.596210	0.133266
499.814787	0.133535
500.033345	0.133323
500.251885	0.133466
500.470406	0.134812
500.688910	0.136502
500.907395	0.134938
501.125862	0.135026
501.344311	0.136583
501.562742	0.137157
501.781154	0.137541
501.999548	0.137671
502.217924	0.137756
502.436282	0.137038
502.654621	0.135971
502.872942	0.137689
503.091245	0.137240
503.309530	0.135629
503.527797	0.136660
503.746045	0.137308
503.964275	0.136697
504.182487	0.136950
504.400681	0.136707
504.618856	0.137284
504.837013	0.137650
505.055152	0.137720
505.273273	0.138965
505.491376	0.138298
505.709460	0.137174
505.927526	0.138451
506.145574	0.138106
506.363604	0.138454
506.581615	0.139014
506.799608	0.138816
507.017583	0.138715
507.235540	0.139065
507.453478	0.139133
507.671399	0.140312
507.889301	0.139445
508.107185	0.141703
508.325050	0.142703
508.542898	0.142531
508.760727	0.142632
508.978538	0.143115
509.196330	0.142377
509.414105	0.142773
509.631861	0.142704
509.849599	0.143545
510.067319	0.142223
510.285021	0.141756
510.502704	0.141483
510.720369	0.141559
510.938016	0.142016
511.155645	0.142857
511.373255	0.142588
511.590848	0.142686
511.808422	0.143035
512.025977	0.143559
512.243515	0.144954
512.461034	0.145439
512.678536	0.146054
512.896018	0.146182
513.113483	0.145670
513.330930	0.146005
513.548358	0.146116
513.765768	0.145617
513.983160	0.145728
514.200533	0.144847
514.417889	0.145097
514.635226	0.145234
514.852545	0.145743
515.069845	0.145998
515.287128	0.145813
515.504392	0.145945
515.721638	0.146569
515.938866	0.146445
516.156075	0.146630
516.373267	0.146119
516.590440	0.146612
516.807594	0.146502
517.024731	0.147126
517.241850	0.147198
517.458950	0.147203
517.676032	0.147174
517.893095	0.147403
518.110141	0.147484
518.327168	0.148150
518.544177	0.147997
518.761168	0.148371
518.978141	0.148137
519.195095	0.148810
519.412031	0.148882
519.628949	0.148807
519.845849	0.148398
520.062731	0.148793
520.279594	0.149577
520.496439	0.149649
520.713266	0.149549
520.930074	0.149926
521.146865	0.149982
521.363637	0.150700
521.580391	0.151520
521.797127	0.152056
522.013844	0.152227
522.230543	0.151105
522.447224	0.151276
522.663887	0.151550
522.880532	0.151685
523.097158	0.152112
523.313766	0.151671
523.530356	0.152448
523.746928	0.153143
523.963481	0.153704
524.180017	0.153860
524.396534	0.154449
524.613032	0.154037
524.829513	0.154657
525.045975	0.154739
525.262420	0.155242
525.478845	0.155134
525.695253	0.155099
525.911643	0.155393
526.128014	0.156513
526.344367	0.156202
526.560702	0.157291
526.777018	0.157046
526.993316	0.156667
527.209597	0.156923
527.425858	0.156670
527.642102	0.156870
527.858328	0.156962
528.074535	0.156921
528.290724	0.157392
528.506894	0.157322
528.723047	0.157803
528.939181	0.158047
529.155297	0.158561
529.371395	0.159244
529.587475	0.159750
529.803536	0.159490
530.019579	0.160211
530.235604	0.160608
530.451611	0.161268
530.667600	0.161523
530.883570	0.162466
531.099522	0.163034
531.315456	0.162870
531.531372	0.163336
531.747269	0.164299
531.963148	0.164556
532.179009	0.164609
532.394852	0.164680
532.610676	0.164839
532.826482	0.165548
533.042271	0.165864
533.258040	0.166589
533.473792	0.166884
533.689525	0.167167
533.905240	0.167056
534.120937	0.167528
534.336616	0.168069
534.552277	0.168734
534.767919	0.168357
534.983543	0.168500
535.199149	0.168554
535.414736	0.167885
535.630306	0.167893
535.845857	0.168399
536.061390	0.168305
536.276904	0.168305
536.492401	0.168729
536.707879	0.169282
536.923339	0.169255
537.138781	0.169686
537.354204	0.170934
537.569610	0.171430
537.784997	0.171157
538.000366	0.172044
538.215716	0.172249
538.431049	0.172060
538.646363	0.172147
538.861659	0.172436
539.076937	0.172071
539.292196	0.171661
539.507438	0.171740
539.722661	0.172512
539.937866	0.172695
540.153052	0.172913
540.368221	0.173174
540.583371	0.173705
540.798503	0.174329
541.013617	0.174934
541.228712	0.175497
541.443789	0.175593
541.658848	0.175716
541.873889	0.175709
542.088912	0.176151
542.303916	0.176324
542.518902	0.176390
542.733870	0.176734
542.948820	0.177118
543.163752	0.177499
543.378665	0.177875
543.593560	0.178253
543.808437	0.178366
544.023295	0.178621
544.238136	0.179352
544.452958	0.180215
544.667762	0.179825
544.882548	0.180000
545.097315	0.180631
545.312064	0.180734
545.526795	0.181287
545.741508	0.182196
545.956203	0.182867
546.170879	0.182705
546.385537	0.182345
546.600177	0.182686
546.814799	0.183299
547.029402	0.183142
547.243988	0.183400
547.458555	0.183697
547.673103	0.183418
547.887634	0.183140
548.102146	0.183521
548.316640	0.184079
548.531116	0.184632
548.745574	0.184370
548.960013	0.184580
549.174435	0.184904
549.388838	0.184457
549.603222	0.184607
549.817589	0.184947
550.031937	0.185436
550.246267	0.185539
550.460579	0.185577
550.674873	0.185796
550.889148	0.186043
551.103405	0.186570
551.317644	0.186700
551.531865	0.187130
551.746068	0.187254
551.960252	0.187593
552.174418	0.187742
552.388566	0.187854
552.602696	0.188361
552.816807	0.188758
553.030900	0.188977
553.244975	0.190148
553.459032	0.190601
553.673070	0.191229
553.887091	0.191359
554.101093	0.191848
554.315077	0.192348
554.529042	0.192347
554.742990	0.192544
554.956919	0.192342
555.170830	0.191938
555.384722	0.191957
555.598597	0.191786
555.812453	0.191253
556.026291	0.190702
556.240111	0.190699
556.453913	0.191179
556.667696	0.191519
556.881461	0.191948
557.095208	0.191957
557.308937	0.191955
557.522647	0.192492
557.736339	0.192945
557.950013	0.193863
558.163669	0.194439
558.377307	0.195001
558.590926	0.195257
558.804527	0.195291
559.018110	0.195897
559.231675	0.196201
559.445221	0.195763
559.658749	0.196416
559.872259	0.196540
560.085751	0.196528
560.299225	0.196425
560.512680	0.196212
560.726117	0.196432
560.939536	0.196114
561.152937	0.196148
561.366319	0.196620
561.579683	0.196247
561.793029	0.196146
562.006357	0.196056
562.219667	0.195912
562.432958	0.196489
562.646231	0.196931
562.859486	0.197320
563.072723	0.197786
563.285941	0.198060
563.499141	0.198493
563.712323	0.198532
563.925487	0.198361
564.138632	0.198603
564.351760	0.198646
564.564869	0.198109
564.777960	0.198124
564.991032	0.198248
565.204087	0.198365
565.417123	0.198328
565.630141	0.198284
565.843140	0.198916
566.056122	0.198955
566.269085	0.198997
566.482030	0.199572
566.694957	0.200042
566.907866	0.200019
567.120756	0.200226
567.333628	0.200741
567.546482	0.200580
567.759318	0.200832
567.972135	0.201276
568.184935	0.201473
568.397716	0.201667
568.610478	0.201462
568.823223	0.202011
569.035949	0.201937
569.248657	0.201766
569.461347	0.202620
569.674019	0.202482
569.886672	0.202542
570.099308	0.202719
570.311925	0.202953
570.524523	0.203855
570.737104	0.203959
570.949666	0.204228
571.162210	0.204327
571.374736	0.204620
571.587244	0.204950
571.799733	0.205063
572.012205	0.204867
572.224658	0.204864
572.437092	0.204327
572.649509	0.204114
572.861907	0.204616
573.074287	0.205290
573.286649	0.205488
573.498993	0.205695
573.711318	0.206099
573.923625	0.206316
574.135914	0.206569
574.348185	0.206863
574.560438	0.207280
574.772672	0.206991
574.984888	0.206955
575.197086	0.206681
575.409266	0.206936
575.621427	0.206695
575.833570	0.207048
576.045695	0.207048
576.257802	0.207048
576.469890	0.206814
576.681961	0.207047
576.894013	0.206983
577.106046	0.207415
577.318062	0.207152
577.530059	0.207557
577.742039	0.207318
577.954000	0.207781
578.165942	0.207908
578.377867	0.208100
578.589773	0.208545
578.801661	0.208600
579.013531	0.208426
579.225382	0.209064
579.437216	0.209325
579.649031	0.210033
579.860828	0.210324
580.072606	0.210605
580.284367	0.210829
580.496109	0.210839
580.707833	0.210893
580.919539	0.211407
581.131227	0.211441
581.342896	0.211207
581.554547	0.211584
581.766180	0.211458
581.977795	0.211507
582.189391	0.211667
582.400969	0.211659
582.612529	0.212108
582.824071	0.212340
583.035595	0.212309
583.247100	0.212716
583.458587	0.212473
583.670056	0.212772
583.881506	0.213040
584.092939	0.213212
584.304353	0.213396
584.515749	0.213429
584.727127	0.213155
584.938486	0.213090
585.149828	0.213175
585.361151	0.213164
585.572456	0.213208
585.783742	0.213910
585.995011	0.213793
586.206261	0.214010
586.417493	0.214350
586.628706	0.214843
586.839902	0.215543
587.051079	0.215429
587.262238	0.215677
587.473379	0.215601
587.684502	0.215440
587.895606	0.216113
588.106692	0.216125
588.317760	0.216055
588.528810	0.215983
588.739841	0.215828
588.950855	0.215656
589.161850	0.215619
589.372827	0.216287
589.583785	0.215817
589.794726	0.215850
590.005648	0.216216
590.216552	0.216401
590.427437	0.216309
590.638305	0.216564
590.849154	0.217031
591.059985	0.217205
591.270798	0.216865
591.481592	0.217503
591.692369	0.217436
591.903127	0.217270
592.113867	0.217227
592.324588	0.217515
592.535292	0.217710
592.745977	0.217969
592.956644	0.218386
593.167293	0.218524
593.377923	0.218587
593.588536	0.218734
593.799130	0.219099
594.009706	0.219401
594.220263	0.219759
594.430803	0.219767
594.641324	0.219691
594.851827	0.219751
595.062312	0.219609
595.272778	0.219537
595.483227	0.219604
595.693657	0.219631
595.904069	0.219656
596.114462	0.219580
596.324838	0.219836
596.535195	0.220315
596.745534	0.220285
596.955855	0.221134
597.166157	0.221414
597.376441	0.221666
597.586707	0.221693
597.796955	0.222240
598.007185	0.222639
598.217396	0.222721
598.427589	0.222559
598.637764	0.222935
598.847921	0.222497
599.058060	0.222765
599.268180	0.222852
599.478282	0.223069
599.688366	0.223058
599.898431	0.223160
600.108479	0.223279
600.318508	0.223640
600.528519	0.223544
600.738511	0.223999
600.948486	0.224126
601.158442	0.224468
601.368380	0.224434
601.578300	0.224746
601.788202	0.224777
601.998085	0.224634
602.207950	0.224694
602.417797	0.224618
602.627626	0.224756
602.837436	0.224682
603.047228	0.224576
603.257002	0.224800
603.466758	0.224679
603.676496	0.224711
603.886215	0.225151
604.095916	0.225116
604.305599	0.225482
604.515264	0.225646
604.724910	0.226108
604.934538	0.226292
605.144148	0.226290
605.353740	0.226673
605.563314	0.226977
605.772869	0.227260
605.982406	0.227456
606.191925	0.227651
606.401425	0.227499
606.610908	0.227301
606.820372	0.227528
607.029818	0.228002
607.239246	0.227759
607.448655	0.227652
607.658047	0.227400
607.867420	0.227717
608.076775	0.228033
608.286111	0.228441
608.495430	0.228896
608.704730	0.228977
608.914012	0.229242
609.123275	0.229305
609.332521	0.229450
609.541748	0.229641
609.750957	0.229803
609.960148	0.229713
610.169321	0.229529
610.378475	0.229496
610.587611	0.229759
610.796729	0.229515
611.005829	0.229865
611.214910	0.229880
611.423974	0.230135
611.633019	0.230142
611.842045	0.230201
612.051054	0.230588
612.260044	0.230535
612.469017	0.230289
612.677970	0.230437
612.886906	0.230617
613.095824	0.231032
613.304723	0.231027
613.513604	0.231092
613.722467	0.231349
613.931311	0.231637
614.140138	0.231848
614.348946	0.232235
614.557736	0.232267
614.766507	0.232228
614.975261	0.232455
615.183996	0.232402
615.392713	0.232609
615.601412	0.232650
615.810092	0.232450
616.018754	0.232908
616.227399	0.233076
616.436024	0.233295
616.644632	0.233427
616.853222	0.233339
617.061793	0.233535
617.270346	0.233665
617.478880	0.233991
617.687397	0.234352
617.895895	0.234080
618.104375	0.234004
618.312837	0.234259
618.521281	0.234363
618.729706	0.234763
618.938113	0.235197
619.146502	0.235224
619.354873	0.235117
619.563226	0.235445
619.771560	0.235703
619.979876	0.235853
620.188174	0.236089
620.396453	0.236593
620.604715	0.236683
620.812958	0.236643
621.021183	0.236769
621.229390	0.236909
621.437578	0.236563
621.645748	0.236837
621.853900	0.237005
622.062034	0.236941
622.270150	0.236894
622.478247	0.236559
622.686326	0.236752
622.894387	0.236856
623.102430	0.236896
623.310454	0.236962
623.518461	0.236964
623.726449	0.237196
623.934418	0.237167
624.142370	0.237176
624.350303	0.237426
624.558218	0.237225
624.766115	0.237538
624.973994	0.237904
625.181855	0.238212
625.389697	0.238193
625.597521	0.238205
625.805327	0.238285
626.013114	0.238358
626.220883	0.238554
626.428634	0.238915
626.636367	0.238705
626.844082	0.238779
627.051778	0.238774
627.259457	0.239003
627.467117	0.239532
627.674758	0.239907
627.882382	0.240014
628.089987	0.240347
628.297574	0.240612
628.505143	0.241000
628.712694	0.241328
628.920226	0.241596
629.127740	0.241726
629.335236	0.241466
629.542714	0.241257
629.750174	0.241468
629.957615	0.241504
630.165038	0.241576
630.372443	0.241910
630.579829	0.241852
630.787198	0.242042
630.994548	0.242212
631.201880	0.242490
631.409194	0.243033
631.616489	0.243199
631.823766	0.243162
632.031025	0.243596
632.238266	0.243639
632.445489	0.243828
632.652693	0.243645
632.859879	0.243897
633.067047	0.243937
633.274197	0.244077
633.481329	0.244331
633.688442	0.244696
633.895537	0.244645
634.102614	0.244728
634.309672	0.244951
634.516713	0.245485
634.723735	0.245410
634.930739	0.245790
635.137724	0.245946
635.344692	0.245743
635.551641	0.245712
635.758572	0.245746
635.965485	0.246007
636.172379	0.246074
636.379256	0.246226
636.586114	0.246549
636.792954	0.246560
636.999775	0.246758
637.206579	0.246836
637.413364	0.247036
637.620131	0.247183
637.826880	0.247326
638.033610	0.247511
638.240323	0.247446
638.447017	0.247645
638.653692	0.247786
638.860350	0.247818
639.066990	0.248065
639.273611	0.248281
639.480214	0.248294
639.686798	0.248013
639.893365	0.248207
640.099913	0.248306
640.306443	0.248361
640.512955	0.248225
640.719449	0.248313
640.925924	0.248752
641.132381	0.248936
641.338820	0.249327
641.545241	0.249750
641.751644	0.249537
641.958028	0.249735
642.164394	0.249773
642.370742	0.250287
642.577071	0.250455
642.783383	0.250254
642.989676	0.250179
643.195951	0.250275
643.402207	0.250238
643.608446	0.250595
643.814666	0.250981
644.020868	0.251021
644.227052	0.250807
644.433218	0.250874
644.639365	0.250904
644.845494	0.251143
645.051605	0.251270
645.257698	0.251663
645.463772	0.251903
645.669828	0.252158
645.875866	0.252468
646.081886	0.252794
646.287888	0.253141
646.493871	0.253640
646.699836	0.254015
646.905783	0.254248
647.111712	0.254247
647.317622	0.254359
647.523514	0.254262
647.729388	0.254526
647.935244	0.254547
648.141082	0.254494
648.346901	0.254570
648.552702	0.254775
648.758485	0.254870
648.964250	0.254994
649.169996	0.255149
649.375724	0.255023
649.581434	0.255059
649.787126	0.255367
649.992800	0.255452
650.198455	0.255644
650.404092	0.255519
650.609711	0.255647
650.815311	0.255861
651.020894	0.255989
651.226458	0.256521
651.432004	0.256719
651.637532	0.256805
651.843041	0.256947
652.048532	0.257265
652.254006	0.257460
652.459460	0.257725
652.664897	0.257985
652.870315	0.258331
653.075716	0.258341
653.281097	0.258455
653.486461	0.258724
653.691807	0.259063
653.897134	0.259321
654.102443	0.259294
654.307734	0.259467
654.513006	0.259760
654.718261	0.259915
654.923497	0.260370
655.128715	0.260601
655.333915	0.260792
655.539096	0.260937
655.744259	0.260667
655.949404	0.260863
656.154531	0.260834
656.359640	0.260931
656.564730	0.260944
656.769802	0.260967
656.974856	0.261234
657.179892	0.261361
657.384909	0.261639
657.589908	0.261982
657.794889	0.262342
657.999852	0.262827
658.204797	0.263097
658.409723	0.263344
658.614631	0.263645
658.819521	0.263908
659.024393	0.264444
659.229246	0.264587
659.434081	0.265108
659.638898	0.265323
659.843697	0.265184
660.048478	0.265254
660.253240	0.265555
660.457984	0.265779
660.662710	0.265856
660.867417	0.265658
661.072107	0.266020
661.276778	0.265829
661.481431	0.266111
661.686066	0.266403
661.890682	0.266588
662.095281	0.266616
662.299861	0.266426
662.504422	0.266673
662.708966	0.266878
662.913491	0.267179
663.117999	0.267511
663.322488	0.267892
663.526958	0.268040
663.731411	0.268185
663.935845	0.268322
664.140261	0.268869
664.344659	0.269197
664.549038	0.269327
664.753400	0.269343
664.957743	0.269534
665.162068	0.269558
665.366375	0.269843
665.570663	0.269843
665.774933	0.269995
665.979185	0.270076
666.183419	0.270123
666.387635	0.270656
666.591832	0.270867
666.796011	0.271291
667.000172	0.271416
667.204315	0.271467
667.408439	0.271792
667.612545	0.272190
667.816634	0.272442
668.020703	0.272622
668.224755	0.272808
668.428788	0.273020
668.632803	0.273154
668.836800	0.273611
669.040779	0.273881
669.244739	0.274069
669.448681	0.274106
669.652605	0.274330
669.856511	0.274453
670.060399	0.274414
670.264268	0.274645
670.468119	0.274862
670.671952	0.275052
670.875767	0.275385
671.079563	0.275723
671.283341	0.275828
671.487101	0.276065
671.690843	0.276327
671.894567	0.276742
672.098272	0.276738
672.301959	0.276948
672.505628	0.276859
672.709278	0.277103
672.912911	0.277323
673.116525	0.277828
673.320121	0.277829
673.523699	0.277891
673.727258	0.277954
673.930799	0.278128
674.134322	0.277876
674.337827	0.278056
674.541314	0.277948
674.744782	0.278184
674.948232	0.278237
675.151664	0.278433
675.355078	0.278754
675.558474	0.278913
675.761851	0.279124
675.965210	0.279703
676.168551	0.280042
676.371873	0.280390
676.575178	0.280786
676.778464	0.280855
676.981732	0.281218
677.184981	0.281423
677.388213	0.281761
677.591426	0.281992
677.794621	0.282111
677.997798	0.282297
678.200956	0.282603
678.404097	0.282611
678.607219	0.282743
678.810323	0.282809
679.013408	0.282981
679.216476	0.283152
679.419525	0.283451
679.622556	0.283570
679.825569	0.283522
680.028563	0.283712
680.231540	0.283783
680.434498	0.284315
680.637438	0.284660
680.840359	0.284675
681.043263	0.284625
681.246148	0.284803
681.449015	0.285047
681.651864	0.285445
681.854694	0.285567
682.057506	0.285766
682.260301	0.285745
682.463076	0.285869
682.665834	0.286124
682.868573	0.286639
683.071295	0.286539
683.273998	0.286953
683.476682	0.287083
683.679349	0.287479
683.881997	0.287720
684.084627	0.288052
684.287239	0.288353
684.489833	0.288496
684.692408	0.288393
684.894965	0.288841
685.097504	0.288555
685.300025	0.288841
685.502527	0.288686
685.705012	0.288572
685.907478	0.288356
686.109925	0.288261
686.312355	0.288362
686.514766	0.288468
686.717159	0.288645
686.919534	0.288920
687.121891	0.289133
687.324230	0.289414
687.526550	0.289510
687.728852	0.289847
687.931136	0.289844
688.133401	0.290272
688.335649	0.290556
688.537878	0.290561
688.740089	0.290692
688.942281	0.290598
689.144456	0.290883
689.346612	0.291369
689.548750	0.291610
689.750870	0.292082
689.952971	0.292081
690.155055	0.292159
690.357120	0.292350
690.559167	0.292589
690.761195	0.292899
690.963206	0.293022
691.165198	0.293094
691.367172	0.293565
691.569128	0.293493
691.771065	0.293884
691.972984	0.294140
692.174885	0.294469
692.376768	0.294583
692.578633	0.294737
692.780479	0.294699
692.982308	0.294725
693.184118	0.294575
693.385909	0.294913
693.587683	0.294830
693.789438	0.295027
