sample name	sample
index	506
start time	 03-11-2021  03:00:59 PM


Wavelength (nm)	Absorbance
494.344910	0.150414
494.563924	0.150414
494.782919	0.150414
495.001897	-0.398399
495.220856	-0.044093
495.439797	-0.045091
495.658719	-0.111567
495.877624	-0.174766
496.096510	-0.128824
496.315378	-0.077902
496.534227	-0.150142
496.753059	-0.189489
496.971872	-0.155010
497.190667	0.135921
497.409444	0.156388
497.628203	0.164466
497.846943	0.168409
498.065665	0.170610
498.284369	0.170134
498.503055	0.172007
498.721723	0.172631
498.940372	0.172454
499.159003	0.171930
499.377616	0.171506
499.596210	0.172248
499.814787	0.171592
500.033345	0.171319
500.251885	0.172248
500.470406	0.171812
500.688910	0.172983
500.907395	0.174686
501.125862	0.176333
501.344311	0.176620
501.562742	0.175711
501.781154	0.177031
501.999548	0.177457
502.217924	0.176454
502.436282	0.176692
502.654621	0.176649
502.872942	0.175382
503.091245	0.174324
503.309530	0.176038
503.527797	0.175974
503.746045	0.175561
503.964275	0.175541
504.182487	0.176395
504.400681	0.177172
504.618856	0.177177
504.837013	0.177672
505.055152	0.178172
505.273273	0.177130
505.491376	0.177809
505.709460	0.178603
505.927526	0.178726
506.145574	0.178550
506.363604	0.178553
506.581615	0.177871
506.799608	0.177297
507.017583	0.177321
507.235540	0.178458
507.453478	0.178538
507.671399	0.178407
507.889301	0.178642
508.107185	0.179141
508.325050	0.179327
508.542898	0.179855
508.760727	0.180599
508.978538	0.181408
509.196330	0.180975
509.414105	0.180455
509.631861	0.180327
509.849599	0.180266
510.067319	0.179852
510.285021	0.179975
510.502704	0.179806
510.720369	0.180472
510.938016	0.180065
511.155645	0.180227
511.373255	0.180714
511.590848	0.181422
511.808422	0.181512
512.025977	0.182643
512.243515	0.183212
512.461034	0.183349
512.678536	0.182861
512.896018	0.183568
513.113483	0.183602
513.330930	0.184116
513.548358	0.183769
513.765768	0.183909
513.983160	0.183140
514.200533	0.183393
514.417889	0.184463
514.635226	0.185216
514.852545	0.185691
515.069845	0.186583
515.287128	0.186498
515.504392	0.186591
515.721638	0.186183
515.938866	0.185945
516.156075	0.185944
516.373267	0.185449
516.590440	0.185794
516.807594	0.185469
517.024731	0.185197
517.241850	0.185709
517.458950	0.186031
517.676032	0.185951
517.893095	0.186372
518.110141	0.186088
518.327168	0.186714
518.544177	0.186608
518.761168	0.186408
518.978141	0.185774
519.195095	0.186353
519.412031	0.186934
519.628949	0.187716
519.845849	0.188284
520.062731	0.188548
520.279594	0.188857
520.496439	0.189333
520.713266	0.190142
520.930074	0.191227
521.146865	0.190858
521.363637	0.191644
521.580391	0.191982
521.797127	0.191838
522.013844	0.192499
522.230543	0.191788
522.447224	0.191922
522.663887	0.191629
522.880532	0.191307
523.097158	0.191772
523.313766	0.191104
523.530356	0.191639
523.746928	0.192951
523.963481	0.192874
524.180017	0.193908
524.396534	0.193642
524.613032	0.194829
524.829513	0.195515
525.045975	0.195511
525.262420	0.195803
525.478845	0.195353
525.695253	0.195117
525.911643	0.195771
526.128014	0.195815
526.344367	0.196395
526.560702	0.196019
526.777018	0.195871
526.993316	0.195769
527.209597	0.196136
527.425858	0.196860
527.642102	0.196901
527.858328	0.197170
528.074535	0.197573
528.290724	0.197950
528.506894	0.199040
528.723047	0.199954
528.939181	0.201242
529.155297	0.201204
529.371395	0.201846
529.587475	0.202460
529.803536	0.202166
530.019579	0.202509
530.235604	0.203096
530.451611	0.202611
530.667600	0.202558
530.883570	0.202057
531.099522	0.202311
531.315456	0.202439
531.531372	0.202211
531.747269	0.202496
531.963148	0.202289
532.179009	0.202778
532.394852	0.203335
532.610676	0.203226
532.826482	0.204082
533.042271	0.204663
533.258040	0.204729
533.473792	0.205448
533.689525	0.205716
533.905240	0.207021
534.120937	0.206603
534.336616	0.206980
534.552277	0.207511
534.767919	0.207584
534.983543	0.208119
535.199149	0.208899
535.414736	0.209221
535.630306	0.210189
535.845857	0.210180
536.061390	0.210232
536.276904	0.210165
536.492401	0.210416
536.707879	0.210662
536.923339	0.210694
537.138781	0.210997
537.354204	0.211036
537.569610	0.211144
537.784997	0.210926
538.000366	0.211511
538.215716	0.212274
538.431049	0.212888
538.646363	0.213586
538.861659	0.214170
539.076937	0.214237
539.292196	0.214345
539.507438	0.213883
539.722661	0.214367
539.937866	0.214164
540.153052	0.213782
540.368221	0.214370
540.583371	0.213941
540.798503	0.213816
541.013617	0.214148
541.228712	0.215190
541.443789	0.215923
541.658848	0.215986
541.873889	0.216391
542.088912	0.216661
542.303916	0.216324
542.518902	0.216521
542.733870	0.217172
542.948820	0.217401
543.163752	0.217398
543.378665	0.217498
543.593560	0.218322
543.808437	0.218195
544.023295	0.218459
544.238136	0.219344
544.452958	0.219928
544.667762	0.220475
544.882548	0.220604
545.097315	0.220670
545.312064	0.221622
545.526795	0.221562
545.741508	0.222825
545.956203	0.223747
546.170879	0.223462
546.385537	0.224059
546.600177	0.223905
546.814799	0.224290
547.029402	0.224463
547.243988	0.224337
547.458555	0.224385
547.673103	0.224222
547.887634	0.223696
548.102146	0.224010
548.316640	0.224122
548.531116	0.224118
548.745574	0.224404
548.960013	0.225087
549.174435	0.225484
549.388838	0.225689
549.603222	0.226207
549.817589	0.226910
550.031937	0.226980
550.246267	0.227308
550.460579	0.227754
550.674873	0.228169
550.889148	0.228054
551.103405	0.228216
551.317644	0.228742
551.531865	0.228906
551.746068	0.229360
551.960252	0.229509
552.174418	0.229779
552.388566	0.230044
552.602696	0.229704
552.816807	0.229657
553.030900	0.229489
553.244975	0.229586
553.459032	0.229784
553.673070	0.229465
553.887091	0.229940
554.101093	0.229888
554.315077	0.229991
554.529042	0.230506
554.742990	0.230697
554.956919	0.230870
555.170830	0.230716
555.384722	0.230959
555.598597	0.231390
555.812453	0.231768
556.026291	0.232084
556.240111	0.232245
556.453913	0.232420
556.667696	0.233063
556.881461	0.233644
557.095208	0.234176
557.308937	0.234403
557.522647	0.234394
557.736339	0.234306
557.950013	0.233905
558.163669	0.233937
558.377307	0.234112
558.590926	0.234263
558.804527	0.234884
559.018110	0.234986
559.231675	0.235007
559.445221	0.235690
559.658749	0.235790
559.872259	0.236375
560.085751	0.237188
560.299225	0.237656
560.512680	0.237580
560.726117	0.237336
560.939536	0.237927
561.152937	0.238316
561.366319	0.238022
561.579683	0.238421
561.793029	0.238583
562.006357	0.238421
562.219667	0.238310
562.432958	0.238643
562.646231	0.238492
562.859486	0.238176
563.072723	0.238370
563.285941	0.238880
563.499141	0.238910
563.712323	0.239005
563.925487	0.238984
564.138632	0.239195
564.351760	0.239551
564.564869	0.240190
564.777960	0.240658
564.991032	0.240803
565.204087	0.240931
565.417123	0.241144
565.630141	0.241579
565.843140	0.241928
566.056122	0.241865
566.269085	0.241977
566.482030	0.241703
566.694957	0.241736
566.907866	0.241657
567.120756	0.241833
567.333628	0.241957
567.546482	0.241845
567.759318	0.241899
567.972135	0.242490
568.184935	0.242746
568.397716	0.243338
568.610478	0.243597
568.823223	0.243628
569.035949	0.243880
569.248657	0.244340
569.461347	0.245200
569.674019	0.245695
569.886672	0.245772
570.099308	0.245616
570.311925	0.246036
570.524523	0.246269
570.737104	0.247148
570.949666	0.247464
571.162210	0.247676
571.374736	0.247298
571.587244	0.247526
571.799733	0.247380
572.012205	0.247435
572.224658	0.247287
572.437092	0.247641
572.649509	0.247678
572.861907	0.247998
573.074287	0.248329
573.286649	0.248964
573.498993	0.248716
573.711318	0.249068
573.923625	0.249594
574.135914	0.249379
574.348185	0.249233
574.560438	0.249331
574.772672	0.249488
574.984888	0.249457
575.197086	0.249588
575.409266	0.249811
575.621427	0.250027
575.833570	0.250291
576.045695	0.250718
576.257802	0.251309
576.469890	0.251735
576.681961	0.251395
576.894013	0.251649
577.106046	0.251527
577.318062	0.251937
577.530059	0.252085
577.742039	0.252621
577.954000	0.252904
578.165942	0.253131
578.377867	0.253041
578.589773	0.253933
578.801661	0.254472
579.013531	0.255163
579.225382	0.255105
579.437216	0.255589
579.649031	0.255300
579.860828	0.255496
580.072606	0.255392
580.284367	0.255571
580.496109	0.255291
580.707833	0.255252
580.919539	0.255107
581.131227	0.255550
581.342896	0.256077
581.554547	0.256520
581.766180	0.256936
581.977795	0.257383
582.189391	0.257936
582.400969	0.257958
582.612529	0.258006
582.824071	0.258509
583.035595	0.258790
583.247100	0.258645
583.458587	0.258934
583.670056	0.258740
583.881506	0.258870
584.092939	0.258755
584.304353	0.259208
584.515749	0.259275
584.727127	0.259383
584.938486	0.259439
585.149828	0.259497
585.361151	0.259101
585.572456	0.259893
585.783742	0.260273
585.995011	0.260685
586.206261	0.260782
586.417493	0.261295
586.628706	0.261121
586.839902	0.261115
587.051079	0.261521
587.262238	0.262270
587.473379	0.262263
587.684502	0.262276
587.895606	0.262324
588.106692	0.262847
588.317760	0.262611
588.528810	0.263260
588.739841	0.263760
588.950855	0.264121
589.161850	0.264104
589.372827	0.264192
589.583785	0.264576
589.794726	0.264913
590.005648	0.264746
590.216552	0.265080
590.427437	0.264915
590.638305	0.264896
590.849154	0.264901
591.059985	0.265104
591.270798	0.265349
591.481592	0.265212
591.692369	0.265183
591.903127	0.265600
592.113867	0.266075
592.324588	0.266352
592.535292	0.266359
592.745977	0.266564
592.956644	0.266863
593.167293	0.267052
593.377923	0.267343
593.588536	0.267636
593.799130	0.268249
594.009706	0.268242
594.220263	0.268665
594.430803	0.269247
594.641324	0.269132
594.851827	0.269050
595.062312	0.269201
595.272778	0.269288
595.483227	0.269568
595.693657	0.269114
595.904069	0.269421
596.114462	0.269269
596.324838	0.269573
596.535195	0.269716
596.745534	0.270282
596.955855	0.270915
597.166157	0.271264
597.376441	0.271361
597.586707	0.271494
597.796955	0.271731
598.007185	0.271977
598.217396	0.272274
598.427589	0.272702
598.637764	0.272813
598.847921	0.272493
599.058060	0.272759
599.268180	0.273249
599.478282	0.273766
599.688366	0.273787
599.898431	0.274057
600.108479	0.274320
600.318508	0.274180
600.528519	0.274284
600.738511	0.274398
600.948486	0.274115
601.158442	0.274142
601.368380	0.273963
601.578300	0.274375
601.788202	0.274407
601.998085	0.274218
602.207950	0.274869
602.417797	0.275109
602.627626	0.275436
602.837436	0.276045
603.047228	0.276336
603.257002	0.276753
603.466758	0.276697
603.676496	0.277223
603.886215	0.277730
604.095916	0.277859
604.305599	0.278339
604.515264	0.278745
604.724910	0.279139
604.934538	0.279252
605.144148	0.279576
605.353740	0.279851
605.563314	0.280246
605.772869	0.280252
605.982406	0.280301
606.191925	0.279972
606.401425	0.279949
606.610908	0.279845
606.820372	0.279746
607.029818	0.279998
607.239246	0.280434
607.448655	0.280558
607.658047	0.281022
607.867420	0.281399
608.076775	0.281825
608.286111	0.281801
608.495430	0.281931
608.704730	0.282327
608.914012	0.282221
609.123275	0.282181
609.332521	0.282014
609.541748	0.282101
609.750957	0.282414
609.960148	0.282645
610.169321	0.282889
610.378475	0.283232
610.587611	0.283130
610.796729	0.283407
611.005829	0.283731
611.214910	0.284201
611.423974	0.284074
611.633019	0.284086
611.842045	0.284292
612.051054	0.284879
612.260044	0.284972
612.469017	0.285404
612.677970	0.285338
612.886906	0.285160
613.095824	0.285059
613.304723	0.285301
613.513604	0.285343
613.722467	0.285481
613.931311	0.285271
614.140138	0.285380
614.348946	0.285255
614.557736	0.285424
614.766507	0.285756
614.975261	0.286346
615.183996	0.286530
615.392713	0.286545
615.601412	0.286416
615.810092	0.286553
616.018754	0.287070
616.227399	0.287344
616.436024	0.287592
616.644632	0.287602
616.853222	0.287505
617.061793	0.287765
617.270346	0.288121
617.478880	0.288361
617.687397	0.288691
617.895895	0.288388
618.104375	0.288929
618.312837	0.289359
618.521281	0.289566
618.729706	0.289897
618.938113	0.289962
619.146502	0.290341
619.354873	0.290768
619.563226	0.290907
619.771560	0.291189
619.979876	0.291008
620.188174	0.291116
620.396453	0.291553
620.604715	0.291382
620.812958	0.291470
621.021183	0.291479
621.229390	0.291524
621.437578	0.291766
621.645748	0.292159
621.853900	0.292460
622.062034	0.292658
622.270150	0.292618
622.478247	0.293003
622.686326	0.293101
622.894387	0.293322
623.102430	0.293826
623.310454	0.293710
623.518461	0.293904
623.726449	0.294139
623.934418	0.294294
624.142370	0.294655
624.350303	0.294759
624.558218	0.294986
624.766115	0.294870
624.973994	0.294706
625.181855	0.295164
625.389697	0.294885
625.597521	0.294803
625.805327	0.294864
626.013114	0.294767
626.220883	0.294626
626.428634	0.294777
626.636367	0.295082
626.844082	0.295290
627.051778	0.295473
627.259457	0.295945
627.467117	0.296173
627.674758	0.296103
627.882382	0.296607
628.089987	0.296958
628.297574	0.297233
628.505143	0.297355
628.712694	0.297700
628.920226	0.297728
629.127740	0.297888
629.335236	0.298239
629.542714	0.298863
629.750174	0.298845
629.957615	0.298881
630.165038	0.299290
630.372443	0.299555
630.579829	0.299396
630.787198	0.299589
630.994548	0.299881
631.201880	0.300104
631.409194	0.300054
631.616489	0.300295
631.823766	0.300858
632.031025	0.300742
632.238266	0.300697
632.445489	0.300964
632.652693	0.300992
632.859879	0.300843
633.067047	0.300838
633.274197	0.301205
633.481329	0.301230
633.688442	0.300980
633.895537	0.301306
634.102614	0.301713
634.309672	0.302016
634.516713	0.301998
634.723735	0.302317
634.930739	0.302486
635.137724	0.302645
635.344692	0.302678
635.551641	0.302755
635.758572	0.302764
635.965485	0.302795
636.172379	0.302954
636.379256	0.303433
636.586114	0.303352
636.792954	0.303491
636.999775	0.303579
637.206579	0.304173
637.413364	0.304424
637.620131	0.304560
637.826880	0.304856
638.033610	0.304863
638.240323	0.305206
638.447017	0.305662
638.653692	0.305589
638.860350	0.305800
639.066990	0.305912
639.273611	0.306491
639.480214	0.307037
639.686798	0.307235
639.893365	0.307458
640.099913	0.307535
640.306443	0.307699
640.512955	0.308206
640.719449	0.308241
640.925924	0.308367
641.132381	0.308249
641.338820	0.308396
641.545241	0.308495
641.751644	0.308547
641.958028	0.308630
642.164394	0.309013
642.370742	0.309193
642.577071	0.309363
642.783383	0.309650
642.989676	0.310067
643.195951	0.310250
643.402207	0.310350
643.608446	0.310626
643.814666	0.310965
644.020868	0.311101
644.227052	0.311284
644.433218	0.311629
644.639365	0.311551
644.845494	0.311479
645.051605	0.311575
645.257698	0.311827
645.463772	0.312360
645.669828	0.312416
645.875866	0.312286
646.081886	0.312498
646.287888	0.312626
646.493871	0.312825
646.699836	0.313210
646.905783	0.313138
647.111712	0.313517
647.317622	0.313633
647.523514	0.313682
647.729388	0.313926
647.935244	0.314033
648.141082	0.313967
648.346901	0.314091
648.552702	0.314290
648.758485	0.314467
648.964250	0.314443
649.169996	0.314526
649.375724	0.314916
649.581434	0.315317
649.787126	0.315343
649.992800	0.315865
650.198455	0.316254
650.404092	0.316198
650.609711	0.316601
650.815311	0.316965
651.020894	0.317142
651.226458	0.317250
651.432004	0.317433
651.637532	0.318005
651.843041	0.317980
652.048532	0.318390
652.254006	0.318640
652.459460	0.318936
652.664897	0.319267
652.870315	0.319416
653.075716	0.319866
653.281097	0.319807
653.486461	0.319986
653.691807	0.320276
653.897134	0.320037
654.102443	0.320169
654.307734	0.320031
654.513006	0.320226
654.718261	0.320539
654.923497	0.320443
655.128715	0.320680
655.333915	0.320742
655.539096	0.320938
655.744259	0.321239
655.949404	0.321799
656.154531	0.322274
656.359640	0.322396
656.564730	0.322600
656.769802	0.323028
656.974856	0.323135
657.179892	0.323309
657.384909	0.323503
657.589908	0.323663
657.794889	0.323806
657.999852	0.324016
658.204797	0.324154
658.409723	0.324119
658.614631	0.324184
658.819521	0.324733
659.024393	0.324936
659.229246	0.325133
659.434081	0.325465
659.638898	0.325910
659.843697	0.325777
660.048478	0.325952
660.253240	0.326295
660.457984	0.326421
660.662710	0.326443
660.867417	0.326600
661.072107	0.326868
661.276778	0.327028
661.481431	0.326793
661.686066	0.327295
661.890682	0.327706
662.095281	0.327929
662.299861	0.328251
662.504422	0.328431
662.708966	0.328809
662.913491	0.329206
663.117999	0.329646
663.322488	0.330010
663.526958	0.330094
663.731411	0.330222
663.935845	0.330558
664.140261	0.331070
664.344659	0.331582
664.549038	0.331800
664.753400	0.331872
664.957743	0.332119
665.162068	0.332174
665.366375	0.332568
665.570663	0.332722
665.774933	0.333070
665.979185	0.333261
666.183419	0.333232
666.387635	0.333347
666.591832	0.333447
666.796011	0.333468
667.000172	0.334037
667.204315	0.334024
667.408439	0.334457
667.612545	0.334357
667.816634	0.334507
668.020703	0.334806
668.224755	0.335281
668.428788	0.335379
668.632803	0.335678
668.836800	0.335695
669.040779	0.336135
669.244739	0.335870
669.448681	0.336104
669.652605	0.335945
669.856511	0.336287
670.060399	0.336367
670.264268	0.336892
670.468119	0.337091
670.671952	0.337233
670.875767	0.337474
671.079563	0.338048
671.283341	0.338217
671.487101	0.338523
671.690843	0.338521
671.894567	0.338712
672.098272	0.338727
672.301959	0.338960
672.505628	0.339294
672.709278	0.339483
672.912911	0.339729
673.116525	0.340080
673.320121	0.340546
673.523699	0.340975
673.727258	0.341182
673.930799	0.341589
674.134322	0.341953
674.337827	0.342239
674.541314	0.342518
674.744782	0.342902
674.948232	0.343278
675.151664	0.343506
675.355078	0.343741
675.558474	0.344433
675.761851	0.344800
675.965210	0.345024
676.168551	0.345088
676.371873	0.345282
676.575178	0.345416
676.778464	0.345593
676.981732	0.345875
677.184981	0.346071
677.388213	0.345946
677.591426	0.346159
677.794621	0.346269
677.997798	0.346509
678.200956	0.346600
678.404097	0.346796
678.607219	0.346769
678.810323	0.346785
679.013408	0.347200
679.216476	0.347537
679.419525	0.347596
679.622556	0.347902
679.825569	0.348203
680.028563	0.348629
680.231540	0.348858
680.434498	0.349464
680.637438	0.349886
680.840359	0.350332
681.043263	0.350660
681.246148	0.350935
681.449015	0.351210
681.651864	0.351564
681.854694	0.351684
682.057506	0.351946
682.260301	0.352223
682.463076	0.352495
682.665834	0.352638
682.868573	0.352925
683.071295	0.353197
683.273998	0.353446
683.476682	0.353684
683.679349	0.354097
683.881997	0.354530
684.084627	0.354524
684.287239	0.354575
684.489833	0.354305
684.692408	0.354272
684.894965	0.354398
685.097504	0.354394
685.300025	0.354613
685.502527	0.354585
685.705012	0.354676
685.907478	0.354952
686.109925	0.355402
686.312355	0.356086
686.514766	0.356155
686.717159	0.356585
686.919534	0.356909
687.121891	0.356913
687.324230	0.357536
687.526550	0.357445
687.728852	0.357551
687.931136	0.357373
688.133401	0.357291
688.335649	0.357635
688.537878	0.357765
688.740089	0.357788
688.942281	0.358230
689.144456	0.357976
689.346612	0.358506
689.548750	0.358762
689.750870	0.359195
689.952971	0.359192
690.155055	0.359281
690.357120	0.359169
690.559167	0.359484
690.761195	0.359678
690.963206	0.360030
691.165198	0.359889
691.367172	0.360183
691.569128	0.360183
691.771065	0.360559
691.972984	0.361003
692.174885	0.361353
692.376768	0.361493
692.578633	0.361548
692.780479	0.361790
692.982308	0.361997
693.184118	0.362357
693.385909	0.362752
