sample name	sample
index	1030
start time	 04-19-2021  12:36:43 PM


Wavelength (nm)	Absorbance
494.344910	-0.053739
494.563924	-0.053739
494.782919	-0.053739
495.001897	-0.048105
495.220856	-0.033655
495.439797	-0.020895
495.658719	-0.003189
495.877624	-0.001830
496.096510	-0.001574
496.315378	0.004771
496.534227	0.011103
496.753059	0.009642
496.971872	0.002375
497.190667	0.101724
497.409444	0.143304
497.628203	0.158783
497.846943	0.168480
498.065665	0.173977
498.284369	0.178063
498.503055	0.180457
498.721723	0.183006
498.940372	0.186034
499.159003	0.186065
499.377616	0.187052
499.596210	0.187438
499.814787	0.187520
500.033345	0.187754
500.251885	0.187819
500.470406	0.187175
500.688910	0.186681
500.907395	0.185546
501.125862	0.185814
501.344311	0.185412
501.562742	0.185326
501.781154	0.186197
501.999548	0.186269
502.217924	0.185546
502.436282	0.187221
502.654621	0.186040
502.872942	0.185679
503.091245	0.186048
503.309530	0.185385
503.527797	0.185208
503.746045	0.184526
503.964275	0.184662
504.182487	0.186350
504.400681	0.186295
504.618856	0.187447
504.837013	0.187704
505.055152	0.188147
505.273273	0.189185
505.491376	0.189802
505.709460	0.190736
505.927526	0.191609
506.145574	0.192261
506.363604	0.193214
506.581615	0.193365
506.799608	0.193836
507.017583	0.193391
507.235540	0.192747
507.453478	0.192078
507.671399	0.191201
507.889301	0.190989
508.107185	0.190093
508.325050	0.189847
508.542898	0.190924
508.760727	0.191731
508.978538	0.192168
509.196330	0.192703
509.414105	0.193179
509.631861	0.194021
509.849599	0.195073
510.067319	0.195457
510.285021	0.195360
510.502704	0.194179
510.720369	0.193485
510.938016	0.194289
511.155645	0.195925
511.373255	0.195605
511.590848	0.196659
511.808422	0.195580
512.025977	0.195801
512.243515	0.195780
512.461034	0.196888
512.678536	0.198523
512.896018	0.199347
513.113483	0.198618
513.330930	0.199607
513.548358	0.200079
513.765768	0.201360
513.983160	0.202147
514.200533	0.202760
514.417889	0.203390
514.635226	0.202437
514.852545	0.202074
515.069845	0.202044
515.287128	0.202152
515.504392	0.201646
515.721638	0.201394
515.938866	0.201315
516.156075	0.200615
516.373267	0.199947
516.590440	0.199713
516.807594	0.200027
517.024731	0.200267
517.241850	0.200033
517.458950	0.200249
517.676032	0.201292
517.893095	0.201978
518.110141	0.202709
518.327168	0.203687
518.544177	0.204157
518.761168	0.204488
518.978141	0.205043
519.195095	0.205697
519.412031	0.205450
519.628949	0.205477
519.845849	0.205142
520.062731	0.205473
520.279594	0.205555
520.496439	0.206820
520.713266	0.207107
520.930074	0.207279
521.146865	0.206962
521.363637	0.208259
521.580391	0.208580
521.797127	0.208853
522.013844	0.208645
522.230543	0.209337
522.447224	0.209705
522.663887	0.209427
522.880532	0.209191
523.097158	0.209894
523.313766	0.209698
523.530356	0.209911
523.746928	0.210038
523.963481	0.211055
524.180017	0.211445
524.396534	0.211252
524.613032	0.211593
524.829513	0.212323
525.045975	0.213210
525.262420	0.213818
525.478845	0.213513
525.695253	0.214125
525.911643	0.214376
526.128014	0.213496
526.344367	0.214108
526.560702	0.214419
526.777018	0.215014
526.993316	0.215722
527.209597	0.216035
527.425858	0.217006
527.642102	0.217399
527.858328	0.217793
528.074535	0.220104
528.290724	0.220100
528.506894	0.220734
528.723047	0.221122
528.939181	0.220797
529.155297	0.220995
529.371395	0.221520
529.587475	0.222326
529.803536	0.222923
530.019579	0.221995
530.235604	0.222934
530.451611	0.223533
530.667600	0.223979
530.883570	0.225013
531.099522	0.225499
531.315456	0.225337
531.531372	0.224890
531.747269	0.224911
531.963148	0.225477
532.179009	0.225432
532.394852	0.225438
532.610676	0.225875
532.826482	0.226056
533.042271	0.226216
533.258040	0.226572
533.473792	0.227319
533.689525	0.227776
533.905240	0.228005
534.120937	0.228543
534.336616	0.229620
534.552277	0.230095
534.767919	0.229668
534.983543	0.230423
535.199149	0.230565
535.414736	0.230878
535.630306	0.231101
535.845857	0.231873
536.061390	0.231625
536.276904	0.231740
536.492401	0.232115
536.707879	0.233060
536.923339	0.233561
537.138781	0.233589
537.354204	0.234063
537.569610	0.234287
537.784997	0.234404
538.000366	0.235221
538.215716	0.235608
538.431049	0.235002
538.646363	0.235296
538.861659	0.235159
539.076937	0.235738
539.292196	0.235901
539.507438	0.236874
539.722661	0.237269
539.937866	0.237636
540.153052	0.237858
540.368221	0.238585
540.583371	0.238391
540.798503	0.238594
541.013617	0.239051
541.228712	0.239717
541.443789	0.239417
541.658848	0.239854
541.873889	0.239685
542.088912	0.240064
542.303916	0.240332
542.518902	0.240718
542.733870	0.240969
542.948820	0.241763
543.163752	0.241607
543.378665	0.242626
543.593560	0.242505
543.808437	0.243200
544.023295	0.242902
544.238136	0.243405
544.452958	0.244039
544.667762	0.244664
544.882548	0.244223
545.097315	0.244491
545.312064	0.244376
545.526795	0.244636
545.741508	0.244435
545.956203	0.245061
546.170879	0.245279
546.385537	0.245729
546.600177	0.245745
546.814799	0.246522
547.029402	0.246885
547.243988	0.246815
547.458555	0.247271
547.673103	0.248332
547.887634	0.248757
548.102146	0.249058
548.316640	0.249208
548.531116	0.249195
548.745574	0.249326
548.960013	0.249861
549.174435	0.250119
549.388838	0.250159
549.603222	0.249615
549.817589	0.249782
550.031937	0.250196
550.246267	0.250555
550.460579	0.250933
550.674873	0.251108
550.889148	0.251085
551.103405	0.251288
551.317644	0.251916
551.531865	0.252330
551.746068	0.252373
551.960252	0.252385
552.174418	0.251913
552.388566	0.252083
552.602696	0.252167
552.816807	0.252637
553.030900	0.252349
553.244975	0.252377
553.459032	0.252555
553.673070	0.252471
553.887091	0.252619
554.101093	0.253055
554.315077	0.252981
554.529042	0.253277
554.742990	0.253561
554.956919	0.254390
555.170830	0.254732
555.384722	0.254953
555.598597	0.255438
555.812453	0.255786
556.026291	0.256089
556.240111	0.256248
556.453913	0.256709
556.667696	0.256557
556.881461	0.256915
557.095208	0.256971
557.308937	0.256735
557.522647	0.256988
557.736339	0.257023
557.950013	0.256825
558.163669	0.257006
558.377307	0.256829
558.590926	0.256518
558.804527	0.256636
559.018110	0.256491
559.231675	0.256703
559.445221	0.256460
559.658749	0.256690
559.872259	0.256987
560.085751	0.257144
560.299225	0.257548
560.512680	0.258285
560.726117	0.258385
560.939536	0.259109
561.152937	0.259591
561.366319	0.260143
561.579683	0.259933
561.793029	0.260240
562.006357	0.260824
562.219667	0.260914
562.432958	0.260964
562.646231	0.260797
562.859486	0.261079
563.072723	0.261190
563.285941	0.261576
563.499141	0.261873
563.712323	0.262025
563.925487	0.262315
564.138632	0.262096
564.351760	0.262101
564.564869	0.262123
564.777960	0.261606
564.991032	0.262297
565.204087	0.262359
565.417123	0.262608
565.630141	0.263045
565.843140	0.263263
566.056122	0.263555
566.269085	0.264194
566.482030	0.264823
566.694957	0.265403
566.907866	0.264682
567.120756	0.264195
567.333628	0.264149
567.546482	0.263578
567.759318	0.263265
567.972135	0.263333
568.184935	0.263004
568.397716	0.263003
568.610478	0.262782
568.823223	0.263366
569.035949	0.263432
569.248657	0.263839
569.461347	0.264344
569.674019	0.264998
569.886672	0.264832
570.099308	0.264702
570.311925	0.264442
570.524523	0.264707
570.737104	0.264990
570.949666	0.265317
571.162210	0.265379
571.374736	0.265754
571.587244	0.265693
571.799733	0.266220
572.012205	0.266595
572.224658	0.267289
572.437092	0.267566
572.649509	0.267487
572.861907	0.267534
573.074287	0.267279
573.286649	0.267148
573.498993	0.266890
573.711318	0.267174
573.923625	0.267358
574.135914	0.267138
574.348185	0.267075
574.560438	0.267068
574.772672	0.267138
574.984888	0.267813
575.197086	0.267681
575.409266	0.268177
575.621427	0.267802
575.833570	0.267897
576.045695	0.268280
576.257802	0.268140
576.469890	0.268306
576.681961	0.269006
576.894013	0.269133
577.106046	0.269613
577.318062	0.269429
577.530059	0.270377
577.742039	0.270286
577.954000	0.270621
578.165942	0.271040
578.377867	0.271397
578.589773	0.271657
578.801661	0.271515
579.013531	0.271666
579.225382	0.272096
579.437216	0.271885
579.649031	0.272675
579.860828	0.272581
580.072606	0.272634
580.284367	0.272611
580.496109	0.272269
580.707833	0.272338
580.919539	0.272242
581.131227	0.272110
581.342896	0.271934
581.554547	0.271672
581.766180	0.271267
581.977795	0.271355
582.189391	0.271599
582.400969	0.271808
582.612529	0.271950
582.824071	0.272171
583.035595	0.272373
583.247100	0.272977
583.458587	0.273258
583.670056	0.274008
583.881506	0.274615
584.092939	0.274978
584.304353	0.275071
584.515749	0.275383
584.727127	0.275486
584.938486	0.275828
585.149828	0.275526
585.361151	0.275509
585.572456	0.275964
585.783742	0.276043
585.995011	0.276101
586.206261	0.276020
586.417493	0.276059
586.628706	0.276580
586.839902	0.276787
587.051079	0.277113
587.262238	0.277489
587.473379	0.277199
587.684502	0.277115
587.895606	0.277304
588.106692	0.278097
588.317760	0.278325
588.528810	0.278324
588.739841	0.278139
588.950855	0.278686
589.161850	0.278482
589.372827	0.278910
589.583785	0.279133
589.794726	0.278816
590.005648	0.279205
590.216552	0.279402
590.427437	0.279792
590.638305	0.280317
590.849154	0.280329
591.059985	0.280767
591.270798	0.280941
591.481592	0.281353
591.692369	0.282259
591.903127	0.282199
592.113867	0.282784
592.324588	0.283150
592.535292	0.283530
592.745977	0.283482
592.956644	0.283846
593.167293	0.284018
593.377923	0.284022
593.588536	0.284192
593.799130	0.284295
594.009706	0.284437
594.220263	0.284445
594.430803	0.284632
594.641324	0.285103
594.851827	0.285092
595.062312	0.285116
595.272778	0.285249
595.483227	0.285339
595.693657	0.285394
595.904069	0.285756
596.114462	0.285490
596.324838	0.285212
596.535195	0.285349
596.745534	0.285802
596.955855	0.286135
597.166157	0.286491
597.376441	0.286274
597.586707	0.286522
597.796955	0.286680
598.007185	0.287088
598.217396	0.287473
598.427589	0.287117
598.637764	0.287006
598.847921	0.286952
599.058060	0.287100
599.268180	0.287370
599.478282	0.287679
599.688366	0.287144
599.898431	0.287563
600.108479	0.287894
600.318508	0.288236
600.528519	0.288655
600.738511	0.289169
600.948486	0.289210
601.158442	0.289357
601.368380	0.289585
601.578300	0.290194
601.788202	0.290235
601.998085	0.289954
602.207950	0.290254
602.417797	0.290185
602.627626	0.290104
602.837436	0.289915
603.047228	0.290198
603.257002	0.290334
603.466758	0.290281
603.676496	0.290478
603.886215	0.291035
604.095916	0.291030
604.305599	0.291429
604.515264	0.291463
604.724910	0.291612
604.934538	0.291625
605.144148	0.291651
605.353740	0.291760
605.563314	0.291917
605.772869	0.291936
605.982406	0.292288
606.191925	0.292357
606.401425	0.292397
606.610908	0.292838
606.820372	0.292955
607.029818	0.292803
607.239246	0.293248
607.448655	0.293391
607.658047	0.293616
607.867420	0.293920
608.076775	0.293715
608.286111	0.293695
608.495430	0.293615
608.704730	0.293414
608.914012	0.293683
609.123275	0.293415
609.332521	0.293156
609.541748	0.292986
609.750957	0.292834
609.960148	0.293008
610.169321	0.293056
610.378475	0.293183
610.587611	0.293417
610.796729	0.293327
611.005829	0.293186
611.214910	0.293604
611.423974	0.294101
611.633019	0.294527
611.842045	0.294957
612.051054	0.295342
612.260044	0.295538
612.469017	0.296112
612.677970	0.296584
612.886906	0.297078
613.095824	0.297030
613.304723	0.296854
613.513604	0.297106
613.722467	0.296770
613.931311	0.297168
614.140138	0.297470
614.348946	0.297514
614.557736	0.297610
614.766507	0.297864
614.975261	0.298198
615.183996	0.298713
615.392713	0.298537
615.601412	0.299102
615.810092	0.299218
616.018754	0.299224
616.227399	0.299372
616.436024	0.299503
616.644632	0.299495
616.853222	0.299439
617.061793	0.299265
617.270346	0.299703
617.478880	0.299632
617.687397	0.299366
617.895895	0.299485
618.104375	0.299664
618.312837	0.299698
618.521281	0.299800
618.729706	0.299865
618.938113	0.300142
619.146502	0.299903
619.354873	0.300210
619.563226	0.300406
619.771560	0.300714
619.979876	0.300586
620.188174	0.300856
620.396453	0.300869
620.604715	0.301263
620.812958	0.301378
621.021183	0.301493
621.229390	0.301612
621.437578	0.302249
621.645748	0.302458
621.853900	0.302951
622.062034	0.303182
622.270150	0.303672
622.478247	0.303922
622.686326	0.304196
622.894387	0.304531
623.102430	0.304857
623.310454	0.305019
623.518461	0.305081
623.726449	0.304975
623.934418	0.304903
624.142370	0.305060
624.350303	0.305061
624.558218	0.305066
624.766115	0.305346
624.973994	0.305199
625.181855	0.305318
625.389697	0.305380
625.597521	0.305457
625.805327	0.305379
626.013114	0.305338
626.220883	0.305518
626.428634	0.305772
626.636367	0.305827
626.844082	0.306090
627.051778	0.305935
627.259457	0.306210
627.467117	0.306852
627.674758	0.307421
627.882382	0.307944
628.089987	0.308457
628.297574	0.308472
628.505143	0.308627
628.712694	0.309025
628.920226	0.309555
629.127740	0.309527
629.335236	0.309392
629.542714	0.309421
629.750174	0.309320
629.957615	0.309038
630.165038	0.309229
630.372443	0.309334
630.579829	0.309375
630.787198	0.309590
630.994548	0.309857
631.201880	0.310221
631.409194	0.310644
631.616489	0.311087
631.823766	0.311409
632.031025	0.311626
632.238266	0.312010
632.445489	0.312056
632.652693	0.311949
632.859879	0.312354
633.067047	0.312055
633.274197	0.311835
633.481329	0.311695
633.688442	0.312116
633.895537	0.312211
634.102614	0.312404
634.309672	0.312844
634.516713	0.312952
634.723735	0.312906
634.930739	0.313394
635.137724	0.313861
635.344692	0.313964
635.551641	0.313691
635.758572	0.313886
635.965485	0.313926
636.172379	0.314046
636.379256	0.314414
636.586114	0.314755
636.792954	0.314873
636.999775	0.314862
637.206579	0.315198
637.413364	0.315516
637.620131	0.315897
637.826880	0.316216
638.033610	0.316120
638.240323	0.316182
638.447017	0.316167
638.653692	0.316190
638.860350	0.316301
639.066990	0.316603
639.273611	0.316733
639.480214	0.316848
639.686798	0.316980
639.893365	0.317366
640.099913	0.317469
640.306443	0.317612
640.512955	0.317811
640.719449	0.318093
640.925924	0.317925
641.132381	0.318275
641.338820	0.318332
641.545241	0.318250
641.751644	0.318235
641.958028	0.318362
642.164394	0.318767
642.370742	0.319052
642.577071	0.319280
642.783383	0.319605
642.989676	0.319686
643.195951	0.319990
643.402207	0.320481
643.608446	0.320866
643.814666	0.320940
644.020868	0.320982
644.227052	0.321242
644.433218	0.321479
644.639365	0.321557
644.845494	0.321817
645.051605	0.321761
645.257698	0.321905
645.463772	0.321742
645.669828	0.322171
645.875866	0.322274
646.081886	0.322586
646.287888	0.322633
646.493871	0.322881
646.699836	0.322916
646.905783	0.323172
647.111712	0.323322
647.317622	0.323946
647.523514	0.323974
647.729388	0.324319
647.935244	0.324442
648.141082	0.324837
648.346901	0.324973
648.552702	0.325212
648.758485	0.325646
648.964250	0.325668
649.169996	0.325784
649.375724	0.326090
649.581434	0.326135
649.787126	0.326144
649.992800	0.326265
650.198455	0.326762
650.404092	0.326810
650.609711	0.327091
650.815311	0.327580
651.020894	0.327462
651.226458	0.327747
651.432004	0.328029
651.637532	0.328188
651.843041	0.328274
652.048532	0.328377
652.254006	0.328684
652.459460	0.328752
652.664897	0.328678
652.870315	0.329135
653.075716	0.329520
653.281097	0.329510
653.486461	0.329904
653.691807	0.330148
653.897134	0.330313
654.102443	0.330633
654.307734	0.330565
654.513006	0.330843
654.718261	0.331091
654.923497	0.330913
655.128715	0.331266
655.333915	0.331531
655.539096	0.331841
655.744259	0.332157
655.949404	0.332371
656.154531	0.332832
656.359640	0.332974
656.564730	0.333098
656.769802	0.333364
656.974856	0.333557
657.179892	0.333801
657.384909	0.334202
657.589908	0.334364
657.794889	0.334315
657.999852	0.334400
658.204797	0.334795
658.409723	0.335029
658.614631	0.335458
658.819521	0.336104
659.024393	0.336285
659.229246	0.336324
659.434081	0.336305
659.638898	0.336935
659.843697	0.337099
660.048478	0.337350
660.253240	0.337596
660.457984	0.337879
660.662710	0.337908
660.867417	0.338134
661.072107	0.338235
661.276778	0.338611
661.481431	0.338739
661.686066	0.339063
661.890682	0.339179
662.095281	0.339216
662.299861	0.339154
662.504422	0.339330
662.708966	0.339587
662.913491	0.339973
663.117999	0.340044
663.322488	0.339895
663.526958	0.340009
663.731411	0.340094
663.935845	0.340442
664.140261	0.340582
664.344659	0.340335
664.549038	0.340432
664.753400	0.340504
664.957743	0.340740
665.162068	0.341163
665.366375	0.341442
665.570663	0.341859
665.774933	0.341903
665.979185	0.342219
666.183419	0.342733
666.387635	0.342831
666.591832	0.342966
666.796011	0.343268
667.000172	0.343578
667.204315	0.343786
667.408439	0.344057
667.612545	0.344427
667.816634	0.344796
668.020703	0.345155
668.224755	0.345580
668.428788	0.346087
668.632803	0.346402
668.836800	0.346585
669.040779	0.347154
669.244739	0.347329
669.448681	0.347484
669.652605	0.347666
669.856511	0.347881
670.060399	0.348072
670.264268	0.348215
670.468119	0.348326
670.671952	0.348279
670.875767	0.347951
671.079563	0.347877
671.283341	0.348181
671.487101	0.348401
671.690843	0.348593
671.894567	0.348760
672.098272	0.348869
672.301959	0.349259
672.505628	0.349774
672.709278	0.350389
672.912911	0.351172
673.116525	0.351375
673.320121	0.351307
673.523699	0.351464
673.727258	0.351895
673.930799	0.351945
674.134322	0.351916
674.337827	0.351860
674.541314	0.351891
674.744782	0.351771
674.948232	0.351882
675.151664	0.352250
675.355078	0.352634
675.558474	0.352582
675.761851	0.352903
675.965210	0.353217
676.168551	0.353580
676.371873	0.353796
676.575178	0.353883
676.778464	0.354108
676.981732	0.354080
677.184981	0.354353
677.388213	0.354421
677.591426	0.354403
677.794621	0.354600
677.997798	0.354933
678.200956	0.354794
678.404097	0.354839
678.607219	0.355131
678.810323	0.355450
679.013408	0.355361
679.216476	0.355389
679.419525	0.355962
679.622556	0.356156
679.825569	0.355918
680.028563	0.356218
680.231540	0.356657
680.434498	0.356961
680.637438	0.357242
680.840359	0.357443
681.043263	0.357819
681.246148	0.357794
681.449015	0.358086
681.651864	0.358684
681.854694	0.359120
682.057506	0.359116
682.260301	0.359069
682.463076	0.359247
682.665834	0.359126
682.868573	0.359388
683.071295	0.359540
683.273998	0.359821
683.476682	0.359835
683.679349	0.359900
683.881997	0.360313
684.084627	0.360739
684.287239	0.360996
684.489833	0.361430
684.692408	0.361360
684.894965	0.361870
685.097504	0.361811
685.300025	0.362032
685.502527	0.362117
685.705012	0.362214
685.907478	0.362291
686.109925	0.362524
686.312355	0.362770
686.514766	0.363160
686.717159	0.363113
686.919534	0.363440
687.121891	0.363553
687.324230	0.363796
687.526550	0.364207
687.728852	0.364304
687.931136	0.364390
688.133401	0.364970
688.335649	0.365184
688.537878	0.365455
688.740089	0.365466
688.942281	0.365829
689.144456	0.366122
689.346612	0.365827
689.548750	0.365848
689.750870	0.366070
689.952971	0.365674
690.155055	0.365930
690.357120	0.366029
690.559167	0.366309
690.761195	0.366295
690.963206	0.366500
691.165198	0.366949
691.367172	0.367267
691.569128	0.367116
691.771065	0.367362
691.972984	0.367298
692.174885	0.367555
692.376768	0.367674
692.578633	0.367797
692.780479	0.367817
692.982308	0.367964
693.184118	0.368118
693.385909	0.368601
