sample name	sample
index	914
start time	 04-12-2021  11:02:51 AM


Wavelength (nm)	Absorbance
494.344910	-0.402116
494.563924	-0.402116
494.782919	-0.402116
495.001897	-0.074001
495.220856	-0.323825
495.439797	-0.183485
495.658719	-0.129461
495.877624	-0.031212
496.096510	-0.009056
496.315378	0.360657
496.534227	0.217119
496.753059	0.058181
496.971872	0.037437
497.190667	0.175677
497.409444	0.170253
497.628203	0.169956
497.846943	0.170527
498.065665	0.171971
498.284369	0.172489
498.503055	0.172645
498.721723	0.172312
498.940372	0.172258
499.159003	0.171392
499.377616	0.171647
499.596210	0.171179
499.814787	0.172184
500.033345	0.172246
500.251885	0.171580
500.470406	0.172845
500.688910	0.174645
500.907395	0.175084
501.125862	0.176926
501.344311	0.177546
501.562742	0.178877
501.781154	0.178405
501.999548	0.177755
502.217924	0.177560
502.436282	0.177656
502.654621	0.176885
502.872942	0.176978
503.091245	0.176477
503.309530	0.175556
503.527797	0.175782
503.746045	0.174056
503.964275	0.174610
504.182487	0.174449
504.400681	0.173358
504.618856	0.173982
504.837013	0.173730
505.055152	0.173908
505.273273	0.175178
505.491376	0.175721
505.709460	0.178356
505.927526	0.178816
506.145574	0.179452
506.363604	0.180334
506.581615	0.180893
506.799608	0.181224
507.017583	0.181297
507.235540	0.180746
507.453478	0.180520
507.671399	0.180364
507.889301	0.180220
508.107185	0.180750
508.325050	0.180693
508.542898	0.181139
508.760727	0.180801
508.978538	0.181229
509.196330	0.181984
509.414105	0.181986
509.631861	0.181337
509.849599	0.182289
510.067319	0.182905
510.285021	0.183739
510.502704	0.182371
510.720369	0.182753
510.938016	0.182260
511.155645	0.182864
511.373255	0.182846
511.590848	0.183719
511.808422	0.183501
512.025977	0.183197
512.243515	0.183526
512.461034	0.184590
512.678536	0.185479
512.896018	0.186570
513.113483	0.186694
513.330930	0.187417
513.548358	0.187426
513.765768	0.187748
513.983160	0.187952
514.200533	0.187256
514.417889	0.187645
514.635226	0.187691
514.852545	0.187975
515.069845	0.188476
515.287128	0.188702
515.504392	0.188640
515.721638	0.189003
515.938866	0.189751
516.156075	0.190735
516.373267	0.190545
516.590440	0.190089
516.807594	0.189927
517.024731	0.189669
517.241850	0.189668
517.458950	0.190174
517.676032	0.190187
517.893095	0.189969
518.110141	0.189984
518.327168	0.191240
518.544177	0.192455
518.761168	0.192538
518.978141	0.192311
519.195095	0.192955
519.412031	0.193544
519.628949	0.193718
519.845849	0.194005
520.062731	0.194922
520.279594	0.194621
520.496439	0.195346
520.713266	0.195216
520.930074	0.196398
521.146865	0.196413
521.363637	0.197487
521.580391	0.198176
521.797127	0.198230
522.013844	0.197521
522.230543	0.197538
522.447224	0.197417
522.663887	0.198283
522.880532	0.197960
523.097158	0.198347
523.313766	0.197334
523.530356	0.197748
523.746928	0.198668
523.963481	0.199023
524.180017	0.199691
524.396534	0.199647
524.613032	0.201071
524.829513	0.201440
525.045975	0.201678
525.262420	0.202178
525.478845	0.202280
525.695253	0.202007
525.911643	0.202830
526.128014	0.202340
526.344367	0.203211
526.560702	0.202604
526.777018	0.202989
526.993316	0.203230
527.209597	0.204057
527.425858	0.203610
527.642102	0.204009
527.858328	0.203967
528.074535	0.204885
528.290724	0.205302
528.506894	0.205489
528.723047	0.206072
528.939181	0.206480
529.155297	0.207396
529.371395	0.208819
529.587475	0.209729
529.803536	0.210889
530.019579	0.211444
530.235604	0.211267
530.451611	0.211610
530.667600	0.211712
530.883570	0.211914
531.099522	0.211327
531.315456	0.211526
531.531372	0.211638
531.747269	0.212076
531.963148	0.211941
532.179009	0.213407
532.394852	0.214217
532.610676	0.215214
532.826482	0.216163
533.042271	0.216706
533.258040	0.216803
533.473792	0.217379
533.689525	0.217265
533.905240	0.218153
534.120937	0.217545
534.336616	0.218336
534.552277	0.218211
534.767919	0.218410
534.983543	0.219336
535.199149	0.219391
535.414736	0.218997
535.630306	0.219240
535.845857	0.219666
536.061390	0.220152
536.276904	0.219872
536.492401	0.220322
536.707879	0.220549
536.923339	0.220668
537.138781	0.221451
537.354204	0.222717
537.569610	0.222911
537.784997	0.223454
538.000366	0.223831
538.215716	0.224313
538.431049	0.224846
538.646363	0.225751
538.861659	0.226350
539.076937	0.226892
539.292196	0.226701
539.507438	0.227752
539.722661	0.227703
539.937866	0.228402
540.153052	0.228837
540.368221	0.229391
540.583371	0.229235
540.798503	0.228984
541.013617	0.229318
541.228712	0.230206
541.443789	0.229841
541.658848	0.230586
541.873889	0.231512
542.088912	0.231521
542.303916	0.231423
542.518902	0.231335
542.733870	0.231593
542.948820	0.231878
543.163752	0.231764
543.378665	0.232722
543.593560	0.233002
543.808437	0.232940
544.023295	0.233802
544.238136	0.234726
544.452958	0.235398
544.667762	0.236451
544.882548	0.237090
545.097315	0.237630
545.312064	0.237371
545.526795	0.237834
545.741508	0.237532
545.956203	0.237389
546.170879	0.236979
546.385537	0.237330
546.600177	0.237351
546.814799	0.237302
547.029402	0.237900
547.243988	0.238230
547.458555	0.238090
547.673103	0.238302
547.887634	0.238870
548.102146	0.239128
548.316640	0.239702
548.531116	0.239654
548.745574	0.240041
548.960013	0.240152
549.174435	0.240367
549.388838	0.240821
549.603222	0.241815
549.817589	0.242442
550.031937	0.242947
550.246267	0.243336
550.460579	0.243736
550.674873	0.243755
550.889148	0.243897
551.103405	0.244922
551.317644	0.245089
551.531865	0.244611
551.746068	0.244467
551.960252	0.244361
552.174418	0.244044
552.388566	0.244610
552.602696	0.244790
552.816807	0.245133
553.030900	0.244618
553.244975	0.244663
553.459032	0.245492
553.673070	0.245669
553.887091	0.246296
554.101093	0.246778
554.315077	0.246717
554.529042	0.247186
554.742990	0.247226
554.956919	0.247853
555.170830	0.248424
555.384722	0.248352
555.598597	0.248372
555.812453	0.248152
556.026291	0.248574
556.240111	0.248763
556.453913	0.249051
556.667696	0.249375
556.881461	0.249646
557.095208	0.249815
557.308937	0.249724
557.522647	0.250344
557.736339	0.251086
557.950013	0.250920
558.163669	0.250895
558.377307	0.251379
558.590926	0.251640
558.804527	0.251875
559.018110	0.252008
559.231675	0.252692
559.445221	0.252793
559.658749	0.252662
559.872259	0.252983
560.085751	0.253271
560.299225	0.253070
560.512680	0.253283
560.726117	0.253402
560.939536	0.253636
561.152937	0.253862
561.366319	0.253838
561.579683	0.254620
561.793029	0.254824
562.006357	0.255046
562.219667	0.255444
562.432958	0.255831
562.646231	0.255740
562.859486	0.256243
563.072723	0.256251
563.285941	0.256958
563.499141	0.257012
563.712323	0.257500
563.925487	0.258193
564.138632	0.257945
564.351760	0.257862
564.564869	0.258269
564.777960	0.258198
564.991032	0.258442
565.204087	0.258500
565.417123	0.258806
565.630141	0.259153
565.843140	0.259012
566.056122	0.259531
566.269085	0.260048
566.482030	0.260627
566.694957	0.260683
566.907866	0.260908
567.120756	0.260958
567.333628	0.260583
567.546482	0.260479
567.759318	0.261122
567.972135	0.261129
568.184935	0.261126
568.397716	0.261443
568.610478	0.261420
568.823223	0.262029
569.035949	0.262364
569.248657	0.262418
569.461347	0.262562
569.674019	0.262631
569.886672	0.262967
570.099308	0.263331
570.311925	0.262975
570.524523	0.263439
570.737104	0.263485
570.949666	0.263542
571.162210	0.264118
571.374736	0.264332
571.587244	0.264072
571.799733	0.263972
572.012205	0.264173
572.224658	0.264708
572.437092	0.265154
572.649509	0.265403
572.861907	0.265971
573.074287	0.266225
573.286649	0.266767
573.498993	0.266883
573.711318	0.267099
573.923625	0.267210
574.135914	0.267067
574.348185	0.267150
574.560438	0.267219
574.772672	0.266835
574.984888	0.266936
575.197086	0.266573
575.409266	0.267033
575.621427	0.267577
575.833570	0.267731
576.045695	0.267957
576.257802	0.268293
576.469890	0.267925
576.681961	0.268153
576.894013	0.268320
577.106046	0.268739
577.318062	0.269149
577.530059	0.269631
577.742039	0.269853
577.954000	0.269530
578.165942	0.269477
578.377867	0.270037
578.589773	0.270753
578.801661	0.271529
579.013531	0.271525
579.225382	0.271805
579.437216	0.271841
579.649031	0.272054
579.860828	0.272846
580.072606	0.272796
580.284367	0.273159
580.496109	0.273048
580.707833	0.272883
580.919539	0.273022
581.131227	0.273008
581.342896	0.272841
581.554547	0.272605
581.766180	0.272593
581.977795	0.272869
582.189391	0.272783
582.400969	0.273333
582.612529	0.273459
582.824071	0.274152
583.035595	0.274204
583.247100	0.274688
583.458587	0.275141
583.670056	0.275373
583.881506	0.275341
584.092939	0.275614
584.304353	0.275400
584.515749	0.275225
584.727127	0.275052
584.938486	0.275476
585.149828	0.275459
585.361151	0.275627
585.572456	0.275982
585.783742	0.276545
585.995011	0.276886
586.206261	0.276879
586.417493	0.277799
586.628706	0.278212
586.839902	0.278367
587.051079	0.278775
587.262238	0.278813
587.473379	0.279196
587.684502	0.279497
587.895606	0.279639
588.106692	0.280150
588.317760	0.280050
588.528810	0.280364
588.739841	0.280461
588.950855	0.280670
589.161850	0.280825
589.372827	0.280512
589.583785	0.280773
589.794726	0.281230
590.005648	0.281133
590.216552	0.280920
590.427437	0.281132
590.638305	0.281167
590.849154	0.281042
591.059985	0.281785
591.270798	0.282181
591.481592	0.282398
591.692369	0.281995
591.903127	0.282334
592.113867	0.282452
592.324588	0.282315
592.535292	0.282353
592.745977	0.282464
592.956644	0.282512
593.167293	0.283103
593.377923	0.282959
593.588536	0.283493
593.799130	0.283890
594.009706	0.284117
594.220263	0.284743
594.430803	0.285461
594.641324	0.285890
594.851827	0.285986
595.062312	0.285595
595.272778	0.285984
595.483227	0.286213
595.693657	0.286491
595.904069	0.286816
596.114462	0.286875
596.324838	0.286962
596.535195	0.286985
596.745534	0.286965
596.955855	0.287335
597.166157	0.287378
597.376441	0.287778
597.586707	0.287634
597.796955	0.287735
598.007185	0.287441
598.217396	0.286991
598.427589	0.287504
598.637764	0.287635
598.847921	0.287886
599.058060	0.288272
599.268180	0.288132
599.478282	0.288414
599.688366	0.289158
599.898431	0.289466
600.108479	0.290103
600.318508	0.290095
600.528519	0.290284
600.738511	0.290653
600.948486	0.290599
601.158442	0.290878
601.368380	0.290954
601.578300	0.290893
601.788202	0.291303
601.998085	0.291579
602.207950	0.291929
602.417797	0.292203
602.627626	0.292089
602.837436	0.292109
603.047228	0.292161
603.257002	0.292323
603.466758	0.292074
603.676496	0.292346
603.886215	0.292908
604.095916	0.292890
604.305599	0.292686
604.515264	0.292902
604.724910	0.293449
604.934538	0.293544
605.144148	0.293555
605.353740	0.294163
605.563314	0.294372
605.772869	0.294035
605.982406	0.294543
606.191925	0.295119
606.401425	0.295269
606.610908	0.295588
606.820372	0.296076
607.029818	0.296075
607.239246	0.296172
607.448655	0.295960
607.658047	0.296164
607.867420	0.296103
608.076775	0.296290
608.286111	0.296373
608.495430	0.296834
608.704730	0.296808
608.914012	0.297459
609.123275	0.297388
609.332521	0.297411
609.541748	0.297576
609.750957	0.297644
609.960148	0.297945
610.169321	0.298209
610.378475	0.297911
610.587611	0.297903
610.796729	0.297842
611.005829	0.298175
611.214910	0.298820
611.423974	0.298831
611.633019	0.298971
611.842045	0.299124
612.051054	0.299501
612.260044	0.299791
612.469017	0.300318
612.677970	0.300478
612.886906	0.300365
613.095824	0.300446
613.304723	0.300743
613.513604	0.300694
613.722467	0.300437
613.931311	0.300320
614.140138	0.300243
614.348946	0.300225
614.557736	0.300447
614.766507	0.300706
614.975261	0.301095
615.183996	0.301077
615.392713	0.301747
615.601412	0.302136
615.810092	0.302348
616.018754	0.302497
616.227399	0.302389
616.436024	0.302793
616.644632	0.303245
616.853222	0.302958
617.061793	0.303065
617.270346	0.302840
617.478880	0.303139
617.687397	0.303242
617.895895	0.303271
618.104375	0.303491
618.312837	0.303216
618.521281	0.303260
618.729706	0.303243
618.938113	0.303821
619.146502	0.304264
619.354873	0.304163
619.563226	0.304377
619.771560	0.304723
619.979876	0.304741
620.188174	0.304672
620.396453	0.304738
620.604715	0.305221
620.812958	0.305026
621.021183	0.304959
621.229390	0.305233
621.437578	0.305391
621.645748	0.305513
621.853900	0.305748
622.062034	0.306271
622.270150	0.306467
622.478247	0.306485
622.686326	0.306629
622.894387	0.307103
623.102430	0.307308
623.310454	0.307512
623.518461	0.307599
623.726449	0.307842
623.934418	0.308045
624.142370	0.308429
624.350303	0.308618
624.558218	0.308981
624.766115	0.308867
624.973994	0.308956
625.181855	0.309052
625.389697	0.309649
625.597521	0.310154
625.805327	0.310721
626.013114	0.310547
626.220883	0.310777
626.428634	0.311062
626.636367	0.311456
626.844082	0.311834
627.051778	0.312172
627.259457	0.312051
627.467117	0.311931
627.674758	0.311801
627.882382	0.312403
628.089987	0.312621
628.297574	0.312546
628.505143	0.312675
628.712694	0.312822
628.920226	0.312835
629.127740	0.313135
629.335236	0.313660
629.542714	0.313947
629.750174	0.314070
629.957615	0.314360
630.165038	0.314649
630.372443	0.314577
630.579829	0.314612
630.787198	0.314621
630.994548	0.314691
631.201880	0.314744
631.409194	0.314846
631.616489	0.314911
631.823766	0.314777
632.031025	0.314847
632.238266	0.315113
632.445489	0.315521
632.652693	0.316071
632.859879	0.316133
633.067047	0.316271
633.274197	0.316163
633.481329	0.316131
633.688442	0.316269
633.895537	0.316530
634.102614	0.316879
634.309672	0.316799
634.516713	0.316895
634.723735	0.317084
634.930739	0.317017
635.137724	0.317310
635.344692	0.317365
635.551641	0.317637
635.758572	0.317749
635.965485	0.317631
636.172379	0.317803
636.379256	0.318023
636.586114	0.317934
636.792954	0.318035
636.999775	0.318387
637.206579	0.318722
637.413364	0.318941
637.620131	0.319353
637.826880	0.319710
638.033610	0.319883
638.240323	0.319956
638.447017	0.320365
638.653692	0.320688
638.860350	0.320589
639.066990	0.320843
639.273611	0.321098
639.480214	0.321008
639.686798	0.321130
639.893365	0.321259
640.099913	0.321310
640.306443	0.321681
640.512955	0.321723
640.719449	0.321763
640.925924	0.321942
641.132381	0.322049
641.338820	0.322437
641.545241	0.322722
641.751644	0.323086
641.958028	0.323238
642.164394	0.323343
642.370742	0.323632
642.577071	0.324214
642.783383	0.324493
642.989676	0.324995
643.195951	0.325230
643.402207	0.325548
643.608446	0.325805
643.814666	0.326209
644.020868	0.326401
644.227052	0.326733
644.433218	0.327038
644.639365	0.327268
644.845494	0.327360
645.051605	0.327613
645.257698	0.327722
645.463772	0.327634
645.669828	0.327591
645.875866	0.327845
646.081886	0.327855
646.287888	0.328020
646.493871	0.327901
646.699836	0.328104
646.905783	0.328331
647.111712	0.328408
647.317622	0.328785
647.523514	0.329152
647.729388	0.329217
647.935244	0.329826
648.141082	0.329878
648.346901	0.330505
648.552702	0.330471
648.758485	0.330865
648.964250	0.331272
649.169996	0.331425
649.375724	0.331668
649.581434	0.332109
649.787126	0.332488
649.992800	0.332973
650.198455	0.333165
650.404092	0.333498
650.609711	0.333508
650.815311	0.333517
651.020894	0.334238
651.226458	0.334558
651.432004	0.334806
651.637532	0.334816
651.843041	0.335028
652.048532	0.335191
652.254006	0.335055
652.459460	0.335125
652.664897	0.335522
652.870315	0.335572
653.075716	0.335832
653.281097	0.335855
653.486461	0.335992
653.691807	0.335714
653.897134	0.336118
654.102443	0.336784
654.307734	0.337036
654.513006	0.337403
654.718261	0.337287
654.923497	0.337406
655.128715	0.337525
655.333915	0.337661
655.539096	0.338362
655.744259	0.338451
655.949404	0.338807
656.154531	0.339337
656.359640	0.339426
656.564730	0.339742
656.769802	0.339847
656.974856	0.340599
657.179892	0.340928
657.384909	0.340951
657.589908	0.340880
657.794889	0.341268
657.999852	0.341319
658.204797	0.341450
658.409723	0.341795
658.614631	0.342376
658.819521	0.342356
659.024393	0.342532
659.229246	0.342752
659.434081	0.343095
659.638898	0.342978
659.843697	0.343015
660.048478	0.343273
660.253240	0.343560
660.457984	0.343650
660.662710	0.343749
660.867417	0.344214
661.072107	0.344693
661.276778	0.344881
661.481431	0.345317
661.686066	0.345786
661.890682	0.345966
662.095281	0.346171
662.299861	0.346523
662.504422	0.346679
662.708966	0.346626
662.913491	0.346820
663.117999	0.347226
663.322488	0.347343
663.526958	0.347624
663.731411	0.348204
663.935845	0.348346
664.140261	0.348489
664.344659	0.349032
664.549038	0.349442
664.753400	0.349444
664.957743	0.349661
665.162068	0.349860
665.366375	0.349983
665.570663	0.349964
665.774933	0.350410
665.979185	0.350446
666.183419	0.350377
666.387635	0.350614
666.591832	0.351196
666.796011	0.351538
667.000172	0.351950
667.204315	0.352344
667.408439	0.352504
667.612545	0.352651
667.816634	0.353251
668.020703	0.353754
668.224755	0.354213
668.428788	0.354469
668.632803	0.354777
668.836800	0.355071
669.040779	0.355243
669.244739	0.355450
669.448681	0.355777
669.652605	0.355918
669.856511	0.356482
670.060399	0.356397
670.264268	0.356746
670.468119	0.357072
670.671952	0.357387
670.875767	0.357488
671.079563	0.358125
671.283341	0.358253
671.487101	0.358803
671.690843	0.358681
671.894567	0.359003
672.098272	0.359217
672.301959	0.359448
672.505628	0.359600
672.709278	0.360001
672.912911	0.360149
673.116525	0.360584
673.320121	0.360832
673.523699	0.361433
673.727258	0.361908
673.930799	0.362152
674.134322	0.362416
674.337827	0.362621
674.541314	0.362903
674.744782	0.363169
674.948232	0.363649
675.151664	0.363686
675.355078	0.363563
675.558474	0.363607
675.761851	0.363870
675.965210	0.364348
676.168551	0.364699
676.371873	0.365213
676.575178	0.365512
676.778464	0.365291
676.981732	0.365654
677.184981	0.366200
677.388213	0.366367
677.591426	0.366453
677.794621	0.366366
677.997798	0.366823
678.200956	0.366986
678.404097	0.367328
678.607219	0.367683
678.810323	0.367866
679.013408	0.367920
679.216476	0.368410
679.419525	0.368815
679.622556	0.369081
679.825569	0.369056
680.028563	0.369229
680.231540	0.369320
680.434498	0.369880
680.637438	0.370174
680.840359	0.370563
681.043263	0.370912
681.246148	0.370766
681.449015	0.371003
681.651864	0.371095
681.854694	0.371277
682.057506	0.371636
682.260301	0.371707
682.463076	0.371965
682.665834	0.371888
682.868573	0.372058
683.071295	0.372610
683.273998	0.372813
683.476682	0.373084
683.679349	0.373173
683.881997	0.373171
684.084627	0.373567
684.287239	0.373731
684.489833	0.373969
684.692408	0.374168
684.894965	0.374552
685.097504	0.375027
685.300025	0.375384
685.502527	0.375541
685.705012	0.375727
685.907478	0.375922
686.109925	0.376126
686.312355	0.376817
686.514766	0.377056
686.717159	0.376906
686.919534	0.377001
687.121891	0.377566
687.324230	0.378134
687.526550	0.378632
687.728852	0.378739
687.931136	0.378902
688.133401	0.378813
688.335649	0.378997
688.537878	0.379563
688.740089	0.379776
688.942281	0.379712
689.144456	0.379688
689.346612	0.379793
689.548750	0.379922
689.750870	0.380355
689.952971	0.380713
690.155055	0.380998
690.357120	0.381032
690.559167	0.381364
690.761195	0.381481
690.963206	0.381994
691.165198	0.382060
691.367172	0.382368
691.569128	0.382351
691.771065	0.383022
691.972984	0.383219
692.174885	0.383740
692.376768	0.383841
692.578633	0.384150
692.780479	0.384170
692.982308	0.384629
693.184118	0.385019
693.385909	0.385247
