sample name	sample
index	1158
start time	 04-22-2021  03:53:59 PM


Wavelength (nm)	Absorbance
494.344910	NaN
494.563924	NaN
494.782919	NaN
495.001897	-0.296304
495.220856	0.247650
495.439797	0.855002
495.658719	0.038953
495.877624	0.011741
496.096510	-0.082659
496.315378	0.189842
496.534227	0.066116
496.753059	0.746659
496.971872	1.162126
497.190667	0.210554
497.409444	0.191716
497.628203	0.189087
497.846943	0.188344
498.065665	0.188619
498.284369	0.186980
498.503055	0.188067
498.721723	0.187028
498.940372	0.187173
499.159003	0.189355
499.377616	0.189175
499.596210	0.192901
499.814787	0.193172
500.033345	0.193744
500.251885	0.194204
500.470406	0.193458
500.688910	0.193740
500.907395	0.193868
501.125862	0.193425
501.344311	0.194031
501.562742	0.191857
501.781154	0.192305
501.999548	0.192252
502.217924	0.192161
502.436282	0.193114
502.654621	0.192916
502.872942	0.193525
503.091245	0.193310
503.309530	0.193947
503.527797	0.193404
503.746045	0.193248
503.964275	0.194389
504.182487	0.193951
504.400681	0.193226
504.618856	0.193376
504.837013	0.192903
505.055152	0.193054
505.273273	0.191879
505.491376	0.194054
505.709460	0.194542
505.927526	0.193960
506.145574	0.193932
506.363604	0.195040
506.581615	0.194939
506.799608	0.193425
507.017583	0.193334
507.235540	0.193122
507.453478	0.193275
507.671399	0.192836
507.889301	0.192561
508.107185	0.193450
508.325050	0.192401
508.542898	0.193541
508.760727	0.194909
508.978538	0.195499
509.196330	0.196772
509.414105	0.195548
509.631861	0.194946
509.849599	0.196972
510.067319	0.196493
510.285021	0.196884
510.502704	0.197237
510.720369	0.196488
510.938016	0.196528
511.155645	0.196686
511.373255	0.197694
511.590848	0.198012
511.808422	0.197389
512.025977	0.198100
512.243515	0.198596
512.461034	0.197780
512.678536	0.199349
512.896018	0.200250
513.113483	0.200467
513.330930	0.201820
513.548358	0.202526
513.765768	0.200824
513.983160	0.200131
514.200533	0.199954
514.417889	0.201260
514.635226	0.201079
514.852545	0.200578
515.069845	0.200251
515.287128	0.199672
515.504392	0.200472
515.721638	0.202157
515.938866	0.202633
516.156075	0.203865
516.373267	0.203281
516.590440	0.204222
516.807594	0.204210
517.024731	0.204635
517.241850	0.204270
517.458950	0.203582
517.676032	0.204692
517.893095	0.205082
518.110141	0.204796
518.327168	0.206149
518.544177	0.205361
518.761168	0.205644
518.978141	0.206232
519.195095	0.206352
519.412031	0.207060
519.628949	0.206362
519.845849	0.207648
520.062731	0.207622
520.279594	0.208326
520.496439	0.209700
520.713266	0.210123
520.930074	0.210427
521.146865	0.210586
521.363637	0.210682
521.580391	0.210870
521.797127	0.211128
522.013844	0.211044
522.230543	0.210485
522.447224	0.210349
522.663887	0.210935
522.880532	0.209729
523.097158	0.209435
523.313766	0.210390
523.530356	0.210891
523.746928	0.210325
523.963481	0.211588
524.180017	0.210464
524.396534	0.211473
524.613032	0.211849
524.829513	0.213560
525.045975	0.214192
525.262420	0.214186
525.478845	0.214556
525.695253	0.215140
525.911643	0.215238
526.128014	0.217108
526.344367	0.216600
526.560702	0.217189
526.777018	0.218077
526.993316	0.219415
527.209597	0.220098
527.425858	0.219896
527.642102	0.220388
527.858328	0.220150
528.074535	0.220312
528.290724	0.221002
528.506894	0.220635
528.723047	0.220041
528.939181	0.219899
529.155297	0.220381
529.371395	0.221048
529.587475	0.221575
529.803536	0.222229
530.019579	0.221933
530.235604	0.221286
530.451611	0.222039
530.667600	0.222730
530.883570	0.223101
531.099522	0.222971
531.315456	0.223460
531.531372	0.222821
531.747269	0.223589
531.963148	0.224554
532.179009	0.225461
532.394852	0.225889
532.610676	0.225726
532.826482	0.225518
533.042271	0.225731
533.258040	0.225924
533.473792	0.226997
533.689525	0.226928
533.905240	0.227006
534.120937	0.227170
534.336616	0.226984
534.552277	0.228213
534.767919	0.228883
534.983543	0.228987
535.199149	0.229220
535.414736	0.229092
535.630306	0.229304
535.845857	0.229189
536.061390	0.230031
536.276904	0.230619
536.492401	0.229434
536.707879	0.229621
536.923339	0.230400
537.138781	0.230567
537.354204	0.230883
537.569610	0.231563
537.784997	0.231909
538.000366	0.231316
538.215716	0.231593
538.431049	0.232835
538.646363	0.233233
538.861659	0.233073
539.076937	0.233318
539.292196	0.233556
539.507438	0.233345
539.722661	0.234443
539.937866	0.235158
540.153052	0.235785
540.368221	0.235840
540.583371	0.236010
540.798503	0.236364
541.013617	0.236832
541.228712	0.237094
541.443789	0.237646
541.658848	0.237309
541.873889	0.237778
542.088912	0.237634
542.303916	0.237984
542.518902	0.238523
542.733870	0.238807
542.948820	0.238851
543.163752	0.239548
543.378665	0.239698
543.593560	0.240070
543.808437	0.240301
544.023295	0.240700
544.238136	0.240818
544.452958	0.240487
544.667762	0.240680
544.882548	0.240809
545.097315	0.241247
545.312064	0.241533
545.526795	0.241940
545.741508	0.242118
545.956203	0.242877
546.170879	0.243273
546.385537	0.243553
546.600177	0.243649
546.814799	0.244440
547.029402	0.244088
547.243988	0.244762
547.458555	0.244961
547.673103	0.245214
547.887634	0.245156
548.102146	0.245563
548.316640	0.246244
548.531116	0.246616
548.745574	0.246990
548.960013	0.247630
549.174435	0.247525
549.388838	0.247423
549.603222	0.247651
549.817589	0.247537
550.031937	0.247514
550.246267	0.247537
550.460579	0.247764
550.674873	0.247779
550.889148	0.247619
551.103405	0.247418
551.317644	0.247429
551.531865	0.247763
551.746068	0.247810
551.960252	0.247986
552.174418	0.248809
552.388566	0.248558
552.602696	0.248658
552.816807	0.249059
553.030900	0.249586
553.244975	0.250308
553.459032	0.250695
553.673070	0.251385
553.887091	0.251698
554.101093	0.251556
554.315077	0.252375
554.529042	0.252377
554.742990	0.252306
554.956919	0.252437
555.170830	0.252348
555.384722	0.252020
555.598597	0.251981
555.812453	0.252170
556.026291	0.251928
556.240111	0.252398
556.453913	0.252415
556.667696	0.252792
556.881461	0.252426
557.095208	0.252690
557.308937	0.252915
557.522647	0.252684
557.736339	0.252420
557.950013	0.252721
558.163669	0.252498
558.377307	0.252909
558.590926	0.253718
558.804527	0.254452
559.018110	0.254312
559.231675	0.254523
559.445221	0.254637
559.658749	0.254668
559.872259	0.255003
560.085751	0.255137
560.299225	0.255089
560.512680	0.254415
560.726117	0.254109
560.939536	0.254204
561.152937	0.254258
561.366319	0.254814
561.579683	0.255477
561.793029	0.255280
562.006357	0.255572
562.219667	0.255731
562.432958	0.255835
562.646231	0.256171
562.859486	0.257042
563.072723	0.257600
563.285941	0.257621
563.499141	0.257611
563.712323	0.258218
563.925487	0.258255
564.138632	0.258507
564.351760	0.258802
564.564869	0.259449
564.777960	0.259530
564.991032	0.259222
565.204087	0.259233
565.417123	0.259606
565.630141	0.259756
565.843140	0.260047
566.056122	0.260221
566.269085	0.260740
566.482030	0.260506
566.694957	0.259918
566.907866	0.259814
567.120756	0.259800
567.333628	0.259785
567.546482	0.259730
567.759318	0.259246
567.972135	0.259502
568.184935	0.259445
568.397716	0.259776
568.610478	0.260052
568.823223	0.260435
569.035949	0.260942
569.248657	0.261013
569.461347	0.261149
569.674019	0.261784
569.886672	0.261558
570.099308	0.261452
570.311925	0.261279
570.524523	0.261475
570.737104	0.261692
570.949666	0.261281
571.162210	0.261745
571.374736	0.261728
571.587244	0.261870
571.799733	0.262209
572.012205	0.262360
572.224658	0.262442
572.437092	0.263009
572.649509	0.263214
572.861907	0.263751
573.074287	0.263788
573.286649	0.264011
573.498993	0.264199
573.711318	0.264497
573.923625	0.264498
574.135914	0.264787
574.348185	0.264624
574.560438	0.264414
574.772672	0.264745
574.984888	0.264762
575.197086	0.264723
575.409266	0.264694
575.621427	0.264413
575.833570	0.264900
576.045695	0.265060
576.257802	0.265013
576.469890	0.265096
576.681961	0.264850
576.894013	0.264573
577.106046	0.264842
577.318062	0.264935
577.530059	0.265771
577.742039	0.265833
577.954000	0.266118
578.165942	0.266712
578.377867	0.267127
578.589773	0.267454
578.801661	0.268230
579.013531	0.268430
579.225382	0.268655
579.437216	0.268594
579.649031	0.268648
579.860828	0.268851
580.072606	0.268910
580.284367	0.269284
580.496109	0.269459
580.707833	0.269207
580.919539	0.269499
581.131227	0.269597
581.342896	0.270018
581.554547	0.270254
581.766180	0.270359
581.977795	0.270280
582.189391	0.270124
582.400969	0.270149
582.612529	0.270639
582.824071	0.270789
583.035595	0.271063
583.247100	0.271092
583.458587	0.271242
583.670056	0.271721
583.881506	0.271937
584.092939	0.272263
584.304353	0.272512
584.515749	0.272615
584.727127	0.272730
584.938486	0.272869
585.149828	0.272422
585.361151	0.272770
585.572456	0.272359
585.783742	0.272602
585.995011	0.273248
586.206261	0.273329
586.417493	0.273423
586.628706	0.273606
586.839902	0.273587
587.051079	0.274194
587.262238	0.274299
587.473379	0.274757
587.684502	0.275194
587.895606	0.275333
588.106692	0.275662
588.317760	0.275700
588.528810	0.275823
588.739841	0.276250
588.950855	0.276269
589.161850	0.276159
589.372827	0.276255
589.583785	0.276141
589.794726	0.275993
590.005648	0.276473
590.216552	0.277222
590.427437	0.277051
590.638305	0.276590
590.849154	0.276519
591.059985	0.276474
591.270798	0.276583
591.481592	0.276771
591.692369	0.276824
591.903127	0.276695
592.113867	0.276320
592.324588	0.277416
592.535292	0.278004
592.745977	0.278667
592.956644	0.278957
593.167293	0.279307
593.377923	0.279795
593.588536	0.280451
593.799130	0.280816
594.009706	0.281087
594.220263	0.280893
594.430803	0.281318
594.641324	0.281483
594.851827	0.281916
595.062312	0.281929
595.272778	0.281804
595.483227	0.281244
595.693657	0.281165
595.904069	0.281473
596.114462	0.281358
596.324838	0.281107
596.535195	0.281139
596.745534	0.280888
596.955855	0.281145
597.166157	0.281310
597.376441	0.281780
597.586707	0.282322
597.796955	0.282211
598.007185	0.282357
598.217396	0.282591
598.427589	0.282635
598.637764	0.282878
598.847921	0.282605
599.058060	0.282554
599.268180	0.282977
599.478282	0.283081
599.688366	0.283481
599.898431	0.283523
600.108479	0.283866
600.318508	0.283897
600.528519	0.283935
600.738511	0.284356
600.948486	0.284505
601.158442	0.284422
601.368380	0.284083
601.578300	0.284024
601.788202	0.284358
601.998085	0.284159
602.207950	0.284616
602.417797	0.284980
602.627626	0.284835
602.837436	0.285241
603.047228	0.285537
603.257002	0.285901
603.466758	0.286157
603.676496	0.286318
603.886215	0.286873
604.095916	0.286963
604.305599	0.287460
604.515264	0.288409
604.724910	0.288474
604.934538	0.288479
605.144148	0.288342
605.353740	0.288612
605.563314	0.288610
605.772869	0.288812
605.982406	0.288971
606.191925	0.289076
606.401425	0.288828
606.610908	0.288853
606.820372	0.288945
607.029818	0.289305
607.239246	0.289346
607.448655	0.289800
607.658047	0.289627
607.867420	0.289651
608.076775	0.289461
608.286111	0.289671
608.495430	0.289774
608.704730	0.289750
608.914012	0.289671
609.123275	0.289762
609.332521	0.289870
609.541748	0.290332
609.750957	0.290486
609.960148	0.290865
610.169321	0.291200
610.378475	0.291517
610.587611	0.291915
610.796729	0.292505
611.005829	0.292779
611.214910	0.292993
611.423974	0.293130
611.633019	0.293193
611.842045	0.293277
612.051054	0.292977
612.260044	0.292860
612.469017	0.292939
612.677970	0.292905
612.886906	0.293176
613.095824	0.292846
613.304723	0.292686
613.513604	0.293015
613.722467	0.292803
613.931311	0.292994
614.140138	0.293391
614.348946	0.293548
614.557736	0.293749
614.766507	0.293627
614.975261	0.294021
615.183996	0.294186
615.392713	0.294047
615.601412	0.294597
615.810092	0.295096
616.018754	0.295383
616.227399	0.295669
616.436024	0.295769
616.644632	0.296119
616.853222	0.296559
617.061793	0.296950
617.270346	0.297339
617.478880	0.297274
617.687397	0.297375
617.895895	0.297394
618.104375	0.297243
618.312837	0.297406
618.521281	0.297294
618.729706	0.296982
618.938113	0.296894
619.146502	0.297011
619.354873	0.297253
619.563226	0.297330
619.771560	0.297561
619.979876	0.298187
620.188174	0.298591
620.396453	0.298745
620.604715	0.299042
620.812958	0.299427
621.021183	0.299649
621.229390	0.299722
621.437578	0.299707
621.645748	0.299706
621.853900	0.299336
622.062034	0.299405
622.270150	0.299480
622.478247	0.299647
622.686326	0.299685
622.894387	0.299650
623.102430	0.299587
623.310454	0.299740
623.518461	0.299814
623.726449	0.299948
623.934418	0.299712
624.142370	0.299979
624.350303	0.299911
624.558218	0.299817
624.766115	0.299690
624.973994	0.300020
625.181855	0.300247
625.389697	0.300370
625.597521	0.300753
625.805327	0.301365
626.013114	0.301504
626.220883	0.301542
626.428634	0.301857
626.636367	0.302224
626.844082	0.302682
627.051778	0.302846
627.259457	0.302941
627.467117	0.303185
627.674758	0.302982
627.882382	0.303187
628.089987	0.303806
628.297574	0.303904
628.505143	0.304249
628.712694	0.304206
628.920226	0.304208
629.127740	0.304415
629.335236	0.304766
629.542714	0.304948
629.750174	0.305070
629.957615	0.305053
630.165038	0.305164
630.372443	0.305254
630.579829	0.305560
630.787198	0.305665
630.994548	0.305858
631.201880	0.305804
631.409194	0.306124
631.616489	0.306173
631.823766	0.306398
632.031025	0.306909
632.238266	0.307055
632.445489	0.307143
632.652693	0.307244
632.859879	0.307438
633.067047	0.307635
633.274197	0.307682
633.481329	0.307943
633.688442	0.307710
633.895537	0.307432
634.102614	0.307720
634.309672	0.307690
634.516713	0.308152
634.723735	0.308424
634.930739	0.308623
635.137724	0.308591
635.344692	0.308606
635.551641	0.308982
635.758572	0.309277
635.965485	0.309416
636.172379	0.309776
636.379256	0.309897
636.586114	0.309675
636.792954	0.309393
636.999775	0.309801
637.206579	0.310248
637.413364	0.310603
637.620131	0.310628
637.826880	0.310758
638.033610	0.310881
638.240323	0.310849
638.447017	0.311577
638.653692	0.312062
638.860350	0.312212
639.066990	0.311995
639.273611	0.311933
639.480214	0.312300
639.686798	0.312419
639.893365	0.312539
640.099913	0.312659
640.306443	0.312748
640.512955	0.312874
640.719449	0.312987
640.925924	0.313202
641.132381	0.313275
641.338820	0.313377
641.545241	0.313374
641.751644	0.313465
641.958028	0.314078
642.164394	0.313937
642.370742	0.314059
642.577071	0.314439
642.783383	0.314992
642.989676	0.315369
643.195951	0.315671
643.402207	0.315958
643.608446	0.316194
643.814666	0.316157
644.020868	0.316563
644.227052	0.316802
644.433218	0.316895
644.639365	0.317268
644.845494	0.317371
645.051605	0.317586
645.257698	0.317785
645.463772	0.317961
645.669828	0.318224
645.875866	0.318386
646.081886	0.318424
646.287888	0.318185
646.493871	0.318292
646.699836	0.318560
646.905783	0.318701
647.111712	0.319004
647.317622	0.319296
647.523514	0.319365
647.729388	0.319747
647.935244	0.319973
648.141082	0.320456
648.346901	0.320409
648.552702	0.320722
648.758485	0.321049
648.964250	0.321112
649.169996	0.321266
649.375724	0.321463
649.581434	0.321244
649.787126	0.321509
649.992800	0.321980
650.198455	0.322173
650.404092	0.322277
650.609711	0.322272
650.815311	0.322684
651.020894	0.322951
651.226458	0.323190
651.432004	0.323625
651.637532	0.324209
651.843041	0.324396
652.048532	0.324540
652.254006	0.324836
652.459460	0.325133
652.664897	0.325127
652.870315	0.325184
653.075716	0.325303
653.281097	0.325409
653.486461	0.325349
653.691807	0.325266
653.897134	0.325555
654.102443	0.325394
654.307734	0.325390
654.513006	0.325605
654.718261	0.325694
654.923497	0.325919
655.128715	0.325956
655.333915	0.325956
655.539096	0.325918
655.744259	0.325927
655.949404	0.326107
656.154531	0.326721
656.359640	0.327117
656.564730	0.327648
656.769802	0.327899
656.974856	0.328416
657.179892	0.328938
657.384909	0.329434
657.589908	0.329680
657.794889	0.330196
657.999852	0.330237
658.204797	0.330313
658.409723	0.330480
658.614631	0.330810
658.819521	0.331237
659.024393	0.331124
659.229246	0.331479
659.434081	0.331856
659.638898	0.332057
659.843697	0.332101
660.048478	0.332374
660.253240	0.332695
660.457984	0.333160
660.662710	0.333208
660.867417	0.333654
661.072107	0.334060
661.276778	0.334334
661.481431	0.334469
661.686066	0.334697
661.890682	0.334902
662.095281	0.334920
662.299861	0.334952
662.504422	0.334958
662.708966	0.335072
662.913491	0.335108
663.117999	0.334928
663.322488	0.335285
663.526958	0.335564
663.731411	0.335740
663.935845	0.336030
664.140261	0.336315
664.344659	0.336654
664.549038	0.336719
664.753400	0.336715
664.957743	0.337121
665.162068	0.336965
665.366375	0.337182
665.570663	0.337417
665.774933	0.337628
665.979185	0.337540
666.183419	0.337549
666.387635	0.337944
666.591832	0.338399
666.796011	0.338725
667.000172	0.339105
667.204315	0.339368
667.408439	0.339695
667.612545	0.339964
667.816634	0.340361
668.020703	0.340580
668.224755	0.341112
668.428788	0.341380
668.632803	0.341595
668.836800	0.341982
669.040779	0.342423
669.244739	0.342690
669.448681	0.342898
669.652605	0.343259
669.856511	0.343620
670.060399	0.343541
670.264268	0.343719
670.468119	0.344073
670.671952	0.344522
670.875767	0.344633
671.079563	0.344960
671.283341	0.345145
671.487101	0.345152
671.690843	0.345598
671.894567	0.346134
672.098272	0.346352
672.301959	0.346535
672.505628	0.346721
672.709278	0.346978
672.912911	0.347139
673.116525	0.347143
673.320121	0.347298
673.523699	0.347324
673.727258	0.347278
673.930799	0.347488
674.134322	0.347558
674.337827	0.347380
674.541314	0.347418
674.744782	0.347325
674.948232	0.347935
675.151664	0.348082
675.355078	0.348255
675.558474	0.348470
675.761851	0.348739
675.965210	0.349113
676.168551	0.349398
676.371873	0.349687
676.575178	0.350350
676.778464	0.350376
676.981732	0.350793
677.184981	0.351261
677.388213	0.351493
677.591426	0.351782
677.794621	0.352072
677.997798	0.352490
678.200956	0.353078
678.404097	0.353026
678.607219	0.353583
678.810323	0.353883
679.013408	0.353894
679.216476	0.354495
679.419525	0.354699
679.622556	0.354973
679.825569	0.355589
680.028563	0.355417
680.231540	0.355746
680.434498	0.355655
680.637438	0.355867
680.840359	0.356194
681.043263	0.356214
681.246148	0.356713
681.449015	0.356806
681.651864	0.356633
681.854694	0.356807
682.057506	0.357055
682.260301	0.357492
682.463076	0.357824
682.665834	0.357953
682.868573	0.358044
683.071295	0.357944
683.273998	0.358185
683.476682	0.358484
683.679349	0.358926
683.881997	0.359038
684.084627	0.359241
684.287239	0.359299
684.489833	0.359742
684.692408	0.359799
684.894965	0.359607
685.097504	0.359666
685.300025	0.359868
685.502527	0.360054
685.705012	0.360131
685.907478	0.360019
686.109925	0.360030
686.312355	0.359926
686.514766	0.360303
686.717159	0.360897
686.919534	0.361223
687.121891	0.361388
687.324230	0.361489
687.526550	0.361789
687.728852	0.362251
687.931136	0.362779
688.133401	0.363290
688.335649	0.363485
688.537878	0.363606
688.740089	0.363645
688.942281	0.363979
689.144456	0.364231
689.346612	0.364549
689.548750	0.364788
689.750870	0.364959
689.952971	0.365239
690.155055	0.365317
690.357120	0.365582
690.559167	0.365919
690.761195	0.366185
690.963206	0.366407
691.165198	0.366549
691.367172	0.366831
691.569128	0.366799
691.771065	0.366776
691.972984	0.367012
692.174885	0.367305
692.376768	0.367351
692.578633	0.367326
692.780479	0.367251
692.982308	0.367176
693.184118	0.366907
693.385909	0.366990
693.587683	0.367095
