sample name	sample
index	433
start time	 03-08-2021  12:17:20 PM


Wavelength (nm)	Absorbance
494.344910	0.803262
494.563924	0.803262
494.782919	0.803262
495.001897	0.565679
495.220856	0.130729
495.439797	0.011216
495.658719	-0.009799
495.877624	0.011591
496.096510	0.002759
496.315378	0.000277
496.534227	-0.059459
496.753059	0.010253
496.971872	-0.025079
497.190667	0.123289
497.409444	0.147304
497.628203	0.151186
497.846943	0.151167
498.065665	0.150829
498.284369	0.152014
498.503055	0.152492
498.721723	0.153417
498.940372	0.153663
499.159003	0.154147
499.377616	0.153247
499.596210	0.153657
499.814787	0.154884
500.033345	0.156136
500.251885	0.156753
500.470406	0.156663
500.688910	0.156941
500.907395	0.156098
501.125862	0.155917
501.344311	0.156144
501.562742	0.156014
501.781154	0.155423
501.999548	0.155588
502.217924	0.154637
502.436282	0.155226
502.654621	0.155200
502.872942	0.156365
503.091245	0.156211
503.309530	0.156330
503.527797	0.156464
503.746045	0.156708
503.964275	0.156389
504.182487	0.156510
504.400681	0.156857
504.618856	0.156459
504.837013	0.158051
505.055152	0.157925
505.273273	0.158600
505.491376	0.158407
505.709460	0.157851
505.927526	0.157966
506.145574	0.159343
506.363604	0.159311
506.581615	0.160355
506.799608	0.159478
507.017583	0.161280
507.235540	0.161690
507.453478	0.161327
507.671399	0.161708
507.889301	0.162879
508.107185	0.162001
508.325050	0.161455
508.542898	0.161132
508.760727	0.162321
508.978538	0.161312
509.196330	0.161131
509.414105	0.161657
509.631861	0.162377
509.849599	0.161793
510.067319	0.162468
510.285021	0.162881
510.502704	0.162930
510.720369	0.161339
510.938016	0.162025
511.155645	0.162270
511.373255	0.163118
511.590848	0.162736
511.808422	0.161894
512.025977	0.161907
512.243515	0.162607
512.461034	0.163106
512.678536	0.163603
512.896018	0.164238
513.113483	0.163774
513.330930	0.163483
513.548358	0.163206
513.765768	0.164532
513.983160	0.164923
514.200533	0.164409
514.417889	0.163473
514.635226	0.163832
514.852545	0.163650
515.069845	0.163862
515.287128	0.164140
515.504392	0.164888
515.721638	0.164950
515.938866	0.164880
516.156075	0.165455
516.373267	0.166665
516.590440	0.167126
516.807594	0.166923
517.024731	0.168083
517.241850	0.168972
517.458950	0.169363
517.676032	0.169268
517.893095	0.169483
518.110141	0.169552
518.327168	0.169319
518.544177	0.168883
518.761168	0.168559
518.978141	0.168837
519.195095	0.169222
519.412031	0.169582
519.628949	0.170246
519.845849	0.170580
520.062731	0.170771
520.279594	0.170960
520.496439	0.171164
520.713266	0.171500
520.930074	0.171875
521.146865	0.171619
521.363637	0.171700
521.580391	0.172035
521.797127	0.172628
522.013844	0.172730
522.230543	0.172876
522.447224	0.174330
522.663887	0.174758
522.880532	0.174744
523.097158	0.174985
523.313766	0.175006
523.530356	0.174915
523.746928	0.175353
523.963481	0.176173
524.180017	0.176586
524.396534	0.175934
524.613032	0.176557
524.829513	0.176697
525.045975	0.176468
525.262420	0.176698
525.478845	0.177112
525.695253	0.176740
525.911643	0.176607
526.128014	0.176410
526.344367	0.176666
526.560702	0.177228
526.777018	0.177658
526.993316	0.178124
527.209597	0.178639
527.425858	0.178840
527.642102	0.178752
527.858328	0.178965
528.074535	0.179929
528.290724	0.180218
528.506894	0.180920
528.723047	0.180744
528.939181	0.180626
529.155297	0.181592
529.371395	0.182091
529.587475	0.183161
529.803536	0.183634
530.019579	0.183580
530.235604	0.184587
530.451611	0.184099
530.667600	0.184622
530.883570	0.186036
531.099522	0.185132
531.315456	0.185866
531.531372	0.186033
531.747269	0.186370
531.963148	0.187342
532.179009	0.186923
532.394852	0.187036
532.610676	0.187608
532.826482	0.187676
533.042271	0.189277
533.258040	0.189230
533.473792	0.189430
533.689525	0.189796
533.905240	0.190168
534.120937	0.191014
534.336616	0.191561
534.552277	0.191655
534.767919	0.191679
534.983543	0.191062
535.199149	0.191219
535.414736	0.191697
535.630306	0.191840
535.845857	0.191627
536.061390	0.191539
536.276904	0.192249
536.492401	0.192575
536.707879	0.193079
536.923339	0.193972
537.138781	0.194446
537.354204	0.194734
537.569610	0.195536
537.784997	0.196338
538.000366	0.196792
538.215716	0.197702
538.431049	0.197815
538.646363	0.198338
538.861659	0.199059
539.076937	0.198910
539.292196	0.199156
539.507438	0.199357
539.722661	0.199852
539.937866	0.200963
540.153052	0.200365
540.368221	0.201067
540.583371	0.201079
540.798503	0.201275
541.013617	0.202193
541.228712	0.202702
541.443789	0.203167
541.658848	0.203326
541.873889	0.203386
542.088912	0.203776
542.303916	0.203667
542.518902	0.203855
542.733870	0.203630
542.948820	0.203295
543.163752	0.203626
543.378665	0.203725
543.593560	0.203710
543.808437	0.203817
544.023295	0.204308
544.238136	0.205405
544.452958	0.206323
544.667762	0.206374
544.882548	0.207377
545.097315	0.208222
545.312064	0.208288
545.526795	0.209098
545.741508	0.208836
545.956203	0.208961
546.170879	0.208687
546.385537	0.208462
546.600177	0.208946
546.814799	0.208862
547.029402	0.208682
547.243988	0.209171
547.458555	0.208836
547.673103	0.209542
547.887634	0.209955
548.102146	0.210186
548.316640	0.210422
548.531116	0.210536
548.745574	0.210933
548.960013	0.211012
549.174435	0.211345
549.388838	0.212096
549.603222	0.212517
549.817589	0.213235
550.031937	0.213666
550.246267	0.213808
550.460579	0.214340
550.674873	0.214538
550.889148	0.214881
551.103405	0.215080
551.317644	0.214947
551.531865	0.214964
551.746068	0.214886
551.960252	0.214775
552.174418	0.215599
552.388566	0.216298
552.602696	0.216822
552.816807	0.217097
553.030900	0.217047
553.244975	0.217499
553.459032	0.218031
553.673070	0.218338
553.887091	0.219062
554.101093	0.219295
554.315077	0.219037
554.529042	0.219156
554.742990	0.219237
554.956919	0.219583
555.170830	0.219346
555.384722	0.219450
555.598597	0.219720
555.812453	0.219679
556.026291	0.219557
556.240111	0.219868
556.453913	0.219966
556.667696	0.220541
556.881461	0.220764
557.095208	0.221728
557.308937	0.221654
557.522647	0.221529
557.736339	0.221973
557.950013	0.222406
558.163669	0.222515
558.377307	0.222492
558.590926	0.222670
558.804527	0.222866
559.018110	0.222772
559.231675	0.223429
559.445221	0.224125
559.658749	0.223889
559.872259	0.223664
560.085751	0.224406
560.299225	0.224593
560.512680	0.224366
560.726117	0.224752
560.939536	0.225269
561.152937	0.225173
561.366319	0.225386
561.579683	0.226032
561.793029	0.226649
562.006357	0.226048
562.219667	0.226727
562.432958	0.227403
562.646231	0.227590
562.859486	0.227455
563.072723	0.227939
563.285941	0.227794
563.499141	0.227601
563.712323	0.227642
563.925487	0.228389
564.138632	0.228582
564.351760	0.228650
564.564869	0.228746
564.777960	0.228924
564.991032	0.228798
565.204087	0.229024
565.417123	0.229556
565.630141	0.230348
565.843140	0.230274
566.056122	0.230456
566.269085	0.230577
566.482030	0.231068
566.694957	0.231230
566.907866	0.231809
567.120756	0.232127
567.333628	0.232386
567.546482	0.232527
567.759318	0.233096
567.972135	0.233168
568.184935	0.233452
568.397716	0.233546
568.610478	0.234054
568.823223	0.234047
569.035949	0.233995
569.248657	0.234110
569.461347	0.233504
569.674019	0.233417
569.886672	0.233936
570.099308	0.233808
570.311925	0.233886
570.524523	0.234139
570.737104	0.234417
570.949666	0.234683
571.162210	0.235245
571.374736	0.236026
571.587244	0.236318
571.799733	0.236257
572.012205	0.236914
572.224658	0.237299
572.437092	0.237392
572.649509	0.237371
572.861907	0.237271
573.074287	0.237406
573.286649	0.237500
573.498993	0.237976
573.711318	0.238366
573.923625	0.238099
574.135914	0.238593
574.348185	0.238979
574.560438	0.239187
574.772672	0.239843
574.984888	0.239870
575.197086	0.239904
575.409266	0.239462
575.621427	0.239431
575.833570	0.239551
576.045695	0.239444
576.257802	0.239219
576.469890	0.240003
576.681961	0.240740
576.894013	0.240816
577.106046	0.241341
577.318062	0.242273
577.530059	0.242352
577.742039	0.243205
577.954000	0.243539
578.165942	0.243458
578.377867	0.243369
578.589773	0.242987
578.801661	0.243428
579.013531	0.243570
579.225382	0.243494
579.437216	0.243261
579.649031	0.243303
579.860828	0.243435
580.072606	0.244102
580.284367	0.244604
580.496109	0.244775
580.707833	0.245174
580.919539	0.245291
581.131227	0.245878
581.342896	0.246946
581.554547	0.247059
581.766180	0.247248
581.977795	0.247377
582.189391	0.247684
582.400969	0.247848
582.612529	0.248037
582.824071	0.247978
583.035595	0.247845
583.247100	0.247985
583.458587	0.248250
583.670056	0.248424
583.881506	0.248966
584.092939	0.248674
584.304353	0.249231
584.515749	0.249402
584.727127	0.250308
584.938486	0.250619
585.149828	0.250679
585.361151	0.251274
585.572456	0.251464
585.783742	0.251627
585.995011	0.252116
586.206261	0.252173
586.417493	0.252090
586.628706	0.251952
586.839902	0.252007
587.051079	0.252329
587.262238	0.252374
587.473379	0.253033
587.684502	0.253145
587.895606	0.253014
588.106692	0.253048
588.317760	0.253123
588.528810	0.253607
588.739841	0.253819
588.950855	0.254358
589.161850	0.254080
589.372827	0.254000
589.583785	0.254405
589.794726	0.254775
590.005648	0.255164
590.216552	0.255904
590.427437	0.255772
590.638305	0.256184
590.849154	0.255946
591.059985	0.256354
591.270798	0.256504
591.481592	0.256680
591.692369	0.256874
591.903127	0.256944
592.113867	0.256950
592.324588	0.257261
592.535292	0.257422
592.745977	0.258140
592.956644	0.258683
593.167293	0.259258
593.377923	0.259555
593.588536	0.260344
593.799130	0.260703
594.009706	0.260995
594.220263	0.260781
594.430803	0.260873
594.641324	0.260712
594.851827	0.261026
595.062312	0.261136
595.272778	0.261157
595.483227	0.261027
595.693657	0.261178
595.904069	0.261441
596.114462	0.261950
596.324838	0.262404
596.535195	0.262553
596.745534	0.262705
596.955855	0.262924
597.166157	0.263336
597.376441	0.263331
597.586707	0.263520
597.796955	0.263481
598.007185	0.263520
598.217396	0.263456
598.427589	0.263654
598.637764	0.263823
598.847921	0.263726
599.058060	0.263835
599.268180	0.264055
599.478282	0.264269
599.688366	0.264668
599.898431	0.265129
600.108479	0.265490
600.318508	0.265730
600.528519	0.265820
600.738511	0.266426
600.948486	0.266558
601.158442	0.267038
601.368380	0.267440
601.578300	0.267271
601.788202	0.267564
601.998085	0.267746
602.207950	0.267803
602.417797	0.268017
602.627626	0.268315
602.837436	0.268574
603.047228	0.268813
603.257002	0.268987
603.466758	0.269223
603.676496	0.269604
603.886215	0.269800
604.095916	0.270171
604.305599	0.270422
604.515264	0.270106
604.724910	0.270313
604.934538	0.270212
605.144148	0.270323
605.353740	0.270878
605.563314	0.270933
605.772869	0.271122
605.982406	0.271060
606.191925	0.271086
606.401425	0.271384
606.610908	0.271588
606.820372	0.271767
607.029818	0.271924
607.239246	0.271949
607.448655	0.271940
607.658047	0.271941
607.867420	0.272338
608.076775	0.272326
608.286111	0.272362
608.495430	0.272644
608.704730	0.272790
608.914012	0.273202
609.123275	0.273319
609.332521	0.273422
609.541748	0.273745
609.750957	0.273964
609.960148	0.274436
610.169321	0.274765
610.378475	0.275134
610.587611	0.275133
610.796729	0.275369
611.005829	0.275610
611.214910	0.276126
611.423974	0.276248
611.633019	0.276403
611.842045	0.276250
612.051054	0.276450
612.260044	0.276095
612.469017	0.276779
612.677970	0.276497
612.886906	0.276711
613.095824	0.276903
613.304723	0.277036
613.513604	0.277081
613.722467	0.277616
613.931311	0.277960
614.140138	0.278021
614.348946	0.277830
614.557736	0.278295
614.766507	0.278382
614.975261	0.278285
615.183996	0.278649
615.392713	0.278984
615.601412	0.279135
615.810092	0.279127
616.018754	0.279527
616.227399	0.279841
616.436024	0.279912
616.644632	0.280351
616.853222	0.280426
617.061793	0.280636
617.270346	0.280642
617.478880	0.280841
617.687397	0.281101
617.895895	0.281187
618.104375	0.281364
618.312837	0.281569
618.521281	0.281696
618.729706	0.282338
618.938113	0.282737
619.146502	0.283221
619.354873	0.283308
619.563226	0.283340
619.771560	0.283580
619.979876	0.283686
620.188174	0.283896
620.396453	0.283889
620.604715	0.283886
620.812958	0.283725
621.021183	0.283537
621.229390	0.283960
621.437578	0.284178
621.645748	0.284541
621.853900	0.284715
622.062034	0.284996
622.270150	0.285284
622.478247	0.285316
622.686326	0.285490
622.894387	0.285989
623.102430	0.285941
623.310454	0.285884
623.518461	0.285990
623.726449	0.286362
623.934418	0.286537
624.142370	0.286681
624.350303	0.287187
624.558218	0.287381
624.766115	0.287441
624.973994	0.287926
625.181855	0.288361
625.389697	0.288544
625.597521	0.288555
625.805327	0.288662
626.013114	0.289022
626.220883	0.289015
626.428634	0.289238
626.636367	0.289538
626.844082	0.289579
627.051778	0.289823
627.259457	0.289840
627.467117	0.290298
627.674758	0.290460
627.882382	0.291052
628.089987	0.291586
628.297574	0.291998
628.505143	0.292143
628.712694	0.292309
628.920226	0.292789
629.127740	0.293292
629.335236	0.293565
629.542714	0.293940
629.750174	0.293469
629.957615	0.293273
630.165038	0.293329
630.372443	0.293514
630.579829	0.293699
630.787198	0.293676
630.994548	0.293665
631.201880	0.293523
631.409194	0.293543
631.616489	0.293648
631.823766	0.293697
632.031025	0.293841
632.238266	0.293918
632.445489	0.294081
632.652693	0.294156
632.859879	0.294275
633.067047	0.294570
633.274197	0.294615
633.481329	0.294884
633.688442	0.295186
633.895537	0.295372
634.102614	0.295545
634.309672	0.295779
634.516713	0.295973
634.723735	0.296396
634.930739	0.296366
635.137724	0.296735
635.344692	0.296970
635.551641	0.297049
635.758572	0.297019
635.965485	0.297312
636.172379	0.297286
636.379256	0.297482
636.586114	0.297409
636.792954	0.297730
636.999775	0.297752
637.206579	0.297800
637.413364	0.298016
637.620131	0.298357
637.826880	0.298463
638.033610	0.298704
638.240323	0.298955
638.447017	0.299500
638.653692	0.299771
638.860350	0.300009
639.066990	0.300442
639.273611	0.300859
639.480214	0.301066
639.686798	0.301324
639.893365	0.301569
640.099913	0.301775
640.306443	0.301827
640.512955	0.301849
640.719449	0.302037
640.925924	0.302151
641.132381	0.302551
641.338820	0.302932
641.545241	0.302937
641.751644	0.303196
641.958028	0.303381
642.164394	0.303602
642.370742	0.304045
642.577071	0.304398
642.783383	0.304554
642.989676	0.304651
643.195951	0.304682
643.402207	0.305107
643.608446	0.305300
643.814666	0.305379
644.020868	0.305587
644.227052	0.305624
644.433218	0.305425
644.639365	0.305537
644.845494	0.305360
645.051605	0.305484
645.257698	0.305741
645.463772	0.305850
645.669828	0.306054
645.875866	0.306198
646.081886	0.306254
646.287888	0.306966
646.493871	0.307345
646.699836	0.307527
646.905783	0.307834
647.111712	0.308076
647.317622	0.308191
647.523514	0.308305
647.729388	0.308423
647.935244	0.308759
648.141082	0.308779
648.346901	0.309061
648.552702	0.309541
648.758485	0.309553
648.964250	0.309740
649.169996	0.310083
649.375724	0.310326
649.581434	0.310639
649.787126	0.310917
649.992800	0.311024
650.198455	0.310840
650.404092	0.311238
650.609711	0.311698
650.815311	0.311676
651.020894	0.311813
651.226458	0.312284
651.432004	0.312322
651.637532	0.312735
651.843041	0.312999
652.048532	0.313365
652.254006	0.312949
652.459460	0.313416
652.664897	0.313501
652.870315	0.313748
653.075716	0.313819
653.281097	0.314115
653.486461	0.314289
653.691807	0.314437
653.897134	0.315005
654.102443	0.315471
654.307734	0.315301
654.513006	0.315797
654.718261	0.315990
654.923497	0.315891
655.128715	0.316329
655.333915	0.316367
655.539096	0.317046
655.744259	0.316968
655.949404	0.317350
656.154531	0.317722
656.359640	0.317777
656.564730	0.317928
656.769802	0.318610
656.974856	0.318649
657.179892	0.318820
657.384909	0.318602
657.589908	0.318916
657.794889	0.319202
657.999852	0.319326
658.204797	0.319742
658.409723	0.320274
658.614631	0.320237
658.819521	0.320510
659.024393	0.320713
659.229246	0.321125
659.434081	0.321068
659.638898	0.321147
659.843697	0.321447
660.048478	0.321547
660.253240	0.321509
660.457984	0.322014
660.662710	0.322191
660.867417	0.322662
661.072107	0.322560
661.276778	0.323204
661.481431	0.323213
661.686066	0.323390
661.890682	0.323864
662.095281	0.324017
662.299861	0.324073
662.504422	0.324316
662.708966	0.324230
662.913491	0.324776
663.117999	0.325154
663.322488	0.325672
663.526958	0.325962
663.731411	0.326020
663.935845	0.326390
664.140261	0.326660
664.344659	0.327025
664.549038	0.327616
664.753400	0.327880
664.957743	0.327815
665.162068	0.328266
665.366375	0.328715
665.570663	0.328984
665.774933	0.329490
665.979185	0.329876
666.183419	0.330164
666.387635	0.330556
666.591832	0.330874
666.796011	0.331053
667.000172	0.331288
667.204315	0.331462
667.408439	0.331977
667.612545	0.332039
667.816634	0.332391
668.020703	0.332549
668.224755	0.332762
668.428788	0.333242
668.632803	0.333775
668.836800	0.333804
669.040779	0.334118
669.244739	0.334103
669.448681	0.334451
669.652605	0.334417
669.856511	0.334659
670.060399	0.334782
670.264268	0.334683
670.468119	0.335146
670.671952	0.335370
670.875767	0.335442
671.079563	0.335734
671.283341	0.335835
671.487101	0.336330
671.690843	0.336543
671.894567	0.336589
672.098272	0.336963
672.301959	0.336764
672.505628	0.337043
672.709278	0.337134
672.912911	0.337233
673.116525	0.337543
673.320121	0.337831
673.523699	0.338051
673.727258	0.338290
673.930799	0.338370
674.134322	0.338598
674.337827	0.338765
674.541314	0.338950
674.744782	0.339288
674.948232	0.339631
675.151664	0.339834
675.355078	0.339999
675.558474	0.340235
675.761851	0.340436
675.965210	0.340866
676.168551	0.341142
676.371873	0.341602
676.575178	0.341748
676.778464	0.341902
676.981732	0.342070
677.184981	0.342723
677.388213	0.343024
677.591426	0.343567
677.794621	0.343655
677.997798	0.343951
678.200956	0.343932
678.404097	0.344395
678.607219	0.344620
678.810323	0.344741
679.013408	0.344718
679.216476	0.344961
679.419525	0.345159
679.622556	0.345487
679.825569	0.345712
680.028563	0.346354
680.231540	0.346599
680.434498	0.346560
680.637438	0.346867
680.840359	0.347074
681.043263	0.347261
681.246148	0.347330
681.449015	0.347422
681.651864	0.347287
681.854694	0.347140
682.057506	0.347211
682.260301	0.347926
682.463076	0.348019
682.665834	0.348329
682.868573	0.348839
683.071295	0.349284
683.273998	0.349684
683.476682	0.350172
683.679349	0.350602
683.881997	0.351066
684.084627	0.351389
684.287239	0.351661
684.489833	0.351973
684.692408	0.352157
684.894965	0.352134
685.097504	0.352429
685.300025	0.352996
685.502527	0.353169
685.705012	0.353316
685.907478	0.353319
686.109925	0.353569
686.312355	0.353804
686.514766	0.353658
686.717159	0.353984
686.919534	0.354144
687.121891	0.354247
687.324230	0.354592
687.526550	0.354593
687.728852	0.354795
687.931136	0.355065
688.133401	0.355047
688.335649	0.355538
688.537878	0.355833
688.740089	0.356018
688.942281	0.356112
689.144456	0.356075
689.346612	0.356543
689.548750	0.356718
689.750870	0.357056
689.952971	0.357290
690.155055	0.357748
690.357120	0.357702
690.559167	0.357981
690.761195	0.358129
690.963206	0.358433
691.165198	0.358387
691.367172	0.358511
691.569128	0.358387
691.771065	0.358735
691.972984	0.358569
692.174885	0.358767
692.376768	0.358707
692.578633	0.359143
692.780479	0.359153
692.982308	0.359459
693.184118	0.359917
693.385909	0.360186
