sample name	sample
index	1229
start time	 04-29-2021  11:03:14 AM
880	0.219706
Peak Time (s)	90.537
Peak Height 	0.2197
calc peak height	90,93
Baseline Time (s)	10.037
Baseline Value 	-0.002526
subtract baseline	10,4
Abs	0.141117
Peak Time (s)	91.537
Peak Height 	0.1411
calc peak height	90,93
Baseline Time (s)	11.537
Baseline Value 	0.002573
subtract baseline	10,3
PK_550	0.087565
Peak Time (s)	91.039
Peak Height 	0.08757
calc peak height	90,93
Baseline Time (s)	11.037
Baseline Value 	6.893E-4
subtract baseline	10,2
PK_880	0.134338
Peak Time (s)	91.537
Peak Height 	0.1343
calc peak height	90,93
Baseline Time (s)	10.537
Baseline Value 	6.1569E-4
subtract baseline	10,1


Time (s)	A880-A510	A880-A775	A880-A975	A880	I510	I775	I975	I880	
0.038000	-0.002155	-0.000899	-0.003045	0.000705	6193.673334	44267.133852	3871.277717	22829.785256
0.536500	-0.003141	-0.001307	-0.004329	0.004993	6153.646904	43822.101987	3858.336508	22633.674719
1.037000	0.000252	-0.000164	-0.005386	0.003295	6192.268207	44090.779075	3859.817891	22711.087068
1.539500	-0.001602	-0.000798	-0.002299	-0.000491	6207.049042	44390.840868	3875.826989	22884.810363
2.037500	0.001442	0.000034	0.000615	0.000083	6226.038884	44415.531244	3881.336239	22858.401616
2.537500	-0.002379	-0.001505	-0.001048	0.004091	6166.222541	43888.500755	3868.035521	22674.764286
3.038000	0.002116	-0.000316	0.003646	-0.001992	6247.299785	44580.781308	3893.459708	22954.122416
3.535500	0.003166	-0.000374	-0.001452	0.000651	6234.957900	44322.313063	3875.133894	22832.252800
4.036000	0.001355	-0.000977	-0.002162	-0.000256	6227.983699	44351.368393	3875.596119	22873.998454
4.536000	-0.001545	0.000116	-0.003129	0.004387	6170.297602	44013.786646	3862.512225	22661.271080
5.039000	0.000961	0.000738	0.006200	0.000776	6216.993629	44416.584236	3892.948287	22826.502404
5.539500	-0.001879	0.000275	-0.003891	0.001104	6192.726322	44340.949873	3868.371585	22811.437694
6.037000	-0.001223	-0.000705	0.000657	0.000199	6204.670469	44333.901306	3881.161330	22853.073344
6.537000	-0.000151	-0.000130	-0.001811	0.000233	6212.622809	44385.482761	3875.271914	22851.464515
7.037500	0.000479	0.000127	0.000518	0.000299	6216.961316	44403.763392	3880.597614	22848.464782
7.537500	0.000359	0.000609	0.002866	0.000341	6215.713703	44445.822892	3886.049008	22846.496335
8.035000	0.000222	-0.000489	-0.005223	-0.000394	6220.319905	44411.149297	3868.760858	22880.376206
8.535500	0.000898	0.001289	0.008972	0.000322	6220.007594	44512.834445	3900.680092	22847.412079
9.036000	0.001015	-0.000276	-0.001900	-0.000226	6225.130904	44415.468878	3876.142397	22872.614623
9.536500	-0.000992	0.000077	0.001876	-0.000105	6208.769098	44437.617969	3884.761607	22867.051302
10.036500	-0.000507	-0.000499	0.005678	0.000000	6211.685185	44372.482454	3893.555279	22862.209372
10.537000	0.000000	0.000589	-0.002244	0.000472	6211.949965	44431.415904	3873.696527	22840.484724
11.037500	-0.001659	0.000000	-0.003083	-0.000298	6205.135699	44448.723120	3873.536577	22875.932937
11.537000	0.001320	-0.000031	0.000000	0.000126	6224.758760	44405.164745	3879.782576	22856.389557
12.035000	-0.001260	-0.000924	-0.002780	-0.000333	6208.460641	44363.788563	3874.329908	22877.563250
12.535000	0.001275	0.000155	-0.004348	0.000470	6221.773057	44390.125782	3868.784974	22840.591506
13.038500	0.000435	-0.000506	0.003326	-0.001275	6228.743305	44493.803773	3890.984540	22920.965714
13.535500	-0.001252	-0.000526	0.002382	-0.001121	6214.572763	44477.130215	3888.372936	22913.878479
14.036000	-0.000658	-0.001023	-0.002217	0.001638	6197.978638	44166.624506	3871.034056	22786.969363
14.539000	-0.002125	-0.000000	-0.003550	0.003060	6175.969050	44128.618019	3864.614060	22721.838243
15.041500	-0.000582	-0.000550	-0.002485	-0.000524	6215.130140	44417.661325	3875.467635	22886.323148
15.537000	0.000874	-0.000362	0.001254	-0.000731	6227.932808	44455.469379	3884.769801	22895.868150
16.037000	-0.000129	0.000198	-0.000493	-0.001139	6223.349532	44548.269728	3881.605290	22914.728282
16.537500	-0.000883	0.000455	-0.000203	0.001830	6194.795251	44288.991712	3875.299112	22778.155949
17.035000	0.000764	-0.000252	0.002498	-0.003105	6245.441187	44693.901201	3893.375257	23005.638374
17.535000	0.003448	0.000341	-0.000638	0.000763	6236.275969	44379.893830	3876.782457	22827.113491
18.035500	0.000193	0.000334	0.001257	0.000885	6210.260393	44367.525662	3880.957571	22821.501649
18.535500	-0.001527	-0.000083	-0.000565	0.000846	6197.390480	44331.548877	3876.760888	22823.317168
19.039000	-0.000673	-0.000201	0.002025	0.000558	6206.125400	44347.719312	3883.544008	22836.524306
19.536500	-0.003013	-0.001220	-0.007406	-0.000048	6192.865308	44308.303838	3862.880892	22864.418045
20.037000	0.000304	-0.000099	-0.002589	0.000217	6216.247067	44390.033185	3873.487518	22852.223146
20.537000	-0.001012	0.000444	0.000322	0.001734	6194.542428	44297.084318	3876.758185	22782.568927
21.037000	-0.000035	-0.000071	-0.000186	0.000338	6212.715450	44381.145218	3878.845975	22846.663736
21.535000	0.000425	0.000773	0.001222	0.000904	6211.893096	44407.668382	3880.830515	22820.616348
22.035000	0.000791	0.000116	0.000766	0.000356	6218.917989	44397.276633	3881.048029	22845.826231
22.535500	-0.000291	-0.000307	-0.000583	0.000735	6207.705976	44320.698391	3876.979383	22828.417639
23.036000	-0.000201	0.000214	0.000518	0.000547	6209.836469	44388.407343	3880.012328	22837.053158
23.535000	-0.000688	0.000075	0.001311	0.000334	6207.728358	44395.458181	3882.386141	22846.836881
24.035500	-0.001701	-0.000178	-0.002881	0.000183	6201.133763	44385.725195	3872.882694	22853.798231
24.536500	0.000397	0.000120	0.002736	0.001209	6209.340210	44316.247578	3883.685867	22806.632707
25.037000	0.000408	0.000167	-0.001657	0.000609	6214.033470	44378.012627	3874.751318	22834.197388
25.537000	-0.000981	-0.000341	-0.002001	0.000247	6206.154205	44364.081552	3874.795798	22850.862089
26.038000	0.000764	-0.000786	-0.005813	0.000062	6220.971800	44339.225209	3866.322424	22859.346933
26.535000	-0.000558	-0.000338	0.001389	0.000877	6204.563352	44304.174908	3881.288385	22821.867729
27.035000	-0.000028	0.000582	-0.000398	-0.001246	6224.954072	44595.426921	3882.081182	22919.658380
27.536000	0.003156	0.000024	-0.002217	-0.001636	6252.607587	44579.266026	3878.711484	22937.663471
28.035500	-0.000112	-0.000236	-0.001953	-0.001285	6224.601641	44520.626097	3878.508172	22921.459487
28.538500	0.001474	-0.000146	0.000473	-0.001094	6235.373375	44510.983492	3883.781731	22912.636119
29.036000	0.000539	0.000445	-0.004028	-0.000542	6223.900387	44514.743517	3871.896966	22887.190792
29.536000	0.000186	0.000180	0.003766	-0.000777	6222.984651	44511.817195	3890.848172	22898.017501
30.037000	0.001220	0.000420	0.000139	-0.000607	6229.640513	44518.452821	3881.838950	22890.153344
30.537000	-0.001518	-0.000323	-0.002966	0.002262	6186.651849	44173.790335	3867.830177	22758.361330
31.037500	-0.000116	0.000644	-0.004626	0.001777	6201.056389	44312.045680	3865.096786	22780.571090
31.535000	0.001396	0.000188	-0.002486	-0.000757	6232.160986	44510.640167	3876.011366	22897.083258
32.035000	0.001301	0.000078	-0.001481	-0.000995	6233.270156	44522.929745	3878.935383	22908.052822
32.535500	-0.002640	-0.000234	-0.001015	0.003842	6166.136076	44032.275213	3868.694584	22686.136330
33.035500	0.002489	-0.000129	-0.000037	-0.000954	6242.135021	44499.111068	3882.244214	22906.153893
33.537000	0.000351	-0.000044	0.003241	-0.002487	6237.459301	44654.535878	3893.675861	22977.034020
34.036000	-0.001326	-0.000288	-0.000552	0.001464	6194.209465	44253.083831	3875.340735	22794.949720
34.537000	-0.001663	-0.000936	0.004837	0.001041	6194.856617	44231.540035	3889.069336	22814.333678
35.037000	-0.001257	-0.000503	-0.001318	0.000639	6201.036033	44311.225563	3875.477326	22832.825355
35.534500	-0.001499	0.000168	0.002035	0.001356	6193.706091	44306.755340	3881.681858	22799.882193
36.035000	0.000029	0.000203	0.001950	0.001253	6206.179897	44319.967850	3881.725357	22804.609666
36.535000	-0.002109	-0.000078	-0.000209	0.001517	6187.825893	44267.967006	3876.019336	22792.489126
37.035500	-0.001500	-0.000613	-0.004015	0.000363	6201.284211	44327.011327	3869.811431	22845.492970
37.536000	-0.001893	0.000215	-0.000063	0.001247	6191.529254	44321.605209	3876.995908	22804.865771
38.038000	-0.001513	-0.000280	-0.001135	0.001021	6196.162037	44295.976247	3875.010231	22815.259229
38.536500	-0.001475	-0.000112	0.001210	0.001666	6191.521003	44250.525298	3879.005477	22785.663260
39.036500	-0.000093	0.000259	0.002803	0.001443	6203.797224	44307.142886	3883.291637	22795.909770
39.537000	-0.000920	-0.000747	0.003836	0.000975	6201.044679	44255.872712	3886.847813	22817.367070
40.037500	-0.000853	-0.000033	0.000854	0.001068	6200.845119	44315.079429	3879.577233	22813.105005
40.537500	-0.000780	0.001015	0.001378	0.002694	6188.988770	44259.996514	3876.984564	22738.599500
41.035000	-0.001476	0.000301	-0.001415	0.001809	6190.433671	44276.309718	3872.508089	22779.129656
41.535000	-0.000336	0.000020	-0.000499	0.001222	6203.624542	44305.403518	3876.030680	22806.031457
42.035500	-0.000860	0.000973	0.000251	0.002076	6193.086015	44314.855105	3875.786795	22766.850352
42.539000	-0.002829	-0.000193	0.000149	0.002306	6176.345444	44181.913592	3875.006994	22756.335158
43.036500	-0.000469	-0.000276	-0.002930	0.000692	6206.669091	44327.823973	3871.578700	22830.391891
43.537000	0.000797	0.000503	-0.000369	0.000686	6216.428791	44402.710803	3877.596289	22830.640419
44.036500	0.000676	0.000060	0.003352	-0.001301	6230.803439	44550.531609	3891.109787	22922.178203
44.536000	-0.001847	0.000353	0.005081	-0.000563	6205.721486	44507.820963	3893.471275	22888.119863
45.037000	0.002453	0.000527	0.004568	-0.001251	6244.167141	44590.617804	3893.890964	22919.889701
45.537000	0.001778	0.000211	0.003478	-0.001623	6241.819301	44595.992391	3892.177867	22937.056593
46.037500	0.001453	0.000452	-0.000814	-0.000943	6234.039298	44553.791038	3880.383560	22905.647755
46.535500	-0.003438	0.000065	0.002242	0.002516	6170.130849	44186.551303	3879.434410	22746.729514
47.036000	-0.000832	-0.000196	-0.000184	-0.000099	6209.944920	44410.931107	3879.879868	22866.753199
47.538000	0.000638	0.001172	0.003766	0.002721	6199.609166	44272.456968	3882.548880	22737.366526
48.036500	0.001583	-0.000133	0.002441	-0.000834	6234.201012	44487.342575	3887.831304	22900.639783
48.536500	-0.001788	0.000425	-0.001091	0.003104	6178.185365	44164.807720	3870.237283	22719.811979
49.037000	0.001929	-0.000055	0.000137	-0.001203	6239.731300	44530.111449	3883.245143	22917.670953
49.537500	0.003356	-0.000344	0.004931	-0.003403	6267.931174	44713.791358	3899.919381	23019.490479
50.034500	0.000769	-0.001119	0.001152	-0.001505	6233.094114	44457.097363	3886.362608	22931.602583
50.535000	0.001859	-0.001005	0.003623	0.007924	6169.296933	43575.149804	3869.992571	22500.771888
51.035500	0.027891	-0.022127	0.009936	0.431598	4195.412031	17501.497660	3243.985383	10270.695693
51.536000	0.002768	-0.027975	0.003645	-0.074680	6867.136227	49135.068396	4082.434296	26613.206840
52.039000	-0.009713	-0.039632	-0.011397	-0.169610	7701.125699	58908.897131	4330.078782	32413.957786
52.536000	-0.000330	-0.023425	0.003352	-0.111681	7191.026318	53777.937767	4190.585536	28724.743101
53.036000	0.008596	-0.014818	0.013514	-0.084464	7013.149517	51643.451876	4139.199731	27154.198569
53.537000	0.014482	-0.014218	0.019056	-0.037546	6640.349505	46711.831309	4022.610060	24667.470487
54.037000	0.011513	-0.008491	0.019318	-0.006524	6357.111009	44232.551993	3942.855550	23164.811405
54.534500	0.010580	-0.001660	0.013985	-0.005405	6340.707600	44779.876665	3926.830287	23112.572813
55.037500	0.018780	0.002504	0.020712	-0.000572	6367.662282	44715.393432	3931.508267	22888.544484
55.535500	0.029218	0.008614	0.028966	-0.026219	6669.998727	47888.197677	4018.809397	24106.320045
56.035000	0.042041	0.017055	0.040579	-0.011170	6650.613568	47208.678403	4009.648780	23383.061277
56.535500	0.049821	0.021776	0.047417	0.007391	6558.117487	45818.775029	3978.930533	22524.867287
57.036000	0.059555	0.027578	0.062434	0.024769	6493.908980	44689.748339	3972.843434	21753.938575
57.536000	0.068890	0.032938	0.066986	0.048451	6376.407183	42963.049862	3924.723425	20751.767385
58.036500	0.075755	0.037205	0.071854	0.066843	6284.775355	41680.783613	3891.961938	20010.306169
58.537000	0.080894	0.041549	0.076858	0.087526	6164.991332	40248.559279	3855.235258	19213.148744
59.037000	0.086909	0.044379	0.083981	0.110360	6040.136174	38566.951764	3819.741877	18376.092741
59.537500	0.092606	0.049244	0.096389	0.126403	5965.693250	37660.505104	3811.711705	17813.766715
60.034500	0.090781	0.049389	0.095651	0.143457	5834.341769	36332.823886	3773.356379	17238.315884
60.535000	0.095694	0.051689	0.094853	0.153319	5800.842740	35755.651655	3751.117738	16915.718897
61.035500	0.102533	0.059760	0.105185	0.214604	5456.459802	31965.919730	3652.051151	15067.221514
61.538500	0.100815	0.055853	0.109043	0.202018	5521.797785	32552.786532	3682.762496	15425.862732
62.036000	0.102334	0.062548	0.106469	0.204725	5514.577333	32826.395345	3672.772037	15347.850431
62.536500	0.101618	0.065266	0.099994	0.176689	5685.757510	35022.877989	3714.332153	16179.888655
63.036500	0.100633	0.068467	0.105666	0.170101	5722.221689	35755.362969	3738.904035	16383.343555
63.536500	0.102506	0.069637	0.101962	0.163812	5776.182438	36324.673199	3744.174358	16580.455592
64.041000	0.105541	0.072919	0.103740	0.162490	5805.401510	36680.930574	3750.533055	16622.242276
64.534500	0.103713	0.073779	0.107425	0.163097	5789.033033	36700.552938	3756.893853	16603.021145
65.035000	0.108703	0.075019	0.106083	0.157130	5863.407576	37266.286653	3766.537041	16793.006484
65.535000	0.107140	0.074886	0.109639	0.155170	5866.138134	37411.204631	3778.173584	16855.990262
66.035000	0.106992	0.076379	0.106617	0.156094	5858.773853	37456.462512	3769.834614	16826.253486
66.536000	0.104620	0.075092	0.108869	0.159632	5818.484522	37074.562827	3767.133602	16713.028227
67.036500	0.109020	0.077378	0.109178	0.157779	5861.134787	37401.993188	3771.681221	16772.237250
67.536000	0.110498	0.077595	0.111766	0.158350	5867.363562	37373.797398	3775.942370	16753.965254
68.036500	0.108559	0.078396	0.112343	0.160879	5836.768614	37236.941191	3771.816005	16673.352722
68.536500	0.108837	0.079216	0.112387	0.167207	5795.842506	36804.081202	3758.664427	16473.699926
69.037000	0.110300	0.079142	0.111253	0.165715	5815.755347	36914.933756	3759.406289	16520.483454
69.537500	0.113256	0.080754	0.117092	0.170737	5801.817470	36648.901205	3761.109918	16363.571498
70.035000	0.113337	0.080642	0.118314	0.173381	5784.614929	36435.421107	3758.151043	16281.678974
70.538000	0.107940	0.079667	0.105370	0.180252	5703.654240	35834.810659	3717.924237	16071.162289
71.038500	0.113089	0.080917	0.121548	0.180522	5735.581685	35909.231976	3750.072707	16062.955058
71.536000	0.115326	0.081639	0.117958	0.184810	5722.110866	35639.231153	3734.004411	15933.316787
72.041500	0.113619	0.081982	0.118994	0.188684	5685.801434	35374.047156	3728.287425	15817.322549
72.536500	0.115308	0.082396	0.115429	0.195728	5651.388151	34881.975084	3707.241664	15609.027163
73.036500	0.118339	0.082269	0.119384	0.194780	5676.916757	34942.507843	3716.902961	15636.846871
73.537000	0.119407	0.082758	0.122242	0.197926	5663.554142	34747.016009	3716.332858	15544.712466
74.034500	0.121036	0.082352	0.121860	0.201567	5650.676521	34451.550435	3708.401183	15438.888546
74.534500	0.120961	0.082375	0.123523	0.203318	5639.048341	34326.262950	3708.229666	15388.317898
75.035000	0.123506	0.083625	0.120924	0.206084	5637.639805	34216.705071	3697.768117	15308.849062
75.536000	0.124433	0.083075	0.128790	0.207828	5632.457105	34051.761179	3709.717056	15259.017553
76.035500	0.122272	0.083887	0.131777	0.211887	5593.288653	33819.600143	3707.611399	15143.753306
76.536000	0.124093	0.083935	0.127388	0.216815	5573.937438	33474.099834	3689.541777	15005.286405
77.036500	0.126107	0.083695	0.132544	0.213382	5607.958616	33699.709291	3706.185754	15101.570343
77.536000	0.127138	0.084395	0.130776	0.215645	5600.224118	33589.051599	3698.334244	15038.019120
78.039500	0.126394	0.083836	0.128522	0.218101	5580.236917	33376.632715	3689.249659	14969.383097
78.540000	0.122228	0.084353	0.129214	0.222395	5528.108332	33112.697030	3682.368197	14850.344248
79.040000	0.128635	0.086073	0.135456	0.219973	5582.537276	33402.323659	3699.017200	14917.356396
79.535500	0.128992	0.084865	0.133698	0.220319	5582.606645	33293.346942	3694.943218	14907.758359
80.037500	0.127235	0.086375	0.134341	0.223758	5550.436357	33158.636526	3689.560265	14812.815566
80.538500	0.128602	0.085258	0.132451	0.221472	5573.011820	33240.133785	3690.320460	14875.834241
81.038000	0.130269	0.085303	0.130631	0.221820	5581.210362	33218.987753	3686.167121	14866.226788
81.536000	0.128660	0.084577	0.129116	0.221039	5576.062397	33222.814062	3684.765524	14887.808948
82.036500	0.127349	0.084444	0.129871	0.223665	5551.712923	33030.740539	3681.203944	14815.368750
82.537000	0.131822	0.086360	0.136789	0.222928	5583.978965	33215.474080	3695.874861	14835.658433
83.037000	0.132683	0.085868	0.139614	0.221860	5596.028105	33255.708866	3703.433788	14865.113205
83.537000	0.130806	0.085416	0.136264	0.221557	5586.191920	33245.263888	3697.511615	14873.493696
84.040500	0.128268	0.084869	0.135549	0.224211	5554.010317	33022.426502	3691.010095	14800.366218
84.535000	0.130687	0.085533	0.134632	0.221125	5588.147012	33283.710325	3695.190476	14885.442023
85.041000	0.130304	0.086645	0.133398	0.220917	5587.057556	33376.223910	3693.210428	14891.208389
85.536000	0.128319	0.086087	0.132019	0.219627	5582.719741	33427.567767	3693.038600	14926.948299
86.036000	0.129060	0.086770	0.136107	0.223936	5560.594438	33173.696601	3692.613574	14807.917721
86.536500	0.128652	0.086226	0.133679	0.224161	5556.685489	33120.181171	3687.519658	14801.739068
87.039000	0.131951	0.088128	0.140998	0.220139	5602.229804	33535.346599	3709.515930	14912.763505
87.537000	0.132041	0.086309	0.140906	0.218626	5612.300038	33513.777609	3712.311464	14954.788010
88.040000	0.128269	0.086012	0.133979	0.222186	5566.526664	33242.959764	3691.886517	14856.124453
88.537500	0.131096	0.086613	0.141045	0.218324	5608.252794	33556.503984	3713.181344	14963.192926
89.037000	0.132969	0.086954	0.139667	0.217789	5623.431663	33618.372214	3711.518511	14978.076250
89.535500	0.132970	0.086928	0.137858	0.216881	5629.181077	33680.860059	3709.744408	15003.422548
90.041500	0.132805	0.086576	0.133795	0.216314	5631.731789	33696.134534	3702.901935	15019.284093
90.537000	0.130440	0.086446	0.137938	0.219706	5595.467665	33447.274122	3704.368066	14924.758636
91.039000	0.131089	0.087565	0.139231	0.215808	5624.072194	33802.352656	3714.567087	15033.448249
91.536500	0.134338	0.086897	0.141117	0.214344	5654.031553	33859.016918	3721.212274	15074.507372
92.036500	0.132127	0.087366	0.134049	0.214091	5641.548853	33910.581417	3707.745046	15081.630495
92.540000	0.127628	0.087207	0.138413	0.217522	5591.545622	33655.249133	3709.577607	14985.544578
93.040500	0.133422	0.088299	0.140705	0.213498	5653.586185	34019.672686	3722.077489	15098.305271
93.534500	0.133041	0.087131	0.135958	0.211800	5662.012599	34057.694151	3716.018948	15146.201480
94.038000	0.133886	0.087474	0.142660	0.211186	5671.389878	34126.542393	3730.628636	15163.596026
94.538000	0.129701	0.087689	0.132728	0.215152	5619.448749	33857.898080	3703.088412	15051.829799
95.035500	0.131651	0.087064	0.138510	0.209463	5668.100856	34221.059002	3725.755830	15212.464414
95.536000	0.132964	0.088416	0.138292	0.209424	5676.793236	34321.521455	3725.394668	15213.550745
96.039000	0.132304	0.087876	0.136580	0.208278	5679.925929	34365.380235	3724.262949	15246.162052
