sample name	sample
index	918
start time	 04-12-2021  11:21:27 AM
880	0.487330
Peak Time (s)	102.536
Peak Height 	0.4873
calc peak height	100,103
Baseline Time (s)	10.037
Baseline Value 	-0.004239
subtract baseline	10,4
Abs	0.395300
Peak Time (s)	102.035
Peak Height 	0.3953
calc peak height	100,103
Baseline Time (s)	10.037
Baseline Value 	0.003795
subtract baseline	10,3
PK_550	0.227018
Peak Time (s)	102.035
Peak Height 	0.227
calc peak height	100,103
Baseline Time (s)	9.034
Baseline Value 	1.5729E-4
subtract baseline	10,2
PK_880	0.386731
Peak Time (s)	101.035
Peak Height 	0.3867
calc peak height	100,103
Baseline Time (s)	10.539
Baseline Value 	0.002402
subtract baseline	10,1


Time (s)	A880-A510	A880-A775	A880-A975	A880	I510	I775	I975	I880	
0.034500	0.000104	0.000207	-0.003656	0.000486	7184.709596	43667.307778	3899.081209	23366.888187
0.535000	-0.000409	-0.000189	-0.001051	0.004169	7142.847346	43285.884884	3896.374326	23193.444193
1.036000	-0.006020	-0.001095	-0.006174	0.005239	7077.036524	43102.369186	3880.949532	23143.325027
1.535500	0.001045	0.000216	-0.002252	0.000428	7194.721922	43673.539249	3902.761495	23369.604892
2.035000	-0.000691	-0.000199	-0.000935	-0.000789	7189.516347	43749.030680	3909.174210	23427.240280
2.535500	-0.000652	0.000083	-0.003057	-0.000713	7189.150428	43768.466274	3903.611098	23423.662882
3.036000	-0.002751	-0.000675	-0.010399	0.002831	7132.898658	43365.274383	3876.466154	23256.287676
3.539000	-0.001200	0.000530	-0.000416	0.000864	7167.878113	43662.190914	3906.300543	23349.019061
4.036500	-0.001109	-0.000469	0.004178	-0.000050	7177.927495	43654.194695	3920.332451	23392.256146
4.537500	-0.000898	0.000211	0.002375	0.000515	7174.384366	43664.979685	3914.278041	23365.497832
5.034000	-0.001224	-0.000857	-0.001136	-0.000427	7180.554543	43653.181987	3907.748273	23410.116580
5.535000	0.000154	0.000194	-0.002981	0.000527	7184.791614	43662.182161	3900.676116	23364.918601
6.037500	0.000771	0.000391	0.002984	0.000843	7187.819413	43651.077248	3914.994873	23350.015275
6.536000	-0.000856	-0.000246	-0.005463	0.000299	7176.965019	43642.340673	3895.014800	23375.708704
7.036000	-0.002006	0.000068	-0.000072	0.000037	7168.089729	43696.377848	3909.267749	23388.113471
7.536000	0.001078	0.000176	0.002478	0.000098	7198.374838	43700.811449	3915.603536	23385.228440
8.036500	-0.001532	-0.000255	0.002404	-0.000459	7177.788262	43712.716960	3916.839536	23411.625936
8.536500	-0.000400	-0.000347	0.001293	-0.000252	7187.046171	43684.588096	3913.474639	23401.806867
9.034500	0.001095	0.000000	-0.000612	0.000092	7198.609281	43684.869733	3907.761045	23385.514087
9.537500	0.000840	-0.000192	0.000630	-0.000117	7198.139950	43686.475231	3911.443742	23395.402040
10.037500	-0.001954	0.000120	0.000000	0.000000	7168.976808	43704.817752	3909.545821	23389.871173
10.538500	0.000000	-0.000406	-0.000034	-0.000159	7190.133162	43670.324810	3909.864379	23397.415908
11.035000	0.000125	0.000838	-0.003894	0.000650	7183.267363	43711.186096	3898.069693	23359.105973
11.536000	-0.000447	0.000394	0.001139	0.000123	7182.824515	43719.002137	3912.128953	23384.046722
12.036000	0.000927	0.001205	-0.000573	0.000786	7189.951684	43733.009000	3906.102791	23352.715010
12.536500	0.001545	-0.000349	-0.002085	-0.000376	7207.848513	43696.080281	3905.215025	23407.671025
13.036500	0.001251	-0.000443	-0.000294	-0.002285	7224.147768	43867.013009	3914.610284	23498.318995
13.536500	-0.000965	-0.000774	0.003097	-0.001154	7190.434504	43729.312642	3920.390306	23444.583235
14.034000	0.000172	0.000405	0.003663	-0.000640	7196.684278	43791.863494	3920.524040	23420.196085
14.538000	-0.001937	-0.000526	-0.002044	0.002208	7147.149538	43437.326005	3898.803740	23285.619329
15.035000	0.001221	0.000147	0.002919	0.000247	7198.315152	43684.042017	3916.347876	23378.162500
15.546000	-0.003287	-0.000776	0.000701	-0.000330	7158.973376	43651.645592	3912.167495	23405.519176
16.038500	0.003170	0.001010	0.001199	-0.000983	7230.389291	43881.227991	3915.099017	23436.441580
16.536000	-0.000048	-0.000110	-0.002439	-0.002287	7211.046920	43898.619125	3909.158132	23498.405177
17.036500	-0.002219	-0.000188	-0.003050	0.001626	7150.134796	43523.429406	3897.738878	23313.057583
17.536000	0.000273	0.000376	0.001125	-0.001067	7201.996922	43829.386579	3915.125320	23440.455630
18.036500	0.000908	0.000548	-0.001075	-0.002349	7221.325113	43966.790606	3912.783886	23501.370916
18.537000	-0.000113	-0.001376	-0.002450	-0.000712	7194.548499	43631.153545	3905.141695	23423.605364
19.037500	-0.000222	-0.000140	0.005163	0.000519	7181.111475	43631.620906	3921.399704	23365.325290
19.535000	0.000988	0.000240	0.000162	0.001386	7184.543090	43585.883560	3906.441489	23324.344376
20.038000	-0.000751	-0.000853	-0.005039	0.000330	7177.702687	43582.422823	3895.998670	23374.233336
20.535500	-0.001550	-0.000525	-0.000483	0.000471	7168.308510	43600.004352	3907.127303	23367.597194
21.036000	0.003080	0.000474	0.001256	0.001291	7206.510137	43616.729436	3909.456412	23328.832677
21.536500	-0.001765	-0.000728	-0.001381	0.000429	7166.588552	43584.893025	3904.960933	23369.586302
22.036500	-0.000815	0.000646	-0.002830	0.001092	7169.448165	43651.587749	3899.633805	23338.243492
22.536500	-0.000900	0.000326	0.003722	0.001360	7165.920896	43596.434447	3915.558005	23325.579756
23.037000	-0.000456	-0.000506	0.000824	0.001082	7173.127958	43544.493700	3908.890820	23338.695693
23.537500	-0.001403	0.000112	-0.000501	0.001403	7160.477073	43572.308994	3904.723814	23323.561405
24.038000	-0.000513	-0.000639	0.003723	0.000929	7174.097352	43546.406067	3916.662527	23345.954239
24.535000	0.000172	-0.000009	-0.001586	0.001455	7175.684401	43556.153336	3901.852471	23321.106647
25.035500	-0.001812	-0.000519	0.002441	0.000787	7162.539282	43570.896380	3913.752642	23352.632622
25.535500	-0.000589	-0.000111	-0.002085	0.001069	7171.940476	43582.779259	3901.569597	23339.337132
26.036000	-0.000065	0.000330	0.000774	0.001436	7173.496990	43589.664221	3907.866531	23321.992253
26.536500	-0.001589	-0.000442	-0.001730	0.001128	7161.367956	43546.222154	3902.315056	23336.539184
27.036500	-0.000860	-0.000456	-0.001800	0.000677	7173.142880	43587.097906	3903.275326	23357.830673
27.537000	-0.000322	-0.000383	-0.001638	0.001435	7170.938868	43522.918539	3901.769896	23322.025973
28.037000	-0.001176	0.000597	0.002620	-0.000847	7185.239304	43829.470497	3918.383886	23430.021112
28.540500	0.002309	-0.000602	0.000452	-0.001271	7224.597632	43756.469575	3913.928533	23450.132448
29.034500	-0.000449	-0.000134	0.001779	-0.001133	7195.402474	43787.540618	3916.964938	23443.589068
29.537500	-0.002234	-0.000294	0.005252	-0.001028	7176.457396	43762.628482	3925.605407	23438.614212
30.035500	-0.001075	-0.000252	-0.000336	-0.001160	7189.387539	43778.995720	3911.639686	23444.874084
30.535500	0.001859	-0.000304	0.002828	-0.001062	7217.930703	43764.816407	3919.465273	23440.209843
31.036000	0.000651	-0.000431	-0.002901	0.000690	7188.145559	43588.292898	3900.467175	23357.243980
31.540500	0.003040	0.000489	0.006486	-0.000354	7222.715516	43772.897953	3927.049074	23406.658719
32.036500	-0.001198	-0.000488	-0.000373	0.002461	7151.976694	43417.227838	3902.374185	23273.676508
32.537000	-0.001211	-0.000991	0.003998	-0.000581	7182.222819	43654.959569	3921.231715	23417.392540
33.042500	0.002109	0.000783	0.001590	0.000902	7200.661856	43682.348609	3911.295652	23347.230471
33.536000	0.002433	0.001027	0.000655	0.000251	7210.483564	43766.578901	3910.571675	23378.007403
34.035500	0.001127	-0.000098	0.005283	-0.000548	7205.369197	43735.872424	3924.448143	23415.827237
34.538000	-0.000614	0.000386	0.004299	-0.000412	7186.500455	43768.549350	3921.570482	23409.368474
35.035500	-0.002289	-0.000651	-0.002712	0.001442	7151.268819	43497.229499	3899.051825	23321.730550
35.535500	-0.001614	-0.000317	-0.000099	0.000719	7165.194147	43596.310246	3907.471338	23355.878861
36.036500	-0.001052	-0.000752	0.003707	0.001732	7160.689974	43460.618799	3914.571364	23308.024345
36.536500	-0.000864	-0.000272	0.004478	0.002063	7159.271902	43474.600760	3915.693615	23292.450579
37.037000	0.000282	-0.000362	-0.000790	0.002657	7164.773780	43410.756277	3900.829319	23264.478455
37.537000	0.001440	0.000922	0.002377	0.003191	7170.999492	43480.776823	3907.481924	23239.354632
38.037000	-0.001277	0.000189	0.002214	0.002481	7150.999840	43478.666280	3908.869027	23272.763560
38.535000	-0.000762	0.000402	0.000051	0.002951	7151.445306	43454.587665	3902.207315	23250.625631
39.038000	-0.003284	0.000500	0.003868	0.003024	7125.712989	43456.946794	3911.691000	23247.214696
39.534500	-0.002271	0.000162	0.001629	0.002872	7137.246799	43439.565346	3906.396561	23254.365826
40.036000	-0.002030	0.000519	-0.003757	0.003309	7135.301193	43432.081570	3891.753152	23233.805504
40.536000	-0.000084	0.000992	0.000126	0.003843	7149.318470	43426.387645	3900.149891	23208.753429
41.036500	-0.001294	-0.000156	-0.000508	0.003136	7144.320311	43385.175123	3900.333665	23241.929653
41.536500	-0.002496	-0.000283	-0.001279	0.002721	7136.516641	43412.143915	3899.439203	23261.480287
42.037000	-0.001721	-0.000111	0.002266	0.002763	7143.786305	43424.257472	3908.285618	23259.494152
42.537000	0.000536	0.000742	-0.001601	0.003338	7160.514326	43450.223498	3897.079678	23232.463579
43.034500	-0.000166	0.000004	-0.000986	0.002496	7161.909374	43459.936873	3900.740582	23272.025291
43.537500	0.000238	-0.000434	-0.001787	0.002439	7166.510042	43424.338955	3898.870150	23274.722651
44.035500	-0.000281	-0.000172	0.000463	0.002161	7164.111657	43474.844787	3905.244702	23287.842766
44.535500	-0.000837	0.000031	-0.002210	0.002171	7158.469311	43492.873407	3898.479398	23287.356217
45.035500	-0.000285	0.000584	0.001638	0.002338	7162.300491	43528.928140	3907.768637	23279.467269
45.536500	-0.003172	0.000409	-0.000451	0.003831	7118.842052	43373.041241	3898.727552	23209.290400
46.036000	-0.000163	-0.000199	-0.000801	-0.001594	7202.916215	43824.945452	3911.562156	23465.487769
46.536500	0.002569	-0.000160	0.003343	-0.001190	7226.402820	43790.460182	3921.113680	23446.288413
47.054000	0.000781	0.000485	0.002015	-0.000680	7203.216075	43803.205715	3916.408056	23422.078776
47.534500	-0.003562	-0.000187	-0.001922	0.005211	7101.414555	43189.233909	3891.586127	23144.647217
48.037000	-0.000211	-0.000840	-0.002994	-0.001335	7199.828632	43740.120172	3905.341857	23453.181720
48.538000	0.000528	0.000063	-0.000571	-0.000962	7203.514749	43790.071685	3910.540054	23435.486609
49.055500	-0.000616	0.000322	0.003971	-0.000225	7184.611619	43745.006249	3920.249963	23400.518062
49.536000	-0.002200	0.000111	-0.000631	0.005358	7113.379701	43203.271424	3894.445971	23137.791303
50.036000	-0.003184	-0.000323	-0.000171	0.001898	7137.846865	43485.296558	3904.304348	23300.204671
50.562000	0.000657	0.000410	0.004735	-0.000685	7202.016537	43796.548520	3923.390580	23422.329223
51.036500	0.002988	0.001049	0.004306	0.000571	7212.847957	43738.512367	3919.069924	23362.862589
51.537000	-0.002099	-0.000360	-0.002218	0.005448	7113.476245	43151.195928	3890.255227	23133.556099
52.037000	0.003468	-0.000095	0.003403	-0.002290	7246.672686	43900.351664	3924.092988	23498.554737
52.534500	0.000329	-0.000041	0.000226	0.000708	7184.728371	43623.127187	3908.321164	23356.364301
53.037500	-0.008112	-0.000609	0.003702	0.007448	7035.217259	42943.182446	3900.077834	23040.299804
53.535000	-0.062435	-0.016557	0.010509	0.241064	4997.892250	25426.476797	3455.413268	14632.007620
54.035500	-0.104546	-0.015736	-0.055559	0.057514	5831.704297	37357.084326	3656.820863	20839.687047
54.535000	-0.095290	-0.026141	-0.049550	-0.130573	7557.246459	54791.458537	4135.669858	30601.133620
55.036000	-0.068953	-0.078705	-0.026462	-0.262107	9628.691758	65145.946460	4703.864102	40424.843040
55.536500	-0.059097	-0.134304	0.000198	-0.320410	10783.644266	65535.000000	5113.735526	45826.341782
56.037000	-0.030678	-0.129361	0.019473	-0.315468	11225.332358	65535.000000	5191.134177	45339.820713
56.537000	-0.020490	-0.050181	0.025563	-0.225841	9822.262314	64045.501824	4773.954390	37412.911612
57.037000	-0.006818	-0.018322	0.028386	-0.164004	9088.471997	59965.162935	4524.045397	32823.358080
57.537500	0.010122	-0.001369	0.029820	-0.098240	8423.191786	53895.392914	4287.651487	28608.674290
58.038000	0.024021	0.008238	0.024996	-0.066566	8198.972624	51367.398660	4168.306993	26795.523601
58.535000	0.040199	0.016198	0.041932	-0.049108	8183.165872	50318.163645	4166.670979	25851.211232
59.035500	0.058839	0.022976	0.051576	-0.033882	8225.413063	49404.109995	4149.308672	25058.112352
59.536000	0.068332	0.030168	0.065166	-0.003200	7968.583482	46953.947423	4097.509117	23541.933982
60.036500	0.083557	0.039821	0.076418	0.040222	7645.676273	43655.846483	4005.371038	21571.234044
60.536500	0.100569	0.048642	0.094261	0.086036	7336.780807	40325.421264	3930.624116	19694.904710
61.037000	0.108280	0.055649	0.106538	0.127873	6996.356178	37438.659076	3856.692679	18146.049816
61.537000	0.120194	0.062208	0.117323	0.145863	6938.499374	36540.627656	3839.423980	17524.577547
62.035000	0.136374	0.071970	0.137323	0.171116	6853.595248	35360.671388	3827.010357	16694.471851
62.537500	0.148277	0.079620	0.155772	0.216774	6552.860032	32637.904288	3765.068568	15310.881398
63.035000	0.159606	0.086628	0.157447	0.246354	6399.734741	31130.182720	3705.449005	14489.116485
63.535000	0.176722	0.093559	0.176533	0.273425	6318.882059	29849.449111	3689.079639	13784.542121
64.036000	0.189440	0.102505	0.188946	0.294031	6256.112771	29134.653492	3672.595699	13276.911163
64.536000	0.200672	0.108092	0.201859	0.326537	6092.428992	27556.005914	3634.416177	12523.539465
65.036500	0.185718	0.106336	0.220831	0.393420	5532.447629	23946.822900	3547.993208	11139.950967
65.536500	0.221110	0.121084	0.220643	0.354394	6037.200225	26725.322871	3617.309546	11921.280744
66.037000	0.233568	0.131706	0.234183	0.340679	6236.305268	28100.361747	3669.788822	12212.954755
66.537500	0.248189	0.136745	0.257118	0.382548	6029.277579	26048.760827	3632.982270	11350.605183
67.037500	0.263117	0.144398	0.267534	0.393254	6060.513702	25886.411010	3632.431258	11143.127962
67.534500	0.275409	0.151256	0.274666	0.400114	6101.144791	25886.236546	3632.948463	11012.839347
68.035500	0.283059	0.157819	0.291561	0.408728	6093.898103	25777.830243	3648.847944	10852.135099
68.535500	0.286799	0.162096	0.291261	0.422216	6021.500887	25297.036671	3622.542980	10606.825021
69.035500	0.290773	0.165995	0.300763	0.426729	6017.540256	25265.383349	3631.965436	10526.435416
69.536000	0.296041	0.170694	0.310497	0.428624	6042.381145	25410.456547	3646.990148	10492.918889
70.036500	0.300911	0.176094	0.323116	0.430796	6062.381489	25578.611472	3667.439727	10454.684636
70.537000	0.305367	0.178773	0.325223	0.436558	6052.685377	25417.984085	3660.229482	10354.199275
71.037000	0.309334	0.181318	0.341307	0.423187	6183.866645	26259.687336	3720.101727	10589.453517
71.536500	0.313136	0.186124	0.333224	0.418556	6249.593029	26773.573267	3712.875472	10672.647814
72.038000	0.319060	0.188807	0.346858	0.419210	6291.308980	26885.467882	3740.354846	10660.829044
72.534500	0.318781	0.191685	0.342610	0.411065	6354.544289	27502.923239	3748.769247	10809.095164
73.035500	0.324285	0.194900	0.351234	0.399039	6499.639175	28382.788014	3794.627538	11033.130626
73.536000	0.326405	0.197283	0.348364	0.421583	6331.139703	27225.376256	3738.494485	10618.163132
74.040500	0.339188	0.202407	0.360680	0.431936	6350.778031	26933.884996	3742.713632	10434.700841
74.549500	0.343510	0.206032	0.356859	0.413712	6538.275102	28175.597762	3774.265180	10760.597552
75.039500	0.352937	0.209675	0.355749	0.401593	6726.795966	29110.974141	3799.096801	10985.025054
75.537500	0.355302	0.210501	0.355944	0.389913	6854.813957	29877.661930	3826.597657	11207.335572
76.037000	0.358320	0.212169	0.361184	0.386241	6917.255469	30211.789001	3847.733945	11278.448945
76.546000	0.355350	0.213310	0.359921	0.387991	6873.102545	30173.559710	3840.540982	11244.492697
77.035000	0.360138	0.213071	0.356014	0.380033	6993.461978	30663.143214	3850.227222	11400.092746
77.535000	0.364071	0.213476	0.361358	0.379775	7033.813762	30705.599232	3863.770173	11405.186962
78.035500	0.362325	0.212705	0.361497	0.379311	7021.427854	30685.933161	3865.237732	11414.347568
78.535500	0.362351	0.215048	0.360865	0.385640	6961.066141	30431.838659	3848.413149	11290.164958
79.036000	0.364169	0.214821	0.360942	0.378973	7042.531242	30843.576639	3864.707669	11421.027060
79.536000	0.366881	0.215862	0.369652	0.378549	7073.052522	30938.147100	3887.189592	11429.434718
80.037000	0.366312	0.214969	0.369445	0.377583	7076.924761	30942.807369	3889.078648	11448.570568
80.537000	0.367804	0.216158	0.361295	0.383859	7030.424244	30615.923472	3853.725921	11324.923095
81.037500	0.372044	0.217201	0.366174	0.379657	7112.832552	30953.054848	3875.842327	11407.513912
81.537500	0.372855	0.219395	0.375539	0.381979	7097.961151	30944.742240	3893.318383	11361.774570
82.035000	0.373733	0.218255	0.370412	0.381468	7111.630642	30904.150872	3881.832340	11371.822853
82.535500	0.372038	0.218916	0.371418	0.389470	7017.126750	30434.201853	3864.657715	11215.868876
83.035000	0.374639	0.218092	0.372863	0.384361	7092.098097	30707.526028	3880.738783	11315.112656
83.536000	0.377188	0.218523	0.370953	0.385971	7101.317467	30632.113224	3872.072993	11283.718590
84.036500	0.377788	0.218931	0.379864	0.387746	7089.778469	30544.833966	3889.715627	11249.227571
84.536500	0.375253	0.220353	0.372501	0.397149	6974.338833	30040.876652	3848.715853	11068.908403
85.036000	0.375702	0.220323	0.378069	0.391678	7031.176537	30383.361119	3875.531119	11173.340975
85.534500	0.380531	0.220422	0.378427	0.393984	7055.658277	30243.972106	3870.752232	11129.173229
86.040000	0.379104	0.220971	0.379851	0.396067	7021.655232	30147.400269	3869.139440	11089.456451
86.535000	0.376844	0.221018	0.377247	0.403525	6928.940469	29685.866363	3844.814593	10948.830659
87.035500	0.382206	0.221137	0.374745	0.399631	7017.202344	29934.836053	3848.145595	11021.959733
87.535500	0.382921	0.222097	0.379059	0.403369	6988.158870	29762.201658	3849.527138	10951.739337
88.035500	0.382357	0.221694	0.376661	0.405451	6962.914264	29608.746125	3838.827506	10912.897846
88.536000	0.379386	0.221104	0.375549	0.413538	6859.065159	29079.819144	3817.203448	10763.783239
89.036500	0.382880	0.221115	0.380229	0.410421	6920.839509	29269.256406	3835.503562	10820.925573
89.536500	0.383150	0.221571	0.383317	0.413016	6899.004531	29139.554180	3836.669399	10773.318319
90.037000	0.385155	0.222362	0.382698	0.416472	6885.440477	28978.896196	3827.056335	10710.372286
90.534500	0.378676	0.222235	0.378554	0.425853	6740.086049	28413.450636	3795.779621	10541.973987
91.038000	0.381750	0.222094	0.378561	0.421758	6805.130893	28647.086818	3805.163983	10615.035559
91.535000	0.383372	0.222587	0.385036	0.424386	6795.932521	28520.650521	3814.042690	10568.064115
92.035500	0.382661	0.221920	0.380996	0.426367	6771.437145	28364.675658	3800.176982	10532.842709
92.535500	0.377539	0.220699	0.380787	0.434296	6654.824057	27833.151655	3781.742756	10393.495916
93.036500	0.382327	0.221838	0.378735	0.431195	6724.895025	28078.093765	3784.100113	10447.691643
93.536000	0.383808	0.222645	0.383778	0.434530	6708.309151	27931.754109	3787.949748	10389.415870
94.036500	0.382167	0.222622	0.383526	0.436053	6680.172569	27842.717392	3783.947289	10362.953582
94.537000	0.382299	0.223197	0.383127	0.439279	6652.850239	27690.684140	3775.826435	10307.198625
95.037000	0.383513	0.223750	0.386305	0.442423	6635.907735	27543.011814	3775.903070	10253.262584
95.534500	0.382046	0.223562	0.383302	0.444439	6605.530677	27418.152653	3764.772337	10218.893782
96.035000	0.382369	0.222814	0.385470	0.445950	6595.214835	27290.786303	3766.220136	10193.221593
96.535000	0.381278	0.222578	0.384159	0.455470	6504.381052	26748.215431	3742.594168	10033.566313
97.035500	0.385405	0.223574	0.385684	0.451628	6572.386500	27015.712726	3754.227251	10097.574160
