sample name	sample
index	816
start time	 03-31-2021  03:35:34 PM


Wavelength (nm)	Absorbance
494.344910	NaN
494.563924	NaN
494.782919	NaN
495.001897	NaN
495.220856	NaN
495.439797	NaN
495.658719	NaN
495.877624	NaN
496.096510	NaN
496.315378	1.028606
496.534227	-0.112083
496.753059	NaN
496.971872	NaN
497.190667	0.201948
497.409444	0.190358
497.628203	0.186654
497.846943	0.184656
498.065665	0.179983
498.284369	0.181339
498.503055	0.181938
498.721723	0.181474
498.940372	0.181903
499.159003	0.181990
499.377616	0.183582
499.596210	0.184285
499.814787	0.183289
500.033345	0.183724
500.251885	0.183141
500.470406	0.182909
500.688910	0.182579
500.907395	0.181921
501.125862	0.179989
501.344311	0.179522
501.562742	0.178385
501.781154	0.178899
501.999548	0.179381
502.217924	0.179910
502.436282	0.179506
502.654621	0.179635
502.872942	0.179953
503.091245	0.180633
503.309530	0.179613
503.527797	0.180075
503.746045	0.180631
503.964275	0.180795
504.182487	0.181133
504.400681	0.182245
504.618856	0.183400
504.837013	0.184338
505.055152	0.184774
505.273273	0.185446
505.491376	0.185158
505.709460	0.185147
505.927526	0.184919
506.145574	0.185740
506.363604	0.184614
506.581615	0.183658
506.799608	0.183802
507.017583	0.184562
507.235540	0.184354
507.453478	0.185619
507.671399	0.185966
507.889301	0.186819
508.107185	0.185323
508.325050	0.186223
508.542898	0.186298
508.760727	0.185597
508.978538	0.185007
509.196330	0.186001
509.414105	0.186018
509.631861	0.185658
509.849599	0.185682
510.067319	0.187699
510.285021	0.187619
510.502704	0.188760
510.720369	0.189167
510.938016	0.189681
511.155645	0.189215
511.373255	0.188461
511.590848	0.189649
511.808422	0.190150
512.025977	0.189054
512.243515	0.189327
512.461034	0.187964
512.678536	0.186996
512.896018	0.186758
513.113483	0.187238
513.330930	0.187580
513.548358	0.186570
513.765768	0.186153
513.983160	0.186259
514.200533	0.186229
514.417889	0.188355
514.635226	0.189354
514.852545	0.190516
515.069845	0.189313
515.287128	0.189906
515.504392	0.190276
515.721638	0.191381
515.938866	0.192245
516.156075	0.193112
516.373267	0.192460
516.590440	0.192866
516.807594	0.191814
517.024731	0.193504
517.241850	0.194582
517.458950	0.194983
517.676032	0.194151
517.893095	0.193907
518.110141	0.194091
518.327168	0.194201
518.544177	0.194023
518.761168	0.193925
518.978141	0.193878
519.195095	0.193846
519.412031	0.193811
519.628949	0.194708
519.845849	0.195448
520.062731	0.196109
520.279594	0.196185
520.496439	0.197112
520.713266	0.197939
520.930074	0.198072
521.146865	0.197598
521.363637	0.197860
521.580391	0.198249
521.797127	0.197969
522.013844	0.197581
522.230543	0.197684
522.447224	0.196776
522.663887	0.197218
522.880532	0.198406
523.097158	0.198875
523.313766	0.199354
523.530356	0.199125
523.746928	0.199659
523.963481	0.199560
524.180017	0.199546
524.396534	0.200404
524.613032	0.201221
524.829513	0.200529
525.045975	0.199882
525.262420	0.199251
525.478845	0.198702
525.695253	0.199242
525.911643	0.199795
526.128014	0.200598
526.344367	0.200963
526.560702	0.201086
526.777018	0.201158
526.993316	0.202022
527.209597	0.203845
527.425858	0.205373
527.642102	0.205194
527.858328	0.205367
528.074535	0.206483
528.290724	0.206433
528.506894	0.206456
528.723047	0.207205
528.939181	0.207891
529.155297	0.207735
529.371395	0.207334
529.587475	0.207885
529.803536	0.208425
530.019579	0.208090
530.235604	0.208360
530.451611	0.208197
530.667600	0.208683
530.883570	0.209305
531.099522	0.209155
531.315456	0.209118
531.531372	0.209228
531.747269	0.209651
531.963148	0.209738
532.179009	0.210206
532.394852	0.210953
532.610676	0.210385
532.826482	0.210383
533.042271	0.211357
533.258040	0.211928
533.473792	0.211845
533.689525	0.211714
533.905240	0.211603
534.120937	0.212349
534.336616	0.212895
534.552277	0.213665
534.767919	0.214150
534.983543	0.214101
535.199149	0.215020
535.414736	0.216194
535.630306	0.217059
535.845857	0.218391
536.061390	0.219536
536.276904	0.219379
536.492401	0.220113
536.707879	0.220607
536.923339	0.221147
537.138781	0.221226
537.354204	0.221112
537.569610	0.221355
537.784997	0.221179
538.000366	0.219856
538.215716	0.220015
538.431049	0.220052
538.646363	0.219843
538.861659	0.220379
539.076937	0.221119
539.292196	0.221422
539.507438	0.222182
539.722661	0.222884
539.937866	0.223669
540.153052	0.223947
540.368221	0.224997
540.583371	0.225999
540.798503	0.226621
541.013617	0.227067
541.228712	0.227980
541.443789	0.228314
541.658848	0.228576
541.873889	0.229282
542.088912	0.230121
542.303916	0.229470
542.518902	0.229276
542.733870	0.228451
542.948820	0.228651
543.163752	0.229135
543.378665	0.229013
543.593560	0.229559
543.808437	0.229849
544.023295	0.230148
544.238136	0.230725
544.452958	0.231421
544.667762	0.232478
544.882548	0.232853
545.097315	0.232093
545.312064	0.232372
545.526795	0.232599
545.741508	0.233020
545.956203	0.233512
546.170879	0.233923
546.385537	0.233625
546.600177	0.233827
546.814799	0.233649
547.029402	0.235008
547.243988	0.235250
547.458555	0.235008
547.673103	0.235146
547.887634	0.235659
548.102146	0.235917
548.316640	0.237064
548.531116	0.237651
548.745574	0.238267
548.960013	0.238212
549.174435	0.238562
549.388838	0.239640
549.603222	0.240274
549.817589	0.240557
550.031937	0.240785
550.246267	0.240438
550.460579	0.240124
550.674873	0.240707
550.889148	0.240326
551.103405	0.240650
551.317644	0.240495
551.531865	0.240889
551.746068	0.240408
551.960252	0.241209
552.174418	0.242230
552.388566	0.242836
552.602696	0.243627
552.816807	0.244505
553.030900	0.244991
553.244975	0.244970
553.459032	0.244593
553.673070	0.245273
553.887091	0.244948
554.101093	0.244387
554.315077	0.244574
554.529042	0.243851
554.742990	0.244434
554.956919	0.244872
555.170830	0.244975
555.384722	0.245230
555.598597	0.244966
555.812453	0.245312
556.026291	0.245773
556.240111	0.246188
556.453913	0.246587
556.667696	0.246704
556.881461	0.246649
557.095208	0.247364
557.308937	0.247916
557.522647	0.248497
557.736339	0.248742
557.950013	0.249099
558.163669	0.249071
558.377307	0.249358
558.590926	0.249186
558.804527	0.249653
559.018110	0.250003
559.231675	0.250255
559.445221	0.250977
559.658749	0.251506
559.872259	0.251624
560.085751	0.252591
560.299225	0.252967
560.512680	0.254108
560.726117	0.254334
560.939536	0.254488
561.152937	0.254837
561.366319	0.254741
561.579683	0.255235
561.793029	0.255597
562.006357	0.255358
562.219667	0.255114
562.432958	0.254757
562.646231	0.254871
562.859486	0.255459
563.072723	0.255750
563.285941	0.256220
563.499141	0.256236
563.712323	0.256520
563.925487	0.257157
564.138632	0.257888
564.351760	0.258037
564.564869	0.258603
564.777960	0.258490
564.991032	0.258844
565.204087	0.259562
565.417123	0.259985
565.630141	0.260632
565.843140	0.260538
566.056122	0.261119
566.269085	0.261590
566.482030	0.261330
566.694957	0.261733
566.907866	0.261491
567.120756	0.261439
567.333628	0.261729
567.546482	0.261873
567.759318	0.262655
567.972135	0.262724
568.184935	0.263162
568.397716	0.263798
568.610478	0.264229
568.823223	0.264438
569.035949	0.264642
569.248657	0.264268
569.461347	0.264665
569.674019	0.264633
569.886672	0.264446
570.099308	0.264484
570.311925	0.264914
570.524523	0.264727
570.737104	0.265593
570.949666	0.265847
571.162210	0.266278
571.374736	0.265725
571.587244	0.265670
571.799733	0.265719
572.012205	0.266185
572.224658	0.266018
572.437092	0.266799
572.649509	0.266718
572.861907	0.267018
573.074287	0.267441
573.286649	0.268560
573.498993	0.269052
573.711318	0.269751
573.923625	0.269555
574.135914	0.269944
574.348185	0.270159
574.560438	0.270242
574.772672	0.270145
574.984888	0.270287
575.197086	0.270039
575.409266	0.270219
575.621427	0.270668
575.833570	0.271035
576.045695	0.271470
576.257802	0.271355
576.469890	0.271502
576.681961	0.271989
576.894013	0.271932
577.106046	0.272217
577.318062	0.272663
577.530059	0.272860
577.742039	0.273335
577.954000	0.273264
578.165942	0.273632
578.377867	0.274370
578.589773	0.274484
578.801661	0.275311
579.013531	0.275683
579.225382	0.275755
579.437216	0.275981
579.649031	0.276093
579.860828	0.276383
580.072606	0.276700
580.284367	0.276808
580.496109	0.277203
580.707833	0.277030
580.919539	0.277030
581.131227	0.277808
581.342896	0.278469
581.554547	0.278661
581.766180	0.278978
581.977795	0.279251
582.189391	0.279563
582.400969	0.279580
582.612529	0.280406
582.824071	0.281122
583.035595	0.281141
583.247100	0.281040
583.458587	0.281323
583.670056	0.281459
583.881506	0.281578
584.092939	0.281983
584.304353	0.282745
584.515749	0.282861
584.727127	0.283496
584.938486	0.283363
585.149828	0.283694
585.361151	0.283885
585.572456	0.284429
585.783742	0.284978
585.995011	0.285197
586.206261	0.285370
586.417493	0.285585
586.628706	0.285238
586.839902	0.285942
587.051079	0.285830
587.262238	0.286751
587.473379	0.286819
587.684502	0.286773
587.895606	0.287020
588.106692	0.287223
588.317760	0.287784
588.528810	0.288201
588.739841	0.288178
588.950855	0.288972
589.161850	0.288609
589.372827	0.289009
589.583785	0.289376
589.794726	0.289429
590.005648	0.289686
590.216552	0.289566
590.427437	0.289273
590.638305	0.289638
590.849154	0.289622
591.059985	0.290065
591.270798	0.290042
591.481592	0.290624
591.692369	0.291079
591.903127	0.291246
592.113867	0.291505
592.324588	0.291947
592.535292	0.291772
592.745977	0.291565
592.956644	0.291620
593.167293	0.292108
593.377923	0.292093
593.588536	0.292478
593.799130	0.292960
594.009706	0.292972
594.220263	0.293994
594.430803	0.294502
594.641324	0.295045
594.851827	0.295240
595.062312	0.295539
595.272778	0.295775
595.483227	0.295794
595.693657	0.296209
595.904069	0.296565
596.114462	0.296348
596.324838	0.296618
596.535195	0.297321
596.745534	0.297544
596.955855	0.297706
597.166157	0.298176
597.376441	0.298590
597.586707	0.298513
597.796955	0.298864
598.007185	0.299126
598.217396	0.299569
598.427589	0.299327
598.637764	0.300059
598.847921	0.300119
599.058060	0.299705
599.268180	0.299732
599.478282	0.299860
599.688366	0.299951
599.898431	0.299866
600.108479	0.300350
600.318508	0.300511
600.528519	0.300653
600.738511	0.300802
600.948486	0.301162
601.158442	0.301372
601.368380	0.301545
601.578300	0.302031
601.788202	0.302374
601.998085	0.302402
602.207950	0.302650
602.417797	0.302899
602.627626	0.303459
602.837436	0.303964
603.047228	0.304102
603.257002	0.304469
603.466758	0.304489
603.676496	0.304978
603.886215	0.305432
604.095916	0.306019
604.305599	0.306343
604.515264	0.306311
604.724910	0.306581
604.934538	0.307197
605.144148	0.307285
605.353740	0.307804
605.563314	0.307775
605.772869	0.307477
605.982406	0.307312
606.191925	0.307335
606.401425	0.307846
606.610908	0.307827
606.820372	0.307828
607.029818	0.308375
607.239246	0.308425
607.448655	0.309351
607.658047	0.309511
607.867420	0.310346
608.076775	0.310504
608.286111	0.310727
608.495430	0.311040
608.704730	0.310897
608.914012	0.311187
609.123275	0.311364
609.332521	0.311390
609.541748	0.311673
609.750957	0.311469
609.960148	0.311529
610.169321	0.311571
610.378475	0.311846
610.587611	0.312234
610.796729	0.312280
611.005829	0.312383
611.214910	0.312541
611.423974	0.313188
611.633019	0.313541
611.842045	0.313658
612.051054	0.313962
612.260044	0.314278
612.469017	0.314746
612.677970	0.315341
612.886906	0.315803
613.095824	0.315806
613.304723	0.315759
613.513604	0.315804
613.722467	0.316530
613.931311	0.316536
614.140138	0.316940
614.348946	0.317524
614.557736	0.317266
614.766507	0.317735
614.975261	0.318131
615.183996	0.318315
615.392713	0.318678
615.601412	0.318776
615.810092	0.319247
616.018754	0.319376
616.227399	0.319315
616.436024	0.319714
616.644632	0.319680
616.853222	0.319777
617.061793	0.320068
617.270346	0.320255
617.478880	0.320595
617.687397	0.320927
617.895895	0.321049
618.104375	0.321485
618.312837	0.321840
618.521281	0.322082
618.729706	0.322132
618.938113	0.322199
619.146502	0.322379
619.354873	0.322149
619.563226	0.322813
619.771560	0.322863
619.979876	0.322681
620.188174	0.322821
620.396453	0.323276
620.604715	0.323796
620.812958	0.324254
621.021183	0.324563
621.229390	0.325071
621.437578	0.324844
621.645748	0.325209
621.853900	0.325245
622.062034	0.325346
622.270150	0.325430
622.478247	0.325727
622.686326	0.325891
622.894387	0.325951
623.102430	0.326190
623.310454	0.326473
623.518461	0.326576
623.726449	0.326854
623.934418	0.327210
624.142370	0.327366
624.350303	0.327323
624.558218	0.327427
624.766115	0.328004
624.973994	0.328297
625.181855	0.328290
625.389697	0.328969
625.597521	0.329544
625.805327	0.329745
626.013114	0.330017
626.220883	0.330060
626.428634	0.330569
626.636367	0.330597
626.844082	0.330572
627.051778	0.330689
627.259457	0.330716
627.467117	0.330638
627.674758	0.330453
627.882382	0.330558
628.089987	0.330886
628.297574	0.330968
628.505143	0.331205
628.712694	0.331245
628.920226	0.331453
629.127740	0.331418
629.335236	0.331873
629.542714	0.332498
629.750174	0.332781
629.957615	0.333297
630.165038	0.333526
630.372443	0.333325
630.579829	0.334031
630.787198	0.334431
630.994548	0.334637
631.201880	0.334966
631.409194	0.335048
631.616489	0.335208
631.823766	0.335239
632.031025	0.335483
632.238266	0.336567
632.445489	0.336721
632.652693	0.337293
632.859879	0.337640
633.067047	0.337874
633.274197	0.338066
633.481329	0.338345
633.688442	0.338767
633.895537	0.338707
634.102614	0.338472
634.309672	0.338628
634.516713	0.338711
634.723735	0.339182
634.930739	0.339033
635.137724	0.338982
635.344692	0.339259
635.551641	0.339311
635.758572	0.339634
635.965485	0.339753
636.172379	0.340048
636.379256	0.340110
636.586114	0.339876
636.792954	0.340064
636.999775	0.340561
637.206579	0.340581
637.413364	0.340693
637.620131	0.341266
637.826880	0.341688
638.033610	0.341668
638.240323	0.341998
638.447017	0.342677
638.653692	0.342957
638.860350	0.343345
639.066990	0.343363
639.273611	0.343632
639.480214	0.343684
639.686798	0.343796
639.893365	0.344191
640.099913	0.344198
640.306443	0.344222
640.512955	0.344671
640.719449	0.344420
640.925924	0.344805
641.132381	0.345409
641.338820	0.345857
641.545241	0.346126
641.751644	0.346418
641.958028	0.347054
642.164394	0.347307
642.370742	0.347548
642.577071	0.348111
642.783383	0.348584
642.989676	0.348474
643.195951	0.348451
643.402207	0.348811
643.608446	0.349070
643.814666	0.348537
644.020868	0.348750
644.227052	0.348912
644.433218	0.349209
644.639365	0.349166
644.845494	0.349487
645.051605	0.349716
645.257698	0.349805
645.463772	0.349874
645.669828	0.350474
645.875866	0.350593
646.081886	0.350942
646.287888	0.351405
646.493871	0.352127
646.699836	0.352323
646.905783	0.352456
647.111712	0.352572
647.317622	0.352887
647.523514	0.352804
647.729388	0.353126
647.935244	0.353148
648.141082	0.352951
648.346901	0.352763
648.552702	0.352836
648.758485	0.353240
648.964250	0.353650
649.169996	0.354061
649.375724	0.354945
649.581434	0.355129
649.787126	0.355551
649.992800	0.355907
650.198455	0.356399
650.404092	0.356853
650.609711	0.357047
650.815311	0.357267
651.020894	0.357464
651.226458	0.357523
651.432004	0.358258
651.637532	0.358523
651.843041	0.358598
652.048532	0.358696
652.254006	0.358823
652.459460	0.359098
652.664897	0.359383
652.870315	0.359395
653.075716	0.359434
653.281097	0.359469
653.486461	0.359748
653.691807	0.360120
653.897134	0.360505
654.102443	0.360870
654.307734	0.360923
654.513006	0.360992
654.718261	0.361213
654.923497	0.361705
655.128715	0.361717
655.333915	0.361974
655.539096	0.362537
655.744259	0.362535
655.949404	0.362671
656.154531	0.363095
656.359640	0.363604
656.564730	0.364241
656.769802	0.364073
656.974856	0.364321
657.179892	0.364720
657.384909	0.364876
657.589908	0.365479
657.794889	0.366000
657.999852	0.366152
658.204797	0.366051
658.409723	0.366188
658.614631	0.367071
658.819521	0.367796
659.024393	0.368104
659.229246	0.368097
659.434081	0.368275
659.638898	0.368436
659.843697	0.368541
660.048478	0.368980
660.253240	0.369133
660.457984	0.369214
660.662710	0.369434
660.867417	0.369619
661.072107	0.370146
661.276778	0.370321
661.481431	0.370673
661.686066	0.371159
661.890682	0.371506
662.095281	0.372145
662.299861	0.372393
662.504422	0.372418
662.708966	0.372396
662.913491	0.372642
663.117999	0.373259
663.322488	0.373320
663.526958	0.373835
663.731411	0.374280
663.935845	0.374192
664.140261	0.374782
664.344659	0.375117
664.549038	0.375648
664.753400	0.375639
664.957743	0.375506
665.162068	0.375869
665.366375	0.376140
665.570663	0.376201
665.774933	0.376619
665.979185	0.376687
666.183419	0.376983
666.387635	0.377161
666.591832	0.377927
666.796011	0.378294
667.000172	0.378667
667.204315	0.379058
667.408439	0.379534
667.612545	0.379852
667.816634	0.380165
668.020703	0.380315
668.224755	0.380745
668.428788	0.380935
668.632803	0.381330
668.836800	0.381694
669.040779	0.381605
669.244739	0.381658
669.448681	0.381663
669.652605	0.381867
669.856511	0.382097
670.060399	0.382257
670.264268	0.382760
670.468119	0.382845
670.671952	0.382900
670.875767	0.383218
671.079563	0.383619
671.283341	0.384254
671.487101	0.384462
671.690843	0.384832
671.894567	0.384889
672.098272	0.384535
672.301959	0.385138
672.505628	0.385414
672.709278	0.385804
672.912911	0.386046
673.116525	0.385933
673.320121	0.386003
673.523699	0.386312
673.727258	0.386945
673.930799	0.387573
674.134322	0.387633
674.337827	0.388154
674.541314	0.388159
674.744782	0.388528
674.948232	0.388973
675.151664	0.389512
675.355078	0.389746
675.558474	0.389839
675.761851	0.390199
675.965210	0.390581
676.168551	0.390727
676.371873	0.391248
676.575178	0.391441
676.778464	0.392012
676.981732	0.392305
677.184981	0.392824
677.388213	0.393131
677.591426	0.393264
677.794621	0.393520
677.997798	0.393621
678.200956	0.394064
678.404097	0.394303
678.607219	0.394315
678.810323	0.394721
679.013408	0.394900
679.216476	0.395367
679.419525	0.395559
679.622556	0.395654
679.825569	0.396126
680.028563	0.396288
680.231540	0.396576
680.434498	0.396788
680.637438	0.397254
680.840359	0.397521
681.043263	0.397402
681.246148	0.397870
681.449015	0.398563
681.651864	0.398602
681.854694	0.398855
682.057506	0.399222
682.260301	0.399444
682.463076	0.399028
682.665834	0.399331
682.868573	0.400156
683.071295	0.400807
683.273998	0.400817
683.476682	0.401440
683.679349	0.401931
683.881997	0.402537
684.084627	0.402865
684.287239	0.403361
684.489833	0.403541
684.692408	0.403292
684.894965	0.403242
685.097504	0.403586
685.300025	0.403796
685.502527	0.403857
685.705012	0.403966
685.907478	0.404262
686.109925	0.404731
686.312355	0.404957
686.514766	0.405226
686.717159	0.405505
686.919534	0.405649
687.121891	0.405946
687.324230	0.406282
687.526550	0.406301
687.728852	0.406484
687.931136	0.406786
688.133401	0.406752
688.335649	0.407164
688.537878	0.407023
688.740089	0.407156
688.942281	0.406902
689.144456	0.406860
689.346612	0.407239
689.548750	0.407384
689.750870	0.407335
689.952971	0.407758
690.155055	0.408089
690.357120	0.408514
690.559167	0.408841
690.761195	0.409506
690.963206	0.409783
691.165198	0.409733
691.367172	0.410336
691.569128	0.410693
691.771065	0.410956
691.972984	0.411058
692.174885	0.411436
692.376768	0.411773
692.578633	0.411799
692.780479	0.412054
692.982308	0.412542
693.184118	0.412571
693.385909	0.412725
693.587683	0.413093
693.789438	0.413602
693.991175	0.413573
