sample name	sample
index	855
start time	 04-08-2021  11:02:21 AM


Wavelength (nm)	Absorbance
494.344910	-0.014940
494.563924	-0.014940
494.782919	-0.014940
495.001897	-0.051567
495.220856	-0.019548
495.439797	-0.018362
495.658719	-0.016529
495.877624	-0.018842
496.096510	-0.016364
496.315378	-0.034992
496.534227	-0.023700
496.753059	-0.014463
496.971872	-0.016514
497.190667	0.063771
497.409444	0.093750
497.628203	0.104262
497.846943	0.110675
498.065665	0.114206
498.284369	0.119559
498.503055	0.122175
498.721723	0.122734
498.940372	0.123736
499.159003	0.123381
499.377616	0.123316
499.596210	0.124077
499.814787	0.125397
500.033345	0.125538
500.251885	0.125453
500.470406	0.124551
500.688910	0.125427
500.907395	0.125579
501.125862	0.125702
501.344311	0.125163
501.562742	0.125170
501.781154	0.124533
501.999548	0.125582
502.217924	0.125018
502.436282	0.125727
502.654621	0.125606
502.872942	0.125530
503.091245	0.125207
503.309530	0.126722
503.527797	0.125943
503.746045	0.126585
503.964275	0.126236
504.182487	0.127710
504.400681	0.127466
504.618856	0.127411
504.837013	0.128389
505.055152	0.129468
505.273273	0.129545
505.491376	0.131019
505.709460	0.130947
505.927526	0.130705
506.145574	0.130786
506.363604	0.131346
506.581615	0.131505
506.799608	0.131510
507.017583	0.131519
507.235540	0.131877
507.453478	0.132322
507.671399	0.132624
507.889301	0.132888
508.107185	0.132234
508.325050	0.132163
508.542898	0.132641
508.760727	0.132609
508.978538	0.133213
509.196330	0.133742
509.414105	0.133151
509.631861	0.133458
509.849599	0.134613
510.067319	0.134913
510.285021	0.135168
510.502704	0.134918
510.720369	0.135293
510.938016	0.134484
511.155645	0.134604
511.373255	0.134740
511.590848	0.134175
511.808422	0.133848
512.025977	0.133945
512.243515	0.134336
512.461034	0.135286
512.678536	0.135201
512.896018	0.136199
513.113483	0.136445
513.330930	0.136835
513.548358	0.137049
513.765768	0.137442
513.983160	0.138005
514.200533	0.137236
514.417889	0.137099
514.635226	0.137621
514.852545	0.137227
515.069845	0.136558
515.287128	0.136584
515.504392	0.137452
515.721638	0.137423
515.938866	0.137613
516.156075	0.138626
516.373267	0.138165
516.590440	0.137694
516.807594	0.138093
517.024731	0.139356
517.241850	0.139353
517.458950	0.139575
517.676032	0.139489
517.893095	0.140042
518.110141	0.140141
518.327168	0.140266
518.544177	0.140557
518.761168	0.141210
518.978141	0.140946
519.195095	0.141881
519.412031	0.141333
519.628949	0.142291
519.845849	0.141655
520.062731	0.141424
520.279594	0.142476
520.496439	0.143390
520.713266	0.142662
520.930074	0.143213
521.146865	0.143154
521.363637	0.143526
521.580391	0.143588
521.797127	0.143900
522.013844	0.144926
522.230543	0.145355
522.447224	0.144910
522.663887	0.145487
522.880532	0.145201
523.097158	0.145467
523.313766	0.145908
523.530356	0.145651
523.746928	0.146249
523.963481	0.146143
524.180017	0.146469
524.396534	0.146309
524.613032	0.146525
524.829513	0.146831
525.045975	0.146914
525.262420	0.147708
525.478845	0.148686
525.695253	0.148878
525.911643	0.149305
526.128014	0.149290
526.344367	0.150319
526.560702	0.150676
526.777018	0.151114
526.993316	0.151188
527.209597	0.151404
527.425858	0.151414
527.642102	0.152057
527.858328	0.152494
528.074535	0.153236
528.290724	0.153822
528.506894	0.154390
528.723047	0.155052
528.939181	0.155856
529.155297	0.155997
529.371395	0.156645
529.587475	0.156650
529.803536	0.156806
530.019579	0.156804
530.235604	0.156490
530.451611	0.156544
530.667600	0.156984
530.883570	0.157350
531.099522	0.157756
531.315456	0.157893
531.531372	0.158783
531.747269	0.159086
531.963148	0.158920
532.179009	0.159891
532.394852	0.160637
532.610676	0.160557
532.826482	0.160628
533.042271	0.160628
533.258040	0.160780
533.473792	0.160441
533.689525	0.160915
533.905240	0.161367
534.120937	0.160941
534.336616	0.161084
534.552277	0.160738
534.767919	0.160969
534.983543	0.161715
535.199149	0.161992
535.414736	0.162014
535.630306	0.162235
535.845857	0.162965
536.061390	0.163013
536.276904	0.163371
536.492401	0.164458
536.707879	0.164794
536.923339	0.164510
537.138781	0.164504
537.354204	0.165006
537.569610	0.164621
537.784997	0.164857
538.000366	0.165440
538.215716	0.165599
538.431049	0.165563
538.646363	0.166061
538.861659	0.166379
539.076937	0.166935
539.292196	0.167264
539.507438	0.168204
539.722661	0.168832
539.937866	0.169187
540.153052	0.169325
540.368221	0.169740
540.583371	0.169918
540.798503	0.170058
541.013617	0.169707
541.228712	0.169963
541.443789	0.170492
541.658848	0.170331
541.873889	0.170663
542.088912	0.170827
542.303916	0.170590
542.518902	0.170655
542.733870	0.171519
542.948820	0.172193
543.163752	0.172786
543.378665	0.172290
543.593560	0.172321
543.808437	0.172869
544.023295	0.172942
544.238136	0.173263
544.452958	0.173043
544.667762	0.172975
544.882548	0.173222
545.097315	0.173066
545.312064	0.173564
545.526795	0.173581
545.741508	0.173400
545.956203	0.173813
546.170879	0.174252
546.385537	0.175118
546.600177	0.175226
546.814799	0.175450
547.029402	0.175909
547.243988	0.176244
547.458555	0.176724
547.673103	0.177358
547.887634	0.177707
548.102146	0.178053
548.316640	0.178103
548.531116	0.177941
548.745574	0.177947
548.960013	0.178093
549.174435	0.178222
549.388838	0.178783
549.603222	0.178632
549.817589	0.178967
550.031937	0.178664
550.246267	0.178924
550.460579	0.180001
550.674873	0.180735
550.889148	0.181166
551.103405	0.181301
551.317644	0.180890
551.531865	0.181129
551.746068	0.181234
551.960252	0.182127
552.174418	0.182045
552.388566	0.181803
552.602696	0.181340
552.816807	0.181048
553.030900	0.181047
553.244975	0.181519
553.459032	0.181667
553.673070	0.181772
553.887091	0.181686
554.101093	0.181750
554.315077	0.181750
554.529042	0.182282
554.742990	0.182497
554.956919	0.182707
555.170830	0.182923
555.384722	0.183065
555.598597	0.183307
555.812453	0.183452
556.026291	0.184126
556.240111	0.184370
556.453913	0.184288
556.667696	0.184689
556.881461	0.184729
557.095208	0.184636
557.308937	0.184870
557.522647	0.184872
557.736339	0.185042
557.950013	0.185103
558.163669	0.185217
558.377307	0.185793
558.590926	0.186237
558.804527	0.186584
559.018110	0.187156
559.231675	0.187405
559.445221	0.187946
559.658749	0.188193
559.872259	0.188189
560.085751	0.188480
560.299225	0.188603
560.512680	0.188510
560.726117	0.189165
560.939536	0.189058
561.152937	0.189232
561.366319	0.189219
561.579683	0.189266
561.793029	0.189469
562.006357	0.189834
562.219667	0.189946
562.432958	0.189842
562.646231	0.189595
562.859486	0.189909
563.072723	0.190091
563.285941	0.190059
563.499141	0.190270
563.712323	0.190354
563.925487	0.190268
564.138632	0.190713
564.351760	0.191176
564.564869	0.191150
564.777960	0.191273
564.991032	0.191399
565.204087	0.191529
565.417123	0.191641
565.630141	0.192061
565.843140	0.192519
566.056122	0.192208
566.269085	0.192345
566.482030	0.192966
566.694957	0.193183
566.907866	0.193423
567.120756	0.193264
567.333628	0.193625
567.546482	0.193584
567.759318	0.193601
567.972135	0.194143
568.184935	0.194203
568.397716	0.194381
568.610478	0.194796
568.823223	0.194473
569.035949	0.194845
569.248657	0.195385
569.461347	0.195632
569.674019	0.195520
569.886672	0.195279
570.099308	0.195799
570.311925	0.195582
570.524523	0.195102
570.737104	0.195491
570.949666	0.195756
571.162210	0.195255
571.374736	0.195381
571.587244	0.195597
571.799733	0.196069
572.012205	0.196055
572.224658	0.196190
572.437092	0.196600
572.649509	0.196896
572.861907	0.197272
573.074287	0.197343
573.286649	0.197080
573.498993	0.197441
573.711318	0.196987
573.923625	0.197117
574.135914	0.197320
574.348185	0.197489
574.560438	0.197754
574.772672	0.197661
574.984888	0.198186
575.197086	0.199099
575.409266	0.199221
575.621427	0.199911
575.833570	0.200377
576.045695	0.200464
576.257802	0.200873
576.469890	0.200894
576.681961	0.200933
576.894013	0.200779
577.106046	0.200471
577.318062	0.200252
577.530059	0.200125
577.742039	0.200102
577.954000	0.200213
578.165942	0.199843
578.377867	0.199705
578.589773	0.199886
578.801661	0.200033
579.013531	0.200127
579.225382	0.200545
579.437216	0.200540
579.649031	0.200236
579.860828	0.200234
580.072606	0.200854
580.284367	0.201237
580.496109	0.201392
580.707833	0.201783
580.919539	0.201868
581.131227	0.201904
581.342896	0.202249
581.554547	0.202296
581.766180	0.202616
581.977795	0.202489
582.189391	0.202230
582.400969	0.202352
582.612529	0.202182
582.824071	0.202490
583.035595	0.202965
583.247100	0.203150
583.458587	0.203389
583.670056	0.203374
583.881506	0.203420
584.092939	0.204030
584.304353	0.204399
584.515749	0.204401
584.727127	0.204431
584.938486	0.204253
585.149828	0.204352
585.361151	0.204688
585.572456	0.205195
585.783742	0.205438
585.995011	0.205318
586.206261	0.205233
586.417493	0.205547
586.628706	0.205946
586.839902	0.206106
587.051079	0.206100
587.262238	0.206021
587.473379	0.206226
587.684502	0.206439
587.895606	0.206805
588.106692	0.206759
588.317760	0.207025
588.528810	0.207004
588.739841	0.207152
588.950855	0.207009
589.161850	0.207227
589.372827	0.207024
589.583785	0.207224
589.794726	0.207197
590.005648	0.207363
590.216552	0.207309
590.427437	0.207510
590.638305	0.207526
590.849154	0.208006
591.059985	0.207965
591.270798	0.208092
591.481592	0.208154
591.692369	0.208095
591.903127	0.208463
592.113867	0.208655
592.324588	0.208786
592.535292	0.208670
592.745977	0.209094
592.956644	0.209282
593.167293	0.209475
593.377923	0.209536
593.588536	0.210095
593.799130	0.210008
594.009706	0.210488
594.220263	0.210439
594.430803	0.210987
594.641324	0.210674
594.851827	0.210764
595.062312	0.211079
595.272778	0.211230
595.483227	0.211358
595.693657	0.211607
595.904069	0.211861
596.114462	0.212095
596.324838	0.211948
596.535195	0.212263
596.745534	0.212371
596.955855	0.212207
597.166157	0.212353
597.376441	0.212512
597.586707	0.212575
597.796955	0.212287
598.007185	0.212601
598.217396	0.212739
598.427589	0.212797
598.637764	0.212880
598.847921	0.213573
599.058060	0.213574
599.268180	0.213130
599.478282	0.213372
599.688366	0.213473
599.898431	0.213184
600.108479	0.213659
600.318508	0.213788
600.528519	0.214047
600.738511	0.214042
600.948486	0.214299
601.158442	0.214838
601.368380	0.215052
601.578300	0.215111
601.788202	0.215510
601.998085	0.215573
602.207950	0.215922
602.417797	0.216099
602.627626	0.215916
602.837436	0.216015
603.047228	0.216175
603.257002	0.216214
603.466758	0.216366
603.676496	0.216301
603.886215	0.216248
604.095916	0.216415
604.305599	0.216336
604.515264	0.216622
604.724910	0.216471
604.934538	0.216579
605.144148	0.216813
605.353740	0.216494
605.563314	0.216920
605.772869	0.217126
605.982406	0.216976
606.191925	0.217343
606.401425	0.217313
606.610908	0.217531
606.820372	0.217789
607.029818	0.217930
607.239246	0.218339
607.448655	0.218166
607.658047	0.218080
607.867420	0.218535
608.076775	0.218611
608.286111	0.218525
608.495430	0.218605
608.704730	0.218720
608.914012	0.218577
609.123275	0.218621
609.332521	0.218948
609.541748	0.219277
609.750957	0.219310
609.960148	0.219198
610.169321	0.219526
610.378475	0.219886
610.587611	0.219796
610.796729	0.219971
611.005829	0.220312
611.214910	0.220248
611.423974	0.220184
611.633019	0.220289
611.842045	0.220378
612.051054	0.220494
612.260044	0.220564
612.469017	0.220689
612.677970	0.220842
612.886906	0.221174
613.095824	0.221187
613.304723	0.221556
613.513604	0.221281
613.722467	0.221706
613.931311	0.221785
614.140138	0.221966
614.348946	0.221887
614.557736	0.222109
614.766507	0.222111
614.975261	0.222356
615.183996	0.222469
615.392713	0.222759
615.601412	0.222648
615.810092	0.222552
616.018754	0.222495
616.227399	0.222869
616.436024	0.223147
616.644632	0.223106
616.853222	0.223338
617.061793	0.223538
617.270346	0.223476
617.478880	0.223763
617.687397	0.223976
617.895895	0.224194
618.104375	0.224408
618.312837	0.224509
618.521281	0.224726
618.729706	0.224785
618.938113	0.224360
619.146502	0.224519
619.354873	0.224605
619.563226	0.224836
619.771560	0.224726
619.979876	0.224669
620.188174	0.224709
620.396453	0.224944
620.604715	0.224973
620.812958	0.225403
621.021183	0.225720
621.229390	0.226025
621.437578	0.226054
621.645748	0.226316
621.853900	0.226568
622.062034	0.226651
622.270150	0.226780
622.478247	0.226894
622.686326	0.226926
622.894387	0.226932
623.102430	0.226965
623.310454	0.227285
623.518461	0.227364
623.726449	0.227547
623.934418	0.227614
624.142370	0.227576
624.350303	0.227867
624.558218	0.228087
624.766115	0.228499
624.973994	0.228504
625.181855	0.228510
625.389697	0.228807
625.597521	0.228813
625.805327	0.228739
626.013114	0.228968
626.220883	0.229095
626.428634	0.229348
626.636367	0.229231
626.844082	0.229340
627.051778	0.229334
627.259457	0.229381
627.467117	0.229298
627.674758	0.229541
627.882382	0.229580
628.089987	0.229680
628.297574	0.229732
628.505143	0.229968
628.712694	0.229948
628.920226	0.229857
629.127740	0.230164
629.335236	0.230508
629.542714	0.230818
629.750174	0.230877
629.957615	0.231000
630.165038	0.231119
630.372443	0.231049
630.579829	0.231190
630.787198	0.231626
630.994548	0.231542
631.201880	0.231701
631.409194	0.231477
631.616489	0.231611
631.823766	0.231753
632.031025	0.231927
632.238266	0.232317
632.445489	0.232522
632.652693	0.232564
632.859879	0.232792
633.067047	0.232851
633.274197	0.233259
633.481329	0.233429
633.688442	0.233400
633.895537	0.233171
634.102614	0.233253
634.309672	0.233381
634.516713	0.233754
634.723735	0.233834
634.930739	0.233803
635.137724	0.233896
635.344692	0.234245
635.551641	0.234546
635.758572	0.235034
635.965485	0.235018
636.172379	0.235321
636.379256	0.235466
636.586114	0.235647
636.792954	0.235955
636.999775	0.236159
637.206579	0.235929
637.413364	0.236082
637.620131	0.236227
637.826880	0.236639
638.033610	0.236874
638.240323	0.236798
638.447017	0.237173
638.653692	0.237315
638.860350	0.237396
639.066990	0.237722
639.273611	0.237529
639.480214	0.237634
639.686798	0.237655
639.893365	0.237605
640.099913	0.237834
640.306443	0.237724
640.512955	0.237663
640.719449	0.237863
640.925924	0.237809
641.132381	0.238181
641.338820	0.238157
641.545241	0.238347
641.751644	0.238666
641.958028	0.238948
642.164394	0.239148
642.370742	0.239514
642.577071	0.239487
642.783383	0.239806
642.989676	0.239935
643.195951	0.240302
643.402207	0.240264
643.608446	0.240232
643.814666	0.240493
644.020868	0.240593
644.227052	0.240812
644.433218	0.240919
644.639365	0.241198
644.845494	0.241351
645.051605	0.241366
645.257698	0.241583
645.463772	0.241674
645.669828	0.241505
645.875866	0.241663
646.081886	0.241579
646.287888	0.242048
646.493871	0.242011
646.699836	0.242215
646.905783	0.242101
647.111712	0.242146
647.317622	0.242359
647.523514	0.242561
647.729388	0.242688
647.935244	0.242876
648.141082	0.242814
648.346901	0.242920
648.552702	0.243250
648.758485	0.243666
648.964250	0.244135
649.169996	0.244380
649.375724	0.244785
649.581434	0.244835
649.787126	0.245132
649.992800	0.245281
650.198455	0.245559
650.404092	0.245674
650.609711	0.245996
650.815311	0.245889
651.020894	0.246013
651.226458	0.245979
651.432004	0.246259
651.637532	0.246202
651.843041	0.246399
652.048532	0.246570
652.254006	0.246679
652.459460	0.246759
652.664897	0.246819
652.870315	0.246932
653.075716	0.247151
653.281097	0.247493
653.486461	0.247733
653.691807	0.248040
653.897134	0.248184
654.102443	0.248296
654.307734	0.248371
654.513006	0.248641
654.718261	0.248707
654.923497	0.248678
655.128715	0.248490
655.333915	0.248880
655.539096	0.248805
655.744259	0.249180
655.949404	0.249125
656.154531	0.249325
656.359640	0.249520
656.564730	0.249599
656.769802	0.249716
656.974856	0.249932
657.179892	0.249805
657.384909	0.250198
657.589908	0.249907
657.794889	0.250299
657.999852	0.250595
658.204797	0.250795
658.409723	0.251021
658.614631	0.251568
658.819521	0.251985
659.024393	0.252341
659.229246	0.252448
659.434081	0.252703
659.638898	0.252908
659.843697	0.252923
660.048478	0.253124
660.253240	0.253479
660.457984	0.253536
660.662710	0.253634
660.867417	0.253898
661.072107	0.254276
661.276778	0.254733
661.481431	0.254718
661.686066	0.254859
661.890682	0.255011
662.095281	0.255303
662.299861	0.255259
662.504422	0.255110
662.708966	0.255165
662.913491	0.255261
663.117999	0.255170
663.322488	0.255376
663.526958	0.255641
663.731411	0.255813
663.935845	0.255895
664.140261	0.256239
664.344659	0.256830
664.549038	0.256922
664.753400	0.256891
664.957743	0.257299
665.162068	0.257644
665.366375	0.257646
665.570663	0.257757
665.774933	0.257763
665.979185	0.257890
666.183419	0.257779
666.387635	0.257951
666.591832	0.258178
666.796011	0.258417
667.000172	0.258781
667.204315	0.259128
667.408439	0.259634
667.612545	0.260027
667.816634	0.260413
668.020703	0.260768
668.224755	0.261008
668.428788	0.261333
668.632803	0.261262
668.836800	0.260935
669.040779	0.261096
669.244739	0.260969
669.448681	0.261030
669.652605	0.261161
669.856511	0.261318
670.060399	0.261582
670.264268	0.261693
670.468119	0.261905
670.671952	0.262085
670.875767	0.262353
671.079563	0.262485
671.283341	0.262797
671.487101	0.262782
671.690843	0.263001
671.894567	0.263125
672.098272	0.263327
672.301959	0.263501
672.505628	0.263893
672.709278	0.264072
672.912911	0.264543
673.116525	0.264731
673.320121	0.265032
673.523699	0.265222
673.727258	0.265587
673.930799	0.265725
674.134322	0.266065
674.337827	0.266400
674.541314	0.266457
674.744782	0.266583
674.948232	0.266842
675.151664	0.266892
675.355078	0.266934
675.558474	0.266859
675.761851	0.267008
675.965210	0.267272
676.168551	0.267365
676.371873	0.267695
676.575178	0.267640
676.778464	0.267703
676.981732	0.268014
677.184981	0.268513
677.388213	0.268704
677.591426	0.269108
677.794621	0.269328
677.997798	0.269644
678.200956	0.269727
678.404097	0.270040
678.607219	0.270315
678.810323	0.270599
679.013408	0.270607
679.216476	0.270768
679.419525	0.270640
679.622556	0.270819
679.825569	0.271018
680.028563	0.271160
680.231540	0.271373
680.434498	0.271497
680.637438	0.271626
680.840359	0.271784
681.043263	0.271955
681.246148	0.272358
681.449015	0.272551
681.651864	0.272474
681.854694	0.272407
682.057506	0.272370
682.260301	0.272617
682.463076	0.272668
682.665834	0.272567
682.868573	0.272967
683.071295	0.273071
683.273998	0.273176
683.476682	0.273473
683.679349	0.274028
683.881997	0.274472
684.084627	0.274454
684.287239	0.274709
684.489833	0.275256
684.692408	0.275402
684.894965	0.275518
685.097504	0.275507
685.300025	0.275658
685.502527	0.275605
685.705012	0.275755
685.907478	0.275805
686.109925	0.275934
686.312355	0.276056
686.514766	0.275939
686.717159	0.275979
686.919534	0.276209
687.121891	0.276386
687.324230	0.276851
687.526550	0.277015
687.728852	0.277351
687.931136	0.277441
688.133401	0.277597
688.335649	0.277914
688.537878	0.277938
688.740089	0.277959
688.942281	0.277914
689.144456	0.277812
689.346612	0.277941
689.548750	0.278174
689.750870	0.278471
689.952971	0.278297
690.155055	0.278513
690.357120	0.278800
690.559167	0.279114
690.761195	0.279387
690.963206	0.279677
691.165198	0.279886
691.367172	0.280065
691.569128	0.280172
691.771065	0.280617
691.972984	0.280824
692.174885	0.281273
692.376768	0.281511
692.578633	0.281781
692.780479	0.281902
692.982308	0.281859
693.184118	0.281881
693.385909	0.281884
