sample name	sample
index	1264
start time	 04-29-2021  01:24:31 PM
880	0.222471
Peak Time (s)	102.035
Peak Height 	0.2225
calc peak height	100,103
Baseline Time (s)	10.534
Baseline Value 	-0.004592
subtract baseline	10,4
Abs	0.118918
Peak Time (s)	101.538
Peak Height 	0.1189
calc peak height	100,103
Baseline Time (s)	10.534
Baseline Value 	9.357E-4
subtract baseline	10,3
PK_550	0.071538
Peak Time (s)	102.035
Peak Height 	0.07154
calc peak height	100,103
Baseline Time (s)	9.534
Baseline Value 	4.2229E-4
subtract baseline	10,2
PK_880	0.113441
Peak Time (s)	101.538
Peak Height 	0.1134
calc peak height	100,103
Baseline Time (s)	11.034
Baseline Value 	0.00159
subtract baseline	10,1


Time (s)	A880-A510	A880-A775	A880-A975	A880	I510	I775	I975	I880	
0.036500	0.002568	0.000328	0.001782	0.002657	6229.976787	43931.533852	3919.834542	22712.868562
0.534500	-0.002631	0.000008	0.000748	0.003931	6181.367566	43781.447483	3914.518397	22654.954957
1.034000	-0.001298	-0.000523	-0.001664	0.002621	6201.122893	43854.717242	3911.989057	22714.494300
1.534500	-0.000586	0.000121	-0.000906	0.006433	6177.962928	43557.626777	3905.018479	22541.683016
2.035000	0.001762	0.000862	0.000408	0.000331	6241.500369	44202.083574	3922.033533	22819.052940
2.535500	0.000647	0.000415	0.003370	0.001198	6226.486129	44077.580263	3926.895510	22779.431456
3.035500	0.000422	0.000408	-0.002459	-0.001681	6246.607375	44350.321846	3920.058218	22911.397219
3.536000	-0.002359	0.001165	0.000912	0.003146	6189.255872	43964.372223	3916.700621	22690.620269
4.033500	0.000790	-0.000368	0.000023	-0.000107	6237.455843	44127.086990	3922.159228	22839.154134
4.533500	-0.003880	-0.000624	-0.001479	0.000700	6196.173006	44026.396222	3916.827142	22802.171244
5.034000	0.003168	0.000085	-0.003125	-0.000117	6255.609052	44170.920301	3914.918324	22839.575326
5.534500	-0.001681	0.000208	-0.003621	0.000073	6217.406832	44164.638859	3913.346173	22830.910180
6.035000	-0.001553	0.000219	0.004204	-0.000367	6221.687037	44207.371442	3932.489056	22851.038182
6.537500	-0.001324	-0.000085	0.001086	-0.000625	6225.368213	44202.970854	3925.823970	22862.887632
7.035500	-0.001551	-0.000091	0.004538	-0.000174	6220.245100	44159.588865	3932.819492	22842.193301
7.535500	0.000595	-0.000234	0.003226	-0.000308	6237.499372	44158.811504	3930.068731	22848.362177
8.484000	-0.000977	0.000208	-0.001046	0.000090	6222.585430	44162.981761	3919.230718	22830.114997
9.014500	0.000538	0.000314	0.002104	0.000519	6230.800426	44132.345963	3925.530803	22810.487060
9.115500	-0.000606	0.000749	-0.004868	0.000520	6222.140606	44173.462976	3909.465054	22810.422142
9.533500	-0.001405	0.000000	-0.003462	-0.000477	6223.638720	44197.030504	3914.973099	22856.098617
10.034000	0.000406	-0.000283	0.001773	-0.000240	6235.546849	44147.698222	3926.524881	22845.246306
10.534500	0.000050	0.000193	0.000000	0.000000	6231.030817	44170.065906	3921.856369	22834.233727
11.034500	0.000000	-0.000177	0.002552	-0.000058	6231.093269	44140.458912	3927.914910	22836.895831
11.535000	-0.001006	-0.000003	-0.002197	0.000131	6222.061652	44139.084751	3916.484915	22828.242570
12.035500	-0.001845	0.000251	-0.000650	0.000105	6215.928580	44165.539708	3920.110135	22829.404552
12.535000	0.000868	-0.000707	-0.000536	-0.000304	6239.539002	44113.641148	3921.319695	22848.172398
13.036000	-0.000623	0.000069	0.006291	-0.001002	6233.522387	44253.445649	3938.875399	22880.193376
13.537000	-0.000599	0.000822	0.006334	-0.000349	6228.761685	44262.937722	3937.440063	22850.234458
14.033000	-0.001531	0.000301	-0.002898	0.001462	6208.080739	44041.826008	3911.817453	22767.353542
14.534000	-0.003840	0.000197	-0.001435	0.000584	6197.340231	44115.083608	3917.195740	22807.500381
15.034500	0.000672	0.000824	0.003408	-0.000379	6238.615756	44265.985205	3930.655893	22851.590039
15.534500	-0.001791	0.000061	-0.002221	-0.001382	6227.562146	44288.860644	3919.916067	22897.653225
16.035000	0.002607	-0.000119	0.003362	-0.001197	6259.569287	44254.081451	3932.460429	22889.128856
16.535500	-0.001943	-0.000284	-0.001011	-0.000155	6217.155244	44139.601387	3919.877680	22841.356582
17.035500	0.000602	0.000789	0.002679	-0.002704	6255.774520	44484.321588	3934.390127	22958.520111
17.536000	-0.001910	0.000450	0.006175	0.000361	6213.513347	44160.197897	3935.401867	22817.713658
18.036000	-0.001455	0.000572	0.001946	0.000867	6213.126281	44123.814341	3924.355498	22794.546582
18.536000	-0.001418	-0.000273	0.005177	0.000233	6218.179185	44103.785828	3933.360968	22823.564161
19.034000	-0.001304	0.000876	-0.000656	0.000842	6214.450033	44155.034121	3918.396969	22795.691540
19.534500	0.000984	0.000070	-0.000099	0.000340	6235.529803	44126.227377	3920.840808	22818.664024
20.034500	-0.000454	0.000636	0.004888	0.000635	6222.427570	44151.920079	3931.747281	22805.174759
20.534500	-0.004060	-0.000649	0.001383	-0.000476	6203.637734	44135.366695	3926.166576	22856.056863
21.035000	-0.000119	0.000646	0.004825	0.000914	6222.840872	44126.316916	3930.945910	22792.395123
21.535000	-0.001566	-0.000500	0.000252	0.000228	6217.108849	44082.845755	3921.912572	22823.799423
22.035500	-0.000756	-0.000366	0.003777	-0.000052	6225.330614	44122.096506	3930.756645	22836.636388
22.536000	-0.000234	0.000296	-0.005550	0.000651	6223.956811	44118.090844	3907.608755	22804.408453
23.036000	0.001826	0.000530	0.006585	0.000392	6241.522702	44164.827954	3936.289185	22816.265335
23.536500	-0.000415	0.000767	0.002281	0.000930	6220.488338	44136.343203	3924.987295	22791.680499
24.034000	-0.000440	0.000659	0.003780	0.000841	6220.971898	44134.508674	3928.680578	22795.739519
24.534000	-0.000921	-0.000205	0.003132	0.000377	6220.843585	44096.604252	3928.252782	22816.973106
25.034500	-0.000890	0.000639	0.000935	0.001174	6215.067440	44101.031792	3921.303238	22780.504826
25.535000	-0.002712	0.000318	0.000876	0.000885	6203.538324	44097.997511	3921.833457	22793.706610
26.035000	-0.002468	0.000153	0.001610	0.000417	6208.892323	44126.767927	3924.620797	22815.128710
26.535500	-0.001834	0.000261	-0.001072	0.000834	6210.518997	44097.426584	3917.455926	22796.050371
27.036000	-0.002356	-0.000623	-0.000129	0.000383	6209.986473	44056.437893	3920.672267	22816.679187
27.536000	-0.000584	0.000553	0.000081	-0.000701	6231.537699	44270.873515	3923.668118	22866.374219
28.036500	-0.001433	-0.000083	0.001545	-0.000711	6225.192764	44211.376683	3927.090026	22866.833760
28.534000	0.000119	-0.000412	0.004431	0.000173	6230.246952	44096.335360	3931.756885	22826.304444
29.034000	0.001640	0.000158	0.005652	-0.000617	6247.775243	44225.272730	3936.466796	22862.504193
29.534500	0.000803	0.001051	0.001310	0.000467	6233.195154	44207.212725	3923.809288	22812.838727
30.035000	0.002455	0.000873	-0.001683	-0.000489	6253.008487	44281.122844	3919.097345	22856.634290
30.538000	0.002114	0.000136	0.003590	-0.001034	6254.569399	44262.877810	3932.615422	22881.686098
31.035500	0.001293	-0.000080	-0.000253	0.001848	6226.459102	43969.449774	3917.007611	22749.766451
31.538500	-0.000565	-0.000184	0.002185	-0.000653	6231.318028	44196.314575	3928.445645	22864.175986
32.036500	0.000255	0.000644	0.003415	-0.000846	6238.995460	44293.292487	3931.765905	22873.043575
32.537000	-0.001176	0.000465	0.004057	-0.000406	6224.829414	44234.432372	3932.236530	22852.835737
33.037000	0.002822	0.000964	0.003771	-0.000220	6253.756926	44264.220806	3931.133661	22844.302829
33.566500	0.002138	0.000922	0.005492	-0.000105	6247.670250	44249.232143	3934.890738	22839.039050
34.037000	-0.000627	0.000055	0.002027	0.001159	6217.163594	44047.192556	3923.867144	22781.203356
34.534500	-0.002362	0.000683	0.002291	0.001565	6201.065974	44068.233778	3923.537155	22762.672514
35.035000	0.001321	-0.000049	-0.001193	0.001504	6229.268121	44004.792258	3915.633815	22765.430096
35.535500	-0.000899	-0.000165	0.000168	0.001024	6216.131353	44039.133752	3919.876183	22787.354575
36.035500	0.000294	0.000741	-0.001700	0.001860	6218.824064	44045.808086	3913.651821	22749.186227
36.539500	-0.002294	-0.000245	-0.000492	0.001265	6203.834379	44008.851223	3917.799582	22776.380321
37.036500	0.000227	0.000097	0.009863	0.001237	6223.021114	44043.872061	3942.016619	22777.647496
37.536500	0.000212	-0.000001	0.004136	0.000944	6225.119788	44062.298408	3929.269702	22791.036533
38.040000	-0.000449	0.000310	-0.000454	0.001408	6216.636702	44047.791389	3917.558331	22769.850688
38.534500	-0.002344	0.000102	-0.001376	0.001144	6204.365916	44053.073507	3916.042160	22781.900084
39.037500	-0.001892	0.000422	0.001186	0.001448	6205.471677	44054.652785	3921.251253	22768.004246
39.535000	-0.001659	-0.000617	0.002434	0.000847	6211.739929	44013.208413	3925.535158	22795.472882
40.035500	-0.002536	0.000503	-0.000661	0.001575	6199.691431	44050.243225	3916.696558	22762.211200
40.536000	-0.000940	0.000383	0.003108	0.001260	6214.050219	44068.724083	3926.141478	22776.594343
41.035500	0.000678	0.000909	0.001941	0.001912	6221.329962	44056.819414	3921.923158	22746.831698
41.536500	-0.002399	0.000433	0.001718	0.001778	6199.193839	44024.456224	3921.717522	22752.937970
42.036500	-0.001545	0.000432	0.003415	0.001433	6208.197936	44057.046869	3926.452979	22768.704853
42.539500	-0.000606	-0.000008	0.004949	0.001517	6214.631460	44007.452470	3929.829959	22764.867470
43.037000	0.000290	-0.000072	0.001523	0.001415	6222.151674	44011.050317	3922.105503	22769.504879
43.537000	0.000138	0.000512	0.004864	0.001814	6217.991877	44028.438339	3928.937235	22751.284682
44.035000	0.001797	0.000870	0.000201	-0.001726	6257.421107	44398.678608	3926.325097	22913.452293
44.538000	0.000186	0.000421	0.006966	0.000865	6225.514512	44109.689356	3936.073479	22794.624219
45.035500	-0.001176	-0.000398	0.005926	-0.000621	6226.449715	44172.858449	3937.119026	22862.688168
45.536000	0.002174	0.000475	0.004320	0.000276	6245.050564	44170.671111	3931.258306	22821.609638
46.036500	0.001250	0.000069	0.001257	-0.000486	6243.823160	44204.463596	3925.898575	22856.533940
46.536500	-0.003074	0.000368	-0.003552	0.003496	6181.306398	43856.205955	3905.680021	22674.700305
47.039500	0.000865	0.000305	0.005891	-0.000077	6237.792907	44187.965675	3935.762202	22837.758096
47.537000	-0.000345	0.001097	0.004515	0.002731	6207.457847	43997.140976	3925.992114	22709.495440
48.035000	-0.000615	0.000198	0.000820	0.001226	6216.748860	44054.407000	3920.916910	22778.152848
48.535000	-0.002424	0.000067	-0.004563	0.003313	6187.522179	43845.161210	3903.795320	22683.021330
49.035500	0.001030	0.000186	0.003629	-0.000723	6243.952906	44238.100001	3931.978530	22867.404207
49.535500	0.001330	0.000676	0.002163	-0.001011	6248.423235	44312.051429	3929.228372	22880.621335
50.035500	0.001130	0.000373	0.005441	-0.003451	6265.511148	44516.027956	3942.644422	22992.978013
50.536000	0.000582	0.000093	0.004051	0.016344	6113.502389	42639.311318	3893.809302	22099.324194
51.036000	0.035218	-0.023911	0.082120	0.622419	3794.147859	12268.530184	3206.546518	7683.290156
51.539000	-0.001425	-0.025036	-0.020231	0.026539	6025.688352	39540.522662	3819.257275	21654.736061
52.036000	-0.004454	-0.071808	-0.022590	-0.236191	8548.009542	63098.998064	4560.304000	37212.657025
52.537000	0.003875	-0.091219	-0.009487	-0.269003	9104.853271	64983.362724	4743.567920	39902.646645
53.034500	0.000091	-0.097519	-0.008806	-0.278468	9185.980911	65436.931266	4786.743377	40717.118750
53.536500	0.003434	-0.071645	-0.001767	-0.244808	8765.091159	64327.052602	4675.571206	37899.551378
54.035000	-0.000093	-0.044787	-0.006424	-0.205257	8215.396289	62559.731665	4505.362329	34856.196440
54.535500	0.002766	-0.039624	-0.004638	-0.201848	8208.728817	62800.939642	4499.439708	34606.651371
55.035500	-0.007090	-0.032235	-0.010181	-0.181040	7849.802401	60980.465132	4406.269973	33124.997022
55.536000	0.002241	-0.035871	-0.004893	-0.195287	8123.518852	62415.286689	4474.798025	34131.801498
56.039000	0.009957	-0.015352	0.004169	-0.132781	7509.597590	56937.378915	4294.409217	29950.134809
56.536000	0.012316	-0.007460	0.006875	-0.081003	7018.521501	51750.489639	4147.235618	26914.081127
57.036000	0.012721	-0.002814	0.011990	-0.038777	6644.449765	47707.041346	4046.469154	24692.556618
57.537000	0.018933	0.001851	0.015462	0.014507	6264.318872	42969.050454	3924.068493	22180.569924
58.034500	0.022964	0.009022	0.025965	0.038908	6112.178391	41413.224153	3892.349024	21129.157135
58.535000	0.032530	0.013902	0.030367	0.056948	6050.949510	40265.796769	3862.193512	20388.939515
59.038500	0.041171	0.017942	0.035655	0.080132	5948.626187	38657.572209	3824.032702	19481.717466
59.535500	0.045186	0.022809	0.042410	0.084037	5949.390387	38736.673077	3830.004537	19333.612248
60.039000	0.053773	0.027692	0.056669	0.113694	5807.059410	36753.580241	3798.200015	18251.303587
60.538500	0.057692	0.031463	0.054671	0.123376	5769.315701	36296.937245	3774.814024	17913.655004
61.036500	0.062245	0.033458	0.060914	0.137585	5707.186697	35372.717819	3759.220707	17431.579556
61.537000	0.065462	0.036704	0.075412	0.186183	5433.013317	32159.793175	3695.615191	15897.053776
62.037000	0.070633	0.038723	0.081949	0.150496	5678.557463	34807.259148	3775.127177	17007.019861
62.537000	0.080948	0.038079	0.078216	0.185398	5528.032094	32305.301563	3702.076535	15920.490560
63.035000	0.077878	0.046934	0.077896	0.146896	5747.707013	35684.955554	3774.230994	17124.132468
63.535000	0.083506	0.047123	0.079975	0.119987	5965.836732	37791.205902	3833.408491	18030.986300
64.035500	0.077684	0.051936	0.088288	0.183988	5517.022804	33354.807888	3723.111090	15962.702851
64.538500	0.083369	0.055636	0.086085	0.199027	5462.196913	32571.877062	3691.733624	15519.376333
65.039000	0.080777	0.059372	0.079973	0.200355	5439.570066	32736.417386	3678.572423	15480.955974
65.563500	0.081648	0.059930	0.088074	0.188720	5512.477375	33583.887439	3713.981801	15821.545205
66.036500	0.085528	0.062659	0.089036	0.184577	5560.376794	34072.215654	3723.407494	15945.073050
66.537500	0.087922	0.064228	0.080386	0.181691	5592.378154	34392.884504	3712.774875	16031.802448
67.037000	0.085143	0.065358	0.086185	0.181777	5574.963306	34468.454908	3723.311476	16029.196083
67.535500	0.085703	0.065993	0.085652	0.176132	5612.823125	34927.222583	3732.860745	16200.485645
68.035000	0.088583	0.065737	0.092763	0.174378	5641.461202	35037.730513	3749.686912	16254.175235
68.535500	0.087083	0.065887	0.087337	0.172560	5643.437195	35183.338364	3742.797256	16310.035562
69.036000	0.085908	0.065164	0.094390	0.171373	5643.506169	35217.757532	3758.616194	16346.624341
69.538500	0.092478	0.067060	0.088471	0.172845	5675.383613	35249.235181	3744.412372	16301.246213
70.041500	0.089748	0.066414	0.091822	0.172503	5660.405984	35226.678074	3751.479864	16311.792989
70.536000	0.089718	0.067474	0.090514	0.173383	5654.718379	35240.057704	3747.285144	16284.709869
71.037000	0.091556	0.068452	0.095995	0.179060	5630.862941	34892.760770	3746.912190	16111.371122
71.537000	0.096252	0.069477	0.098058	0.177070	5672.547666	35115.138008	3754.692986	16171.872922
72.040000	0.092871	0.070235	0.090836	0.179738	5634.807317	34974.066352	3735.830809	16090.811793
72.535500	0.093783	0.070784	0.096830	0.184245	5612.623959	34683.762888	3738.639339	15955.021615
73.035000	0.092133	0.070267	0.093929	0.190844	5562.408420	34168.362664	3720.859821	15758.692367
73.535000	0.097231	0.070399	0.098558	0.187760	5612.207150	34400.203063	3735.264614	15850.062573
74.043500	0.098154	0.070081	0.097893	0.189188	5609.108054	34274.130178	3731.331043	15807.674639
74.536000	0.097907	0.070575	0.101690	0.191870	5591.195613	34116.872066	3733.424306	15728.446565
75.038000	0.096049	0.071628	0.098077	0.198297	5541.169703	33733.746022	3714.763410	15540.519918
75.536500	0.099916	0.072272	0.099198	0.193944	5590.802074	34089.781161	3724.884298	15667.497711
76.036500	0.100331	0.071989	0.101948	0.193708	5594.774168	34086.486502	3730.460939	15674.429519
76.537000	0.101689	0.071760	0.103076	0.193673	5603.286058	34072.514960	3732.639703	15675.434601
77.037000	0.100102	0.072758	0.104798	0.200366	5553.064294	33667.387245	3723.357075	15480.628456
77.535000	0.101622	0.074422	0.106702	0.194947	5595.085392	34172.034999	3737.069374	15638.114649
78.039500	0.106888	0.075453	0.108146	0.196058	5620.571408	34166.336679	3737.700345	15605.676664
78.538000	0.105180	0.075220	0.109172	0.195547	5613.208461	34186.315790	3740.610143	15620.598099
79.035500	0.107468	0.075968	0.110580	0.196306	5622.620129	34185.546192	3741.840738	15598.437250
79.535500	0.106702	0.077078	0.106184	0.197689	5609.396006	34165.915808	3730.937502	15558.182782
80.036500	0.105934	0.076085	0.109096	0.197576	5605.384040	34102.839567	3736.627893	15561.486569
80.537500	0.106996	0.076704	0.111127	0.199748	5598.590477	33991.627355	3736.360046	15498.491266
81.038000	0.104762	0.076645	0.100751	0.206764	5542.643063	33490.443304	3704.194586	15297.200940
81.538000	0.108772	0.077045	0.110716	0.202011	5595.612827	33854.632004	3731.330372	15433.198525
82.037000	0.106973	0.074660	0.101714	0.200595	5593.275165	33785.862919	3717.230315	15474.028557
82.536000	0.109545	0.075983	0.114164	0.202694	5596.164423	33730.831438	3736.532924	15413.581474
83.038000	0.102581	0.074099	0.112465	0.207120	5527.506883	33287.184922	3725.053715	15287.065451
83.536000	0.107897	0.074344	0.112119	0.202323	5588.372611	33641.139473	3733.379534	15424.231823
84.036000	0.109146	0.074090	0.113749	0.201867	5598.776005	33655.429237	3737.311141	15437.349593
84.539500	0.109284	0.072945	0.107279	0.201577	5601.390898	33595.057300	3725.717891	15445.688275
85.036500	0.108016	0.072039	0.107982	0.200458	5600.484649	33610.126055	3729.120795	15477.984851
85.537500	0.108172	0.072521	0.115020	0.200528	5601.005265	33639.156281	3742.255022	15475.943037
86.037000	0.109691	0.071350	0.116162	0.200322	5611.580700	33571.114807	3744.820649	15481.889407
86.537500	0.107747	0.071408	0.114744	0.200315	5599.711802	33575.672042	3742.136385	15482.107430
87.035000	0.105156	0.071071	0.109878	0.206189	5548.448013	33141.104875	3721.979078	15313.562573
87.541000	0.109711	0.070287	0.113092	0.200598	5610.010499	33476.886719	3738.467356	15473.921196
88.035500	0.109410	0.070835	0.113741	0.201217	5604.365040	33471.890577	3738.523335	15456.060792
88.538500	0.108442	0.071052	0.115052	0.201476	5596.862564	33468.927250	3740.515554	15448.599566
89.036000	0.108752	0.070769	0.110030	0.207656	5561.251571	33018.473190	3719.546204	15271.838609
89.536500	0.107328	0.069892	0.111240	0.202897	5581.424745	33288.228613	3730.651702	15407.736295
90.036500	0.109155	0.070022	0.112639	0.202911	5592.459481	33296.358078	3733.251360	15407.346302
90.537000	0.105160	0.069148	0.109844	0.204415	5559.136642	33130.764158	3725.211342	15364.231946
91.037000	0.109266	0.069046	0.114724	0.203821	5587.593983	33164.982183	3735.463639	15381.245008
91.538500	0.110232	0.069281	0.116656	0.204667	5588.321128	33122.490093	3737.512732	15357.021020
92.038000	0.108935	0.069946	0.111008	0.205986	5572.437249	33077.114328	3724.453110	15319.345934
92.535500	0.107282	0.069182	0.111881	0.207748	5551.852403	32902.561029	3722.803118	15269.221926
93.035000	0.106843	0.069342	0.113800	0.213149	5517.013664	32543.448031	3716.366735	15116.786897
93.536000	0.106185	0.069404	0.118113	0.207356	5547.620668	32944.850127	3735.187754	15280.343998
94.036500	0.111130	0.071176	0.114893	0.209845	5562.389003	32895.465476	3724.501721	15209.815722
94.536000	0.110163	0.068819	0.116164	0.209910	5556.174556	32729.007402	3726.748411	15207.979391
95.036500	0.109487	0.069661	0.112183	0.210794	5546.799747	32726.118819	3717.725435	15183.008917
95.536500	0.110411	0.070369	0.116204	0.211873	5545.875413	32700.759903	3723.170598	15152.643487
96.037500	0.110852	0.069817	0.116963	0.212303	5545.941571	32633.582913	3723.780224	15140.539253
96.538000	0.111958	0.070708	0.115088	0.214259	5540.855120	32560.928283	3716.695225	15085.712496
97.035000	0.110911	0.069665	0.114763	0.213838	5537.116382	32518.632740	3716.871185	15097.492314
97.538000	0.110147	0.070408	0.114442	0.215135	5524.840803	32480.915928	3713.897127	15061.234627
