sample name	sample
index	1280
start time	 04-29-2021  02:38:57 PM


Wavelength (nm)	Absorbance
494.344910	-0.190089
494.563924	-0.190089
494.782919	-0.190089
495.001897	-1.222074
495.220856	-0.013225
495.439797	0.041985
495.658719	0.058198
495.877624	0.039937
496.096510	0.101896
496.315378	0.036065
496.534227	0.030183
496.753059	0.032483
496.971872	-0.059801
497.190667	0.092032
497.409444	0.107669
497.628203	0.114266
497.846943	0.117751
498.065665	0.120346
498.284369	0.122088
498.503055	0.122153
498.721723	0.121935
498.940372	0.122859
499.159003	0.123754
499.377616	0.123905
499.596210	0.124688
499.814787	0.124801
500.033345	0.124823
500.251885	0.124692
500.470406	0.125033
500.688910	0.125305
500.907395	0.125337
501.125862	0.125104
501.344311	0.125293
501.562742	0.124659
501.781154	0.123550
501.999548	0.123253
502.217924	0.124072
502.436282	0.124873
502.654621	0.125899
502.872942	0.126708
503.091245	0.126663
503.309530	0.127027
503.527797	0.126934
503.746045	0.127178
503.964275	0.126748
504.182487	0.126086
504.400681	0.126369
504.618856	0.125695
504.837013	0.125930
505.055152	0.127118
505.273273	0.127213
505.491376	0.128121
505.709460	0.128639
505.927526	0.129208
506.145574	0.129064
506.363604	0.128491
506.581615	0.128891
506.799608	0.128586
507.017583	0.127751
507.235540	0.127416
507.453478	0.126547
507.671399	0.127358
507.889301	0.126841
508.107185	0.127436
508.325050	0.128162
508.542898	0.127870
508.760727	0.128549
508.978538	0.128746
509.196330	0.128614
509.414105	0.129393
509.631861	0.128495
509.849599	0.129762
510.067319	0.129591
510.285021	0.129484
510.502704	0.130408
510.720369	0.130730
510.938016	0.130782
511.155645	0.131227
511.373255	0.130800
511.590848	0.131954
511.808422	0.131359
512.025977	0.131958
512.243515	0.131330
512.461034	0.131360
512.678536	0.131206
512.896018	0.131576
513.113483	0.132535
513.330930	0.133149
513.548358	0.133863
513.765768	0.134033
513.983160	0.134275
514.200533	0.135310
514.417889	0.135364
514.635226	0.135434
514.852545	0.135570
515.069845	0.134881
515.287128	0.135474
515.504392	0.134764
515.721638	0.135775
515.938866	0.136364
516.156075	0.135828
516.373267	0.136068
516.590440	0.136377
516.807594	0.136729
517.024731	0.137567
517.241850	0.137366
517.458950	0.138179
517.676032	0.138016
517.893095	0.137806
518.110141	0.139097
518.327168	0.139911
518.544177	0.140017
518.761168	0.140148
518.978141	0.140112
519.195095	0.139758
519.412031	0.139651
519.628949	0.139844
519.845849	0.139985
520.062731	0.139987
520.279594	0.139693
520.496439	0.139662
520.713266	0.139865
520.930074	0.140210
521.146865	0.140679
521.363637	0.140862
521.580391	0.141356
521.797127	0.141725
522.013844	0.141820
522.230543	0.142247
522.447224	0.142734
522.663887	0.142917
522.880532	0.142934
523.097158	0.144279
523.313766	0.144784
523.530356	0.144842
523.746928	0.144861
523.963481	0.144893
524.180017	0.144890
524.396534	0.145298
524.613032	0.145945
524.829513	0.145934
525.045975	0.145204
525.262420	0.145169
525.478845	0.145188
525.695253	0.145514
525.911643	0.145865
526.128014	0.145995
526.344367	0.146119
526.560702	0.146065
526.777018	0.147118
526.993316	0.147101
527.209597	0.147538
527.425858	0.147691
527.642102	0.147961
527.858328	0.148273
528.074535	0.148527
528.290724	0.148472
528.506894	0.149072
528.723047	0.149709
528.939181	0.150347
529.155297	0.150301
529.371395	0.151038
529.587475	0.151607
529.803536	0.151777
530.019579	0.152947
530.235604	0.153572
530.451611	0.152536
530.667600	0.152307
530.883570	0.152474
531.099522	0.153022
531.315456	0.153227
531.531372	0.152907
531.747269	0.153480
531.963148	0.153057
532.179009	0.152733
532.394852	0.153921
532.610676	0.153691
532.826482	0.153701
533.042271	0.153944
533.258040	0.154470
533.473792	0.155356
533.689525	0.155221
533.905240	0.155465
534.120937	0.156503
534.336616	0.156917
534.552277	0.157522
534.767919	0.158404
534.983543	0.159102
535.199149	0.158604
535.414736	0.158861
535.630306	0.159022
535.845857	0.159399
536.061390	0.159337
536.276904	0.159611
536.492401	0.159333
536.707879	0.159334
536.923339	0.159222
537.138781	0.159706
537.354204	0.159796
537.569610	0.160585
537.784997	0.160603
538.000366	0.160587
538.215716	0.160782
538.431049	0.161395
538.646363	0.161878
538.861659	0.161732
539.076937	0.162127
539.292196	0.161927
539.507438	0.161941
539.722661	0.162557
539.937866	0.162763
540.153052	0.162910
540.368221	0.163641
540.583371	0.163686
540.798503	0.164518
541.013617	0.165389
541.228712	0.166575
541.443789	0.166531
541.658848	0.166468
541.873889	0.166953
542.088912	0.166994
542.303916	0.166472
542.518902	0.166653
542.733870	0.166952
542.948820	0.167323
543.163752	0.167131
543.378665	0.167834
543.593560	0.167572
543.808437	0.167730
544.023295	0.168274
544.238136	0.168781
544.452958	0.169483
544.667762	0.169345
544.882548	0.168837
545.097315	0.168755
545.312064	0.168589
545.526795	0.169515
545.741508	0.169718
545.956203	0.170016
546.170879	0.170598
546.385537	0.170650
546.600177	0.170856
546.814799	0.171021
547.029402	0.171570
547.243988	0.172348
547.458555	0.172633
547.673103	0.173117
547.887634	0.173353
548.102146	0.173761
548.316640	0.173547
548.531116	0.174172
548.745574	0.174699
548.960013	0.174975
549.174435	0.175046
549.388838	0.174769
549.603222	0.174661
549.817589	0.174442
550.031937	0.174386
550.246267	0.174895
550.460579	0.174493
550.674873	0.174611
550.889148	0.175043
551.103405	0.175266
551.317644	0.176265
551.531865	0.176840
551.746068	0.177784
551.960252	0.178417
552.174418	0.178257
552.388566	0.178912
552.602696	0.179054
552.816807	0.178720
553.030900	0.178433
553.244975	0.178418
553.459032	0.178521
553.673070	0.177942
553.887091	0.177751
554.101093	0.178203
554.315077	0.178567
554.529042	0.178981
554.742990	0.179491
554.956919	0.179933
555.170830	0.179968
555.384722	0.180122
555.598597	0.180530
555.812453	0.180646
556.026291	0.180557
556.240111	0.180193
556.453913	0.180267
556.667696	0.180184
556.881461	0.180691
557.095208	0.181066
557.308937	0.181631
557.522647	0.181936
557.736339	0.182301
557.950013	0.183035
558.163669	0.183250
558.377307	0.183488
558.590926	0.183702
558.804527	0.183976
559.018110	0.183731
559.231675	0.183892
559.445221	0.184116
559.658749	0.183966
559.872259	0.183778
560.085751	0.184350
560.299225	0.184639
560.512680	0.185425
560.726117	0.185352
560.939536	0.185867
561.152937	0.185969
561.366319	0.186046
561.579683	0.186211
561.793029	0.186724
562.006357	0.186548
562.219667	0.186306
562.432958	0.186554
562.646231	0.186621
562.859486	0.186843
563.072723	0.186917
563.285941	0.187293
563.499141	0.187796
563.712323	0.188169
563.925487	0.188234
564.138632	0.188615
564.351760	0.188332
564.564869	0.188879
564.777960	0.188838
564.991032	0.188925
565.204087	0.188922
565.417123	0.188880
565.630141	0.188821
565.843140	0.189086
566.056122	0.189323
566.269085	0.189424
566.482030	0.189284
566.694957	0.189263
566.907866	0.189410
567.120756	0.189867
567.333628	0.190257
567.546482	0.190400
567.759318	0.190707
567.972135	0.190852
568.184935	0.190699
568.397716	0.190648
568.610478	0.190630
568.823223	0.190871
569.035949	0.190652
569.248657	0.190530
569.461347	0.190824
569.674019	0.191239
569.886672	0.191519
570.099308	0.192042
570.311925	0.192668
570.524523	0.193278
570.737104	0.193198
570.949666	0.193296
571.162210	0.193505
571.374736	0.193609
571.587244	0.193585
571.799733	0.193447
572.012205	0.193364
572.224658	0.193450
572.437092	0.193323
572.649509	0.193487
572.861907	0.193944
573.074287	0.193928
573.286649	0.194022
573.498993	0.193992
573.711318	0.194601
573.923625	0.195074
574.135914	0.194705
574.348185	0.195320
574.560438	0.195541
574.772672	0.195150
574.984888	0.194981
575.197086	0.195114
575.409266	0.195530
575.621427	0.195017
575.833570	0.194893
576.045695	0.195230
576.257802	0.195337
576.469890	0.195350
576.681961	0.195778
576.894013	0.196112
577.106046	0.196054
577.318062	0.196105
577.530059	0.196515
577.742039	0.196710
577.954000	0.196574
578.165942	0.196404
578.377867	0.196359
578.589773	0.196505
578.801661	0.196767
579.013531	0.196995
579.225382	0.197263
579.437216	0.197521
579.649031	0.197460
579.860828	0.198057
580.072606	0.198399
580.284367	0.198902
580.496109	0.198933
580.707833	0.199444
580.919539	0.199699
581.131227	0.199817
581.342896	0.200012
581.554547	0.200483
581.766180	0.200535
581.977795	0.200720
582.189391	0.200790
582.400969	0.201124
582.612529	0.201231
582.824071	0.200812
583.035595	0.200713
583.247100	0.200651
583.458587	0.200713
583.670056	0.200718
583.881506	0.200889
584.092939	0.201058
584.304353	0.201308
584.515749	0.200778
584.727127	0.201552
584.938486	0.201937
585.149828	0.202068
585.361151	0.202078
585.572456	0.201959
585.783742	0.202143
585.995011	0.201955
586.206261	0.201836
586.417493	0.202158
586.628706	0.202092
586.839902	0.202401
587.051079	0.202241
587.262238	0.202594
587.473379	0.203418
587.684502	0.203542
587.895606	0.203949
588.106692	0.204055
588.317760	0.204735
588.528810	0.204700
588.739841	0.204384
588.950855	0.204864
589.161850	0.204864
589.372827	0.204691
589.583785	0.204580
589.794726	0.205020
590.005648	0.205795
590.216552	0.205549
590.427437	0.205787
590.638305	0.206171
590.849154	0.206310
591.059985	0.206289
591.270798	0.206469
591.481592	0.206489
591.692369	0.206045
591.903127	0.205776
592.113867	0.206066
592.324588	0.206555
592.535292	0.206642
592.745977	0.206697
592.956644	0.206559
593.167293	0.206505
593.377923	0.207089
593.588536	0.207479
593.799130	0.207643
594.009706	0.207499
594.220263	0.207270
594.430803	0.207534
594.641324	0.207912
594.851827	0.208425
595.062312	0.208666
595.272778	0.208596
595.483227	0.208924
595.693657	0.208952
595.904069	0.209482
596.114462	0.209727
596.324838	0.209642
596.535195	0.209779
596.745534	0.209734
596.955855	0.210026
597.166157	0.210180
597.376441	0.210491
597.586707	0.210578
597.796955	0.210692
598.007185	0.210938
598.217396	0.211177
598.427589	0.211044
598.637764	0.211433
598.847921	0.211558
599.058060	0.211827
599.268180	0.211703
599.478282	0.212003
599.688366	0.212090
599.898431	0.212249
600.108479	0.212158
600.318508	0.212601
600.528519	0.212755
600.738511	0.212673
600.948486	0.212717
601.158442	0.212567
601.368380	0.212572
601.578300	0.212648
601.788202	0.212868
601.998085	0.212919
602.207950	0.212603
602.417797	0.213018
602.627626	0.213179
602.837436	0.212850
603.047228	0.213460
603.257002	0.213728
603.466758	0.213873
603.676496	0.213866
603.886215	0.214318
604.095916	0.214611
604.305599	0.214397
604.515264	0.214612
604.724910	0.215057
604.934538	0.214592
605.144148	0.214416
605.353740	0.214426
605.563314	0.214166
605.772869	0.214263
605.982406	0.214303
606.191925	0.214259
606.401425	0.214640
606.610908	0.214571
606.820372	0.215239
607.029818	0.215518
607.239246	0.215643
607.448655	0.216372
607.658047	0.216591
607.867420	0.216818
608.076775	0.217012
608.286111	0.216839
608.495430	0.216949
608.704730	0.216912
608.914012	0.216883
609.123275	0.216915
609.332521	0.216804
609.541748	0.216683
609.750957	0.216916
609.960148	0.217264
610.169321	0.217250
610.378475	0.217434
610.587611	0.217430
610.796729	0.217877
611.005829	0.218194
611.214910	0.218133
611.423974	0.218157
611.633019	0.217949
611.842045	0.218035
612.051054	0.218328
612.260044	0.218315
612.469017	0.218631
612.677970	0.218368
612.886906	0.218269
613.095824	0.218526
613.304723	0.218777
613.513604	0.219423
613.722467	0.219603
613.931311	0.219733
614.140138	0.219999
614.348946	0.219849
614.557736	0.220544
614.766507	0.221051
614.975261	0.221103
615.183996	0.221379
615.392713	0.221144
615.601412	0.221161
615.810092	0.221013
616.018754	0.221116
616.227399	0.221607
616.436024	0.221421
616.644632	0.221409
616.853222	0.221583
617.061793	0.221156
617.270346	0.221244
617.478880	0.221226
617.687397	0.221272
617.895895	0.221227
618.104375	0.221030
618.312837	0.221192
618.521281	0.220860
618.729706	0.220709
618.938113	0.221275
619.146502	0.221273
619.354873	0.221253
619.563226	0.221559
619.771560	0.221980
619.979876	0.222258
620.188174	0.222394
620.396453	0.222811
620.604715	0.223287
620.812958	0.223407
621.021183	0.223951
621.229390	0.224346
621.437578	0.224720
621.645748	0.225090
621.853900	0.225262
622.062034	0.225079
622.270150	0.225093
622.478247	0.225093
622.686326	0.225090
622.894387	0.225013
623.102430	0.224982
623.310454	0.224772
623.518461	0.224563
623.726449	0.224705
623.934418	0.225062
624.142370	0.225384
624.350303	0.225315
624.558218	0.225336
624.766115	0.225399
624.973994	0.225804
625.181855	0.226171
625.389697	0.226342
625.597521	0.226093
625.805327	0.226246
626.013114	0.226399
626.220883	0.226736
626.428634	0.226891
626.636367	0.227042
626.844082	0.227031
627.051778	0.227074
627.259457	0.227028
627.467117	0.227377
627.674758	0.227022
627.882382	0.227162
628.089987	0.227074
628.297574	0.227191
628.505143	0.227132
628.712694	0.227433
628.920226	0.227644
629.127740	0.227973
629.335236	0.227928
629.542714	0.228394
629.750174	0.228403
629.957615	0.228554
630.165038	0.228897
630.372443	0.229272
630.579829	0.228950
630.787198	0.228795
630.994548	0.229063
631.201880	0.229313
631.409194	0.229684
631.616489	0.230058
631.823766	0.230231
632.031025	0.230159
632.238266	0.230148
632.445489	0.230443
632.652693	0.230931
632.859879	0.230842
633.067047	0.231058
633.274197	0.231096
633.481329	0.230926
633.688442	0.231142
633.895537	0.231186
634.102614	0.231263
634.309672	0.231004
634.516713	0.230886
634.723735	0.230765
634.930739	0.230804
635.137724	0.230740
635.344692	0.230976
635.551641	0.231220
635.758572	0.231569
635.965485	0.232078
636.172379	0.232462
636.379256	0.232909
636.586114	0.233169
636.792954	0.233148
636.999775	0.233292
637.206579	0.233435
637.413364	0.233492
637.620131	0.233726
637.826880	0.233744
638.033610	0.233812
638.240323	0.233607
638.447017	0.233981
638.653692	0.234531
638.860350	0.234704
639.066990	0.234798
639.273611	0.234923
639.480214	0.235039
639.686798	0.235096
639.893365	0.235491
640.099913	0.235925
640.306443	0.236172
640.512955	0.236260
640.719449	0.236295
640.925924	0.236529
641.132381	0.236893
641.338820	0.237064
641.545241	0.237149
641.751644	0.237197
641.958028	0.237319
642.164394	0.237036
642.370742	0.237051
642.577071	0.237367
642.783383	0.237360
642.989676	0.237531
643.195951	0.237693
643.402207	0.237892
643.608446	0.238147
643.814666	0.238118
644.020868	0.238508
644.227052	0.238302
644.433218	0.238332
644.639365	0.238702
644.845494	0.238599
645.051605	0.238763
645.257698	0.238689
645.463772	0.238997
645.669828	0.239293
645.875866	0.239477
646.081886	0.239968
646.287888	0.240241
646.493871	0.240475
646.699836	0.240677
646.905783	0.240512
647.111712	0.240745
647.317622	0.240715
647.523514	0.240745
647.729388	0.240907
647.935244	0.241067
648.141082	0.241248
648.346901	0.241241
648.552702	0.241685
648.758485	0.242065
648.964250	0.242304
649.169996	0.242550
649.375724	0.242779
649.581434	0.243128
649.787126	0.243436
649.992800	0.243592
650.198455	0.243942
650.404092	0.243739
650.609711	0.244187
650.815311	0.244647
651.020894	0.244687
651.226458	0.244890
651.432004	0.245094
651.637532	0.245028
651.843041	0.245190
652.048532	0.245122
652.254006	0.245377
652.459460	0.245191
652.664897	0.245208
652.870315	0.245526
653.075716	0.245779
653.281097	0.245809
653.486461	0.246150
653.691807	0.246423
653.897134	0.246737
654.102443	0.247062
654.307734	0.247514
654.513006	0.247657
654.718261	0.248021
654.923497	0.248161
655.128715	0.248368
655.333915	0.248618
655.539096	0.248717
655.744259	0.248853
655.949404	0.249046
656.154531	0.249206
656.359640	0.249588
656.564730	0.249544
656.769802	0.249808
656.974856	0.250096
657.179892	0.250430
657.384909	0.250546
657.589908	0.250857
657.794889	0.251105
657.999852	0.251060
658.204797	0.251340
658.409723	0.251594
658.614631	0.251658
658.819521	0.251587
659.024393	0.251529
659.229246	0.251752
659.434081	0.251934
659.638898	0.251973
659.843697	0.252135
660.048478	0.252068
660.253240	0.252256
660.457984	0.252452
660.662710	0.252596
660.867417	0.252784
661.072107	0.253148
661.276778	0.253265
661.481431	0.253233
661.686066	0.253681
661.890682	0.253888
662.095281	0.253890
662.299861	0.254054
662.504422	0.254159
662.708966	0.254296
662.913491	0.254417
663.117999	0.254533
663.322488	0.254831
663.526958	0.255004
663.731411	0.255077
663.935845	0.255448
664.140261	0.255767
664.344659	0.256299
664.549038	0.256661
664.753400	0.256841
664.957743	0.256992
665.162068	0.257434
665.366375	0.257528
665.570663	0.257759
665.774933	0.257851
665.979185	0.257806
666.183419	0.257744
666.387635	0.257923
666.591832	0.258043
666.796011	0.258395
667.000172	0.258338
667.204315	0.258456
667.408439	0.258822
667.612545	0.259028
667.816634	0.259370
668.020703	0.259639
668.224755	0.259711
668.428788	0.259989
668.632803	0.259983
668.836800	0.260043
669.040779	0.260312
669.244739	0.260438
669.448681	0.260638
669.652605	0.261044
669.856511	0.261413
670.060399	0.261676
670.264268	0.261970
670.468119	0.262271
670.671952	0.262633
670.875767	0.262819
671.079563	0.262956
671.283341	0.263117
671.487101	0.263263
671.690843	0.263329
671.894567	0.263429
672.098272	0.263394
672.301959	0.263572
672.505628	0.263846
672.709278	0.264102
672.912911	0.264339
673.116525	0.264612
673.320121	0.264558
673.523699	0.264733
673.727258	0.265118
673.930799	0.265548
674.134322	0.265552
674.337827	0.265552
674.541314	0.265840
674.744782	0.265960
674.948232	0.266198
675.151664	0.266615
675.355078	0.267004
675.558474	0.266953
675.761851	0.267187
675.965210	0.267698
676.168551	0.267962
676.371873	0.268155
676.575178	0.268390
676.778464	0.268689
676.981732	0.268776
677.184981	0.268801
677.388213	0.269532
677.591426	0.269698
677.794621	0.269801
677.997798	0.270134
678.200956	0.270308
678.404097	0.270639
678.607219	0.270931
678.810323	0.271254
679.013408	0.271586
679.216476	0.271507
679.419525	0.271524
679.622556	0.271690
679.825569	0.272070
680.028563	0.272266
680.231540	0.272211
680.434498	0.272050
680.637438	0.272100
680.840359	0.272161
681.043263	0.272093
681.246148	0.272292
681.449015	0.272539
681.651864	0.272429
681.854694	0.272525
682.057506	0.272737
682.260301	0.272934
682.463076	0.273009
682.665834	0.272890
682.868573	0.273255
683.071295	0.273634
683.273998	0.273750
683.476682	0.273875
683.679349	0.274278
683.881997	0.274546
684.084627	0.274680
684.287239	0.274788
684.489833	0.274867
684.692408	0.274873
684.894965	0.274697
685.097504	0.274670
685.300025	0.274858
685.502527	0.274691
685.705012	0.274855
685.907478	0.275178
686.109925	0.275329
686.312355	0.275713
686.514766	0.275775
686.717159	0.275933
686.919534	0.276258
687.121891	0.276376
687.324230	0.276586
687.526550	0.276730
687.728852	0.276767
687.931136	0.277040
688.133401	0.277146
688.335649	0.277399
688.537878	0.277630
688.740089	0.277602
688.942281	0.277888
689.144456	0.277859
689.346612	0.278052
689.548750	0.278514
689.750870	0.278682
689.952971	0.278655
690.155055	0.279012
690.357120	0.279350
690.559167	0.279704
690.761195	0.279970
690.963206	0.280404
691.165198	0.280495
691.367172	0.280235
691.569128	0.280417
691.771065	0.281062
691.972984	0.281040
692.174885	0.281064
692.376768	0.281375
692.578633	0.281454
692.780479	0.281481
692.982308	0.281698
693.184118	0.281948
693.385909	0.282339
