sample name	sample
index	588
start time	 03-16-2021  04:18:57 PM


Wavelength (nm)	Absorbance
494.344910	0.328713
494.563924	0.328713
494.782919	0.328713
495.001897	0.049743
495.220856	0.013313
495.439797	0.044328
495.658719	0.033059
495.877624	0.078128
496.096510	0.032951
496.315378	0.110621
496.534227	0.159186
496.753059	0.235654
496.971872	0.344026
497.190667	0.092752
497.409444	0.083286
497.628203	0.075697
497.846943	0.067776
498.065665	0.071036
498.284369	0.071363
498.503055	0.069034
498.721723	0.070805
498.940372	0.070308
499.159003	0.071535
499.377616	0.070722
499.596210	0.070628
499.814787	0.072937
500.033345	0.072433
500.251885	0.073549
500.470406	0.073973
500.688910	0.072962
500.907395	0.072579
501.125862	0.072661
501.344311	0.072618
501.562742	0.073140
501.781154	0.073130
501.999548	0.072450
502.217924	0.071033
502.436282	0.071834
502.654621	0.072527
502.872942	0.073491
503.091245	0.072351
503.309530	0.071728
503.527797	0.070918
503.746045	0.069836
503.964275	0.069935
504.182487	0.070112
504.400681	0.070395
504.618856	0.069382
504.837013	0.068585
505.055152	0.068742
505.273273	0.069223
505.491376	0.068809
505.709460	0.068979
505.927526	0.069542
506.145574	0.069322
506.363604	0.069199
506.581615	0.069648
506.799608	0.070477
507.017583	0.070873
507.235540	0.071602
507.453478	0.073439
507.671399	0.073915
507.889301	0.073650
508.107185	0.073765
508.325050	0.073774
508.542898	0.072996
508.760727	0.071435
508.978538	0.071058
509.196330	0.070361
509.414105	0.069883
509.631861	0.069183
509.849599	0.068853
510.067319	0.069250
510.285021	0.068912
510.502704	0.068799
510.720369	0.071030
510.938016	0.071009
511.155645	0.071153
511.373255	0.070089
511.590848	0.071162
511.808422	0.071873
512.025977	0.070729
512.243515	0.070120
512.461034	0.070965
512.678536	0.070581
512.896018	0.071312
513.113483	0.071131
513.330930	0.071851
513.548358	0.071137
513.765768	0.071592
513.983160	0.072172
514.200533	0.071933
514.417889	0.071429
514.635226	0.071679
514.852545	0.071722
515.069845	0.071181
515.287128	0.071605
515.504392	0.072294
515.721638	0.070759
515.938866	0.071103
516.156075	0.071955
516.373267	0.071608
516.590440	0.070700
516.807594	0.070282
517.024731	0.071452
517.241850	0.071147
517.458950	0.070686
517.676032	0.071361
517.893095	0.070713
518.110141	0.070654
518.327168	0.071054
518.544177	0.070944
518.761168	0.070722
518.978141	0.070222
519.195095	0.071025
519.412031	0.071349
519.628949	0.071986
519.845849	0.072334
520.062731	0.072734
520.279594	0.073166
520.496439	0.073816
520.713266	0.074219
520.930074	0.074329
521.146865	0.074466
521.363637	0.074335
521.580391	0.073961
521.797127	0.074623
522.013844	0.073837
522.230543	0.073731
522.447224	0.073461
522.663887	0.073784
522.880532	0.074034
523.097158	0.073696
523.313766	0.074030
523.530356	0.074293
523.746928	0.074167
523.963481	0.075378
524.180017	0.075749
524.396534	0.075622
524.613032	0.075980
524.829513	0.075727
525.045975	0.075456
525.262420	0.075598
525.478845	0.076049
525.695253	0.075854
525.911643	0.075913
526.128014	0.076224
526.344367	0.076055
526.560702	0.075564
526.777018	0.075622
526.993316	0.076142
527.209597	0.075820
527.425858	0.075275
527.642102	0.075834
527.858328	0.075283
528.074535	0.074899
528.290724	0.075576
528.506894	0.075320
528.723047	0.075442
528.939181	0.076434
529.155297	0.077037
529.371395	0.077079
529.587475	0.077023
529.803536	0.076944
530.019579	0.077330
530.235604	0.077474
530.451611	0.078219
530.667600	0.078357
530.883570	0.077581
531.099522	0.077679
531.315456	0.078680
531.531372	0.078467
531.747269	0.078966
531.963148	0.079466
532.179009	0.079654
532.394852	0.079977
532.610676	0.080762
532.826482	0.080337
533.042271	0.080427
533.258040	0.079561
533.473792	0.079740
533.689525	0.079082
533.905240	0.078714
534.120937	0.078556
534.336616	0.078358
534.552277	0.077638
534.767919	0.078011
534.983543	0.077643
535.199149	0.078060
535.414736	0.078520
535.630306	0.079559
535.845857	0.079228
536.061390	0.079308
536.276904	0.079519
536.492401	0.079535
536.707879	0.079766
536.923339	0.080438
537.138781	0.080823
537.354204	0.080513
537.569610	0.080142
537.784997	0.080399
538.000366	0.080439
538.215716	0.080379
538.431049	0.080657
538.646363	0.080738
538.861659	0.080131
539.076937	0.080208
539.292196	0.080586
539.507438	0.080859
539.722661	0.080891
539.937866	0.080979
540.153052	0.081337
540.368221	0.081969
540.583371	0.081847
540.798503	0.081985
541.013617	0.081489
541.228712	0.081057
541.443789	0.081149
541.658848	0.081466
541.873889	0.081885
542.088912	0.081653
542.303916	0.081140
542.518902	0.081369
542.733870	0.082018
542.948820	0.082520
543.163752	0.082888
543.378665	0.083338
543.593560	0.083205
543.808437	0.083122
544.023295	0.083331
544.238136	0.083581
544.452958	0.083689
544.667762	0.083553
544.882548	0.083608
545.097315	0.083741
545.312064	0.083589
545.526795	0.083792
545.741508	0.083919
545.956203	0.083168
546.170879	0.083430
546.385537	0.083679
546.600177	0.083788
546.814799	0.084263
547.029402	0.084561
547.243988	0.084595
547.458555	0.084884
547.673103	0.084947
547.887634	0.085550
548.102146	0.085838
548.316640	0.085686
548.531116	0.085583
548.745574	0.085424
548.960013	0.085356
549.174435	0.085121
549.388838	0.085275
549.603222	0.085814
549.817589	0.086065
550.031937	0.085911
550.246267	0.085933
550.460579	0.086450
550.674873	0.086697
550.889148	0.086350
551.103405	0.086698
551.317644	0.086517
551.531865	0.085963
551.746068	0.086457
551.960252	0.086092
552.174418	0.086156
552.388566	0.086078
552.602696	0.085778
552.816807	0.086225
553.030900	0.086114
553.244975	0.085787
553.459032	0.085720
553.673070	0.085412
553.887091	0.086057
554.101093	0.086143
554.315077	0.085595
554.529042	0.085853
554.742990	0.085961
554.956919	0.086364
555.170830	0.086956
555.384722	0.087378
555.598597	0.087447
555.812453	0.087337
556.026291	0.087390
556.240111	0.088032
556.453913	0.088264
556.667696	0.088069
556.881461	0.088390
557.095208	0.088408
557.308937	0.088421
557.522647	0.088234
557.736339	0.088395
557.950013	0.088959
558.163669	0.088814
558.377307	0.088443
558.590926	0.088883
558.804527	0.088504
559.018110	0.088506
559.231675	0.088867
559.445221	0.088617
559.658749	0.088820
559.872259	0.088589
560.085751	0.088771
560.299225	0.088854
560.512680	0.088859
560.726117	0.088782
560.939536	0.088937
561.152937	0.088745
561.366319	0.089018
561.579683	0.088719
561.793029	0.089138
562.006357	0.089158
562.219667	0.089517
562.432958	0.089140
562.646231	0.089232
562.859486	0.089232
563.072723	0.088942
563.285941	0.089326
563.499141	0.089389
563.712323	0.089407
563.925487	0.089588
564.138632	0.089209
564.351760	0.089680
564.564869	0.089943
564.777960	0.089630
564.991032	0.089771
565.204087	0.089920
565.417123	0.090091
565.630141	0.089479
565.843140	0.089521
566.056122	0.089591
566.269085	0.089399
566.482030	0.089456
566.694957	0.089869
566.907866	0.090010
567.120756	0.090094
567.333628	0.090485
567.546482	0.090930
567.759318	0.090859
567.972135	0.091261
568.184935	0.091518
568.397716	0.091515
568.610478	0.091537
568.823223	0.091638
569.035949	0.091527
569.248657	0.091169
569.461347	0.091211
569.674019	0.091369
569.886672	0.091430
570.099308	0.091523
570.311925	0.091415
570.524523	0.091681
570.737104	0.091687
570.949666	0.091536
571.162210	0.091750
571.374736	0.091906
571.587244	0.091713
571.799733	0.091375
572.012205	0.091185
572.224658	0.091565
572.437092	0.091315
572.649509	0.091373
572.861907	0.091688
573.074287	0.091492
573.286649	0.091497
573.498993	0.091929
573.711318	0.092141
573.923625	0.092356
574.135914	0.092023
574.348185	0.092218
574.560438	0.092621
574.772672	0.092484
574.984888	0.092727
575.197086	0.092817
575.409266	0.092400
575.621427	0.093043
575.833570	0.092970
576.045695	0.093250
576.257802	0.093404
576.469890	0.093352
576.681961	0.093442
576.894013	0.093566
577.106046	0.093729
577.318062	0.093941
577.530059	0.093571
577.742039	0.094134
577.954000	0.094199
578.165942	0.094536
578.377867	0.094192
578.589773	0.094349
578.801661	0.094194
579.013531	0.093912
579.225382	0.094066
579.437216	0.094275
579.649031	0.094309
579.860828	0.094340
580.072606	0.094065
580.284367	0.094297
580.496109	0.094314
580.707833	0.094743
580.919539	0.095001
581.131227	0.095295
581.342896	0.095347
581.554547	0.095162
581.766180	0.095223
581.977795	0.095093
582.189391	0.095419
582.400969	0.095580
582.612529	0.095417
582.824071	0.095326
583.035595	0.095215
583.247100	0.095059
583.458587	0.094649
583.670056	0.094756
583.881506	0.094665
584.092939	0.094370
584.304353	0.094217
584.515749	0.094138
584.727127	0.093881
584.938486	0.093815
585.149828	0.093869
585.361151	0.094415
585.572456	0.094639
585.783742	0.095047
585.995011	0.095244
586.206261	0.095545
586.417493	0.095805
586.628706	0.096127
586.839902	0.096328
587.051079	0.096227
587.262238	0.096136
587.473379	0.096091
587.684502	0.096020
587.895606	0.096156
588.106692	0.096217
588.317760	0.096180
588.528810	0.096188
588.739841	0.096083
588.950855	0.096288
589.161850	0.096304
589.372827	0.096370
589.583785	0.096495
589.794726	0.096440
590.005648	0.096140
590.216552	0.096023
590.427437	0.096210
590.638305	0.096538
590.849154	0.096692
591.059985	0.096630
591.270798	0.096871
591.481592	0.096990
591.692369	0.096948
591.903127	0.097180
592.113867	0.097281
592.324588	0.096963
592.535292	0.096979
592.745977	0.096965
592.956644	0.097170
593.167293	0.097244
593.377923	0.096922
593.588536	0.096989
593.799130	0.097076
594.009706	0.097447
594.220263	0.097470
594.430803	0.097335
594.641324	0.097473
594.851827	0.097416
595.062312	0.097081
595.272778	0.097579
595.483227	0.097327
595.693657	0.097383
595.904069	0.097489
596.114462	0.097966
596.324838	0.098372
596.535195	0.098225
596.745534	0.098279
596.955855	0.098248
597.166157	0.097941
597.376441	0.098209
597.586707	0.098153
597.796955	0.097727
598.007185	0.097586
598.217396	0.097300
598.427589	0.097379
598.637764	0.097713
598.847921	0.098133
599.058060	0.098425
599.268180	0.098799
599.478282	0.098885
599.688366	0.099263
599.898431	0.099456
600.108479	0.099758
600.318508	0.099931
600.528519	0.100094
600.738511	0.100125
600.948486	0.099933
601.158442	0.099810
601.368380	0.099922
601.578300	0.100005
601.788202	0.099910
601.998085	0.099801
602.207950	0.099777
602.417797	0.099449
602.627626	0.099428
602.837436	0.099660
603.047228	0.099814
603.257002	0.099755
603.466758	0.099587
603.676496	0.099887
603.886215	0.100178
604.095916	0.100330
604.305599	0.100760
604.515264	0.101013
604.724910	0.100639
604.934538	0.100610
605.144148	0.101041
605.353740	0.100907
605.563314	0.100997
605.772869	0.100924
605.982406	0.100846
606.191925	0.100816
606.401425	0.100573
606.610908	0.100896
606.820372	0.101017
607.029818	0.100772
607.239246	0.101043
607.448655	0.100846
607.658047	0.100766
607.867420	0.100605
608.076775	0.100493
608.286111	0.100531
608.495430	0.100672
608.704730	0.100595
608.914012	0.100635
609.123275	0.100690
609.332521	0.100810
609.541748	0.101052
609.750957	0.101170
609.960148	0.101204
610.169321	0.101490
610.378475	0.101715
610.587611	0.101881
610.796729	0.101931
611.005829	0.101823
611.214910	0.101817
611.423974	0.101763
611.633019	0.101906
611.842045	0.101821
612.051054	0.101745
612.260044	0.101596
612.469017	0.101760
612.677970	0.102150
612.886906	0.102434
613.095824	0.102583
613.304723	0.102832
613.513604	0.102917
613.722467	0.103081
613.931311	0.103077
614.140138	0.103114
614.348946	0.102806
614.557736	0.102745
614.766507	0.102558
614.975261	0.102525
615.183996	0.102126
615.392713	0.102303
615.601412	0.102400
615.810092	0.102399
616.018754	0.102268
616.227399	0.102556
616.436024	0.102355
616.644632	0.102417
616.853222	0.102479
617.061793	0.102968
617.270346	0.102984
617.478880	0.103139
617.687397	0.103201
617.895895	0.103610
618.104375	0.103786
618.312837	0.103794
618.521281	0.104254
618.729706	0.104511
618.938113	0.104581
619.146502	0.104850
619.354873	0.104754
619.563226	0.105103
619.771560	0.104915
619.979876	0.104971
620.188174	0.104978
620.396453	0.104939
620.604715	0.104648
620.812958	0.104347
621.021183	0.104520
621.229390	0.104790
621.437578	0.104662
621.645748	0.104833
621.853900	0.104729
622.062034	0.104883
622.270150	0.104862
622.478247	0.104874
622.686326	0.104932
622.894387	0.104571
623.102430	0.104434
623.310454	0.104569
623.518461	0.104852
623.726449	0.104663
623.934418	0.104618
624.142370	0.104613
624.350303	0.104879
624.558218	0.104843
624.766115	0.105016
624.973994	0.105192
625.181855	0.105286
625.389697	0.105139
625.597521	0.105475
625.805327	0.105699
626.013114	0.105941
626.220883	0.106102
626.428634	0.106531
626.636367	0.106687
626.844082	0.106803
627.051778	0.106711
627.259457	0.106806
627.467117	0.106847
627.674758	0.106845
627.882382	0.106848
628.089987	0.106877
628.297574	0.106820
628.505143	0.106540
628.712694	0.106315
628.920226	0.106251
629.127740	0.106294
629.335236	0.106385
629.542714	0.106521
629.750174	0.106684
629.957615	0.106721
630.165038	0.106579
630.372443	0.106850
630.579829	0.106901
630.787198	0.107114
630.994548	0.107255
631.201880	0.107310
631.409194	0.107439
631.616489	0.107374
631.823766	0.107265
632.031025	0.107523
632.238266	0.107722
632.445489	0.107997
632.652693	0.107888
632.859879	0.107864
633.067047	0.108022
633.274197	0.108062
633.481329	0.108077
633.688442	0.108319
633.895537	0.108413
634.102614	0.108409
634.309672	0.108381
634.516713	0.108449
634.723735	0.108453
634.930739	0.108262
635.137724	0.108217
635.344692	0.108270
635.551641	0.108397
635.758572	0.108213
635.965485	0.108190
636.172379	0.108135
636.379256	0.108045
636.586114	0.107970
636.792954	0.108231
636.999775	0.108242
637.206579	0.108211
637.413364	0.108357
637.620131	0.108655
637.826880	0.108852
638.033610	0.109011
638.240323	0.109357
638.447017	0.109784
638.653692	0.109904
638.860350	0.110161
639.066990	0.110306
639.273611	0.110392
639.480214	0.110218
639.686798	0.110044
639.893365	0.110219
640.099913	0.110178
640.306443	0.110178
640.512955	0.110077
640.719449	0.110067
640.925924	0.109977
641.132381	0.109903
641.338820	0.110021
641.545241	0.110234
641.751644	0.110226
641.958028	0.110462
642.164394	0.110412
642.370742	0.110589
642.577071	0.110546
642.783383	0.110743
642.989676	0.110817
643.195951	0.111142
643.402207	0.111035
643.608446	0.111065
643.814666	0.110891
644.020868	0.111075
644.227052	0.111146
644.433218	0.111360
644.639365	0.111316
644.845494	0.111270
645.051605	0.111385
645.257698	0.111602
645.463772	0.111717
645.669828	0.111817
645.875866	0.111852
646.081886	0.111884
646.287888	0.111965
646.493871	0.112216
646.699836	0.112306
646.905783	0.112162
647.111712	0.112098
647.317622	0.111960
647.523514	0.112168
647.729388	0.112263
647.935244	0.112100
648.141082	0.111956
648.346901	0.111974
648.552702	0.111918
648.758485	0.111797
648.964250	0.111958
649.169996	0.112175
649.375724	0.112109
649.581434	0.111875
649.787126	0.112065
649.992800	0.112412
650.198455	0.112583
650.404092	0.112750
650.609711	0.112976
650.815311	0.113056
651.020894	0.113307
651.226458	0.113771
651.432004	0.114022
651.637532	0.114173
651.843041	0.114012
652.048532	0.114151
652.254006	0.114316
652.459460	0.114375
652.664897	0.114327
652.870315	0.114008
653.075716	0.113649
653.281097	0.113705
653.486461	0.113885
653.691807	0.114007
653.897134	0.113784
654.102443	0.113519
654.307734	0.113570
654.513006	0.113735
654.718261	0.113826
654.923497	0.114176
655.128715	0.114038
655.333915	0.113874
655.539096	0.113776
655.744259	0.114085
655.949404	0.114226
656.154531	0.114151
656.359640	0.114277
656.564730	0.114660
656.769802	0.114709
656.974856	0.114901
657.179892	0.115051
657.384909	0.115377
657.589908	0.115262
657.794889	0.115332
657.999852	0.116077
658.204797	0.116167
658.409723	0.116227
658.614631	0.116175
658.819521	0.116295
659.024393	0.116575
659.229246	0.116718
659.434081	0.117086
659.638898	0.117431
659.843697	0.116935
660.048478	0.117009
660.253240	0.117174
660.457984	0.117146
660.662710	0.117155
660.867417	0.117047
661.072107	0.117059
661.276778	0.116771
661.481431	0.116773
661.686066	0.117246
661.890682	0.117200
662.095281	0.116990
662.299861	0.117470
662.504422	0.117917
662.708966	0.118116
662.913491	0.118131
663.117999	0.118482
663.322488	0.118650
663.526958	0.118555
663.731411	0.118708
663.935845	0.118993
664.140261	0.118763
664.344659	0.118477
664.549038	0.118414
664.753400	0.118634
664.957743	0.118642
665.162068	0.118532
665.366375	0.118451
665.570663	0.118834
665.774933	0.118737
665.979185	0.118785
666.183419	0.118916
666.387635	0.119068
666.591832	0.119075
666.796011	0.119114
667.000172	0.119448
667.204315	0.119844
667.408439	0.119658
667.612545	0.119740
667.816634	0.119820
668.020703	0.119605
668.224755	0.119486
668.428788	0.119432
668.632803	0.119403
668.836800	0.119286
669.040779	0.118973
669.244739	0.119052
669.448681	0.118923
669.652605	0.119153
669.856511	0.119562
670.060399	0.119933
670.264268	0.120241
670.468119	0.120369
670.671952	0.120674
670.875767	0.120719
671.079563	0.120781
671.283341	0.121350
671.487101	0.121521
671.690843	0.121611
671.894567	0.121936
672.098272	0.121671
672.301959	0.121638
672.505628	0.121588
672.709278	0.121936
672.912911	0.122120
673.116525	0.122125
673.320121	0.122195
673.523699	0.122264
673.727258	0.121907
673.930799	0.122229
674.134322	0.122721
674.337827	0.122895
674.541314	0.122768
674.744782	0.122810
674.948232	0.122667
675.151664	0.122650
675.355078	0.122650
675.558474	0.122731
675.761851	0.122805
675.965210	0.122640
676.168551	0.122617
676.371873	0.122673
676.575178	0.122618
676.778464	0.122749
676.981732	0.122930
677.184981	0.122949
677.388213	0.123088
677.591426	0.123185
677.794621	0.123278
677.997798	0.123518
678.200956	0.123678
678.404097	0.124037
678.607219	0.124415
678.810323	0.124296
679.013408	0.124553
679.216476	0.124795
679.419525	0.124816
679.622556	0.124667
679.825569	0.124562
680.028563	0.124656
680.231540	0.124626
680.434498	0.124326
680.637438	0.124585
680.840359	0.124557
681.043263	0.124508
681.246148	0.124292
681.449015	0.124717
681.651864	0.124895
681.854694	0.125053
682.057506	0.125115
682.260301	0.125441
682.463076	0.125272
682.665834	0.125589
682.868573	0.125895
683.071295	0.126253
683.273998	0.126438
683.476682	0.126301
683.679349	0.126303
683.881997	0.126376
684.084627	0.126511
684.287239	0.126892
684.489833	0.126734
684.692408	0.126603
684.894965	0.126759
685.097504	0.126647
685.300025	0.126714
685.502527	0.126785
685.705012	0.126758
685.907478	0.126566
686.109925	0.126298
686.312355	0.126352
686.514766	0.126301
686.717159	0.126206
686.919534	0.126222
687.121891	0.126513
687.324230	0.126789
687.526550	0.126776
687.728852	0.127116
687.931136	0.127354
688.133401	0.127620
688.335649	0.127621
688.537878	0.127815
688.740089	0.128041
688.942281	0.128097
689.144456	0.127875
689.346612	0.128034
689.548750	0.127992
689.750870	0.128247
689.952971	0.128441
690.155055	0.128702
690.357120	0.128805
690.559167	0.128920
690.761195	0.128986
690.963206	0.129245
691.165198	0.129356
691.367172	0.129275
691.569128	0.129019
691.771065	0.129073
691.972984	0.129070
692.174885	0.129189
692.376768	0.128897
692.578633	0.128581
692.780479	0.128442
692.982308	0.128552
693.184118	0.128665
693.385909	0.128693
