sample name	sample
index	1468
start time	 05-10-2021  02:13:15 PM
880	0.354874
Peak Time (s)	91.537
Peak Height 	0.3549
calc peak height	90,93
Baseline Time (s)	8.535
Baseline Value 	-0.005773
subtract baseline	10,4
Abs	0.260923
Peak Time (s)	92.037
Peak Height 	0.2609
calc peak height	90,93
Baseline Time (s)	9.036
Baseline Value 	-0.002835
subtract baseline	10,3
PK_550	0.138850
Peak Time (s)	90.035
Peak Height 	0.1389
calc peak height	90,93
Baseline Time (s)	10.539
Baseline Value 	1.6856E-4
subtract baseline	10,2
PK_880	0.239155
Peak Time (s)	91.036
Peak Height 	0.2392
calc peak height	90,93
Baseline Time (s)	10.036
Baseline Value 	0.002163
subtract baseline	10,1


Time (s)	A880-A510	A880-A775	A880-A975	A880	I510	I775	I975	I880	
0.038000	-0.005204	-0.000832	0.004166	0.004851	6419.508202	43558.400605	3944.906587	22460.789082
0.536000	-0.004488	-0.000411	-0.000938	0.005450	6420.468751	43541.782584	3930.169259	22433.790122
1.036500	-0.000767	-0.000642	-0.000449	0.004844	6456.212456	43576.863592	3932.982902	22461.094221
1.537000	-0.001978	-0.000144	-0.002394	0.002891	6462.376951	43806.784683	3933.003111	22549.450526
2.037000	-0.001097	-0.000352	0.000063	0.002983	6468.952475	43778.679000	3939.106580	22545.296876
2.537500	-0.002284	0.000036	0.000749	0.002410	6463.842455	43869.084459	3942.369811	22571.289486
3.037500	0.000291	0.000658	0.005232	0.000070	6504.963874	44149.206619	3960.216204	22677.786458
3.537500	-0.001262	-0.000654	0.004380	0.001200	6482.460004	43918.145340	3955.002308	22626.275159
4.035500	-0.002081	-0.000149	-0.000270	0.001105	6476.407914	43974.819362	3943.113257	22630.628969
4.535500	-0.001389	0.000065	0.004127	0.001580	6478.223724	43950.193587	3953.343452	22609.007222
5.036000	0.000746	-0.000222	0.003344	0.000899	6501.817149	43987.396509	3953.076277	22639.998029
5.536500	-0.000435	-0.000434	0.002317	0.000440	6495.752805	44010.721054	3951.588732	22660.913814
6.036500	0.002090	0.000354	-0.000739	0.000894	6513.182575	44042.352861	3942.442918	22640.234735
6.542000	-0.000040	-0.000114	0.002544	0.000451	6498.976904	44039.922631	3952.152672	22660.383915
7.037000	-0.000856	-0.000162	0.000190	0.000815	6489.075697	44000.918030	3945.060014	22643.792404
7.537500	-0.000386	0.000228	0.004419	0.000674	6494.202318	44051.199281	3956.489785	22650.261632
8.035000	0.000375	0.000533	0.001856	0.000621	6501.035803	44085.120636	3949.910871	22652.642152
8.535000	-0.000486	0.000117	-0.000293	0.000000	6499.017616	44104.509411	3945.924937	22680.979516
9.035500	0.000026	0.000063	0.000000	-0.000088	6504.072496	44107.768547	3946.919238	22685.015347
9.536000	-0.001424	-0.000020	-0.000101	-0.000186	6492.713296	44109.209726	3946.910305	22689.490771
10.036000	0.000000	-0.000137	-0.001831	0.000255	6500.961395	44056.297047	3941.266650	22669.341712
10.538500	-0.000238	0.000000	0.008528	0.000138	6499.948472	44080.392582	3968.758778	22674.694562
11.036500	0.001769	-0.000636	0.000585	-0.000219	6519.867143	44053.942001	3948.787191	22690.990351
11.537000	0.000536	0.000292	0.003828	0.000604	6502.526654	44063.838410	3955.117262	22653.409475
12.037500	0.001463	0.000633	0.000090	0.000419	6511.893657	44113.719408	3945.831242	22661.864783
12.537500	-0.000024	0.000245	0.004254	0.000703	6496.993105	44050.035948	3955.977159	22648.906227
13.035000	-0.000021	0.000050	0.004039	0.000718	6496.891867	44030.190066	3955.373764	22648.234857
13.535000	-0.001453	0.000806	0.007685	0.001681	6476.846018	44010.664273	3962.439827	22604.407626
14.035500	-0.002358	0.000245	0.004641	0.002724	6460.607585	43859.110889	3951.693994	22557.013973
14.536000	-0.002229	-0.000895	0.003122	0.001751	6469.783920	43843.465183	3950.266026	22601.221847
15.036000	-0.001332	-0.000105	0.000738	0.000803	6485.200148	44007.487077	3946.521187	22644.383275
15.536500	-0.004006	-0.000949	0.001516	0.002666	6447.415528	43752.338229	3943.696132	22559.662543
16.037000	0.000160	-0.000140	0.000688	0.000552	6499.807707	44027.859135	3947.042386	22655.779921
16.535000	0.000409	0.000049	0.001910	0.000798	6499.842194	44022.574289	3949.590506	22644.608882
17.037500	-0.001838	0.000729	0.003958	-0.000403	6491.056630	44200.839986	3958.107087	22699.368917
17.534500	-0.000638	-0.000343	-0.001027	0.001740	6483.162889	43896.580378	3939.505612	22601.741672
18.035500	-0.001752	-0.000642	0.001029	0.001277	6477.714273	43911.929908	3946.041543	22622.756418
18.535000	-0.000442	0.000007	0.006304	0.002394	6479.334327	43867.899942	3956.920439	22572.014130
19.035500	-0.000294	0.000298	0.004218	0.002047	6483.470506	43928.074214	3952.358084	22587.772704
19.536000	-0.002139	-0.000387	0.002759	0.001579	6471.965748	43907.559076	3949.766310	22609.017723
20.036500	-0.003398	0.000096	0.002609	0.002455	6454.208647	43870.556473	3947.091824	22569.254172
20.536500	-0.001916	0.000152	0.002764	0.002268	6468.086839	43893.364657	3947.982739	22577.725506
21.037000	-0.001823	-0.000230	0.001473	0.002056	6470.624012	43877.361710	3945.171731	22587.353474
21.537500	-0.001636	0.000261	0.001483	0.002102	6471.801514	43919.337072	3945.076607	22585.263802
22.034500	-0.000095	-0.000087	0.001267	0.002191	6483.927337	43878.117154	3944.283586	22581.222349
22.535000	-0.001994	-0.000110	0.003807	0.001612	6472.910092	43930.672261	3952.423754	22607.561518
23.040500	-0.001004	-0.000322	0.000482	0.001585	6481.394758	43913.092435	3943.819348	22608.767660
23.535000	-0.001018	-0.000519	0.003372	0.001432	6482.559661	43909.058062	3951.754776	22615.742758
24.036000	-0.000908	-0.000637	0.007980	0.001659	6481.580731	43876.527823	3963.277708	22605.419177
24.536000	-0.002168	-0.000116	-0.001808	0.001320	6473.887539	43957.568048	3938.568943	22620.832491
25.037000	-0.002306	-0.001153	-0.001167	0.001094	6474.620365	43881.028460	3940.813738	22631.090465
25.537000	-0.000032	-0.000062	0.005143	0.001984	6486.186983	43899.979280	3954.947981	22590.617401
26.037000	0.000061	0.000505	0.006832	0.002451	6483.060119	43909.432479	3958.160054	22569.428517
26.537500	-0.000128	0.000452	0.007658	0.002473	6481.296534	43902.356024	3960.278794	22568.420395
27.037500	-0.001390	0.000057	0.003164	0.002337	6471.891586	43877.917073	3948.844891	22574.593633
27.535000	-0.002379	0.000235	0.003996	0.004926	6442.178133	43651.282345	3944.268645	22457.405733
28.035500	0.000086	0.000690	0.004251	0.001543	6490.870855	44012.704064	3953.765930	22610.683133
28.538500	0.000609	0.000524	0.004027	0.001222	6497.953457	44027.344056	3954.019798	22625.294289
29.036000	-0.001371	0.000206	0.004604	0.001171	6481.790075	44002.160684	3955.668808	22627.622353
29.536500	-0.003266	-0.000171	-0.003308	0.005241	6432.248467	43583.781934	3924.634551	22443.200846
30.036500	-0.000607	0.000325	0.004815	0.000780	6491.461187	44050.376765	3957.251700	22645.426110
30.536500	-0.003011	0.000599	0.001560	0.000855	6470.736070	44069.210085	3948.527899	22641.985578
31.037500	0.000026	0.001054	0.007401	0.003711	6472.241398	43842.474283	3956.343416	22512.319002
31.538500	-0.001574	0.000044	-0.000239	0.005693	6442.492124	43561.586095	3931.339228	22422.827179
32.035000	-0.000769	0.000215	0.002811	0.000630	6491.358417	44054.137797	3952.383337	22652.225023
32.535500	-0.001721	0.000501	0.006108	0.000866	6481.416498	44058.840052	3960.428381	22641.498663
33.035500	0.000820	0.000413	0.004545	0.001091	6500.829029	44029.289126	3955.725304	22631.266284
33.535500	-0.001839	0.000428	0.005220	0.004904	6446.836807	43671.527657	3947.514439	22458.423960
34.036500	-0.000534	0.000324	0.004505	0.002361	6478.839106	43900.855208	3952.287387	22573.509616
34.536000	-0.001243	-0.000197	0.000453	0.001974	6476.146691	43888.233016	3942.733228	22591.073275
35.036500	-0.000897	-0.000424	0.006238	0.001978	6479.000968	43866.406065	3957.841565	22590.883885
35.537000	-0.001659	0.000065	0.002769	0.004076	6455.184068	43715.072977	3943.290111	22495.804921
36.037000	-0.001177	-0.000480	0.002139	0.001987	6476.590527	43860.297971	3947.084301	22590.494282
36.535000	-0.001988	0.000102	0.001483	0.002156	6468.421828	43899.281771	3944.937245	22582.825947
37.038000	-0.001926	-0.000193	0.002420	0.001867	6471.348982	43898.775975	3948.131519	22595.968264
37.535500	-0.000933	0.000164	0.007983	0.002654	6473.061183	43858.170691	3960.658959	22560.227125
38.035500	-0.001057	-0.000436	0.006632	0.001729	6479.742737	43888.778491	3959.534521	22602.206896
38.536000	-0.001901	-0.000001	0.006121	0.001755	6472.487649	43927.419662	3958.121736	22601.049695
39.036000	-0.000047	0.000021	0.003983	0.002350	6482.996531	43873.357146	3950.950858	22573.999960
39.539500	-0.002006	0.000274	0.004238	0.001830	6470.986868	43946.280356	3952.978761	22597.619329
40.037000	0.000127	0.000573	-0.001214	0.002129	6486.304427	43946.226102	3938.013626	22584.044966
40.537000	-0.001579	0.000342	0.003399	0.001414	6478.025695	43992.040647	3951.873413	22616.561191
41.037500	-0.002500	0.000034	0.005828	0.001290	6471.368795	43974.622266	3958.573356	22622.194992
41.535000	-0.001568	0.000089	0.005088	0.001253	6479.456761	43983.288600	3956.725097	22623.883809
42.037500	-0.002233	0.000043	0.006132	0.001319	6473.354669	43972.759850	3959.298159	22620.888498
42.535500	-0.000650	0.000156	0.004620	0.001272	6486.975245	43987.884342	3955.445890	22623.022513
43.036000	-0.001504	-0.000074	0.003287	0.001194	6480.490287	43973.473271	3952.154703	22626.575273
43.538500	-0.002681	0.000692	0.008068	0.003635	6450.373464	43815.567547	3958.298366	22515.768676
44.036500	0.000162	-0.000205	0.004958	-0.003034	6530.079871	44362.344930	3967.702266	22819.927472
44.537000	-0.000305	0.000034	0.001210	-0.000155	6501.840223	44111.353558	3950.250172	22688.041399
45.037000	-0.000293	0.000379	0.005830	0.000925	6492.879901	44041.790247	3959.540615	22638.818389
45.537000	-0.003174	-0.000993	0.000470	0.004926	6435.612738	43536.415394	3935.140786	22457.432083
46.037500	0.000360	0.001029	0.003426	0.001022	6497.540897	44094.127550	3952.969827	22634.378397
46.535000	-0.002611	0.001086	0.003405	0.000988	6472.956585	44102.664079	3953.001982	22635.926468
47.038000	-0.001115	0.000029	0.004495	0.001821	6478.491913	43923.934426	3953.676969	22598.025239
47.536000	-0.002557	0.000051	0.000376	0.003408	6453.279521	43776.554852	3938.816046	22526.026412
48.036000	-0.000410	0.000050	0.003298	0.000179	6498.152326	44081.236026	3954.843029	22672.812237
48.536000	0.001342	0.000978	0.004913	0.000298	6511.897264	44157.920818	3958.776290	22667.385058
49.036500	0.000260	0.000709	0.006721	0.000930	6497.472466	44072.489308	3961.874303	22638.554883
49.536500	-0.001216	-0.000603	0.007800	0.003394	6464.540745	43716.457411	3958.225414	22526.665086
50.037500	-0.001230	0.000656	0.002381	-0.000776	6499.287238	44229.347570	3954.942732	22716.413714
50.537500	0.001289	-0.000362	0.005762	-0.000195	6515.603589	44077.603426	3962.314959	22689.865816
51.035000	0.003525	-0.006225	0.019337	0.066787	6007.965491	37725.209676	3829.587706	19855.440150
51.535000	-0.002116	-0.020379	0.009573	0.140221	5482.349880	31371.906912	3652.751390	17211.267173
52.035000	-0.014571	-0.046916	-0.031580	-0.192654	8354.654259	60503.067165	4454.719591	33748.189751
52.535500	-0.019095	-0.109604	-0.037300	-0.291738	9693.595491	65535.000000	4847.916466	41664.409429
53.036000	-0.006503	-0.066387	-0.016375	-0.237398	9066.377081	63952.132104	4697.388196	37100.328859
53.536500	-0.001202	-0.033931	-0.003815	-0.167597	8208.490766	58925.095600	4464.972783	32016.389650
54.036000	0.002926	-0.023472	0.005773	-0.120955	7708.829317	54449.700308	4330.059847	29047.204154
54.537000	-0.000197	-0.021740	0.003062	-0.135495	7838.246160	56416.267334	4371.881268	29938.803167
55.034500	0.007875	-0.022368	0.008985	-0.155829	8175.390859	58898.636871	4468.897420	31236.895180
55.535000	0.018165	-0.013454	0.026986	-0.114802	7811.549587	54910.212972	4383.510443	28678.791151
56.038000	0.034873	-0.000752	0.046069	-0.032538	7116.444557	47218.344336	4171.176994	24223.152665
56.535500	0.049693	0.012193	0.060814	0.042571	6563.503749	41313.235819	3995.228668	20830.109915
57.035500	0.063496	0.019773	0.079348	0.084687	6329.153088	38379.827014	3932.864041	19169.096119
57.535500	0.078069	0.029243	0.087064	0.095969	6355.618873	38232.353322	3923.727092	18750.853746
58.036000	0.096615	0.040132	0.107315	0.097725	6493.782396	38982.327179	3971.950866	18686.721307
58.539000	0.114167	0.050449	0.127065	0.162366	6119.403636	34744.521674	3858.361004	16497.738709
59.037000	0.128738	0.062116	0.141391	0.202450	5932.894832	32730.093719	3798.294157	15295.209000
59.536500	0.140623	0.067639	0.151491	0.232345	5807.676225	31104.354135	3754.493289	14467.912775
60.040000	0.146607	0.072887	0.172227	0.258251	5675.087854	29796.086009	3743.378858	13795.658510
60.534500	0.160078	0.078854	0.185531	0.280704	5617.266526	28795.674512	3724.031768	13244.552410
61.035000	0.170757	0.085895	0.197692	0.287118	5644.572551	28833.107179	3736.138625	13092.303824
61.535000	0.174951	0.095157	0.203844	0.295646	5616.830348	28876.891947	3731.113461	12893.307415
62.035500	0.184078	0.102694	0.202659	0.296362	5670.926674	29287.440576	3727.111983	12876.756872
62.537000	0.186080	0.105786	0.205698	0.293946	5699.763126	29623.717064	3738.637755	12932.653447
63.036000	0.191095	0.109838	0.212506	0.293675	5734.663182	29890.646618	3753.813862	12938.944572
63.536000	0.192999	0.111986	0.210587	0.297746	5720.303801	29771.610967	3740.955451	12844.887233
64.039500	0.199959	0.116432	0.216090	0.298091	5764.353363	30026.205221	3752.018121	12836.970431
64.537000	0.203386	0.117419	0.214725	0.301319	5765.690207	29886.750197	3742.161862	12763.074691
65.037500	0.203710	0.119702	0.220937	0.308415	5720.581032	29589.793108	3740.277005	12602.554022
65.535000	0.203108	0.119891	0.219081	0.315410	5670.808538	29175.360309	3721.616625	12446.855852
66.035000	0.207216	0.121620	0.228693	0.316996	5687.237194	29184.026954	3738.523335	12411.914526
66.535500	0.208996	0.124213	0.221307	0.322627	5662.190173	29001.083117	3711.259151	12288.830343
67.035500	0.208955	0.123137	0.225791	0.325540	5643.128194	28762.821951	3714.506236	12225.788474
67.536000	0.210930	0.126548	0.227340	0.335787	5590.442776	28359.557128	3696.676971	12007.370025
68.036500	0.215088	0.127868	0.225270	0.333841	5629.228263	28551.383274	3696.424979	12048.445576
68.536500	0.217373	0.128795	0.230900	0.337050	5623.319160	28417.204417	3701.349098	11980.788079
69.037000	0.219107	0.128582	0.233114	0.338353	5626.069037	28328.397645	3703.209149	11953.454292
69.537500	0.218471	0.131024	0.234893	0.344684	5581.899758	28102.090697	3693.953718	11821.846222
70.035000	0.222467	0.131549	0.236130	0.342424	5621.528696	28263.940248	3701.055775	11868.599368
70.535000	0.222694	0.130855	0.237543	0.343018	5619.192813	28188.940607	3702.727921	11856.291156
71.035500	0.222196	0.131425	0.245503	0.344807	5604.646915	28118.211528	3715.427810	11819.298813
71.535500	0.221019	0.132060	0.233371	0.348619	5573.190728	27934.659519	3682.979699	11740.985825
72.036000	0.223010	0.132674	0.246363	0.346855	5596.835538	28071.904042	3712.969925	11777.149356
72.539000	0.222777	0.133590	0.244600	0.347640	5590.407943	28079.479682	3707.718451	11761.037481
73.036000	0.222301	0.133062	0.235748	0.348341	5582.986151	28008.419089	3688.302093	11746.675273
73.537000	0.222377	0.135025	0.239103	0.353163	5553.287571	27843.962262	3685.357643	11648.535513
74.037000	0.226652	0.135209	0.240757	0.350702	5595.538863	27996.090198	3693.641013	11698.485779
74.537500	0.224620	0.134772	0.242847	0.350148	5586.212128	28002.826586	3699.003825	11709.767669
75.034500	0.226867	0.135315	0.245604	0.351050	5594.694966	27982.140830	3702.787653	11691.404136
75.535500	0.228173	0.134951	0.243503	0.349924	5610.105907	28026.081551	3700.796639	11714.330390
76.035000	0.230438	0.137797	0.246834	0.351539	5614.246533	28097.327943	3704.304134	11681.473046
76.538500	0.230702	0.135974	0.247680	0.348972	5632.319700	28140.467407	3711.317902	11733.772792
77.036500	0.232027	0.137184	0.242273	0.348719	5642.444579	28225.491852	3700.747356	11738.950901
77.536500	0.232823	0.137851	0.244930	0.348211	5650.844164	28294.021800	3707.222884	11749.347276
78.036000	0.232788	0.137604	0.253915	0.347440	5655.594885	28324.652580	3727.486589	11765.143579
78.537000	0.233818	0.138783	0.250030	0.347146	5664.152577	28410.870149	3719.973932	11771.164004
79.037500	0.232387	0.138648	0.252570	0.348184	5648.204369	28342.176412	3723.110263	11749.899347
79.535000	0.234722	0.138900	0.247485	0.347273	5669.196686	28410.258444	3714.425314	11768.563925
80.035000	0.233783	0.140153	0.247180	0.346118	5670.601171	28551.884510	3716.187402	11792.297569
80.535500	0.235666	0.139956	0.245955	0.345547	5686.574479	28573.943696	3714.832230	11804.046011
81.035000	0.234564	0.140704	0.257458	0.347434	5667.127460	28506.788715	3734.972204	11765.261703
81.536000	0.233421	0.140667	0.248645	0.346591	5665.179829	28554.287274	3718.247907	11782.564322
82.036500	0.235012	0.140807	0.251088	0.345740	5681.051355	28612.817156	3725.122691	11800.064750
82.536000	0.233712	0.141490	0.248052	0.345844	5671.917116	28647.099782	3718.567601	11797.932544
83.037000	0.235102	0.141056	0.251281	0.346824	5674.581664	28563.508220	3723.258801	11777.778705
83.537000	0.234828	0.140803	0.254835	0.346623	5674.105861	28560.447719	3731.144033	11781.913649
84.036500	0.234581	0.140106	0.250325	0.346798	5671.362160	28509.044444	3721.315418	11778.311674
84.537500	0.236129	0.139181	0.251508	0.346782	5681.544946	28455.599254	3723.822139	11778.648876
85.035000	0.236449	0.139735	0.255070	0.349853	5663.663187	28308.113167	3724.847185	11715.784244
85.535500	0.235609	0.139474	0.249054	0.350494	5654.082443	28255.520962	3711.012340	11702.722664
86.036000	0.237413	0.139168	0.254229	0.348880	5676.235563	28331.832215	3725.124791	11735.648587
86.535500	0.238957	0.139919	0.252084	0.350920	5673.018974	28256.608671	3716.399648	11694.061819
87.036000	0.234110	0.138796	0.252398	0.350897	5641.836805	28192.572053	3717.099284	11694.530746
87.536500	0.237872	0.139075	0.247788	0.352668	5654.659633	28105.941616	3703.945743	11658.560180
88.036500	0.235535	0.138434	0.255445	0.351069	5649.901500	28161.555247	3723.090123	11691.029419
88.537000	0.237317	0.137774	0.255499	0.350718	5663.680035	28143.568595	3723.935819	11698.157659
89.037500	0.235167	0.137378	0.254673	0.352232	5640.046787	28033.010623	3719.052048	11667.398501
89.538000	0.235124	0.137747	0.249812	0.351587	5643.916753	28091.681534	3710.322705	11680.497353
90.035000	0.238745	0.138850	0.254330	0.353067	5657.724735	28069.843285	3716.605662	11650.483682
90.535000	0.236594	0.137483	0.260200	0.352131	5649.878673	28044.917508	3730.840726	11669.447235
91.036000	0.239155	0.138122	0.255324	0.352821	5661.968180	28041.954144	3719.182632	11655.469666
91.536500	0.235943	0.138506	0.252327	0.354874	5628.087125	27945.678007	3708.731016	11613.974495
92.036500	0.237879	0.137098	0.260923	0.353159	5651.534202	27963.358853	3730.198343	11648.609148
92.536500	0.235437	0.137038	0.253654	0.354212	5629.082409	27899.339539	3712.833781	11627.331919
93.040000	0.238513	0.136762	0.250715	0.354134	5649.337848	27887.964909	3706.940836	11628.913046
93.534500	0.235095	0.135118	0.255533	0.353829	5629.346398	27811.137038	3717.520178	11635.066488
94.035000	0.233870	0.135465	0.251370	0.354285	5618.610436	27804.906921	3707.974729	11625.853152
94.535000	0.235929	0.135584	0.252562	0.355948	5621.137579	27716.638904	3707.007333	11592.341109
95.035000	0.233888	0.134302	0.255587	0.355536	5610.761508	27667.068053	3714.092468	11600.632835
95.536000	0.235955	0.135943	0.256396	0.358419	5605.582810	27596.422287	3709.811198	11542.791788
96.038500	0.237416	0.135218	0.261081	0.358638	5613.477095	27542.947361	3719.056558	11538.421825
