sample name	sample
index	983
start time	 04-14-2021  03:22:55 PM
880	0.555102
Peak Time (s)	101.535
Peak Height 	0.5551
calc peak height	100,103
Baseline Time (s)	10.536
Baseline Value 	-0.00193
subtract baseline	10,4
Abs	0.382243
Peak Time (s)	102.035
Peak Height 	0.3822
calc peak height	100,103
Baseline Time (s)	11.036
Baseline Value 	4.7064E-4
subtract baseline	10,3
PK_550	0.214776
Peak Time (s)	102.035
Peak Height 	0.2148
calc peak height	100,103
Baseline Time (s)	11.036
Baseline Value 	5.1723E-4
subtract baseline	10,2
PK_880	0.366897
Peak Time (s)	102.536
Peak Height 	0.3669
calc peak height	100,103
Baseline Time (s)	10.034
Baseline Value 	-9.2165E-4
subtract baseline	10,1


Time (s)	A880-A510	A880-A775	A880-A975	A880	I510	I775	I975	I880	
0.034500	-0.001874	-0.000292	-0.003308	0.006878	6241.424725	41573.701813	3932.652690	21888.659842
0.540500	0.001046	-0.000120	-0.000272	0.002820	6295.526486	41952.021505	3949.963390	22066.920921
1.035000	-0.000100	-0.000638	-0.001905	0.002567	6288.550457	41928.177999	3946.574756	22078.084626
1.541000	0.001759	-0.000685	0.002304	0.000343	6320.549199	42124.200989	3962.468230	22176.561771
2.039000	-0.002948	-0.001551	0.003665	0.005297	6245.324583	41602.413140	3953.561636	21957.899850
2.535500	0.000804	-0.000077	-0.000639	0.000640	6310.708567	42152.368086	3954.435511	22163.409379
3.036500	0.003348	-0.000418	0.007301	-0.001749	6349.655372	42337.680757	3980.258420	22269.638033
3.537000	0.001415	-0.000647	-0.004243	0.000293	6318.241627	42132.224564	3946.417732	22178.800010
4.037500	-0.000556	-0.000872	0.002638	0.001666	6292.031826	41988.226257	3960.011395	22117.942839
4.534500	0.002237	0.000023	0.002349	0.000211	6325.359853	42200.151120	3962.909935	22182.433330
5.034500	0.002135	-0.000741	0.005667	-0.000802	6332.544039	42222.622570	3973.750513	22227.460661
5.535500	0.000951	-0.000020	-0.004472	-0.000100	6317.676196	42224.389917	3946.819846	22196.244880
6.035500	0.000982	0.000460	0.004174	0.000595	6312.457033	42204.939765	3966.505100	22165.403091
6.536000	0.002211	0.000595	-0.001027	0.000310	6324.369559	42242.905144	3954.293204	22178.039362
7.035500	0.002820	0.000292	0.003284	-0.000493	6335.522035	42288.197009	3966.998567	22213.714444
7.536500	0.002318	-0.000176	0.002331	-0.000245	6329.589957	42223.333464	3964.002510	22202.688483
8.036500	0.002189	-0.000552	-0.000528	-0.000454	6330.225350	42208.252899	3957.416763	22211.975753
8.537000	0.001107	0.000101	-0.000460	0.000094	6317.376435	42217.757661	3956.228238	22187.622598
9.037500	0.003566	-0.000353	0.003138	-0.000374	6340.478246	42219.009818	3966.336887	22208.417968
9.540000	-0.001305	0.000368	-0.000598	0.000858	6292.488755	42172.846383	3953.998229	22153.723144
10.034500	0.000000	0.000544	-0.001780	-0.000313	6311.877966	42294.795940	3953.971789	22205.718592
10.536000	-0.000215	-0.000298	0.000446	0.000000	6307.736006	42190.144883	3958.705816	22191.798779
11.035500	0.000568	0.000000	0.000000	-0.000316	6316.363364	42245.762763	3958.383798	22205.858528
11.541500	-0.001982	-0.000013	0.000470	0.000614	6289.108032	42160.425993	3957.241785	22164.526421
12.039000	-0.000149	-0.001010	-0.001826	-0.001280	6318.310699	42241.601332	3956.247707	22248.758015
12.537000	0.000540	-0.000040	0.000055	-0.001109	6322.381956	42313.962807	3960.488716	22241.129540
13.036500	0.003375	0.000498	0.001201	-0.000422	6339.341061	42300.407651	3961.628095	22210.540787
13.534500	-0.001229	-0.000185	0.001310	0.001427	6288.644877	42071.590656	3957.311053	22128.525686
14.037500	0.001942	-0.000590	-0.003191	0.000580	6320.123841	42111.379669	3948.295066	22166.041253
14.535000	-0.000847	-0.000629	0.000777	0.000841	6296.198540	42084.345783	3957.441861	22154.470890
15.040500	0.004115	0.000126	0.000436	-0.000499	6345.823648	42273.757831	3959.919060	22213.996784
15.535500	0.002430	-0.000008	0.003427	0.000580	6323.965744	42163.947795	3964.676825	22166.044378
16.035500	0.001933	-0.000795	0.001862	-0.000479	6328.400647	42188.584593	3963.417001	22213.089098
16.538500	0.001452	-0.000913	0.002717	-0.001287	6330.979768	42250.956734	3967.566122	22249.050551
17.036500	0.004494	0.000764	0.002293	-0.003280	6370.972105	42584.714057	3971.495854	22338.041559
17.536500	0.001154	-0.000301	0.001179	0.000517	6314.415337	42143.172500	3959.240304	22168.827080
18.037000	0.000769	-0.000502	-0.002838	0.000259	6313.427020	42148.390750	3949.952873	22180.308794
18.540000	-0.000352	-0.000566	-0.000334	-0.000592	6311.301419	42219.459144	3958.239995	22218.112414
19.035000	-0.001419	-0.000515	-0.001035	-0.000400	6301.434995	42206.707624	3956.027784	22209.588015
19.537500	0.002400	-0.000134	-0.003140	0.000275	6326.140506	42180.209710	3949.172090	22179.605085
20.035500	0.000611	0.000191	-0.000718	0.000741	6308.402378	42167.377349	3953.990500	22158.916053
20.542000	-0.001866	-0.001248	0.001593	-0.000225	6296.563816	42124.616770	3962.112852	22201.782843
21.036000	0.001988	-0.000471	0.003198	0.000120	6324.112339	42163.724240	3965.254227	22186.478541
21.536500	0.002872	0.000161	0.002492	0.000867	6325.189344	42153.363857	3961.635531	22153.337390
22.036500	0.001794	-0.000337	0.001018	0.000271	6321.394083	42162.204564	3959.453531	22179.774649
22.536500	-0.001497	-0.000168	-0.002135	0.000224	6295.940133	42181.648509	3951.769648	22181.846516
23.037500	0.001577	-0.000212	-0.002631	-0.000062	6322.303940	42203.545205	3951.252065	22194.536900
23.540000	0.002697	0.000709	0.002684	0.000719	6324.974566	42216.173403	3962.480176	22159.872438
24.037500	0.001184	0.000838	0.002249	0.001060	6310.396651	42197.028948	3960.551063	22144.778850
24.535000	0.001572	0.000873	-0.001792	0.000921	6314.532583	42212.768678	3950.898494	22150.919239
25.035500	0.001081	0.000307	0.001633	0.000573	6313.411703	42193.063111	3960.230182	22166.369550
25.536000	0.000690	-0.000544	-0.000730	-0.000032	6315.087193	42170.758818	3955.869710	22193.205141
26.036000	0.000264	0.000380	0.002678	0.000658	6306.325691	42191.935686	3962.614960	22162.581979
26.536500	0.000577	-0.000366	0.001497	0.000150	6312.774383	42170.446805	3960.943038	22185.144438
27.036500	0.003745	-0.000177	0.003355	-0.001679	6352.251638	42353.227530	3970.145279	22266.526913
27.537000	0.002724	0.000542	0.001915	-0.001443	6342.274984	42397.180153	3965.952951	22256.011207
28.037000	0.001435	-0.000679	0.001740	-0.001214	6330.269472	42265.501785	3964.944448	22245.792216
28.537500	0.004131	0.000408	0.001055	-0.000236	6343.860502	42275.455964	3960.802918	22202.277877
29.035000	0.000458	0.000902	-0.001373	0.000077	6312.414937	42291.862496	3954.014083	22188.397839
29.538000	0.001771	-0.000316	0.002890	-0.000681	6328.714341	42250.214492	3966.484599	22222.086182
30.035000	0.001614	0.000122	0.000019	0.000373	6319.179251	42194.429179	3956.722687	22175.256935
30.538500	0.002067	-0.000433	-0.001962	0.001166	6316.491974	42072.717532	3949.874808	22140.055020
31.036500	-0.000047	0.000239	-0.001390	0.001606	6296.472015	42093.664033	3950.202007	22120.584100
31.536500	0.001483	0.000107	0.005172	0.001145	6312.076440	42123.367615	3967.625630	22141.003638
32.037000	0.001705	0.000893	0.003720	0.000613	6318.006837	42242.472609	3965.328298	22164.606013
32.537000	0.003380	0.000350	-0.002045	-0.000186	6337.521249	42265.636826	3953.002275	22200.070563
33.040500	0.003117	0.000207	0.003795	-0.000529	6338.151157	42283.714922	3968.368163	22215.303484
33.537500	0.002166	-0.000043	0.002694	-0.001094	6335.100037	42312.377396	3967.028709	22240.475675
34.035000	0.000014	0.000236	0.001619	0.001051	6301.288895	42143.415098	3959.007023	22145.145594
34.538000	0.003520	0.000381	-0.000410	0.001083	6328.597342	42153.682701	3953.906944	22143.737008
35.038500	0.004272	0.000871	0.006244	0.001720	6329.503097	42140.393250	3968.869445	22115.544989
35.536000	0.000608	0.000506	-0.000598	0.001619	6301.493643	42116.546558	3952.120293	22119.995330
36.036000	0.002759	0.001079	0.002243	0.001674	6317.941767	42163.362916	3959.008899	22117.570893
36.537000	0.001281	-0.000156	0.002437	0.000687	6314.089241	42140.931694	3961.945826	22161.317210
37.036500	-0.000867	0.000321	0.002850	0.000999	6294.804628	42155.824849	3962.197079	22147.475278
37.539000	0.002520	-0.000178	0.001127	0.001000	6321.365624	42110.714680	3957.914001	22147.424472
38.034500	0.001665	0.000002	0.001448	0.001224	6312.887331	42106.779202	3958.154718	22137.518983
38.537500	0.000463	-0.000353	0.002014	0.000503	6309.100371	42139.711745	3961.349421	22169.453900
39.035500	0.002857	-0.000155	0.002868	0.000717	6326.248167	42138.227079	3962.942538	22159.951189
39.538500	0.001788	0.001019	0.004329	0.001995	6307.796779	42128.912912	3963.399719	22103.377317
40.036000	0.002016	-0.000023	0.000117	0.000579	6320.721585	42162.716274	3956.456269	22166.111130
40.538500	0.001387	-0.000859	0.005884	-0.000136	6321.392305	42151.804282	3972.620292	22197.843757
41.036000	0.000022	-0.000781	0.000695	-0.000420	6312.886689	42184.450647	3960.366171	22210.447538
41.539000	0.002008	0.000207	0.003706	0.000998	6317.355782	42145.582991	3964.329486	22147.509540
42.037000	0.000149	-0.000281	0.003648	-0.000172	6311.937355	42207.246617	3967.106842	22199.425122
42.540000	0.001308	0.000337	0.003230	0.000121	6318.746927	42236.682406	3965.331087	22186.426743
43.035000	0.002058	0.000489	0.001814	0.000519	6321.521014	42214.424330	3960.814486	22168.764665
43.537500	0.001030	0.000875	0.004719	0.001204	6308.053011	42187.334816	3966.345218	22138.383678
44.035500	0.002552	0.000489	0.001771	-0.000772	6335.604053	42331.395342	3963.918954	22226.115246
44.535000	0.002890	0.001680	0.000758	0.000068	6331.635566	42363.198757	3959.310106	22188.775979
45.036000	0.002171	0.000806	0.002375	-0.000283	6328.728966	42315.740774	3964.205065	22204.362737
45.539000	0.000756	0.000201	-0.002465	0.000689	6309.942588	42173.048184	3949.812374	22161.218249
46.036500	0.000833	0.000195	0.001940	-0.000615	6320.799897	42290.518199	3963.949699	22219.146733
46.539000	-0.000076	-0.000329	0.006245	-0.001268	6318.789863	42302.202390	3976.377369	22248.216385
47.037000	0.003709	-0.000205	0.003076	-0.001222	6348.333844	42309.250207	3968.302424	22246.155889
47.534500	0.000906	0.000920	0.005647	0.002886	6293.916215	42039.622134	3964.461120	22063.999940
48.035000	0.001761	-0.000750	-0.000751	0.000619	6318.389210	42093.395616	3954.208375	22164.304456
48.538000	0.002463	-0.000151	0.004303	-0.000602	6333.550490	42257.908511	3969.822435	22218.541122
49.035500	0.003288	0.000516	0.000754	-0.000142	6336.444985	42276.764280	3959.823937	22198.129069
49.538000	-0.000442	-0.000244	0.004510	0.002479	6286.578763	41971.522011	3962.643965	22082.000700
50.036500	0.004716	0.000612	-0.002153	-0.002566	6367.049173	42505.732648	3958.625118	22306.147580
50.541500	0.002337	0.000877	0.009917	0.004752	6290.522645	41868.132560	3970.476162	21981.867373
51.037000	0.006655	0.000725	0.009417	0.006237	6312.702198	41721.537214	3965.508319	21916.705785
51.539500	0.018383	-0.013683	0.023524	0.325056	4583.303261	20936.488316	3418.900711	12026.112697
52.037500	0.000315	-0.009062	-0.021587	0.032560	6065.534885	38626.170055	3831.454435	20798.254230
52.534500	-0.009910	-0.034527	-0.046683	-0.193778	8105.905727	59622.132242	4391.416642	33041.189745
53.035000	-0.005555	-0.024878	-0.029454	-0.161964	7787.023281	56801.017004	4341.551381	30912.103031
53.538000	0.009648	-0.027617	-0.011189	-0.189254	8289.220422	59934.418903	4503.026163	32728.808411
54.037500	0.023926	-0.021117	0.000409	-0.182448	8382.733329	59894.316338	4521.020491	32265.005501
54.538500	0.036720	-0.003544	0.017770	-0.098958	7559.269340	51871.648742	4289.444233	27129.070569
55.036000	0.039805	0.005985	0.027497	-0.015439	6771.741303	44204.105109	4069.430566	22890.007274
55.536000	0.048319	0.011379	0.032977	0.006450	6654.351465	42665.569490	4025.380943	21907.369421
56.037000	0.065963	0.023427	0.056537	0.028662	6615.088051	41746.351296	4028.937790	20959.629397
56.537000	0.081202	0.031453	0.068584	0.055749	6515.135395	40079.240931	3989.876665	19867.572086
57.037000	0.094166	0.038398	0.085580	0.069328	6510.025375	39516.079133	3998.635634	19345.249540
57.538000	0.111520	0.046799	0.101200	0.064725	6697.172140	40628.302004	4051.888014	19520.482885
58.035000	0.124199	0.055227	0.119525	0.147461	6131.669729	34698.700336	3890.553955	16637.272785
58.535500	0.139399	0.064928	0.132381	0.168504	6088.499192	33879.706666	3871.712657	15987.486012
59.036000	0.157971	0.074176	0.155240	0.207411	5942.695789	31836.151439	3835.786435	14865.878397
59.536000	0.171543	0.084093	0.175178	0.240243	5810.760004	30350.173381	3807.869729	13994.545725
60.036500	0.187643	0.093249	0.186294	0.272877	5702.067092	28906.829962	3763.086283	13191.332260
60.539500	0.203402	0.101847	0.210291	0.298753	5637.583924	27893.498378	3759.279836	12596.010794
61.036500	0.217190	0.109666	0.222578	0.320749	5586.345234	27091.483156	3739.873015	12117.083012
61.540000	0.234773	0.119169	0.241315	0.337209	5593.300511	26707.475087	3744.386982	11774.255091
62.034500	0.243569	0.124827	0.252744	0.359661	5509.963177	25805.289431	3722.757588	11327.062579
62.534500	0.256927	0.134715	0.267778	0.380976	5462.601371	25211.052655	3710.678152	10923.389998
63.035000	0.266956	0.139875	0.277100	0.402917	5393.305473	24366.353795	3686.931068	10528.058115
63.538000	0.281324	0.145645	0.283347	0.399280	5498.790592	24835.836861	3705.471314	10592.209297
64.035500	0.289535	0.151169	0.300041	0.444846	5284.699767	22905.885844	3652.472269	9825.922386
64.539000	0.299643	0.156154	0.319177	0.459291	5261.018889	22475.358178	3660.846544	9599.317136
65.036500	0.307888	0.163730	0.319856	0.462072	5290.901219	22692.433853	3657.084062	9556.551056
65.536500	0.321079	0.168671	0.327863	0.474619	5294.439655	22349.214230	3649.016243	9366.944466
66.036500	0.326108	0.169107	0.336443	0.509286	5136.567052	20876.910843	3604.267964	8870.709344
66.540000	0.333401	0.172675	0.342969	0.524635	5095.484023	20396.452137	3589.732881	8663.335300
67.035000	0.338575	0.171961	0.346119	0.557916	4957.971209	19080.901414	3542.257958	8238.083689
67.538000	0.334048	0.174209	0.352242	0.600470	4746.661438	17648.853980	3489.087464	7739.735731
68.038500	0.337705	0.168015	0.352715	0.610805	4718.496644	17098.970208	3475.443916	7625.888768
68.538500	0.333839	0.169902	0.358808	0.622821	4653.239888	16772.174989	3467.397288	7496.890462
69.036000	0.339019	0.173087	0.354596	0.628774	4650.123944	16684.206260	3453.841943	7434.297639
69.539000	0.336670	0.174066	0.351557	0.627684	4645.061109	16749.918414	3451.279175	7445.694498
70.036500	0.343699	0.179661	0.359732	0.620619	4702.584949	17158.860610	3471.630033	7520.264312
70.537000	0.342832	0.185684	0.366670	0.614084	4726.249473	17576.506512	3490.226930	7590.334820
71.037000	0.339778	0.188512	0.354366	0.604175	4755.284498	18012.609065	3486.878869	7698.613498
71.538000	0.344291	0.192048	0.357400	0.601965	4784.207761	18213.579582	3494.233142	7723.096753
72.035000	0.348233	0.193806	0.361201	0.589803	4855.347384	18711.591858	3517.176979	7860.110013
72.538000	0.346265	0.195465	0.367795	0.584484	4870.482725	18967.308245	3534.855297	7921.243865
73.035500	0.348330	0.196200	0.364916	0.580497	4898.116872	19142.704055	3536.525945	7967.565897
73.536000	0.346602	0.196494	0.355987	0.581600	4885.141916	19112.509160	3521.566457	7954.705553
74.036000	0.349165	0.196378	0.365558	0.573824	4932.935107	19400.573394	3547.652410	8046.043788
74.541500	0.351156	0.197489	0.366820	0.570836	4956.366818	19556.828191	3554.203815	8081.584951
75.037000	0.349794	0.196493	0.366700	0.568030	4963.209493	19626.311246	3558.376984	8115.181015
75.542000	0.346012	0.196301	0.370080	0.570082	4935.696199	19540.208174	3560.450641	8090.589497
76.037500	0.353128	0.199380	0.365174	0.562508	5005.687373	19952.845410	3564.634619	8181.923188
76.534500	0.351764	0.199943	0.366335	0.558900	5016.590978	20117.174666	3572.176884	8225.997595
77.038000	0.354297	0.200261	0.365589	0.555885	5043.784896	20249.642464	3575.796165	8263.109177
77.541000	0.351304	0.198248	0.375130	0.551314	5051.591431	20351.978685	3598.729554	8319.873639
78.036000	0.355834	0.199923	0.370878	0.550379	5078.818897	20457.034957	3593.271705	8331.557436
78.536000	0.358006	0.203154	0.376229	0.550832	5087.456038	20569.553050	3601.344550	8325.891299
79.036000	0.355875	0.203359	0.369961	0.548429	5088.819811	20675.805614	3594.966246	8355.996171
79.537000	0.355014	0.203434	0.368051	0.551990	5066.662985	20533.930193	3586.034709	8311.439631
80.037000	0.356371	0.203381	0.372116	0.544092	5113.304910	20854.906645	3605.713060	8410.774589
80.534000	0.358188	0.203728	0.370738	0.543163	5127.339430	20907.684703	3604.964588	8422.579672
81.037500	0.360404	0.203966	0.371046	0.541749	5146.024422	20976.214999	3607.839528	8440.594837
81.537000	0.355884	0.203836	0.382420	0.539846	5132.532011	21050.036147	3630.387725	8464.920290
82.034500	0.357155	0.202843	0.369841	0.537769	5149.805750	21095.385325	3612.494752	8491.612607
82.536500	0.358034	0.205845	0.375460	0.539026	5147.845618	21168.516527	3619.875620	8475.448720
83.035500	0.356674	0.204516	0.371462	0.536228	5155.294189	21230.304941	3617.836081	8511.486245
83.536000	0.352782	0.204912	0.374568	0.542268	5104.330161	20993.934371	3612.877328	8433.965189
84.036500	0.355588	0.205790	0.369574	0.535342	5154.260959	21321.629706	3616.140112	8522.955807
84.536500	0.354999	0.205052	0.370185	0.533502	5160.758862	21368.368591	3620.298545	8546.830953
85.036000	0.356087	0.206983	0.378704	0.534553	5160.949233	21405.742078	3633.112407	8533.172904
85.537500	0.353288	0.205736	0.370919	0.539055	5123.281613	21162.728979	3612.144778	8475.072200
86.035000	0.355973	0.206905	0.374457	0.532996	5168.470386	21468.808174	3628.471764	8553.413256
86.534500	0.356394	0.207463	0.371126	0.533082	5170.222014	21488.971142	3622.617137	8552.294770
87.038500	0.356507	0.206264	0.366265	0.532919	5171.662122	21444.740893	3614.642342	8554.413648
87.535500	0.354842	0.206952	0.375486	0.538277	5135.244634	21246.670494	3621.192921	8485.073168
88.036000	0.355895	0.208237	0.367135	0.534158	5162.006278	21476.048070	3614.019341	8538.300841
88.536000	0.355744	0.207370	0.379314	0.534067	5161.692682	21442.937145	3635.011980	8539.484330
89.036500	0.355966	0.209724	0.373228	0.535584	5154.966166	21478.683672	3621.935678	8519.825348
89.536500	0.352077	0.208426	0.365958	0.540834	5108.037376	21201.027814	3600.893756	8452.282125
90.037000	0.354776	0.209726	0.370930	0.535630	5148.562238	21476.826145	3617.948625	8519.224488
90.534500	0.359910	0.209948	0.374109	0.535029	5178.437305	21512.030714	3624.387487	8527.011398
91.034500	0.359287	0.209964	0.374653	0.535022	5175.207574	21512.970564	3625.331301	8527.098963
91.535500	0.352118	0.208732	0.374761	0.538864	5118.274215	21297.029987	3618.961707	8477.521848
92.035500	0.358437	0.209386	0.371902	0.533538	5178.530440	21551.817108	3623.163949	8546.367983
92.536000	0.359615	0.210022	0.379263	0.534354	5180.430838	21544.081359	3634.426248	8535.765674
93.036000	0.357526	0.209942	0.371625	0.533525	5173.829720	21576.257341	3622.713913	8546.537997
93.536500	0.353355	0.210986	0.371461	0.539420	5121.756621	21369.046123	3612.442680	8470.391325
94.036500	0.360474	0.212551	0.374819	0.535199	5180.499565	21616.412750	3625.310644	8524.800471
94.537000	0.361190	0.211890	0.384608	0.535113	5184.714798	21591.687182	3642.419375	8525.917307
95.034500	0.359974	0.211943	0.370408	0.534810	5179.918917	21606.996062	3618.454417	8529.843912
95.534500	0.363471	0.214947	0.379255	0.538088	5181.063859	21595.184339	3627.965679	8487.497184
96.035000	0.360831	0.214133	0.378591	0.537035	5172.749355	21605.467414	3628.634055	8501.066827
96.538000	0.363481	0.213929	0.377684	0.538237	5180.337555	21545.106647	3625.015445	8485.586012
97.036000	0.363742	0.214623	0.377921	0.538929	5178.079243	21545.169819	3624.236092	8476.687200
97.536000	0.360733	0.215120	0.380402	0.540590	5153.723494	21495.368417	3625.640391	8455.397935
98.036500	0.364389	0.214371	0.382111	0.541137	5169.906936	21440.004195	3627.633436	8448.403200
