sample name	sample
index	1082
start time	 04-22-2021  11:19:06 AM
880	0.245371
Peak Time (s)	102.538
Peak Height 	0.2454
calc peak height	100,103
Baseline Time (s)	11.536
Baseline Value 	-0.006444
subtract baseline	10,4
Abs	0.147069
Peak Time (s)	102.035
Peak Height 	0.1471
calc peak height	100,103
Baseline Time (s)	10.037
Baseline Value 	0.00219
subtract baseline	10,3
PK_550	0.091209
Peak Time (s)	102.035
Peak Height 	0.09121
calc peak height	100,103
Baseline Time (s)	8.537
Baseline Value 	2.3447E-4
subtract baseline	10,2
PK_880	0.136809
Peak Time (s)	101.537
Peak Height 	0.1368
calc peak height	100,103
Baseline Time (s)	8.537
Baseline Value 	0.002685
subtract baseline	10,1


Time (s)	A880-A510	A880-A775	A880-A975	A880	I510	I775	I975	I880	
0.036500	-0.001575	0.000080	-0.002957	0.001790	6238.192029	43243.442453	3877.801254	22672.284354
0.537000	-0.000335	0.000483	0.002232	0.004819	6224.470659	43000.579483	3882.828741	22534.870416
1.037000	-0.001067	-0.000392	-0.005960	0.006970	6202.475696	42722.528316	3858.980166	22437.867372
1.538500	-0.000852	-0.000646	0.001160	0.001640	6244.915827	43190.154643	3887.758042	22679.144811
2.035000	-0.000733	-0.000428	-0.000392	0.000624	6253.665817	43304.527077	3886.498752	22725.429389
2.535500	0.000205	0.000180	0.001701	0.000680	6260.482899	43355.877818	3891.282820	22722.895038
3.035500	-0.002195	0.000067	0.000780	0.005122	6207.953315	42934.350309	3878.741986	22521.169176
3.538500	-0.003758	0.000247	-0.000451	0.001817	6221.246313	43256.473704	3883.571361	22671.054626
4.036000	0.001821	0.000334	0.003280	0.001073	6269.962158	43333.725486	3894.075943	22704.971044
4.536500	0.000889	0.000304	0.000880	0.001279	6261.139488	43311.787188	3887.945879	22695.572021
5.037000	-0.002846	0.000664	-0.002716	0.005150	6202.784796	42986.798354	3870.585293	22519.921760
5.540000	-0.000611	0.000198	-0.000288	0.000013	6259.335981	43419.656804	3888.175339	22753.358407
6.035000	-0.002585	0.000002	0.000476	-0.000044	6244.537507	43406.761125	3890.103763	22755.964449
6.537500	-0.000345	0.000221	0.001903	0.000320	6259.012849	43393.187675	3892.604476	22739.320141
7.035000	0.000244	-0.000311	-0.000084	0.000145	6264.930796	43359.969248	3888.344757	22747.316298
7.535500	-0.000139	0.000328	0.000426	0.000518	6259.077130	43384.783879	3888.665656	22730.278719
8.036500	0.000574	-0.000055	-0.001339	-0.000126	6269.594460	43409.104818	3886.040143	22759.739777
8.536500	0.000000	0.000000	0.005494	0.000032	6263.915354	43399.475013	3901.783271	22752.490825
9.036500	0.001546	0.000413	-0.000967	0.000471	6272.502691	43397.034437	3885.513384	22732.424099
9.537500	0.001029	-0.000430	-0.000982	-0.000300	6274.468801	43390.291841	3887.281255	22767.656817
10.037000	-0.000250	-0.000055	0.000000	-0.000359	6265.007083	43430.788855	3889.724939	22770.359652
10.538500	-0.001184	-0.000267	0.001157	-0.000376	6257.910053	43412.655845	3892.486218	22771.155074
11.035000	0.001231	0.000581	0.003900	0.000227	6271.949761	43435.464962	3897.540834	22743.590027
11.535500	-0.002501	0.000457	-0.006323	0.000000	6244.844827	43445.079991	3874.148457	22753.956295
12.035000	0.001134	0.000003	-0.000360	-0.000058	6273.408644	43408.174966	3888.173979	22756.616505
12.536000	0.000086	-0.000073	0.002102	-0.000409	6267.999061	43433.769210	3894.791726	22772.644305
13.038500	0.000673	0.000420	0.001460	-0.000631	6274.274280	43500.465857	3893.800885	22782.806174
13.536500	-0.000794	-0.000498	-0.001289	0.002666	6237.464045	43108.859882	3879.641767	22632.440187
14.037000	-0.000980	-0.000989	-0.001876	0.001780	6242.850307	43145.331750	3880.337651	22672.740313
14.537000	-0.000103	-0.000209	-0.002944	0.001819	6249.311648	43214.052550	3877.766465	22670.998497
15.038500	-0.001210	0.000058	0.000170	-0.000752	6260.619464	43477.976590	3891.050658	22788.372296
15.534500	-0.002723	0.000131	-0.001687	0.001993	6227.831076	43229.418487	3880.281982	22663.053542
16.034500	0.001519	0.000256	-0.001775	-0.000667	6281.139683	43488.542583	3886.284699	22784.478595
16.535500	-0.002076	0.000705	0.001350	-0.000486	6251.868881	43513.534169	3893.201329	22776.190602
17.035000	0.002134	0.000709	0.002766	-0.002863	6303.099715	43736.576507	3902.181030	22885.278060
17.539000	-0.001318	-0.000667	0.002188	0.000171	6252.652450	43324.498388	3893.628231	22746.142219
18.036000	-0.000430	-0.000423	-0.001387	0.000819	6254.502698	43287.020677	3883.718694	22716.566015
18.536000	-0.001941	0.000510	0.003317	0.001141	6240.370052	43343.648592	3894.002768	22701.845007
19.036500	0.000320	-0.000007	-0.001869	0.001012	6258.809534	43307.668384	3882.143840	22707.764752
19.537000	-0.001086	-0.000357	-0.004508	0.000537	6251.615811	43319.316795	3877.111687	22729.444102
20.037000	-0.001096	-0.001020	-0.007066	0.000050	6255.301978	43302.946280	3872.316568	22751.685237
20.534500	-0.001582	0.000289	-0.003964	0.000769	6246.003308	43357.789984	3877.832962	22718.834965
21.035000	-0.002125	-0.000120	0.000835	0.000561	6243.418653	43339.085425	3889.525690	22728.330367
21.535500	-0.000936	-0.000023	0.000833	0.000472	6253.274403	43356.376583	3889.731102	22732.409633
22.036000	-0.001986	0.000156	-0.000520	0.000831	6242.412350	43339.690391	3885.716317	22716.015900
22.539000	-0.000717	0.000250	0.003950	0.001133	6249.861564	43320.327453	3895.515566	22702.225613
23.036000	-0.003293	-0.000693	-0.003843	0.000292	6236.511203	43310.816978	3879.224265	22740.620890
23.536000	0.000688	0.000309	0.000842	0.001407	6258.598609	43300.320730	3887.557519	22689.725399
24.037000	0.000961	-0.000184	-0.003483	0.000495	6267.779638	43339.351332	3879.588887	22731.358192
24.534500	-0.001313	0.000498	0.005387	0.001334	6243.718661	43324.615997	3898.438515	22693.048288
25.034500	-0.000287	0.000402	-0.000775	0.000964	6254.483181	43350.144287	3884.809548	22709.924873
25.537000	-0.001627	-0.000712	0.003743	0.000432	6248.251837	43296.070583	3896.684398	22734.210106
26.035500	0.000507	-0.000494	0.000415	0.000492	6264.277666	43310.749613	3888.701340	22731.478095
26.535500	-0.000975	-0.000701	0.000022	-0.000071	6257.170062	43343.839976	3889.102988	22757.218809
27.035500	-0.000683	-0.000705	-0.003308	-0.001120	6267.548851	43441.096302	3883.759714	22805.208480
27.535500	0.000838	-0.000669	-0.002458	-0.003762	6299.988563	43691.615313	3891.948115	22926.694510
28.036500	0.000674	-0.000883	0.007425	-0.001718	6282.744766	43480.272859	3910.568215	22832.625287
28.537000	-0.000740	-0.000130	0.002356	-0.001440	6269.593521	43524.685593	3897.830473	22819.892369
29.036500	-0.003456	-0.000573	0.000914	0.002391	6219.171109	43127.380785	3885.422478	22644.960221
29.537500	-0.000442	0.000641	0.002086	0.001687	6247.706466	43305.163428	3889.818634	22676.977259
30.035000	-0.001457	-0.000114	0.006302	-0.001075	6261.206090	43492.053162	3906.343440	22803.139956
30.535000	0.000649	0.000747	0.001681	0.001414	6258.244054	43340.339523	3889.508407	22689.416563
31.038500	-0.000520	-0.000016	-0.001007	0.001810	6246.161414	43232.711095	3882.292757	22671.377271
31.536000	-0.000220	0.000684	0.000844	0.002250	6245.082976	43256.860335	3885.586870	22651.350880
32.036000	0.001273	-0.000010	0.001767	-0.000873	6280.830485	43482.970278	3895.098579	22793.920907
32.536000	0.002249	0.000393	-0.001461	-0.000993	6289.365746	43531.703288	3887.784793	22799.380027
33.036500	-0.003642	-0.000821	-0.002528	0.004621	6200.763051	42898.836125	3872.240156	22543.853455
33.539500	0.000355	-0.000498	-0.003410	0.000325	6264.393973	43325.879709	3880.154479	22739.110931
34.036500	-0.000263	0.000168	0.005083	0.001236	6252.569196	43303.087656	3897.952037	22697.516012
34.537500	-0.000849	0.000190	-0.003517	0.001066	6249.362637	43320.993687	3878.181954	22705.284034
35.035000	-0.001604	-0.000244	0.004621	0.001414	6240.867990	43248.397011	3896.438344	22689.436986
35.535500	0.001084	0.000457	-0.000964	0.001518	6260.800793	43303.780129	3883.073229	22684.671493
36.035500	-0.002309	-0.000717	0.001484	0.000961	6238.927177	43246.478711	3890.111199	22710.059906
36.539000	-0.001854	0.000660	0.001353	0.001743	6236.414955	43301.696173	3887.967896	22674.422028
37.036000	-0.000200	0.000165	-0.000756	0.000737	6256.914472	43349.259589	3885.384160	22720.311442
37.536000	-0.002112	-0.000312	0.003377	0.000783	6241.814162	43300.688078	3894.990459	22718.214644
38.036500	-0.000434	0.000102	0.000612	0.000862	6254.137322	43331.693056	3888.294716	22714.573143
38.537000	-0.000527	-0.000151	0.000649	0.001149	6251.207450	43281.616464	3887.710567	22701.513999
39.037000	-0.000923	0.000581	0.000663	0.001072	6248.746069	43356.811022	3887.923415	22705.026875
39.534500	-0.000701	0.000321	-0.000875	0.001400	6247.927767	43302.117044	3883.557160	22690.082878
40.035000	-0.002002	0.000143	0.002011	0.001006	6240.947538	43322.187415	3891.245776	22708.035988
40.535500	-0.003281	-0.000355	-0.002734	0.000435	6235.503172	43328.982215	3881.471780	22734.086354
41.035500	-0.000268	0.000060	0.002964	0.000899	6255.133841	43324.396434	3893.738898	22712.880445
41.535500	0.000153	0.000633	0.001807	0.001023	6257.432520	43366.180358	3890.726161	22707.262257
42.036000	-0.000956	0.000288	-0.003444	0.000717	6251.229091	43362.501285	3879.163104	22721.192954
42.536000	-0.002200	0.000238	0.001884	0.000980	6239.618945	43333.439821	3891.006333	22709.200260
43.036500	-0.000153	0.000355	0.000262	0.001264	6253.203749	43317.872485	3886.533920	22696.272117
43.537000	0.002723	-0.000362	0.002078	-0.002791	6307.146810	43629.230869	3900.374083	22881.928791
44.034500	0.000978	0.000434	0.006202	-0.002267	6289.397664	43654.780527	3908.956404	22857.864407
44.537500	0.001395	0.001316	0.006685	-0.000477	6278.698955	43569.849430	3905.833740	22775.782585
45.035000	-0.002743	-0.000485	-0.000852	0.000309	6240.600345	43328.521903	3886.160570	22739.813829
45.535000	-0.001701	-0.000540	0.002346	0.003045	6227.602661	43069.981514	3887.245037	22615.259876
46.038500	0.001263	-0.000817	0.001332	-0.002005	6289.575880	43513.259674	3896.745335	22845.812575
46.536000	0.002033	0.000403	0.003660	-0.001325	6290.275652	43563.716268	3900.650726	22814.616736
47.036500	0.001453	0.000165	0.000985	0.001756	6261.814753	43254.528396	3887.073141	22673.834617
47.536500	-0.000410	0.000108	0.000668	0.001894	6246.362754	43236.488735	3886.009037	22667.576854
48.036500	0.001086	-0.001047	0.002284	-0.002175	6289.520098	43507.664132	3899.404122	22853.649389
48.537000	-0.000189	0.000303	0.008192	-0.001549	6274.713077	43575.271039	3912.004911	22824.884822
49.034500	0.000128	0.000287	0.006476	-0.000267	6267.225572	43454.098678	3904.832605	22766.151913
49.538000	-0.000901	-0.000155	0.002113	0.000450	6253.719030	43346.206503	3892.795084	22733.414356
50.035000	0.000587	0.000355	0.003839	0.000239	6266.865285	43413.320577	3897.368180	22743.055676
50.538500	0.019116	-0.004952	0.010636	0.089159	5763.066372	35522.071101	3720.280096	19069.396556
51.035500	0.023236	-0.007857	0.001698	0.503242	4013.879202	15422.566368	3190.736601	9132.468499
51.536000	-0.018958	-0.016733	-0.025691	-0.031537	6363.038738	44805.017483	3902.696651	24249.249232
52.036000	-0.026380	-0.039036	-0.030511	-0.181913	7712.983579	59159.222599	4314.057513	33082.222067
52.536500	-0.011387	-0.051320	-0.008522	-0.227805	8437.350914	63681.492349	4558.442520	36446.091447
53.037000	-0.006855	-0.040243	-0.002681	-0.211736	8292.176579	62987.308144	4519.127819	35227.573348
53.538000	0.003140	-0.016833	0.003969	-0.147118	7654.882649	57553.088917	4313.008059	30758.486681
54.035000	0.002804	-0.012297	-0.001381	-0.124986	7415.134904	55385.147403	4224.497454	29374.416379
54.535500	-0.000338	-0.010023	-0.001009	-0.108610	7216.710413	53710.140795	4175.476305	28394.821212
55.035000	0.006434	-0.009000	0.006545	-0.130483	7511.030781	56457.697424	4267.029701	29711.639530
55.535500	0.012054	-0.004341	0.010330	-0.115358	7411.208761	55183.709286	4231.012126	28793.995504
56.036000	0.016938	0.000499	0.013891	-0.096891	7272.302777	53570.345871	4185.077939	27716.090831
56.537000	0.024532	0.005320	0.020237	-0.078797	7167.853804	52046.784211	4149.966910	26703.446440
57.036000	0.023635	0.009516	0.018886	-0.052301	6906.968926	49589.653016	4070.442685	25294.701124
57.536500	0.030630	0.011696	0.028791	-0.044706	6901.432857	49011.774157	4076.844503	24906.457736
58.037500	0.035237	0.015431	0.034504	-0.019537	6716.389854	46793.892318	4023.954696	23667.439623
58.537000	0.041525	0.018019	0.037286	0.018661	6446.026064	43342.737105	3933.548649	21918.989932
59.035000	0.040360	0.019797	0.038723	0.025905	6378.021901	42837.585624	3919.417040	21604.381214
59.535000	0.042700	0.020329	0.042313	0.038262	6298.715604	41766.265532	3898.433110	21079.707774
60.038500	0.046469	0.025010	0.045527	0.058961	6168.779083	40360.921293	3857.835519	20233.657811
60.535500	0.051880	0.027940	0.056043	0.117292	5793.754949	35880.935789	3754.799006	18055.226204
61.036000	0.053541	0.030318	0.057732	0.144742	5626.916046	34033.920902	3703.814643	17127.045568
61.536500	0.059380	0.036044	0.066687	0.182994	5430.802882	31791.294727	3649.393259	15927.661747
62.036500	0.056541	0.036797	0.063269	0.186276	5395.378257	31623.853790	3637.455217	15829.594361
62.537000	0.058034	0.038997	0.065678	0.188259	5392.565236	31638.187188	3638.207373	15770.690957
63.037000	0.060117	0.042510	0.064501	0.186488	5414.781895	31989.330079	3639.259685	15823.271051
63.534500	0.063187	0.045033	0.073115	0.184447	5444.557701	32296.094075	3658.378072	15884.156320
64.041000	0.063273	0.046659	0.073628	0.183957	5447.932397	32439.309251	3660.200632	15898.788228
64.535500	0.067910	0.049916	0.070498	0.185240	5467.689404	32573.676067	3652.208330	15860.461927
65.036000	0.068819	0.049477	0.078381	0.183956	5480.683926	32631.341759	3668.902485	15898.822277
65.535000	0.068639	0.050607	0.076867	0.182965	5485.511576	32776.620989	3667.941543	15928.522958
66.036000	0.072662	0.051561	0.077482	0.175578	5554.339872	33354.982278	3682.789762	16152.009450
66.536500	0.073030	0.052537	0.082199	0.168829	5598.200694	33900.496976	3704.545901	16359.527669
67.037000	0.073696	0.053973	0.078568	0.162012	5645.096874	34494.262326	3710.694006	16572.459832
67.537500	0.077002	0.056059	0.082222	0.154713	5712.958740	35183.226540	3732.178168	16804.174550
68.037500	0.077184	0.056673	0.080751	0.147176	5763.405758	35793.800141	3744.312154	17047.558891
68.534500	0.074523	0.056721	0.083305	0.140776	5788.165075	36285.018678	3762.536681	17257.578167
69.035000	0.081012	0.059035	0.085468	0.137798	5851.816106	36693.602003	3773.167871	17356.348056
69.538500	0.080568	0.059517	0.089347	0.133875	5875.549307	37037.557001	3789.548494	17487.494843
70.035500	0.081803	0.059456	0.090761	0.129430	5914.730062	37383.335028	3802.045071	17637.560175
70.536000	0.083391	0.061175	0.088718	0.128034	5935.519162	37631.270513	3800.657521	17685.026446
71.036000	0.083989	0.060702	0.088838	0.126410	5951.089495	37723.258032	3804.403565	17740.407137
71.537000	0.084894	0.062428	0.090315	0.128648	5941.739291	37682.268114	3802.766501	17664.139630
72.037000	0.087210	0.062173	0.096089	0.127262	5967.780658	37772.830715	3818.280548	17711.326869
72.537500	0.088721	0.064975	0.093119	0.130764	5953.749102	37716.788394	3804.246454	17592.386835
73.034500	0.088823	0.064284	0.098311	0.132526	5942.092462	37520.919982	3811.657464	17532.884465
73.535000	0.088511	0.064949	0.099531	0.136894	5909.481649	37227.409072	3804.852551	17386.452118
74.036000	0.093206	0.065670	0.101045	0.138873	5928.366992	37128.389666	3803.852242	17320.620274
74.536000	0.093553	0.066597	0.100315	0.142813	5903.412611	36892.074248	3793.860131	17190.382105
75.035500	0.095837	0.066933	0.101244	0.145993	5897.220299	36670.502533	3789.079075	17086.121295
75.536000	0.097885	0.067401	0.102776	0.149697	5885.815396	36420.291690	3784.494033	16965.668804
76.037000	0.096976	0.067349	0.107504	0.149286	5882.389513	36447.935284	3795.383670	16978.977439
76.536500	0.097781	0.068573	0.099017	0.151782	5870.803823	36349.954533	3772.262531	16898.305012
77.036500	0.099481	0.069546	0.109974	0.153656	5869.619700	36280.816707	3791.343048	16838.053635
77.537000	0.100596	0.069359	0.111559	0.155604	5863.925228	36117.381268	3790.573006	16775.683953
78.037000	0.101031	0.070393	0.108329	0.155617	5866.801492	36195.381187	3783.720842	16775.251060
78.535000	0.100271	0.069759	0.111528	0.156450	5855.939439	36083.296947	3788.715727	16748.672031
79.038500	0.105449	0.071285	0.114131	0.158934	5874.336429	36010.344567	3788.967495	16669.705118
79.536000	0.106322	0.072488	0.117086	0.161268	5864.346979	35924.299925	3790.280889	16595.887978
80.036000	0.105838	0.072651	0.109431	0.162919	5849.808393	35811.562231	3770.762798	16543.927754
80.536000	0.108467	0.074146	0.115544	0.165970	5846.940727	35694.032981	3777.139604	16448.425429
81.036500	0.107505	0.074097	0.117811	0.167264	5831.670897	35592.927457	3779.173514	16408.113809
81.537000	0.107595	0.074521	0.116931	0.169180	5819.372293	35481.032531	3773.336618	16348.670126
82.037500	0.108121	0.074431	0.114962	0.170307	5815.333300	35389.996159	3766.915641	16313.804542
82.534500	0.110981	0.075703	0.115288	0.173586	5812.522848	35240.457683	3760.835910	16212.930395
83.035000	0.111220	0.076976	0.120293	0.175811	5799.235681	35169.753690	3766.558455	16144.883921
83.538000	0.112485	0.076532	0.121001	0.177394	5797.114675	35019.792017	3764.754968	16096.726009
84.035500	0.110242	0.075341	0.117582	0.177562	5781.076889	34919.575898	3757.390780	16091.617387
84.535000	0.112056	0.076995	0.120093	0.181975	5763.886107	34717.166875	3753.511760	15958.256909
85.036000	0.110788	0.077279	0.120088	0.182868	5749.662995	34672.639059	3751.684312	15931.421981
85.536500	0.113045	0.077772	0.115427	0.184530	5753.577775	34587.447602	3738.935967	15881.675541
86.036500	0.114288	0.078827	0.122004	0.186756	5747.128193	34502.272076	3747.688910	15815.315869
86.536500	0.114627	0.077989	0.127138	0.190016	5728.035186	34205.936799	3751.485287	15718.724867
87.034500	0.117058	0.080872	0.129579	0.192672	5726.571115	34222.277523	3751.050346	15640.587669
87.534500	0.116790	0.080273	0.127167	0.195182	5708.549975	33999.230681	3741.115935	15567.163866
88.034500	0.116807	0.080365	0.125780	0.195272	5708.074567	33999.328717	3738.155787	15564.533404
88.535000	0.117094	0.081005	0.124478	0.199856	5680.431773	33718.732365	3726.463127	15431.583495
89.035500	0.121771	0.081050	0.126185	0.199560	5712.453638	33742.896711	3730.423895	15440.128409
89.536000	0.118902	0.081231	0.125956	0.202146	5677.340286	33572.832019	3724.862126	15365.667606
90.036500	0.119600	0.081504	0.127670	0.203283	5674.539025	33512.005080	3725.999560	15333.104157
90.536500	0.119662	0.082819	0.128710	0.208414	5642.341365	33244.700724	3717.970146	15187.073206
91.037000	0.121629	0.082738	0.133006	0.207680	5659.452697	33290.285396	3727.853311	15207.866468
91.537000	0.123776	0.082350	0.132524	0.209269	5663.001163	33152.473298	3723.770687	15162.918278
92.034500	0.123116	0.083740	0.127433	0.211777	5642.913366	33074.843419	3708.952885	15092.296273
92.535000	0.122981	0.084026	0.132223	0.217186	5608.121663	32721.619629	3707.755942	14941.399844
93.038000	0.124158	0.084058	0.130565	0.215775	5624.309651	32820.704002	3707.281858	14980.602182
93.535000	0.128696	0.084589	0.135706	0.218873	5633.352880	32644.659829	3711.229630	14894.719913
94.036000	0.127026	0.085345	0.132355	0.219982	5615.922863	32620.537415	3702.630474	14864.144219
94.536000	0.128258	0.085983	0.137801	0.225389	5589.937476	32296.564750	3702.706954	14716.124848
95.036000	0.129711	0.086524	0.141272	0.223705	5609.436521	32447.263923	3712.654585	14762.023885
95.537000	0.127745	0.086309	0.138489	0.226116	5582.265282	32269.539380	3702.632058	14696.371350
96.037000	0.130704	0.087137	0.140466	0.226410	5598.777784	32305.578621	3705.866128	14688.395051
96.537500	0.128810	0.087458	0.135766	0.231636	5554.890776	31975.909267	3686.968112	14547.390394
97.037500	0.129671	0.087916	0.141610	0.230070	5569.768600	32111.514929	3701.035188	14589.459686
97.535000	0.128592	0.088125	0.146271	0.231676	5553.313559	32017.856120	3706.905066	14546.327885
