sample name	sample
index	1107
start time	 04-22-2021  12:55:12 PM
880	0.496915
Peak Time (s)	102.535
Peak Height 	0.4969
calc peak height	100,103
Baseline Time (s)	11.04
Baseline Value 	-0.006025
subtract baseline	10,4
Abs	0.332570
Peak Time (s)	101.537
Peak Height 	0.3326
calc peak height	100,103
Baseline Time (s)	11.535
Baseline Value 	0.003164
subtract baseline	10,3
PK_550	0.184631
Peak Time (s)	102.535
Peak Height 	0.1846
calc peak height	100,103
Baseline Time (s)	10.537
Baseline Value 	8.1942E-4
subtract baseline	10,2
PK_880	0.310469
Peak Time (s)	100.537
Peak Height 	0.3105
calc peak height	100,103
Baseline Time (s)	11.535
Baseline Value 	0.002843
subtract baseline	10,1


Time (s)	A880-A510	A880-A775	A880-A975	A880	I510	I775	I975	I880	
0.036000	-0.000570	-0.000932	0.002100	0.002503	6275.680791	43155.905031	3912.997181	22657.468440
0.536500	-0.002927	-0.000939	-0.000562	0.004418	6242.883510	42978.507773	3902.407167	22570.656228
1.037500	-0.003338	-0.000269	-0.001580	0.004962	6235.590624	42990.123372	3898.816357	22546.067269
1.539500	-0.001918	-0.001182	-0.003414	0.003115	6260.594117	43076.270499	3898.848065	22629.716172
2.035000	-0.001197	-0.000934	0.000717	0.000970	6282.687947	43297.834140	3913.347155	22727.273517
2.535500	-0.001148	-0.000328	0.001014	0.001199	6281.289638	43332.804532	3913.505005	22716.812856
3.035500	-0.002533	-0.000276	-0.000665	0.001930	6264.975017	43269.845023	3907.913335	22683.545187
3.536000	-0.001026	0.000131	0.006183	0.000552	6287.245530	43435.782799	3927.133301	22746.349023
4.036500	-0.000441	-0.000441	-0.000786	0.000432	6292.699038	43393.645350	3911.102944	22751.793256
4.536500	-0.000628	-0.000368	0.004776	0.000374	6291.709732	43405.914201	3924.238065	22754.471125
5.036500	-0.003071	-0.000667	-0.001668	0.002874	6253.600697	43146.130737	3903.416204	22640.647862
5.539500	0.000468	0.000063	0.000695	0.000043	6302.783748	43476.853779	3915.454327	22769.551324
6.037000	0.000117	0.000587	0.001467	0.000521	6296.340836	43481.180409	3916.140433	22747.727287
6.537500	-0.000418	-0.000167	0.004201	-0.000147	6297.371990	43473.091246	3924.110494	22778.242009
7.035000	0.000660	0.000255	0.003968	-0.000250	6306.560876	43522.151120	3923.806430	22782.971017
7.535000	0.000456	0.000441	-0.001092	0.000386	6300.027299	43480.181891	3910.500910	22753.906719
8.035500	0.000636	0.000303	-0.002420	-0.000118	6305.346169	43514.294942	3908.590663	22776.947485
8.536000	-0.001036	0.000428	0.005102	0.000441	6288.022577	43473.817942	3924.846641	22751.379045
9.036000	-0.000221	0.000580	0.004396	0.000129	6296.763575	43517.058261	3923.920558	22765.635006
9.536000	0.000865	-0.000060	0.002387	0.000059	6305.753541	43464.007025	3919.371888	22768.862837
10.036500	-0.001576	-0.000385	-0.002699	-0.000184	6288.686232	43456.297589	3908.098538	22779.963975
10.537000	0.000346	0.000000	-0.001324	-0.000133	6303.205251	43487.448521	3911.167478	22777.626019
11.040000	0.000558	0.000271	-0.000994	0.000000	6303.818805	43500.268761	3911.623987	22771.537100
11.535000	0.000000	-0.000499	0.000000	-0.000533	6303.621468	43478.114891	3915.177237	22795.888629
12.035000	-0.002036	0.000392	0.003127	-0.000007	6283.749981	43512.307006	3921.261547	22771.866420
12.535500	0.002195	0.000604	-0.001123	-0.000214	6318.249729	43551.366631	3911.820758	22781.298444
13.038000	0.000645	0.000286	-0.001900	-0.000465	6308.116105	43545.108774	3910.599096	22792.777362
13.535500	-0.002258	0.000860	-0.001172	0.000953	6274.618459	43466.358007	3909.000127	22728.022554
14.036000	-0.001865	0.000142	0.001956	0.002856	6262.995368	43222.720056	3911.843067	22641.470931
14.536500	-0.002352	0.000557	-0.003325	0.002323	6263.353234	43310.717387	3900.872439	22665.690259
15.045000	-0.004981	-0.000685	-0.006682	0.004502	6226.587515	42994.147308	3888.226119	22566.858789
15.537000	-0.001281	-0.000019	0.004416	0.000003	6289.519209	43473.011961	3924.264592	22771.416113
16.035000	-0.002606	-0.000026	0.000025	0.000168	6277.989154	43456.952452	3913.603881	22763.852672
16.535000	0.000636	0.000307	0.003670	0.000334	6301.829275	43472.515247	3921.736079	22756.300238
17.034500	0.002752	-0.000105	0.001360	-0.003317	6346.978521	43775.734369	3924.886990	22923.702933
17.535500	-0.002757	-0.000217	0.003107	0.000522	6274.099127	43406.194665	3919.975265	22747.719496
18.036000	0.001062	0.000197	-0.000642	0.001466	6296.346419	43356.810930	3909.040855	22704.660734
18.536500	-0.000894	-0.000621	-0.002075	0.000887	6285.673156	43334.695952	3907.064335	22731.066082
19.036500	-0.002965	0.000088	0.001331	0.001482	6265.101305	43345.252480	3913.586151	22703.933021
19.540000	-0.000920	0.000813	0.006615	0.001886	6277.742556	43375.067373	3925.008107	22685.533935
20.037000	-0.001224	0.000763	0.002155	0.001587	6277.706290	43398.230161	3915.258743	22699.146563
20.537000	-0.003704	-0.000037	0.007441	0.000976	6263.313163	43380.691498	3929.103727	22726.998547
21.035000	-0.001409	-0.000083	0.002540	0.001499	6276.961952	43327.770689	3916.363644	22703.169304
21.535500	-0.000318	-0.000119	-0.000132	0.000971	6289.483387	43373.541269	3911.371685	22727.220871
22.035500	-0.001143	0.000291	0.003176	0.001343	6280.216832	43377.003379	3918.213419	22710.251038
22.535500	0.001137	0.000747	0.002685	0.001983	6292.914557	43359.947532	3915.572430	22681.136209
23.036000	-0.000558	0.000465	-0.001708	0.001711	6281.897411	43359.030166	3906.007220	22693.522149
23.536500	-0.003333	-0.000901	0.004208	0.000513	6269.729592	43343.326965	3922.577488	22748.110154
24.036500	-0.002701	-0.000157	0.002099	0.000974	6271.049885	43369.756763	3916.561172	22727.099348
24.537000	-0.001737	0.000630	0.004344	0.001629	6273.424109	43381.983957	3920.277539	22697.238941
25.037000	-0.000802	0.000449	0.002319	0.001954	6278.126657	43334.852838	3914.785864	22682.424410
25.537500	-0.004557	0.000575	0.003128	0.001689	6251.287887	43371.262194	3917.292361	22694.505724
26.035000	-0.001870	0.000397	0.002564	0.001556	6272.961794	43367.023455	3916.285511	22700.543142
26.535000	-0.001753	0.000578	0.002615	0.001682	6272.894648	43372.162841	3916.111204	22694.822380
27.035500	-0.002909	-0.000361	-0.000491	0.004953	6238.937899	42982.445302	3901.338863	22546.488851
27.535500	0.000997	0.000379	0.002126	-0.000627	6312.122291	43568.947556	3920.367463	22800.204807
28.036000	-0.000100	0.000687	0.006043	0.000501	6294.816931	43492.441184	3926.925032	22748.679218
28.536500	0.000246	-0.000085	0.002194	-0.000099	6302.159323	43476.331943	3919.290140	22776.063421
29.039500	-0.004195	-0.000801	-0.000461	0.005713	6223.359809	42872.053206	3899.662500	22512.173023
29.536500	-0.000570	-0.000148	0.002262	-0.000017	6295.192732	43462.845487	3919.256935	22772.332460
30.037500	0.000227	0.001417	-0.002065	0.000860	6294.569148	43526.983582	3907.149544	22732.278900
30.537500	0.000489	0.000351	-0.000553	0.002597	6283.140726	43266.166865	3906.628724	22653.237299
31.034500	-0.001888	0.000221	-0.000186	0.004608	6249.380523	43067.997168	3902.836478	22562.103042
31.535000	-0.002539	-0.000617	0.000171	-0.000510	6283.751464	43465.034108	3915.524042	22794.861978
32.038500	-0.000584	-0.000130	0.007122	-0.000280	6297.115363	43488.979476	3931.317503	22784.316280
32.536000	-0.001835	0.000684	0.001359	0.000358	6282.478405	43505.381743	3916.268452	22755.172274
33.036000	-0.003218	0.000156	-0.000139	0.005675	6231.071480	42963.595447	3900.489260	22513.880729
33.536500	0.000820	0.000245	0.004581	0.000115	6304.963056	43487.207937	3924.389684	22766.291039
34.037000	-0.001035	0.000248	0.004336	0.002092	6275.265611	43303.412085	3919.175031	22676.167578
34.537000	0.000241	0.000053	0.002737	0.001798	6287.397461	43312.560118	3916.124579	22689.531349
35.034500	-0.003545	-0.000179	0.005314	0.003468	6245.423746	43136.309859	3918.244593	22613.694360
35.535000	-0.001135	0.000546	0.001477	0.001858	6276.298643	43352.797138	3913.048564	22686.807579
36.035000	-0.000674	-0.000121	0.000133	0.001981	6278.914920	43279.492003	3909.642442	22681.233008
36.535500	-0.001547	0.000164	-0.000568	0.002338	6269.424643	43272.727178	3907.191924	22664.973016
37.036000	-0.005342	-0.000260	0.003398	0.003006	6235.226978	43171.614019	3914.850175	22634.650358
37.536000	-0.001051	0.000145	0.000564	0.002118	6274.941739	43291.424047	3910.325088	22674.983187
38.036500	-0.001377	0.000694	-0.001166	0.002531	6269.246081	43304.093499	3905.363787	22656.208872
38.539500	-0.000167	-0.000198	-0.001001	0.001645	6285.432636	43303.549031	3907.794027	22696.517125
39.037000	-0.000348	-0.000055	0.000458	0.002063	6280.793725	43277.986225	3910.205332	22677.491218
39.537000	-0.000737	-0.000201	0.001191	0.001804	6279.792315	43288.466543	3912.510101	22689.287457
40.034500	-0.000244	0.000251	0.001856	0.002261	6280.075475	43288.076544	3912.995237	22668.508477
40.535000	-0.000910	-0.000486	0.000918	0.001425	6281.383218	43297.225932	3912.758185	22706.542036
41.035500	-0.001454	0.000062	0.003494	0.002666	6267.612687	43232.908722	3915.865064	22650.064244
41.535500	-0.003077	-0.000762	0.003707	0.001146	6266.820620	43297.519507	3919.917651	22719.237293
42.036000	-0.000750	-0.000059	-0.000330	0.001907	6278.896144	43292.064518	3908.742127	22684.594429
42.536000	-0.001897	0.000171	0.004987	0.002084	6268.688902	43296.990603	3920.718555	22676.540523
43.037000	-0.001235	-0.000304	-0.000443	0.001623	6277.337802	43295.674505	3909.136115	22697.494505
43.541500	-0.000202	0.000473	0.004344	-0.002965	6321.016899	43796.904809	3931.099629	22907.480450
44.034500	-0.000473	-0.000095	0.005452	0.000419	6292.557532	43427.141459	3925.725094	22752.414089
44.537000	-0.000880	0.000062	0.005018	-0.000114	6293.533547	43491.406667	3925.956878	22776.732446
45.035000	-0.003220	0.000490	-0.002294	0.005643	6231.304441	42997.285722	3895.623599	22515.350920
45.535000	-0.000730	-0.000460	-0.000139	-0.000171	6295.140803	43448.095394	3914.011021	22779.356683
46.035500	-0.001405	-0.000152	0.003515	0.000829	6282.165699	43383.689908	3920.210595	22733.698072
46.536000	-0.000113	-0.000572	0.003776	-0.000069	6299.140517	43428.150890	3922.927753	22774.683713
47.036500	-0.002251	-0.000515	-0.001926	0.002866	6259.950078	43160.881306	3902.840386	22640.994091
47.536500	-0.002109	-0.000111	-0.001429	0.001969	6267.940215	43281.505409	3906.055161	22681.755208
48.039500	-0.000423	-0.000503	-0.000593	0.000271	6294.094382	43402.861957	3911.926020	22759.158049
48.536500	-0.000920	-0.000812	0.003096	-0.000635	6297.262847	43458.519919	3922.660286	22800.569985
49.037000	0.000015	-0.000195	-0.001407	0.003786	6270.305447	43105.461896	3901.917005	22599.285915
49.534500	0.001146	0.000667	0.001444	-0.001639	6321.186321	43690.629119	3921.140431	22846.556801
50.035000	0.000655	-0.000296	0.001405	0.004753	6267.780132	43006.830090	3906.169959	22555.505159
50.535000	0.011166	0.001382	0.004773	0.046455	6036.103505	39482.384775	3821.394795	20758.309322
51.036000	0.015066	-0.014491	0.007360	0.424154	4240.366904	17724.827713	3290.014228	10399.153270
51.535500	0.004427	-0.011077	-0.012704	-0.026897	6551.884907	44977.554446	3947.529845	24039.485525
52.036000	-0.005513	-0.027252	-0.008836	-0.156842	7706.340563	57556.989330	4324.563748	31403.783466
52.539500	-0.003762	-0.089198	0.001130	-0.278035	9271.008411	65535.000000	4825.863544	40570.267289
53.036500	0.006432	-0.038369	0.013204	-0.206951	8440.793744	62684.255888	4581.531659	34886.622093
53.537000	0.020424	-0.015330	0.024896	-0.151759	7941.542385	58423.190749	4421.519566	31072.375324
54.037000	0.022929	-0.005736	0.029804	-0.125140	7670.583271	56291.646248	4347.459869	29399.044893
54.540000	0.027272	0.001262	0.039814	-0.114412	7601.315043	55835.597068	4345.071854	28753.088682
55.035000	0.042828	0.008657	0.045521	-0.104234	7659.584061	55498.020577	4330.300116	28154.851656
55.535500	0.061706	0.021625	0.062778	-0.067361	7467.408256	52685.074703	4267.256372	26101.257810
56.036000	0.075110	0.034203	0.076460	-0.015878	7086.054208	48425.431096	4153.506405	23510.538167
56.536000	0.092218	0.044110	0.095497	0.029096	6827.430162	44899.634050	4080.991903	21485.508437
57.036000	0.106457	0.055658	0.112402	0.080173	6510.033132	41252.090677	3991.833200	19426.197051
57.536500	0.119549	0.064972	0.130005	0.125082	6256.757403	38239.961738	3925.464908	17805.220449
58.037000	0.135625	0.075573	0.138951	0.151062	6181.635656	37013.051270	3886.128054	16941.227061
58.537000	0.144499	0.081359	0.155338	0.191055	5956.419925	34434.777688	3834.099039	15708.222574
59.037500	0.154110	0.086563	0.160852	0.232335	5743.203235	31926.913407	3760.467759	14549.194059
59.535000	0.156981	0.093068	0.165843	0.239865	5713.130731	31858.698623	3755.468587	14349.418291
60.035500	0.161651	0.096625	0.176661	0.244353	5714.298747	31796.822354	3767.989504	14231.962524
60.535500	0.167244	0.100313	0.174447	0.247082	5732.759375	31860.563840	3758.197108	14161.153961
61.049500	0.171248	0.104260	0.180394	0.246676	5761.423046	32151.608045	3770.804576	14171.664404
61.536500	0.176132	0.106772	0.192681	0.252073	5758.067225	31958.414695	3784.684262	14032.769361
62.042000	0.180192	0.108211	0.194922	0.258508	5742.617943	31626.878641	3776.209682	13869.416780
62.537500	0.180357	0.110121	0.201151	0.264158	5707.253991	31381.213515	3777.373935	13727.965216
63.034000	0.187193	0.112054	0.204590	0.270131	5712.787145	31118.126090	3772.285063	13580.413116
63.534500	0.191381	0.114077	0.200568	0.274186	5713.641071	30986.797602	3756.261987	13481.397648
64.035000	0.192741	0.116107	0.207470	0.277074	5703.839175	30931.435705	3764.187878	13411.420961
64.534500	0.194775	0.117866	0.212941	0.278434	5708.155646	30957.128315	3772.380926	13378.640840
65.035500	0.196458	0.120072	0.217057	0.282121	5695.346110	30861.891858	3773.240221	13290.275836
65.535500	0.202273	0.122865	0.218443	0.281515	5736.619559	31081.029901	3777.243283	13304.764622
66.036000	0.204626	0.124457	0.217468	0.282662	5744.429800	31109.820715	3772.980568	13277.377234
66.536500	0.210630	0.127732	0.223148	0.284507	5771.562501	31202.600593	3780.697501	13233.486949
67.039500	0.208687	0.129298	0.222540	0.287219	5741.215730	31128.293992	3774.013412	13169.338507
67.536500	0.211692	0.131296	0.225256	0.287026	5762.037885	31270.681215	3779.869175	13173.894821
68.037000	0.213471	0.134043	0.232995	0.291837	5742.292044	31136.494979	3785.802382	13060.984385
68.534500	0.215499	0.134212	0.234858	0.293986	5741.503732	31008.348098	3785.221693	13010.952632
69.037500	0.217691	0.134296	0.229970	0.300301	5714.892340	30609.048563	3762.748790	12865.381917
69.535000	0.222403	0.136274	0.239183	0.304378	5718.973923	30475.787217	3772.979140	12772.507525
70.035500	0.224450	0.138746	0.237193	0.311113	5688.969652	30207.104324	3755.667992	12620.974890
70.535500	0.226678	0.139760	0.235694	0.316327	5670.031146	29945.069452	3742.587042	12505.286991
71.042000	0.232208	0.141985	0.244495	0.323692	5658.459686	29627.692862	3745.368666	12344.197799
71.539000	0.232179	0.143585	0.248206	0.327636	5633.561532	29484.247629	3744.915014	12259.048085
72.039500	0.232464	0.144081	0.252413	0.331997	5608.257240	29249.355134	3744.617560	12165.810020
72.537000	0.236056	0.145475	0.251828	0.336219	5604.366226	29078.796053	3735.350630	12076.410483
73.037500	0.237437	0.147755	0.255749	0.344119	5564.444543	28743.186696	3727.755262	11911.462820
73.534500	0.241305	0.148330	0.262132	0.347911	5564.904683	28552.966506	3732.693427	11833.347641
74.035000	0.246119	0.149669	0.263779	0.354378	5554.874274	28252.726203	3723.532431	11701.687681
74.534500	0.247641	0.150888	0.267124	0.359475	5533.310844	28028.045865	3720.227577	11599.297586
75.035500	0.249632	0.152499	0.265209	0.367095	5499.715320	27683.723977	3702.473829	11448.433098
75.536000	0.254685	0.153346	0.272022	0.371953	5500.868563	27456.540020	3706.082592	11353.631655
76.036000	0.255862	0.156162	0.276405	0.379346	5464.261445	27199.898650	3700.532924	11211.381538
76.536500	0.260064	0.156832	0.270851	0.383854	5462.473601	26986.787824	3682.262556	11125.832896
77.037000	0.260314	0.157233	0.274117	0.390159	5427.337225	26662.516164	3676.825139	11007.639189
77.537000	0.263206	0.157764	0.280842	0.393628	5424.018953	26502.822127	3682.652276	10943.354813
78.037500	0.263831	0.158741	0.276187	0.397800	5403.686288	26330.350588	3666.959257	10866.703928
78.537500	0.265777	0.158718	0.279008	0.401093	5396.008807	26152.713845	3666.129794	10806.722044
79.035500	0.266606	0.161550	0.291149	0.406733	5368.782379	26003.280581	3677.641674	10705.025546
79.535500	0.269160	0.162266	0.290883	0.409962	5364.988748	25870.451130	3671.433030	10647.413444
80.035500	0.269166	0.162591	0.287412	0.412410	5351.299148	25758.782139	3661.024982	10604.001442
80.536000	0.273372	0.164844	0.290881	0.416587	5351.460714	25658.040925	3659.789274	10530.506648
81.041500	0.274465	0.165635	0.294936	0.420639	5334.982353	25488.375222	3659.794610	10459.882297
81.536500	0.276940	0.166328	0.293936	0.423125	5334.921828	25395.604060	3653.742610	10416.883934
82.037000	0.278863	0.166854	0.293810	0.425910	5330.140473	25279.271724	3648.725330	10368.994102
82.537500	0.277023	0.166731	0.305705	0.428511	5305.674495	25139.848231	3664.863807	10324.562728
83.037500	0.279224	0.168084	0.296951	0.432004	5298.603503	25030.862945	3643.671763	10265.294206
83.534500	0.279789	0.168840	0.292870	0.433978	5290.909520	24969.103590	3633.412116	10232.007314
84.053000	0.280237	0.169058	0.296784	0.436861	5277.680753	24834.561229	3635.149398	10183.670001
84.536000	0.282143	0.168434	0.301114	0.438221	5280.641702	24734.885385	3640.174115	10160.972211
85.112000	0.285808	0.170528	0.309059	0.442854	5275.395513	24608.040559	3645.821074	10084.203622
85.552500	0.282787	0.171270	0.309920	0.444828	5248.512275	24546.738055	3643.917369	10051.737989
86.035500	0.284247	0.172183	0.308988	0.447276	5243.232883	24470.670590	3638.172136	10011.685995
86.536500	0.285858	0.170372	0.305512	0.448369	5245.996644	24327.368456	3630.473673	9993.865481
87.069000	0.285132	0.171654	0.310064	0.451338	5226.337021	24244.590804	3633.132392	9945.723509
87.536000	0.290545	0.171729	0.309706	0.452259	5250.268104	24203.219017	3630.984802	9930.854147
88.033500	0.292516	0.173338	0.312246	0.455756	5242.109088	24111.130843	3629.381925	9874.674452
88.534500	0.290810	0.174498	0.314953	0.457915	5221.572712	24062.544721	3630.299143	9840.215618
89.035000	0.292941	0.174243	0.313228	0.459581	5224.034241	23969.460410	3624.640237	9813.734168
89.535500	0.293626	0.175803	0.308382	0.462315	5213.208504	23912.753484	3612.148239	9770.507944
90.036500	0.295075	0.175693	0.312250	0.463634	5213.896862	23843.976378	3616.324110	9749.751770
90.536000	0.297357	0.177140	0.319229	0.466067	5213.100052	23796.677479	3623.833909	9711.627972
91.036500	0.295993	0.176481	0.314432	0.467455	5198.643929	23698.767535	3613.637523	9689.982495
91.536500	0.297267	0.176243	0.318799	0.468086	5202.013092	23657.328327	3619.778775	9680.162884
92.037000	0.298078	0.177157	0.319781	0.469840	5197.076990	23617.383967	3618.504905	9652.935978
92.537500	0.299472	0.177577	0.321029	0.470971	5198.453658	23583.625192	3618.699799	9635.446076
93.035000	0.299637	0.179033	0.314243	0.473637	5185.394312	23526.247546	3603.284025	9594.376062
93.534500	0.301622	0.179289	0.317645	0.474775	5189.807376	23484.579455	3606.945153	9576.928365
94.035500	0.301911	0.178633	0.320634	0.475979	5185.042376	23396.899485	3609.846104	9558.517364
94.535500	0.303460	0.179883	0.316808	0.477725	5184.015371	23373.583601	3600.832079	9531.906029
95.038500	0.302658	0.180470	0.321356	0.479950	5168.318405	23296.780742	3604.574576	9498.140493
95.536000	0.303746	0.181698	0.328568	0.481612	5165.358147	23276.483776	3613.602199	9473.038178
96.036500	0.304239	0.180598	0.327249	0.482099	5165.386804	23202.396080	3610.652500	9465.697123
96.537500	0.302032	0.180706	0.323846	0.483115	5148.822571	23160.188739	3603.486803	9450.426663
97.037500	0.306014	0.180745	0.322997	0.484518	5162.068137	23096.855710	3599.861205	9429.373591
97.535000	0.307100	0.181188	0.318059	0.485580	5162.192745	23068.195928	3590.295479	9413.491051
