sample name	sample
index	866
start time	 04-08-2021  01:12:31 PM


Wavelength (nm)	Absorbance
494.344910	-0.013874
494.563924	-0.013874
494.782919	-0.013874
495.001897	-0.017768
495.220856	-0.010573
495.439797	-0.002413
495.658719	-0.001497
495.877624	0.006719
496.096510	0.004964
496.315378	0.001700
496.534227	0.005976
496.753059	0.006430
496.971872	0.007919
497.190667	0.034837
497.409444	0.053142
497.628203	0.061807
497.846943	0.066993
498.065665	0.071018
498.284369	0.072681
498.503055	0.074580
498.721723	0.074895
498.940372	0.074922
499.159003	0.076105
499.377616	0.076459
499.596210	0.076780
499.814787	0.076970
500.033345	0.076771
500.251885	0.077575
500.470406	0.077246
500.688910	0.077667
500.907395	0.078966
501.125862	0.079041
501.344311	0.079584
501.562742	0.079031
501.781154	0.078669
501.999548	0.078551
502.217924	0.078349
502.436282	0.079419
502.654621	0.080259
502.872942	0.080417
503.091245	0.080845
503.309530	0.080791
503.527797	0.081603
503.746045	0.082015
503.964275	0.081847
504.182487	0.081972
504.400681	0.081242
504.618856	0.081638
504.837013	0.081344
505.055152	0.081568
505.273273	0.080487
505.491376	0.080051
505.709460	0.079681
505.927526	0.079950
506.145574	0.079709
506.363604	0.080203
506.581615	0.079452
506.799608	0.079754
507.017583	0.079837
507.235540	0.080930
507.453478	0.081451
507.671399	0.081916
507.889301	0.082008
508.107185	0.081588
508.325050	0.081545
508.542898	0.082128
508.760727	0.082414
508.978538	0.082732
509.196330	0.082679
509.414105	0.083803
509.631861	0.083347
509.849599	0.083954
510.067319	0.084504
510.285021	0.084784
510.502704	0.085460
510.720369	0.085448
510.938016	0.085641
511.155645	0.086310
511.373255	0.085363
511.590848	0.086324
511.808422	0.086704
512.025977	0.086961
512.243515	0.087084
512.461034	0.086445
512.678536	0.086501
512.896018	0.086532
513.113483	0.086310
513.330930	0.086674
513.548358	0.085822
513.765768	0.086161
513.983160	0.086624
514.200533	0.087222
514.417889	0.087427
514.635226	0.087760
514.852545	0.087436
515.069845	0.087650
515.287128	0.087947
515.504392	0.087950
515.721638	0.087815
515.938866	0.088181
516.156075	0.087607
516.373267	0.086655
516.590440	0.087155
516.807594	0.087747
517.024731	0.088158
517.241850	0.088345
517.458950	0.089279
517.676032	0.089840
517.893095	0.089814
518.110141	0.090651
518.327168	0.092696
518.544177	0.092349
518.761168	0.092554
518.978141	0.092141
519.195095	0.092322
519.412031	0.092191
519.628949	0.091970
519.845849	0.092075
520.062731	0.092154
520.279594	0.091496
520.496439	0.091613
520.713266	0.091983
520.930074	0.092771
521.146865	0.093561
521.363637	0.093958
521.580391	0.094617
521.797127	0.094974
522.013844	0.095459
522.230543	0.096090
522.447224	0.096132
522.663887	0.096433
522.880532	0.096102
523.097158	0.095924
523.313766	0.096256
523.530356	0.095861
523.746928	0.096353
523.963481	0.096329
524.180017	0.096374
524.396534	0.097020
524.613032	0.096879
524.829513	0.097143
525.045975	0.096700
525.262420	0.097161
525.478845	0.097718
525.695253	0.097650
525.911643	0.097321
526.128014	0.097470
526.344367	0.097355
526.560702	0.097879
526.777018	0.098174
526.993316	0.099039
527.209597	0.098595
527.425858	0.098430
527.642102	0.098766
527.858328	0.099281
528.074535	0.099257
528.290724	0.099488
528.506894	0.099102
528.723047	0.098978
528.939181	0.098842
529.155297	0.099104
529.371395	0.099378
529.587475	0.099412
529.803536	0.099663
530.019579	0.100138
530.235604	0.100497
530.451611	0.101093
530.667600	0.101794
530.883570	0.101991
531.099522	0.102564
531.315456	0.103226
531.531372	0.103844
531.747269	0.104470
531.963148	0.104739
532.179009	0.105410
532.394852	0.106023
532.610676	0.106521
532.826482	0.107146
533.042271	0.107560
533.258040	0.107432
533.473792	0.107609
533.689525	0.107698
533.905240	0.107842
534.120937	0.107618
534.336616	0.107335
534.552277	0.107336
534.767919	0.107936
534.983543	0.108175
535.199149	0.108824
535.414736	0.109051
535.630306	0.108924
535.845857	0.109443
536.061390	0.109817
536.276904	0.110377
536.492401	0.110293
536.707879	0.109990
536.923339	0.110344
537.138781	0.110152
537.354204	0.110215
537.569610	0.110792
537.784997	0.110916
538.000366	0.110958
538.215716	0.111188
538.431049	0.111540
538.646363	0.111542
538.861659	0.111068
539.076937	0.111124
539.292196	0.111259
539.507438	0.111723
539.722661	0.111422
539.937866	0.111751
540.153052	0.112010
540.368221	0.112219
540.583371	0.112674
540.798503	0.113441
541.013617	0.113840
541.228712	0.114161
541.443789	0.114078
541.658848	0.114974
541.873889	0.115238
542.088912	0.115114
542.303916	0.115181
542.518902	0.115059
542.733870	0.115286
542.948820	0.115785
543.163752	0.115959
543.378665	0.115866
543.593560	0.115579
543.808437	0.115673
544.023295	0.116055
544.238136	0.116421
544.452958	0.116944
544.667762	0.116557
544.882548	0.116567
545.097315	0.116815
545.312064	0.117487
545.526795	0.117693
545.741508	0.117613
545.956203	0.117924
546.170879	0.118459
546.385537	0.118392
546.600177	0.118937
546.814799	0.118647
547.029402	0.118770
547.243988	0.118652
547.458555	0.118958
547.673103	0.119504
547.887634	0.120027
548.102146	0.119950
548.316640	0.120368
548.531116	0.120260
548.745574	0.120981
548.960013	0.121428
549.174435	0.121446
549.388838	0.121816
549.603222	0.121810
549.817589	0.121720
550.031937	0.121836
550.246267	0.121781
550.460579	0.122285
550.674873	0.122396
550.889148	0.122237
551.103405	0.122116
551.317644	0.122051
551.531865	0.122323
551.746068	0.122320
551.960252	0.122512
552.174418	0.122767
552.388566	0.122468
552.602696	0.122678
552.816807	0.122633
553.030900	0.123173
553.244975	0.123076
553.459032	0.123142
553.673070	0.123534
553.887091	0.123589
554.101093	0.123793
554.315077	0.124787
554.529042	0.124579
554.742990	0.125117
554.956919	0.125412
555.170830	0.125524
555.384722	0.125544
555.598597	0.125042
555.812453	0.125028
556.026291	0.125383
556.240111	0.125003
556.453913	0.125345
556.667696	0.124933
556.881461	0.125148
557.095208	0.125583
557.308937	0.125926
557.522647	0.126403
557.736339	0.126654
557.950013	0.126693
558.163669	0.127052
558.377307	0.127428
558.590926	0.127735
558.804527	0.127754
559.018110	0.128147
559.231675	0.128309
559.445221	0.128273
559.658749	0.128504
559.872259	0.128760
560.085751	0.128702
560.299225	0.128640
560.512680	0.128717
560.726117	0.128536
560.939536	0.128305
561.152937	0.128245
561.366319	0.128669
561.579683	0.128696
561.793029	0.128526
562.006357	0.128733
562.219667	0.128324
562.432958	0.128639
562.646231	0.128905
562.859486	0.129120
563.072723	0.129547
563.285941	0.129389
563.499141	0.129852
563.712323	0.129727
563.925487	0.130036
564.138632	0.130602
564.351760	0.130761
564.564869	0.130865
564.777960	0.130871
564.991032	0.130729
565.204087	0.131202
565.417123	0.131090
565.630141	0.131572
565.843140	0.131473
566.056122	0.132171
566.269085	0.132012
566.482030	0.132103
566.694957	0.132280
566.907866	0.132307
567.120756	0.132167
567.333628	0.132434
567.546482	0.132232
567.759318	0.132206
567.972135	0.131916
568.184935	0.132404
568.397716	0.132797
568.610478	0.133008
568.823223	0.133170
569.035949	0.133307
569.248657	0.133332
569.461347	0.133773
569.674019	0.134117
569.886672	0.134471
570.099308	0.134173
570.311925	0.133970
570.524523	0.133820
570.737104	0.134329
570.949666	0.134153
571.162210	0.134019
571.374736	0.134257
571.587244	0.134417
571.799733	0.134456
572.012205	0.134622
572.224658	0.134659
572.437092	0.135111
572.649509	0.134932
572.861907	0.135355
573.074287	0.135719
573.286649	0.135269
573.498993	0.135213
573.711318	0.134958
573.923625	0.135610
574.135914	0.136235
574.348185	0.136219
574.560438	0.136397
574.772672	0.136492
574.984888	0.136641
575.197086	0.136993
575.409266	0.137314
575.621427	0.137507
575.833570	0.137414
576.045695	0.137103
576.257802	0.137315
576.469890	0.137645
576.681961	0.138147
576.894013	0.138324
577.106046	0.138705
577.318062	0.138640
577.530059	0.138812
577.742039	0.139028
577.954000	0.139242
578.165942	0.139259
578.377867	0.139581
578.589773	0.139389
578.801661	0.139250
579.013531	0.139039
579.225382	0.139470
579.437216	0.139865
579.649031	0.139937
579.860828	0.140302
580.072606	0.140839
580.284367	0.140414
580.496109	0.140552
580.707833	0.140669
580.919539	0.140803
581.131227	0.140497
581.342896	0.140387
581.554547	0.140283
581.766180	0.140120
581.977795	0.139997
582.189391	0.139945
582.400969	0.140066
582.612529	0.140246
582.824071	0.140500
583.035595	0.140751
583.247100	0.140554
583.458587	0.140716
583.670056	0.140852
583.881506	0.140593
584.092939	0.141101
584.304353	0.141198
584.515749	0.141270
584.727127	0.141412
584.938486	0.141351
585.149828	0.141744
585.361151	0.141720
585.572456	0.141736
585.783742	0.142303
585.995011	0.142096
586.206261	0.142018
586.417493	0.142507
586.628706	0.142461
586.839902	0.142579
587.051079	0.142678
587.262238	0.142738
587.473379	0.142708
587.684502	0.142509
587.895606	0.142669
588.106692	0.142757
588.317760	0.142496
588.528810	0.142849
588.739841	0.143056
588.950855	0.143254
589.161850	0.143654
589.372827	0.143933
589.583785	0.143922
589.794726	0.144115
590.005648	0.144047
590.216552	0.144194
590.427437	0.143884
590.638305	0.144121
590.849154	0.143776
591.059985	0.143698
591.270798	0.144146
591.481592	0.144341
591.692369	0.144396
591.903127	0.144818
592.113867	0.144899
592.324588	0.145059
592.535292	0.145020
592.745977	0.145274
592.956644	0.145626
593.167293	0.145356
593.377923	0.145882
593.588536	0.145941
593.799130	0.146025
594.009706	0.145952
594.220263	0.145966
594.430803	0.146016
594.641324	0.146597
594.851827	0.146212
595.062312	0.146608
595.272778	0.146128
595.483227	0.146485
595.693657	0.146505
595.904069	0.146608
596.114462	0.146789
596.324838	0.146801
596.535195	0.146510
596.745534	0.146827
596.955855	0.146866
597.166157	0.146891
597.376441	0.147067
597.586707	0.147289
597.796955	0.147538
598.007185	0.147608
598.217396	0.147811
598.427589	0.148207
598.637764	0.148396
598.847921	0.148238
599.058060	0.148480
599.268180	0.148391
599.478282	0.148592
599.688366	0.148858
599.898431	0.149173
600.108479	0.149033
600.318508	0.148873
600.528519	0.149078
600.738511	0.149422
600.948486	0.149619
601.158442	0.149714
601.368380	0.149639
601.578300	0.149729
601.788202	0.149924
601.998085	0.150149
602.207950	0.150207
602.417797	0.149975
602.627626	0.150142
602.837436	0.150566
603.047228	0.150537
603.257002	0.150906
603.466758	0.150856
603.676496	0.150766
603.886215	0.150829
604.095916	0.151211
604.305599	0.151548
604.515264	0.151462
604.724910	0.151312
604.934538	0.151274
605.144148	0.151139
605.353740	0.151138
605.563314	0.151394
605.772869	0.151702
605.982406	0.151820
606.191925	0.151752
606.401425	0.151749
606.610908	0.151636
606.820372	0.152007
607.029818	0.152055
607.239246	0.152425
607.448655	0.152657
607.658047	0.153045
607.867420	0.152865
608.076775	0.153194
608.286111	0.153202
608.495430	0.153453
608.704730	0.153513
608.914012	0.153640
609.123275	0.153818
609.332521	0.153684
609.541748	0.153268
609.750957	0.153261
609.960148	0.153512
610.169321	0.153860
610.378475	0.153749
610.587611	0.153930
610.796729	0.154169
611.005829	0.153929
611.214910	0.154066
611.423974	0.154167
611.633019	0.154336
611.842045	0.154318
612.051054	0.154146
612.260044	0.154460
612.469017	0.154627
612.677970	0.154474
612.886906	0.154610
613.095824	0.154762
613.304723	0.154877
613.513604	0.155100
613.722467	0.155001
613.931311	0.155216
614.140138	0.155303
614.348946	0.155034
614.557736	0.154985
614.766507	0.155037
614.975261	0.154977
615.183996	0.155170
615.392713	0.155038
615.601412	0.155158
615.810092	0.155260
616.018754	0.155419
616.227399	0.155986
616.436024	0.156528
616.644632	0.156917
616.853222	0.157201
617.061793	0.157428
617.270346	0.157457
617.478880	0.157754
617.687397	0.157811
617.895895	0.157643
618.104375	0.157296
618.312837	0.157212
618.521281	0.157192
618.729706	0.156955
618.938113	0.156969
619.146502	0.157248
619.354873	0.157053
619.563226	0.157443
619.771560	0.157815
619.979876	0.158090
620.188174	0.158156
620.396453	0.158252
620.604715	0.158838
620.812958	0.158845
621.021183	0.158737
621.229390	0.158736
621.437578	0.158717
621.645748	0.158713
621.853900	0.158776
622.062034	0.158798
622.270150	0.158948
622.478247	0.158831
622.686326	0.159050
622.894387	0.159180
623.102430	0.159470
623.310454	0.159463
623.518461	0.159686
623.726449	0.159736
623.934418	0.159889
624.142370	0.159975
624.350303	0.159958
624.558218	0.160251
624.766115	0.160539
624.973994	0.160505
625.181855	0.160592
625.389697	0.160532
625.597521	0.160548
625.805327	0.160775
626.013114	0.160985
626.220883	0.161334
626.428634	0.161305
626.636367	0.161450
626.844082	0.161612
627.051778	0.161669
627.259457	0.161894
627.467117	0.162126
627.674758	0.161977
627.882382	0.161697
628.089987	0.161758
628.297574	0.161699
628.505143	0.161574
628.712694	0.161915
628.920226	0.162207
629.127740	0.162219
629.335236	0.162436
629.542714	0.162884
629.750174	0.163104
629.957615	0.162957
630.165038	0.163050
630.372443	0.163290
630.579829	0.163493
630.787198	0.163633
630.994548	0.163716
631.201880	0.163800
631.409194	0.163744
631.616489	0.163929
631.823766	0.164369
632.031025	0.164555
632.238266	0.164807
632.445489	0.164547
632.652693	0.164884
632.859879	0.165102
633.067047	0.165105
633.274197	0.165138
633.481329	0.165343
633.688442	0.165391
633.895537	0.165608
634.102614	0.165762
634.309672	0.165937
634.516713	0.165701
634.723735	0.165516
634.930739	0.165551
635.137724	0.165729
635.344692	0.165732
635.551641	0.165495
635.758572	0.165448
635.965485	0.165363
636.172379	0.165670
636.379256	0.165831
636.586114	0.166072
636.792954	0.166124
636.999775	0.166110
637.206579	0.166152
637.413364	0.166317
637.620131	0.166551
637.826880	0.166640
638.033610	0.166511
638.240323	0.166408
638.447017	0.166471
638.653692	0.166748
638.860350	0.167023
639.066990	0.167323
639.273611	0.167376
639.480214	0.167388
639.686798	0.167808
639.893365	0.168060
640.099913	0.168471
640.306443	0.168614
640.512955	0.168659
640.719449	0.168682
640.925924	0.168749
641.132381	0.169005
641.338820	0.169151
641.545241	0.169045
641.751644	0.169378
641.958028	0.169436
642.164394	0.169726
642.370742	0.170032
642.577071	0.170217
642.783383	0.170225
642.989676	0.170418
643.195951	0.170617
643.402207	0.170870
643.608446	0.171008
643.814666	0.171104
644.020868	0.171130
644.227052	0.171088
644.433218	0.171121
644.639365	0.171160
644.845494	0.171255
645.051605	0.171272
645.257698	0.171268
645.463772	0.171365
645.669828	0.171591
645.875866	0.171832
646.081886	0.172199
646.287888	0.172326
646.493871	0.172573
646.699836	0.172667
646.905783	0.172943
647.111712	0.172991
647.317622	0.172721
647.523514	0.172552
647.729388	0.172564
647.935244	0.172705
648.141082	0.172864
648.346901	0.172975
648.552702	0.173085
648.758485	0.173123
648.964250	0.173369
649.169996	0.173660
649.375724	0.173947
649.581434	0.174093
649.787126	0.173959
649.992800	0.173856
650.198455	0.174076
650.404092	0.174335
650.609711	0.174463
650.815311	0.174737
651.020894	0.175000
651.226458	0.174948
651.432004	0.175227
651.637532	0.175368
651.843041	0.175715
652.048532	0.175832
652.254006	0.176183
652.459460	0.176111
652.664897	0.176022
652.870315	0.175853
653.075716	0.175966
653.281097	0.176059
653.486461	0.176170
653.691807	0.176369
653.897134	0.176426
654.102443	0.176227
654.307734	0.176557
654.513006	0.176741
654.718261	0.177025
654.923497	0.177245
655.128715	0.177546
655.333915	0.177749
655.539096	0.177995
655.744259	0.178195
655.949404	0.178507
656.154531	0.178570
656.359640	0.178924
656.564730	0.179223
656.769802	0.179519
656.974856	0.179458
657.179892	0.179956
657.384909	0.179785
657.589908	0.179965
657.794889	0.180059
657.999852	0.180199
658.204797	0.180318
658.409723	0.180363
658.614631	0.180667
658.819521	0.180985
659.024393	0.180755
659.229246	0.180988
659.434081	0.180954
659.638898	0.181160
659.843697	0.181495
660.048478	0.181413
660.253240	0.181254
660.457984	0.181287
660.662710	0.181211
660.867417	0.181434
661.072107	0.181759
661.276778	0.182131
661.481431	0.182172
661.686066	0.182018
661.890682	0.182451
662.095281	0.183083
662.299861	0.183147
662.504422	0.183456
662.708966	0.183422
662.913491	0.183542
663.117999	0.183827
663.322488	0.183892
663.526958	0.184395
663.731411	0.184390
663.935845	0.184279
664.140261	0.184436
664.344659	0.184357
664.549038	0.184558
664.753400	0.184767
664.957743	0.184854
665.162068	0.185097
665.366375	0.184864
665.570663	0.184923
665.774933	0.185233
665.979185	0.185423
666.183419	0.185595
666.387635	0.185776
666.591832	0.185864
666.796011	0.185895
667.000172	0.186083
667.204315	0.186648
667.408439	0.187020
667.612545	0.187075
667.816634	0.187289
668.020703	0.187336
668.224755	0.187468
668.428788	0.187726
668.632803	0.187740
668.836800	0.187832
669.040779	0.187659
669.244739	0.187469
669.448681	0.187651
669.652605	0.187859
669.856511	0.188271
670.060399	0.188639
670.264268	0.188502
670.468119	0.188628
670.671952	0.188850
670.875767	0.189021
671.079563	0.189231
671.283341	0.189485
671.487101	0.189324
671.690843	0.189278
671.894567	0.189132
672.098272	0.189438
672.301959	0.189600
672.505628	0.189677
672.709278	0.190098
672.912911	0.190357
673.116525	0.190384
673.320121	0.190504
673.523699	0.190822
673.727258	0.191118
673.930799	0.191382
674.134322	0.191501
674.337827	0.191555
674.541314	0.191405
674.744782	0.191555
674.948232	0.191508
675.151664	0.191877
675.355078	0.191796
675.558474	0.191919
675.761851	0.191846
675.965210	0.191990
676.168551	0.192199
676.371873	0.192520
676.575178	0.192576
676.778464	0.192761
676.981732	0.192915
677.184981	0.193234
677.388213	0.193446
677.591426	0.193752
677.794621	0.194057
677.997798	0.194170
678.200956	0.194246
678.404097	0.194490
678.607219	0.194816
678.810323	0.194915
679.013408	0.194857
679.216476	0.194880
679.419525	0.194804
679.622556	0.194817
679.825569	0.195093
680.028563	0.195030
680.231540	0.195216
680.434498	0.195157
680.637438	0.195116
680.840359	0.195488
681.043263	0.195658
681.246148	0.195899
681.449015	0.195801
681.651864	0.195864
681.854694	0.196032
682.057506	0.195923
682.260301	0.196142
682.463076	0.196218
682.665834	0.196233
682.868573	0.196330
683.071295	0.196425
683.273998	0.196886
683.476682	0.197041
683.679349	0.197314
683.881997	0.197692
684.084627	0.198103
684.287239	0.198474
684.489833	0.198718
684.692408	0.198965
684.894965	0.198973
685.097504	0.199067
685.300025	0.199208
685.502527	0.199263
685.705012	0.199037
685.907478	0.198982
686.109925	0.199006
686.312355	0.199047
686.514766	0.199020
686.717159	0.199197
686.919534	0.199257
687.121891	0.199372
687.324230	0.199543
687.526550	0.199822
687.728852	0.199773
687.931136	0.199810
688.133401	0.199979
688.335649	0.200027
688.537878	0.200238
688.740089	0.200295
688.942281	0.200224
689.144456	0.200270
689.346612	0.200420
689.548750	0.200492
689.750870	0.200771
689.952971	0.200795
690.155055	0.200924
690.357120	0.201033
690.559167	0.201306
690.761195	0.201486
690.963206	0.201656
691.165198	0.201938
691.367172	0.202367
691.569128	0.202110
691.771065	0.202355
691.972984	0.202705
692.174885	0.202959
692.376768	0.203002
692.578633	0.203254
692.780479	0.203446
692.982308	0.203390
693.184118	0.203276
693.385909	0.203732
