sample name	sample
index	318
start time	 02-25-2021  03:12:27 PM


Wavelength (nm)	Absorbance
494.344910	-0.302193
494.563924	-0.302193
494.782919	-0.302193
495.001897	NaN
495.220856	0.080520
495.439797	0.259844
495.658719	0.222304
495.877624	0.175065
496.096510	0.010063
496.315378	-0.083169
496.534227	-0.064868
496.753059	0.068979
496.971872	0.029518
497.190667	0.128191
497.409444	0.126816
497.628203	0.132446
497.846943	0.133949
498.065665	0.136661
498.284369	0.137503
498.503055	0.136694
498.721723	0.135696
498.940372	0.136010
499.159003	0.136387
499.377616	0.136901
499.596210	0.138141
499.814787	0.139042
500.033345	0.137650
500.251885	0.137363
500.470406	0.138504
500.688910	0.138724
500.907395	0.138775
501.125862	0.138133
501.344311	0.138524
501.562742	0.137705
501.781154	0.137408
501.999548	0.137671
502.217924	0.138701
502.436282	0.137934
502.654621	0.137675
502.872942	0.136501
503.091245	0.135779
503.309530	0.136706
503.527797	0.136014
503.746045	0.136289
503.964275	0.137751
504.182487	0.137833
504.400681	0.138903
504.618856	0.139418
504.837013	0.140578
505.055152	0.141659
505.273273	0.140778
505.491376	0.141236
505.709460	0.141584
505.927526	0.141198
506.145574	0.141280
506.363604	0.140155
506.581615	0.141068
506.799608	0.140688
507.017583	0.140790
507.235540	0.141465
507.453478	0.142655
507.671399	0.141905
507.889301	0.142307
508.107185	0.142408
508.325050	0.142664
508.542898	0.141993
508.760727	0.142364
508.978538	0.143573
509.196330	0.143483
509.414105	0.142410
509.631861	0.143624
509.849599	0.144341
510.067319	0.143844
510.285021	0.144203
510.502704	0.143839
510.720369	0.144828
510.938016	0.144198
511.155645	0.144683
511.373255	0.144940
511.590848	0.144416
511.808422	0.143581
512.025977	0.143403
512.243515	0.144524
512.461034	0.144652
512.678536	0.144696
512.896018	0.145095
513.113483	0.145199
513.330930	0.145589
513.548358	0.146353
513.765768	0.147186
513.983160	0.148234
514.200533	0.147776
514.417889	0.148863
514.635226	0.148488
514.852545	0.149127
515.069845	0.149800
515.287128	0.150469
515.504392	0.150538
515.721638	0.149708
515.938866	0.150050
516.156075	0.149889
516.373267	0.150022
516.590440	0.151235
516.807594	0.151142
517.024731	0.150249
517.241850	0.149573
517.458950	0.149402
517.676032	0.150278
517.893095	0.150272
518.110141	0.150303
518.327168	0.150733
518.544177	0.150840
518.761168	0.151251
518.978141	0.152447
519.195095	0.154326
519.412031	0.155519
519.628949	0.156087
519.845849	0.155453
520.062731	0.156202
520.279594	0.155809
520.496439	0.155731
520.713266	0.155703
520.930074	0.155950
521.146865	0.155225
521.363637	0.154530
521.580391	0.155117
521.797127	0.156643
522.013844	0.156951
522.230543	0.157660
522.447224	0.158163
522.663887	0.158855
522.880532	0.158460
523.097158	0.158740
523.313766	0.159150
523.530356	0.158373
523.746928	0.158568
523.963481	0.158451
524.180017	0.158608
524.396534	0.158183
524.613032	0.158196
524.829513	0.158831
525.045975	0.159071
525.262420	0.159173
525.478845	0.159869
525.695253	0.160228
525.911643	0.160968
526.128014	0.161347
526.344367	0.161698
526.560702	0.161733
526.777018	0.161437
526.993316	0.161279
527.209597	0.161579
527.425858	0.161631
527.642102	0.161672
527.858328	0.162117
528.074535	0.162273
528.290724	0.162780
528.506894	0.163530
528.723047	0.164548
528.939181	0.165715
529.155297	0.166257
529.371395	0.167169
529.587475	0.166527
529.803536	0.166350
530.019579	0.166893
530.235604	0.167360
530.451611	0.167762
530.667600	0.168273
530.883570	0.168197
531.099522	0.168609
531.315456	0.168611
531.531372	0.169900
531.747269	0.170693
531.963148	0.171000
532.179009	0.171263
532.394852	0.171146
532.610676	0.171421
532.826482	0.171416
533.042271	0.171465
533.258040	0.171729
533.473792	0.171879
533.689525	0.172144
533.905240	0.172607
534.120937	0.173051
534.336616	0.173402
534.552277	0.173331
534.767919	0.173483
534.983543	0.174207
535.199149	0.174338
535.414736	0.174611
535.630306	0.174717
535.845857	0.174626
536.061390	0.174908
536.276904	0.175310
536.492401	0.175367
536.707879	0.175661
536.923339	0.175975
537.138781	0.176571
537.354204	0.177329
537.569610	0.177956
537.784997	0.178274
538.000366	0.178281
538.215716	0.178442
538.431049	0.179122
538.646363	0.180008
538.861659	0.180175
539.076937	0.180567
539.292196	0.180435
539.507438	0.180425
539.722661	0.180668
539.937866	0.181118
540.153052	0.181169
540.368221	0.181521
540.583371	0.182007
540.798503	0.181794
541.013617	0.181947
541.228712	0.181965
541.443789	0.182488
541.658848	0.182899
541.873889	0.183466
542.088912	0.184307
542.303916	0.184738
542.518902	0.184634
542.733870	0.184915
542.948820	0.185289
543.163752	0.186078
543.378665	0.186176
543.593560	0.186397
543.808437	0.186913
544.023295	0.186883
544.238136	0.186884
544.452958	0.187068
544.667762	0.187536
544.882548	0.187656
545.097315	0.187790
545.312064	0.187875
545.526795	0.188495
545.741508	0.187828
545.956203	0.188461
546.170879	0.188872
546.385537	0.189339
546.600177	0.190327
546.814799	0.190274
547.029402	0.190326
547.243988	0.190854
547.458555	0.190942
547.673103	0.191713
547.887634	0.191606
548.102146	0.191552
548.316640	0.191386
548.531116	0.191012
548.745574	0.191474
548.960013	0.191579
549.174435	0.191944
549.388838	0.192136
549.603222	0.192842
549.817589	0.193117
550.031937	0.193676
550.246267	0.194095
550.460579	0.194527
550.674873	0.194928
550.889148	0.195248
551.103405	0.195437
551.317644	0.196069
551.531865	0.196030
551.746068	0.195979
551.960252	0.196063
552.174418	0.196566
552.388566	0.196303
552.602696	0.196332
552.816807	0.196805
553.030900	0.196638
553.244975	0.196480
553.459032	0.196627
553.673070	0.197150
553.887091	0.197339
554.101093	0.197515
554.315077	0.197968
554.529042	0.198209
554.742990	0.198460
554.956919	0.198489
555.170830	0.198543
555.384722	0.198318
555.598597	0.198488
555.812453	0.198658
556.026291	0.199062
556.240111	0.199537
556.453913	0.199583
556.667696	0.199717
556.881461	0.200098
557.095208	0.200582
557.308937	0.200750
557.522647	0.200904
557.736339	0.201305
557.950013	0.201131
558.163669	0.200901
558.377307	0.201407
558.590926	0.201730
558.804527	0.201697
559.018110	0.202178
559.231675	0.202393
559.445221	0.202702
559.658749	0.203013
559.872259	0.203013
560.085751	0.203863
560.299225	0.203899
560.512680	0.203944
560.726117	0.204749
560.939536	0.204664
561.152937	0.204810
561.366319	0.205102
561.579683	0.205159
561.793029	0.205938
562.006357	0.205745
562.219667	0.206136
562.432958	0.206264
562.646231	0.206205
562.859486	0.206333
563.072723	0.206807
563.285941	0.206759
563.499141	0.206721
563.712323	0.206674
563.925487	0.207313
564.138632	0.206983
564.351760	0.206904
564.564869	0.206838
564.777960	0.206725
564.991032	0.206602
565.204087	0.206487
565.417123	0.206689
565.630141	0.206648
565.843140	0.206416
566.056122	0.206920
566.269085	0.207385
566.482030	0.207786
566.694957	0.208166
566.907866	0.208479
567.120756	0.208748
567.333628	0.209072
567.546482	0.209460
567.759318	0.209389
567.972135	0.209812
568.184935	0.210138
568.397716	0.210822
568.610478	0.211025
568.823223	0.211342
569.035949	0.212048
569.248657	0.212161
569.461347	0.212010
569.674019	0.212434
569.886672	0.212212
570.099308	0.212274
570.311925	0.212374
570.524523	0.212786
570.737104	0.213122
570.949666	0.212850
571.162210	0.212824
571.374736	0.213490
571.587244	0.213538
571.799733	0.213866
572.012205	0.214203
572.224658	0.213739
572.437092	0.213610
572.649509	0.213798
572.861907	0.214083
573.074287	0.214237
573.286649	0.214612
573.498993	0.214613
573.711318	0.215009
573.923625	0.215085
574.135914	0.215623
574.348185	0.215816
574.560438	0.216282
574.772672	0.216706
574.984888	0.216929
575.197086	0.217050
575.409266	0.217292
575.621427	0.217400
575.833570	0.217784
576.045695	0.218043
576.257802	0.218261
576.469890	0.217703
576.681961	0.217510
576.894013	0.217866
577.106046	0.217783
577.318062	0.218122
577.530059	0.218228
577.742039	0.217998
577.954000	0.217616
578.165942	0.218050
578.377867	0.218442
578.589773	0.218774
578.801661	0.219174
579.013531	0.219159
579.225382	0.219129
579.437216	0.219345
579.649031	0.219666
579.860828	0.220200
580.072606	0.220210
580.284367	0.220429
580.496109	0.220555
580.707833	0.220205
580.919539	0.220268
581.131227	0.220798
581.342896	0.220689
581.554547	0.220772
581.766180	0.221026
581.977795	0.221033
582.189391	0.221121
582.400969	0.221230
582.612529	0.221694
582.824071	0.222307
583.035595	0.222291
583.247100	0.222981
583.458587	0.222857
583.670056	0.222958
583.881506	0.223206
584.092939	0.223571
584.304353	0.223881
584.515749	0.223920
584.727127	0.223931
584.938486	0.224339
585.149828	0.224262
585.361151	0.224981
585.572456	0.225132
585.783742	0.225512
585.995011	0.225288
586.206261	0.225305
586.417493	0.225995
586.628706	0.226168
586.839902	0.226268
587.051079	0.226392
587.262238	0.226288
587.473379	0.226383
587.684502	0.226511
587.895606	0.227004
588.106692	0.227512
588.317760	0.227533
588.528810	0.227657
588.739841	0.227748
588.950855	0.227559
589.161850	0.227869
589.372827	0.228390
589.583785	0.228622
589.794726	0.228989
590.005648	0.228842
590.216552	0.229019
590.427437	0.229268
590.638305	0.229260
590.849154	0.229923
591.059985	0.229640
591.270798	0.229664
591.481592	0.229619
591.692369	0.229465
591.903127	0.229936
592.113867	0.229727
592.324588	0.229943
592.535292	0.230579
592.745977	0.230291
592.956644	0.230880
593.167293	0.231032
593.377923	0.230928
593.588536	0.231277
593.799130	0.231501
594.009706	0.232191
594.220263	0.232497
594.430803	0.232547
594.641324	0.232905
594.851827	0.233102
595.062312	0.233262
595.272778	0.233944
595.483227	0.234034
595.693657	0.233903
595.904069	0.233874
596.114462	0.233790
596.324838	0.233892
596.535195	0.234131
596.745534	0.234328
596.955855	0.234404
597.166157	0.234441
597.376441	0.234993
597.586707	0.235482
597.796955	0.235621
598.007185	0.235791
598.217396	0.235904
598.427589	0.236436
598.637764	0.236758
598.847921	0.237052
599.058060	0.237001
599.268180	0.237010
599.478282	0.236801
599.688366	0.237011
599.898431	0.237425
600.108479	0.237709
600.318508	0.237757
600.528519	0.237712
600.738511	0.237790
600.948486	0.238214
601.158442	0.238464
601.368380	0.239027
601.578300	0.239289
601.788202	0.239300
601.998085	0.239615
602.207950	0.239918
602.417797	0.240158
602.627626	0.240360
602.837436	0.240677
603.047228	0.240781
603.257002	0.240725
603.466758	0.240531
603.676496	0.240616
603.886215	0.240909
604.095916	0.240923
604.305599	0.241296
604.515264	0.241612
604.724910	0.241697
604.934538	0.241898
605.144148	0.242180
605.353740	0.242328
605.563314	0.242367
605.772869	0.242185
605.982406	0.242211
606.191925	0.241908
606.401425	0.241795
606.610908	0.241662
606.820372	0.241812
607.029818	0.241944
607.239246	0.241918
607.448655	0.242332
607.658047	0.242246
607.867420	0.242403
608.076775	0.242661
608.286111	0.242851
608.495430	0.243267
608.704730	0.242827
608.914012	0.242817
609.123275	0.243225
609.332521	0.243340
609.541748	0.243764
609.750957	0.243678
609.960148	0.243906
610.169321	0.244159
610.378475	0.243774
610.587611	0.244493
610.796729	0.244651
611.005829	0.244665
611.214910	0.244519
611.423974	0.244646
611.633019	0.244952
611.842045	0.245096
612.051054	0.245141
612.260044	0.245731
612.469017	0.245558
612.677970	0.245735
612.886906	0.245977
613.095824	0.246198
613.304723	0.246339
613.513604	0.246391
613.722467	0.246225
613.931311	0.246502
614.140138	0.246411
614.348946	0.246644
614.557736	0.246826
614.766507	0.246912
614.975261	0.247381
615.183996	0.247455
615.392713	0.247987
615.601412	0.248235
615.810092	0.248242
616.018754	0.248440
616.227399	0.248879
616.436024	0.249222
616.644632	0.249636
616.853222	0.249561
617.061793	0.249679
617.270346	0.249292
617.478880	0.249392
617.687397	0.249504
617.895895	0.249537
618.104375	0.249695
618.312837	0.249643
618.521281	0.249562
618.729706	0.249753
618.938113	0.249873
619.146502	0.250353
619.354873	0.250917
619.563226	0.250973
619.771560	0.251231
619.979876	0.250946
620.188174	0.250964
620.396453	0.251396
620.604715	0.251380
620.812958	0.251603
621.021183	0.251753
621.229390	0.251427
621.437578	0.251698
621.645748	0.251805
621.853900	0.252210
622.062034	0.252341
622.270150	0.252190
622.478247	0.252525
622.686326	0.252577
622.894387	0.252571
623.102430	0.252820
623.310454	0.252959
623.518461	0.253031
623.726449	0.252973
623.934418	0.253140
624.142370	0.253576
624.350303	0.253544
624.558218	0.253403
624.766115	0.253449
624.973994	0.253455
625.181855	0.253507
625.389697	0.253822
625.597521	0.254141
625.805327	0.254203
626.013114	0.253972
626.220883	0.254247
626.428634	0.254741
626.636367	0.255125
626.844082	0.255648
627.051778	0.255822
627.259457	0.256015
627.467117	0.255915
627.674758	0.256128
627.882382	0.256419
628.089987	0.256472
628.297574	0.256929
628.505143	0.256989
628.712694	0.256952
628.920226	0.257181
629.127740	0.257191
629.335236	0.257638
629.542714	0.257816
629.750174	0.257804
629.957615	0.257892
630.165038	0.257802
630.372443	0.258161
630.579829	0.258109
630.787198	0.258067
630.994548	0.258313
631.201880	0.258048
631.409194	0.258360
631.616489	0.258918
631.823766	0.259088
632.031025	0.259365
632.238266	0.259396
632.445489	0.260002
632.652693	0.260342
632.859879	0.260523
633.067047	0.260922
633.274197	0.261268
633.481329	0.261221
633.688442	0.261655
633.895537	0.261435
634.102614	0.261624
634.309672	0.261758
634.516713	0.262124
634.723735	0.262242
634.930739	0.262541
635.137724	0.262495
635.344692	0.262517
635.551641	0.262473
635.758572	0.262773
635.965485	0.262666
636.172379	0.262575
636.379256	0.262553
636.586114	0.262676
636.792954	0.262645
636.999775	0.262741
637.206579	0.262890
637.413364	0.263062
637.620131	0.263238
637.826880	0.263728
638.033610	0.264060
638.240323	0.264167
638.447017	0.264282
638.653692	0.264684
638.860350	0.264833
639.066990	0.265158
639.273611	0.265448
639.480214	0.265541
639.686798	0.265763
639.893365	0.265770
640.099913	0.266140
640.306443	0.266258
640.512955	0.266384
640.719449	0.266529
640.925924	0.266548
641.132381	0.266727
641.338820	0.266911
641.545241	0.266896
641.751644	0.267121
641.958028	0.267185
642.164394	0.267384
642.370742	0.267470
642.577071	0.267980
642.783383	0.268376
642.989676	0.268490
643.195951	0.268860
643.402207	0.269021
643.608446	0.269207
643.814666	0.269481
644.020868	0.269684
644.227052	0.269896
644.433218	0.269819
644.639365	0.269920
644.845494	0.270129
645.051605	0.270308
645.257698	0.270393
645.463772	0.270810
645.669828	0.270839
645.875866	0.270995
646.081886	0.271365
646.287888	0.271614
646.493871	0.272033
646.699836	0.272187
646.905783	0.272420
647.111712	0.272696
647.317622	0.272780
647.523514	0.273138
647.729388	0.273404
647.935244	0.272932
648.141082	0.273233
648.346901	0.273057
648.552702	0.273088
648.758485	0.273202
648.964250	0.273435
649.169996	0.273439
649.375724	0.273274
649.581434	0.273338
649.787126	0.273964
649.992800	0.273723
650.198455	0.274074
650.404092	0.274297
650.609711	0.274290
650.815311	0.274395
651.020894	0.274660
651.226458	0.275169
651.432004	0.275610
651.637532	0.275735
651.843041	0.276155
652.048532	0.276271
652.254006	0.276421
652.459460	0.276495
652.664897	0.276668
652.870315	0.276887
653.075716	0.276939
653.281097	0.277026
653.486461	0.277179
653.691807	0.277316
653.897134	0.277405
654.102443	0.277717
654.307734	0.278157
654.513006	0.278400
654.718261	0.278516
654.923497	0.278660
655.128715	0.278864
655.333915	0.278950
655.539096	0.279093
655.744259	0.279375
655.949404	0.279537
656.154531	0.279666
656.359640	0.279750
656.564730	0.280147
656.769802	0.280239
656.974856	0.280569
657.179892	0.280875
657.384909	0.280922
657.589908	0.281199
657.794889	0.281342
657.999852	0.281671
658.204797	0.281921
658.409723	0.281961
658.614631	0.282168
658.819521	0.282397
659.024393	0.282531
659.229246	0.283152
659.434081	0.282950
659.638898	0.283343
659.843697	0.283149
660.048478	0.283398
660.253240	0.283689
660.457984	0.283977
660.662710	0.283741
660.867417	0.284030
661.072107	0.283908
661.276778	0.284327
661.481431	0.284400
661.686066	0.285147
661.890682	0.285281
662.095281	0.285523
662.299861	0.285568
662.504422	0.286052
662.708966	0.286110
662.913491	0.286288
663.117999	0.286661
663.322488	0.286755
663.526958	0.286784
663.731411	0.287108
663.935845	0.287206
664.140261	0.287684
664.344659	0.287918
664.549038	0.288254
664.753400	0.288715
664.957743	0.288781
665.162068	0.288986
665.366375	0.288848
665.570663	0.288894
665.774933	0.289162
665.979185	0.289132
666.183419	0.289240
666.387635	0.289422
666.591832	0.289501
666.796011	0.289880
667.000172	0.290291
667.204315	0.290814
667.408439	0.291005
667.612545	0.290952
667.816634	0.291606
668.020703	0.291810
668.224755	0.292359
668.428788	0.292642
668.632803	0.292914
668.836800	0.292893
669.040779	0.292899
669.244739	0.293011
669.448681	0.293297
669.652605	0.293446
669.856511	0.293735
670.060399	0.293623
670.264268	0.293907
670.468119	0.293681
670.671952	0.293938
670.875767	0.294272
671.079563	0.294793
671.283341	0.295217
671.487101	0.295189
671.690843	0.295391
671.894567	0.295650
672.098272	0.295910
672.301959	0.296460
672.505628	0.296536
672.709278	0.296727
672.912911	0.296918
673.116525	0.297077
673.320121	0.297283
673.523699	0.297439
673.727258	0.297435
673.930799	0.297412
674.134322	0.297598
674.337827	0.297797
674.541314	0.298062
674.744782	0.298219
674.948232	0.298491
675.151664	0.298564
675.355078	0.298768
675.558474	0.299243
675.761851	0.299687
675.965210	0.299942
676.168551	0.300210
676.371873	0.300498
676.575178	0.300651
676.778464	0.300605
676.981732	0.300899
677.184981	0.300960
677.388213	0.301087
677.591426	0.301114
677.794621	0.301158
677.997798	0.301569
678.200956	0.301692
678.404097	0.301902
678.607219	0.302126
678.810323	0.302449
679.013408	0.302625
679.216476	0.302697
679.419525	0.302877
679.622556	0.303055
679.825569	0.303193
680.028563	0.303529
680.231540	0.304006
680.434498	0.304184
680.637438	0.304490
680.840359	0.304974
681.043263	0.305550
681.246148	0.306042
681.449015	0.306378
681.651864	0.306335
681.854694	0.306431
682.057506	0.306421
682.260301	0.306728
682.463076	0.306811
682.665834	0.306844
682.868573	0.307039
683.071295	0.306969
683.273998	0.307242
683.476682	0.307799
683.679349	0.307948
683.881997	0.308196
684.084627	0.308439
684.287239	0.308602
684.489833	0.308771
684.692408	0.308863
684.894965	0.309007
685.097504	0.309042
685.300025	0.309190
685.502527	0.309355
685.705012	0.309476
685.907478	0.309803
686.109925	0.310012
686.312355	0.310401
686.514766	0.310527
686.717159	0.310791
686.919534	0.310838
687.121891	0.310970
687.324230	0.311169
687.526550	0.311215
687.728852	0.311167
687.931136	0.311288
688.133401	0.311274
688.335649	0.311445
688.537878	0.311467
688.740089	0.311925
688.942281	0.312160
689.144456	0.312422
689.346612	0.312463
689.548750	0.312907
689.750870	0.313143
689.952971	0.313332
690.155055	0.313675
690.357120	0.314054
690.559167	0.314508
690.761195	0.314639
690.963206	0.314879
691.165198	0.315349
691.367172	0.315266
691.569128	0.315537
691.771065	0.315819
691.972984	0.315935
692.174885	0.316200
692.376768	0.315925
692.578633	0.316187
692.780479	0.316408
692.982308	0.316561
693.184118	0.316966
693.385909	0.317125
