sample name	sample
index	1412
start time	 05-10-2021  11:42:33 AM


Wavelength (nm)	Absorbance
494.344910	0.003370
494.563924	0.003370
494.782919	0.003370
495.001897	0.129352
495.220856	0.010293
495.439797	0.017315
495.658719	0.007965
495.877624	-0.000258
496.096510	-0.020007
496.315378	-0.015524
496.534227	-0.003478
496.753059	-0.011630
496.971872	-0.008800
497.190667	0.053980
497.409444	0.090409
497.628203	0.103165
497.846943	0.110698
498.065665	0.114839
498.284369	0.115046
498.503055	0.116399
498.721723	0.117645
498.940372	0.118850
499.159003	0.119255
499.377616	0.118302
499.596210	0.118035
499.814787	0.118302
500.033345	0.120105
500.251885	0.120871
500.470406	0.121999
500.688910	0.123167
500.907395	0.123754
501.125862	0.124716
501.344311	0.125120
501.562742	0.125257
501.781154	0.124521
501.999548	0.123871
502.217924	0.124770
502.436282	0.124133
502.654621	0.123424
502.872942	0.123182
503.091245	0.123464
503.309530	0.123104
503.527797	0.123463
503.746045	0.123708
503.964275	0.123017
504.182487	0.122036
504.400681	0.121350
504.618856	0.122704
504.837013	0.122657
505.055152	0.123542
505.273273	0.122377
505.491376	0.122223
505.709460	0.122247
505.927526	0.121408
506.145574	0.121942
506.363604	0.122708
506.581615	0.122282
506.799608	0.122441
507.017583	0.121209
507.235540	0.122274
507.453478	0.122263
507.671399	0.123132
507.889301	0.124371
508.107185	0.124019
508.325050	0.124071
508.542898	0.123589
508.760727	0.123014
508.978538	0.123350
509.196330	0.123137
509.414105	0.124109
509.631861	0.123867
509.849599	0.123338
510.067319	0.123973
510.285021	0.124344
510.502704	0.124866
510.720369	0.125206
510.938016	0.126546
511.155645	0.127196
511.373255	0.127261
511.590848	0.127317
511.808422	0.127862
512.025977	0.127533
512.243515	0.127301
512.461034	0.127278
512.678536	0.127984
512.896018	0.127638
513.113483	0.127999
513.330930	0.127630
513.548358	0.127208
513.765768	0.126789
513.983160	0.127447
514.200533	0.127428
514.417889	0.127272
514.635226	0.127053
514.852545	0.126752
515.069845	0.126506
515.287128	0.126394
515.504392	0.126855
515.721638	0.126973
515.938866	0.126332
516.156075	0.126162
516.373267	0.125512
516.590440	0.125866
516.807594	0.125860
517.024731	0.126151
517.241850	0.126942
517.458950	0.127092
517.676032	0.127773
517.893095	0.127809
518.110141	0.128025
518.327168	0.129037
518.544177	0.128511
518.761168	0.128765
518.978141	0.129007
519.195095	0.129436
519.412031	0.129646
519.628949	0.130058
519.845849	0.130635
520.062731	0.131430
520.279594	0.130624
520.496439	0.131672
520.713266	0.132104
520.930074	0.132066
521.146865	0.131586
521.363637	0.132374
521.580391	0.131858
521.797127	0.132201
522.013844	0.131702
522.230543	0.132718
522.447224	0.131897
522.663887	0.131304
522.880532	0.131741
523.097158	0.132233
523.313766	0.131483
523.530356	0.132183
523.746928	0.132699
523.963481	0.132436
524.180017	0.132976
524.396534	0.133526
524.613032	0.134180
524.829513	0.134034
525.045975	0.134191
525.262420	0.134778
525.478845	0.134344
525.695253	0.133306
525.911643	0.134601
526.128014	0.133915
526.344367	0.133894
526.560702	0.134239
526.777018	0.134389
526.993316	0.134566
527.209597	0.135053
527.425858	0.135519
527.642102	0.136119
527.858328	0.136343
528.074535	0.136285
528.290724	0.136632
528.506894	0.136758
528.723047	0.137154
528.939181	0.137375
529.155297	0.136947
529.371395	0.136845
529.587475	0.137385
529.803536	0.137044
530.019579	0.137560
530.235604	0.137655
530.451611	0.137735
530.667600	0.137924
530.883570	0.137378
531.099522	0.137213
531.315456	0.137518
531.531372	0.137399
531.747269	0.137497
531.963148	0.138160
532.179009	0.138226
532.394852	0.138783
532.610676	0.139171
532.826482	0.139988
533.042271	0.140905
533.258040	0.141259
533.473792	0.141554
533.689525	0.142160
533.905240	0.142232
534.120937	0.142360
534.336616	0.142023
534.552277	0.141276
534.767919	0.141194
534.983543	0.141260
535.199149	0.141980
535.414736	0.141739
535.630306	0.141502
535.845857	0.141619
536.061390	0.142120
536.276904	0.141943
536.492401	0.142187
536.707879	0.142260
536.923339	0.142403
537.138781	0.141792
537.354204	0.142637
537.569610	0.142951
537.784997	0.143032
538.000366	0.142900
538.215716	0.143206
538.431049	0.143723
538.646363	0.144057
538.861659	0.144301
539.076937	0.144861
539.292196	0.144665
539.507438	0.144825
539.722661	0.145147
539.937866	0.145623
540.153052	0.146103
540.368221	0.146538
540.583371	0.146831
540.798503	0.146408
541.013617	0.146145
541.228712	0.146237
541.443789	0.146283
541.658848	0.146398
541.873889	0.146451
542.088912	0.146350
542.303916	0.145911
542.518902	0.145770
542.733870	0.146607
542.948820	0.147149
543.163752	0.147510
543.378665	0.147938
543.593560	0.148198
543.808437	0.148125
544.023295	0.148574
544.238136	0.148998
544.452958	0.149121
544.667762	0.148934
544.882548	0.148782
545.097315	0.148708
545.312064	0.148828
545.526795	0.148810
545.741508	0.148968
545.956203	0.148857
546.170879	0.148792
546.385537	0.148976
546.600177	0.149087
546.814799	0.149347
547.029402	0.149332
547.243988	0.149254
547.458555	0.149587
547.673103	0.149867
547.887634	0.150200
548.102146	0.150851
548.316640	0.150546
548.531116	0.150247
548.745574	0.150469
548.960013	0.151165
549.174435	0.151480
549.388838	0.151482
549.603222	0.151754
549.817589	0.152085
550.031937	0.152333
550.246267	0.153263
550.460579	0.153307
550.674873	0.153001
550.889148	0.152560
551.103405	0.152458
551.317644	0.152553
551.531865	0.152692
551.746068	0.152530
551.960252	0.152822
552.174418	0.152807
552.388566	0.152993
552.602696	0.153282
552.816807	0.153592
553.030900	0.153565
553.244975	0.153324
553.459032	0.153160
553.673070	0.153372
553.887091	0.152964
554.101093	0.153136
554.315077	0.153490
554.529042	0.153857
554.742990	0.153729
554.956919	0.153739
555.170830	0.154226
555.384722	0.154867
555.598597	0.155000
555.812453	0.154992
556.026291	0.155048
556.240111	0.155216
556.453913	0.155441
556.667696	0.156092
556.881461	0.156684
557.095208	0.156715
557.308937	0.156693
557.522647	0.156860
557.736339	0.156900
557.950013	0.156780
558.163669	0.157196
558.377307	0.157175
558.590926	0.157118
558.804527	0.156837
559.018110	0.156932
559.231675	0.156719
559.445221	0.157007
559.658749	0.157331
559.872259	0.157660
560.085751	0.157444
560.299225	0.157454
560.512680	0.157769
560.726117	0.158259
560.939536	0.158038
561.152937	0.158505
561.366319	0.158225
561.579683	0.158356
561.793029	0.158780
562.006357	0.158865
562.219667	0.159141
562.432958	0.159276
562.646231	0.159346
562.859486	0.159935
563.072723	0.159755
563.285941	0.159720
563.499141	0.159834
563.712323	0.159830
563.925487	0.160007
564.138632	0.159767
564.351760	0.159920
564.564869	0.160082
564.777960	0.159820
564.991032	0.159986
565.204087	0.160421
565.417123	0.160784
565.630141	0.160404
565.843140	0.160966
566.056122	0.161299
566.269085	0.161382
566.482030	0.161410
566.694957	0.161844
566.907866	0.162155
567.120756	0.162225
567.333628	0.162026
567.546482	0.162458
567.759318	0.162078
567.972135	0.161844
568.184935	0.161453
568.397716	0.161466
568.610478	0.161831
568.823223	0.161704
569.035949	0.161738
569.248657	0.162008
569.461347	0.161967
569.674019	0.162039
569.886672	0.162509
570.099308	0.163059
570.311925	0.163712
570.524523	0.163490
570.737104	0.163593
570.949666	0.163829
571.162210	0.163887
571.374736	0.164103
571.587244	0.164555
571.799733	0.164513
572.012205	0.164594
572.224658	0.164421
572.437092	0.164091
572.649509	0.164316
572.861907	0.163955
573.074287	0.164076
573.286649	0.164103
573.498993	0.164076
573.711318	0.164216
573.923625	0.164112
574.135914	0.164376
574.348185	0.164934
574.560438	0.164930
574.772672	0.165346
574.984888	0.165598
575.197086	0.165844
575.409266	0.165595
575.621427	0.166096
575.833570	0.166568
576.045695	0.166474
576.257802	0.167088
576.469890	0.167534
576.681961	0.167917
576.894013	0.167851
577.106046	0.168179
577.318062	0.168886
577.530059	0.168676
577.742039	0.168548
577.954000	0.168773
578.165942	0.168585
578.377867	0.168700
578.589773	0.168793
578.801661	0.168858
579.013531	0.168585
579.225382	0.168600
579.437216	0.168708
579.649031	0.168603
579.860828	0.168601
580.072606	0.168812
580.284367	0.168837
580.496109	0.168841
580.707833	0.169345
580.919539	0.169583
581.131227	0.169237
581.342896	0.169415
581.554547	0.170035
581.766180	0.170383
581.977795	0.170384
582.189391	0.170614
582.400969	0.170890
582.612529	0.170887
582.824071	0.171134
583.035595	0.172013
583.247100	0.172442
583.458587	0.172234
583.670056	0.172073
583.881506	0.172192
584.092939	0.171965
584.304353	0.171834
584.515749	0.171666
584.727127	0.171610
584.938486	0.171562
585.149828	0.171401
585.361151	0.171897
585.572456	0.171948
585.783742	0.171978
585.995011	0.172176
586.206261	0.172348
586.417493	0.172328
586.628706	0.172321
586.839902	0.172487
587.051079	0.172808
587.262238	0.172600
587.473379	0.172418
587.684502	0.172723
587.895606	0.172796
588.106692	0.172896
588.317760	0.173191
588.528810	0.173551
588.739841	0.173549
588.950855	0.173494
589.161850	0.173552
589.372827	0.173966
589.583785	0.173946
589.794726	0.173948
590.005648	0.173790
590.216552	0.173953
590.427437	0.174283
590.638305	0.174603
590.849154	0.174949
591.059985	0.175070
591.270798	0.175386
591.481592	0.175492
591.692369	0.175922
591.903127	0.176392
592.113867	0.176400
592.324588	0.176242
592.535292	0.175973
592.745977	0.175543
592.956644	0.175694
593.167293	0.175732
593.377923	0.175966
593.588536	0.176094
593.799130	0.176135
594.009706	0.176484
594.220263	0.177060
594.430803	0.177069
594.641324	0.177424
594.851827	0.177697
595.062312	0.177665
595.272778	0.177237
595.483227	0.177729
595.693657	0.177856
595.904069	0.177905
596.114462	0.177219
596.324838	0.177595
596.535195	0.177645
596.745534	0.177730
596.955855	0.178000
597.166157	0.178428
597.376441	0.177828
597.586707	0.177397
597.796955	0.177129
598.007185	0.177393
598.217396	0.177247
598.427589	0.177540
598.637764	0.177302
598.847921	0.177646
599.058060	0.177736
599.268180	0.178304
599.478282	0.178771
599.688366	0.179057
599.898431	0.179439
600.108479	0.179748
600.318508	0.179550
600.528519	0.179787
600.738511	0.179489
600.948486	0.179451
601.158442	0.179468
601.368380	0.179575
601.578300	0.179826
601.788202	0.179831
601.998085	0.179828
602.207950	0.179974
602.417797	0.180258
602.627626	0.180526
602.837436	0.180983
603.047228	0.181022
603.257002	0.181058
603.466758	0.181020
603.676496	0.180835
603.886215	0.180601
604.095916	0.181013
604.305599	0.181105
604.515264	0.181214
604.724910	0.181483
604.934538	0.181803
605.144148	0.182293
605.353740	0.182617
605.563314	0.183117
605.772869	0.183666
605.982406	0.183723
606.191925	0.183701
606.401425	0.183680
606.610908	0.183741
606.820372	0.183431
607.029818	0.183488
607.239246	0.183861
607.448655	0.183866
607.658047	0.183891
607.867420	0.183696
608.076775	0.183812
608.286111	0.183987
608.495430	0.183803
608.704730	0.183787
608.914012	0.183556
609.123275	0.183280
609.332521	0.183303
609.541748	0.183699
609.750957	0.183955
609.960148	0.184176
610.169321	0.184198
610.378475	0.184368
610.587611	0.184673
610.796729	0.184846
611.005829	0.184639
611.214910	0.184617
611.423974	0.184580
611.633019	0.184576
611.842045	0.184451
612.051054	0.185021
612.260044	0.185108
612.469017	0.185250
612.677970	0.185607
612.886906	0.185973
613.095824	0.186305
613.304723	0.186151
613.513604	0.186253
613.722467	0.186258
613.931311	0.186139
614.140138	0.186048
614.348946	0.185912
614.557736	0.185793
614.766507	0.185940
614.975261	0.185596
615.183996	0.185708
615.392713	0.185993
615.601412	0.186210
615.810092	0.186091
616.018754	0.186408
616.227399	0.186503
616.436024	0.186506
616.644632	0.186404
616.853222	0.186762
617.061793	0.186842
617.270346	0.186773
617.478880	0.186863
617.687397	0.186859
617.895895	0.186733
618.104375	0.187170
618.312837	0.187137
618.521281	0.187224
618.729706	0.187438
618.938113	0.187451
619.146502	0.187422
619.354873	0.187771
619.563226	0.187649
619.771560	0.187780
619.979876	0.187723
620.188174	0.188122
620.396453	0.188493
620.604715	0.188430
620.812958	0.188522
621.021183	0.188835
621.229390	0.188870
621.437578	0.189312
621.645748	0.189427
621.853900	0.189476
622.062034	0.189253
622.270150	0.189234
622.478247	0.189691
622.686326	0.189813
622.894387	0.189590
623.102430	0.189537
623.310454	0.189574
623.518461	0.189773
623.726449	0.189892
623.934418	0.190405
624.142370	0.190645
624.350303	0.190403
624.558218	0.190515
624.766115	0.190803
624.973994	0.190722
625.181855	0.190864
625.389697	0.190823
625.597521	0.190907
625.805327	0.190722
626.013114	0.190468
626.220883	0.190823
626.428634	0.190954
626.636367	0.191063
626.844082	0.191280
627.051778	0.191416
627.259457	0.191472
627.467117	0.191552
627.674758	0.191626
627.882382	0.191863
628.089987	0.191644
628.297574	0.191531
628.505143	0.191797
628.712694	0.192046
628.920226	0.192219
629.127740	0.192373
629.335236	0.192453
629.542714	0.192530
629.750174	0.192860
629.957615	0.192904
630.165038	0.193281
630.372443	0.193315
630.579829	0.193257
630.787198	0.193301
630.994548	0.193232
631.201880	0.193534
631.409194	0.193760
631.616489	0.194045
631.823766	0.194395
632.031025	0.194395
632.238266	0.194601
632.445489	0.194653
632.652693	0.194600
632.859879	0.195090
633.067047	0.194782
633.274197	0.195072
633.481329	0.194856
633.688442	0.194898
633.895537	0.195294
634.102614	0.195147
634.309672	0.195486
634.516713	0.195755
634.723735	0.195640
634.930739	0.196112
635.137724	0.195828
635.344692	0.195822
635.551641	0.196006
635.758572	0.195857
635.965485	0.196072
636.172379	0.196109
636.379256	0.195916
636.586114	0.195952
636.792954	0.195863
636.999775	0.196235
637.206579	0.196230
637.413364	0.196173
637.620131	0.196168
637.826880	0.196383
638.033610	0.196324
638.240323	0.196384
638.447017	0.196466
638.653692	0.196677
638.860350	0.196804
639.066990	0.197133
639.273611	0.197331
639.480214	0.197700
639.686798	0.197564
639.893365	0.197790
640.099913	0.198120
640.306443	0.198289
640.512955	0.198406
640.719449	0.198461
640.925924	0.198450
641.132381	0.198465
641.338820	0.198535
641.545241	0.198584
641.751644	0.198545
641.958028	0.198652
642.164394	0.198527
642.370742	0.198660
642.577071	0.198757
642.783383	0.198963
642.989676	0.199072
643.195951	0.199184
643.402207	0.199399
643.608446	0.199616
643.814666	0.199752
644.020868	0.200454
644.227052	0.200413
644.433218	0.200279
644.639365	0.200273
644.845494	0.200540
645.051605	0.200282
645.257698	0.200492
645.463772	0.200650
645.669828	0.200640
645.875866	0.200483
646.081886	0.200840
646.287888	0.201207
646.493871	0.201359
646.699836	0.201308
646.905783	0.201512
647.111712	0.201605
647.317622	0.201635
647.523514	0.201876
647.729388	0.201868
647.935244	0.201761
648.141082	0.201896
648.346901	0.202166
648.552702	0.202308
648.758485	0.202579
648.964250	0.202549
649.169996	0.202644
649.375724	0.202423
649.581434	0.202621
649.787126	0.202873
649.992800	0.202770
650.198455	0.202675
650.404092	0.202719
650.609711	0.202686
650.815311	0.202762
651.020894	0.202643
651.226458	0.202782
651.432004	0.202967
651.637532	0.202748
651.843041	0.202736
652.048532	0.202803
652.254006	0.203024
652.459460	0.203295
652.664897	0.203376
652.870315	0.203776
653.075716	0.203910
653.281097	0.203850
653.486461	0.204190
653.691807	0.204355
653.897134	0.204394
654.102443	0.204373
654.307734	0.204248
654.513006	0.204405
654.718261	0.204342
654.923497	0.204430
655.128715	0.204450
655.333915	0.204435
655.539096	0.204728
655.744259	0.205017
655.949404	0.205182
656.154531	0.205287
656.359640	0.205365
656.564730	0.205444
656.769802	0.205693
656.974856	0.205866
657.179892	0.205897
657.384909	0.205840
657.589908	0.205870
657.794889	0.205729
657.999852	0.205896
658.204797	0.205959
658.409723	0.205973
658.614631	0.206206
658.819521	0.206213
659.024393	0.206110
659.229246	0.206233
659.434081	0.206257
659.638898	0.206629
659.843697	0.206670
660.048478	0.207005
660.253240	0.207071
660.457984	0.207086
660.662710	0.207159
660.867417	0.207372
661.072107	0.207420
661.276778	0.207631
661.481431	0.207539
661.686066	0.207748
661.890682	0.207798
662.095281	0.208206
662.299861	0.208204
662.504422	0.208541
662.708966	0.208706
662.913491	0.209108
663.117999	0.209280
663.322488	0.209619
663.526958	0.209724
663.731411	0.209850
663.935845	0.209731
664.140261	0.210232
664.344659	0.210310
664.549038	0.210491
664.753400	0.210397
664.957743	0.210551
665.162068	0.210655
665.366375	0.211028
665.570663	0.211150
665.774933	0.211604
665.979185	0.211318
666.183419	0.211437
666.387635	0.211771
666.591832	0.211972
666.796011	0.212010
667.000172	0.212103
667.204315	0.212189
667.408439	0.212185
667.612545	0.212365
667.816634	0.212552
668.020703	0.212668
668.224755	0.212725
668.428788	0.212726
668.632803	0.212877
668.836800	0.213019
669.040779	0.212961
669.244739	0.213144
669.448681	0.213009
669.652605	0.213221
669.856511	0.213311
670.060399	0.213289
670.264268	0.213584
670.468119	0.213678
670.671952	0.213621
670.875767	0.213761
671.079563	0.213820
671.283341	0.214000
671.487101	0.214165
671.690843	0.214156
671.894567	0.214411
672.098272	0.214422
672.301959	0.214517
672.505628	0.214752
672.709278	0.214833
672.912911	0.215059
673.116525	0.214884
673.320121	0.214860
673.523699	0.215154
673.727258	0.215098
673.930799	0.215236
674.134322	0.215607
674.337827	0.215874
674.541314	0.216172
674.744782	0.216452
674.948232	0.216863
675.151664	0.217046
675.355078	0.217353
675.558474	0.217735
675.761851	0.217835
675.965210	0.217584
676.168551	0.217515
676.371873	0.217324
676.575178	0.217257
676.778464	0.217333
676.981732	0.217542
677.184981	0.217695
677.388213	0.217715
677.591426	0.217775
677.794621	0.217902
677.997798	0.218183
678.200956	0.218560
678.404097	0.218704
678.607219	0.218806
678.810323	0.218978
679.013408	0.218829
679.216476	0.219050
679.419525	0.219280
679.622556	0.219414
679.825569	0.219462
680.028563	0.219614
680.231540	0.219373
680.434498	0.219851
680.637438	0.219934
680.840359	0.220056
681.043263	0.220206
681.246148	0.220470
681.449015	0.220644
681.651864	0.220795
681.854694	0.221037
682.057506	0.221622
682.260301	0.221426
682.463076	0.221534
682.665834	0.221892
682.868573	0.222116
683.071295	0.222310
683.273998	0.222650
683.476682	0.222723
683.679349	0.222753
683.881997	0.222938
684.084627	0.223214
684.287239	0.223372
684.489833	0.223298
684.692408	0.223100
684.894965	0.223114
685.097504	0.223023
685.300025	0.223145
685.502527	0.223124
685.705012	0.223245
685.907478	0.223146
686.109925	0.223023
686.312355	0.222991
686.514766	0.223098
686.717159	0.223171
686.919534	0.223313
687.121891	0.223492
687.324230	0.223674
687.526550	0.223700
687.728852	0.223898
687.931136	0.224197
688.133401	0.224333
688.335649	0.224629
688.537878	0.224685
688.740089	0.224822
688.942281	0.225048
689.144456	0.225317
689.346612	0.225511
689.548750	0.225537
689.750870	0.225512
689.952971	0.226037
690.155055	0.226136
690.357120	0.226293
690.559167	0.226465
690.761195	0.226355
690.963206	0.226185
691.165198	0.226160
691.367172	0.226541
691.569128	0.226629
691.771065	0.226521
691.972984	0.226694
692.174885	0.226833
692.376768	0.227096
692.578633	0.227370
692.780479	0.227610
692.982308	0.227676
693.184118	0.227540
693.385909	0.227806
