sample name	sample
index	1201
start time	 04-26-2021  12:42:31 PM
880	0.460025
Peak Time (s)	92.535
Peak Height 	0.46
calc peak height	90,93
Baseline Time (s)	11.036
Baseline Value 	-0.005602
subtract baseline	10,4
Abs	0.297765
Peak Time (s)	92.038
Peak Height 	0.2978
calc peak height	90,93
Baseline Time (s)	8.537
Baseline Value 	0.004621
subtract baseline	10,3
PK_550	0.173328
Peak Time (s)	92.535
Peak Height 	0.1733
calc peak height	90,93
Baseline Time (s)	9.037
Baseline Value 	8.9992E-4
subtract baseline	10,2
PK_880	0.281975
Peak Time (s)	90.54
Peak Height 	0.282
calc peak height	90,93
Baseline Time (s)	10.035
Baseline Value 	0.002603
subtract baseline	10,1


Time (s)	A880-A510	A880-A775	A880-A975	A880	I510	I775	I975	I880	
0.034000	-0.000145	-0.000713	-0.001904	0.002406	6160.854115	43484.989140	3869.314349	22529.801740
0.535000	-0.003314	-0.000667	-0.000092	0.004822	6119.313465	43264.303827	3867.944391	22420.929090
1.035500	-0.003710	-0.001014	-0.003544	0.006538	6103.744269	43073.089074	3856.300033	22343.944250
1.536000	0.000292	-0.000097	0.000206	0.001580	6170.319786	43619.809328	3875.998525	22567.159506
2.035500	-0.001113	-0.000274	-0.004760	0.001392	6161.194638	43620.852561	3865.142093	22575.675603
2.535500	-0.002144	-0.001419	-0.005697	0.000017	6163.768325	43642.421863	3866.130834	22638.050761
3.036500	-0.002035	-0.000292	0.001422	0.005355	6124.832290	43249.572629	3870.169443	22396.978805
3.536500	-0.000004	0.000304	-0.000402	0.001333	6169.944678	43680.555975	3875.174243	22578.326877
4.037000	-0.001717	-0.000708	0.003198	0.000120	6166.201790	43699.440968	3886.223091	22633.384717
4.534500	-0.001856	-0.000166	-0.005129	0.000147	6164.960056	43747.872840	3867.122812	22632.166088
5.037500	-0.004916	-0.000509	-0.007497	0.004629	6108.912047	43296.794569	3851.733323	22429.576280
5.535000	-0.001976	-0.000141	0.001871	0.000282	6163.044095	43737.502093	3882.792008	22626.023927
6.035500	-0.002541	-0.000724	0.001012	-0.000490	6164.589740	43755.160087	3882.590658	22661.088914
6.535500	-0.001657	0.000038	-0.001193	0.000175	6166.236277	43764.341629	3876.012795	22630.866606
7.036000	-0.001081	0.000203	0.000164	-0.000210	6173.452430	43816.093997	3879.999624	22648.364536
7.536500	0.000653	0.000013	-0.002003	-0.000149	6186.043384	43792.448081	3874.901956	22645.581749
8.036000	0.001669	0.000251	-0.000474	-0.000029	6192.813182	43803.586851	3878.123427	22640.147444
8.537000	-0.000582	-0.000525	0.000000	-0.000528	6179.590195	43777.461762	3880.353281	22662.820235
9.037000	0.001382	0.000000	0.002515	0.000198	6188.927998	43758.635399	3884.468818	22629.844554
9.537500	0.000962	-0.000295	0.003387	-0.000403	6190.295871	43787.325706	3887.868796	22657.142366
10.035000	0.000000	0.000326	-0.003268	0.000141	6178.943933	43794.643440	3871.361118	22632.440455
10.535500	-0.000321	0.000406	0.002426	0.000187	6176.176121	43797.828290	3884.287144	22630.320973
11.035500	-0.000618	0.000455	-0.004023	0.000000	6175.351049	43820.056080	3869.965305	22638.825187
11.535000	0.000529	-0.000332	-0.000230	-0.000759	6189.709442	43817.386566	3880.356070	22673.327815
12.039000	-0.001099	-0.000762	0.000367	-0.000958	6178.940326	43795.665597	3882.185084	22682.426457
12.537000	-0.001631	0.000598	-0.000009	0.000014	6167.638192	43832.233523	3879.091133	22638.191752
13.039500	0.000086	0.000197	0.000006	0.000186	6179.247202	43778.303741	3878.730574	22630.381915
13.537000	-0.000934	-0.001068	0.001045	-0.000956	6180.169757	43766.681697	3883.739660	22682.318590
14.037000	-0.003127	-0.000696	-0.001031	0.001725	6143.669312	43550.148037	3872.845737	22560.589355
14.538000	-0.002438	-0.001033	-0.000242	0.000830	6155.488851	43602.394207	3876.688986	22601.136718
15.040000	-0.000312	0.000180	-0.003038	0.000117	6176.769615	43783.131589	3871.937228	22633.494418
15.538000	0.001457	0.000540	-0.000814	0.000238	6189.192975	43805.636604	3876.734827	22628.003861
16.048500	-0.000267	-0.000559	0.001029	-0.000812	6184.113638	43801.053257	3883.372783	22675.782458
16.536000	0.000262	-0.000541	-0.004042	-0.000981	6189.372773	43818.626235	3872.149853	22683.433525
17.036000	-0.003310	0.000272	-0.001318	0.002583	6135.925377	43560.411905	3870.241259	22521.772923
17.539500	-0.000593	-0.000331	0.003832	-0.000480	6179.150361	43791.237068	3889.076325	22660.641311
18.042500	-0.004426	-0.000134	0.001253	0.000533	6142.874824	43714.568005	3880.793713	22614.619789
18.564500	-0.001081	-0.000638	0.002998	0.000657	6166.941484	43655.559866	3884.523214	22608.970073
19.040000	-0.001448	-0.000398	0.002392	0.000501	6165.356559	43692.722853	3883.485481	22616.052739
19.534000	-0.002869	-0.000044	-0.001133	0.000463	6155.005736	43729.550882	3875.490030	22617.788062
20.035000	0.000951	-0.000137	0.003492	0.000607	6182.597490	43707.315054	3885.778080	22611.276897
20.534500	-0.001883	0.000117	0.000815	0.000741	6160.309041	43718.662529	3879.313070	22605.199740
21.079500	-0.002184	-0.000655	-0.001043	0.000390	6160.679259	43679.126625	3875.865238	22621.126708
21.550000	-0.001546	-0.000405	0.003808	0.000872	6161.847571	43657.294363	3885.896184	22599.243655
22.037000	-0.001501	-0.000289	0.002858	0.000913	6161.873461	43664.362688	3883.611487	22597.377270
22.536500	0.000656	0.000009	0.005379	0.000722	6179.505608	43710.245367	3889.874906	22606.032944
23.037000	0.000198	-0.000748	-0.000161	0.000710	6176.149836	43640.364310	3877.148577	22606.585764
23.537500	0.001145	-0.000229	-0.000817	0.000717	6183.228535	43688.370679	3875.633834	22606.288026
24.038000	0.000185	-0.000414	0.001838	0.001101	6173.106670	43634.971303	3880.832926	22588.835097
24.535000	-0.001040	-0.000421	-0.000845	0.000449	6168.805665	43695.423971	3876.180423	22618.422642
25.035000	0.000099	0.000550	0.003881	0.001050	6172.848857	43730.188442	3885.651783	22591.154012
25.565000	-0.000514	0.001783	0.000818	0.001583	6164.251836	43796.037468	3877.392083	22567.035875
26.099500	-0.001171	0.000169	0.000801	0.000958	6164.009141	43703.043887	3878.781957	22595.335219
26.536000	0.001277	0.000875	0.000042	0.001622	6177.399178	43706.994763	3875.525938	22565.232692
27.041500	-0.000116	0.000703	0.006678	0.000291	6176.936023	43815.970931	3893.890827	22625.594250
27.537000	0.001271	0.000824	0.003389	-0.002362	6207.474448	44077.968687	3892.412887	22746.470430
28.095000	0.002738	-0.000205	0.000165	-0.000941	6207.819270	43846.508162	3881.682373	22681.644211
28.540000	-0.001051	0.000040	-0.000132	-0.000458	6175.535639	43824.087725	3879.891143	22659.639811
29.040500	0.001491	0.000098	0.001754	0.001784	6177.796372	43618.962459	3879.074298	22557.924272
29.535500	0.000186	0.001549	0.000551	0.000305	6179.110143	43894.481278	3879.707972	22624.990746
30.035500	0.000985	0.001079	-0.001226	0.000062	6186.955612	43872.973116	3876.194848	22636.000645
30.538500	-0.000696	-0.000202	0.002045	-0.000900	6181.535011	43842.892169	3885.915498	22679.755447
31.036000	-0.000739	-0.000824	0.001496	0.002171	6158.162145	43496.458894	3877.596066	22540.408562
31.536500	-0.001569	0.001515	0.003283	0.000785	6162.322139	43845.969553	3884.885649	22603.182558
32.039500	0.001522	0.000114	0.001271	-0.000514	6195.369773	43836.338393	3883.242509	22662.191277
32.534000	0.001548	-0.000078	-0.003135	-0.000553	6195.855458	43821.867573	3873.241688	22663.950422
33.037500	0.002043	-0.000413	0.004344	0.002767	6174.559575	43479.289594	3882.766083	22513.502284
33.534500	0.000608	0.000155	-0.000043	-0.002734	6205.263519	44049.813547	3885.330660	22763.456691
34.035000	0.000489	0.000468	0.000165	0.001808	6170.084503	43651.316183	3875.384234	22556.819290
34.535500	0.000626	0.001171	-0.002882	0.002340	6167.127259	43667.428811	3867.245581	22532.789742
35.038500	-0.001578	0.000733	0.000410	0.002005	6153.138146	43657.783661	3875.495280	22547.943186
35.536000	-0.001442	0.000530	0.000694	0.001855	6155.269330	43652.740424	3876.483798	22554.694814
36.039500	-0.000535	-0.000077	0.006223	0.001244	6166.632137	43653.161168	3890.620141	22582.363220
36.536500	-0.000910	0.001198	0.003113	0.002254	6156.261945	43677.971294	3881.112873	22536.649358
37.037000	-0.002103	0.000437	0.003126	0.001831	6150.511444	43646.327640	3882.115593	22555.779312
37.536500	-0.001697	0.001163	0.004434	0.002254	6150.389603	43674.790107	3884.152963	22536.670232
38.037500	-0.001564	0.000599	-0.000167	0.002136	6152.259466	43632.938286	3873.878580	22541.989903
38.534500	-0.000885	0.000777	0.006668	0.001923	6158.923826	43669.624573	3890.079044	22551.634262
39.037500	0.000668	0.000700	0.001645	0.002216	6168.365237	43634.824671	3877.835664	22538.370811
39.535500	-0.003644	0.000056	-0.002915	0.001754	6139.610161	43617.808612	3868.498485	22559.282082
40.038000	0.000286	0.000245	0.002582	0.002151	6165.989976	43598.329401	3880.131413	22541.305297
40.536000	-0.000893	-0.000091	-0.000806	0.001799	6159.794403	43599.794421	3873.189392	22557.219120
41.036500	-0.002363	0.000150	-0.000632	0.001604	6150.273493	43640.719666	3874.032230	22566.083944
41.537000	-0.002879	0.000655	0.003030	0.002303	6141.216578	43622.498746	3880.811064	22534.459007
42.037000	-0.002768	-0.000830	-0.002386	0.001242	6149.943197	43582.799328	3870.861557	22582.446241
42.536500	-0.002840	-0.000629	0.000247	0.001106	6150.425226	43614.321179	3877.175774	22588.627599
43.037500	-0.001679	0.000822	0.001818	0.002121	6151.513991	43655.284236	3878.450402	22542.695712
43.535000	0.000740	0.000090	0.002482	0.000922	6178.628658	43698.976243	3882.725597	22596.959392
44.035000	0.001472	0.000402	0.004300	-0.003104	6214.640897	44108.300271	3896.258546	22780.374605
44.539500	0.000697	0.000405	0.002456	-0.000063	6185.732210	43821.274601	3884.934640	22641.690727
45.046500	-0.000438	0.000205	0.003937	0.001923	6162.277770	43615.970037	3883.769716	22551.639586
45.535500	-0.001629	-0.000007	0.001971	-0.000545	6171.854660	43827.924050	3884.928633	22663.621882
46.056000	-0.000531	0.000211	0.003373	-0.000579	6180.360029	43851.544679	3888.241233	22665.136562
46.536500	0.000574	0.000780	0.000106	-0.000167	6185.589221	43866.457921	3879.769132	22646.432489
47.037000	0.000984	0.000295	0.000835	0.000992	6179.939810	43711.672629	3878.781199	22593.777493
47.535500	0.001379	0.001027	-0.001244	0.003008	6167.761269	43591.336938	3869.444038	22502.598327
48.034500	0.000538	0.000057	0.001691	-0.000343	6186.645920	43814.903949	3883.817570	22654.435980
48.534000	0.001182	0.000248	0.001399	-0.000300	6191.175736	43828.802944	3883.044758	22652.455442
49.040500	0.001222	0.000181	0.002822	0.000021	6189.057053	43792.260250	3885.583789	22637.867268
49.538000	0.002013	0.001105	0.000888	-0.001766	6208.584804	44048.137680	3885.245762	22719.258258
50.038500	0.002426	0.000675	0.006633	-0.000553	6202.510134	43892.892479	3895.751773	22663.993315
50.539000	0.003006	0.000366	0.006548	0.007560	6145.891260	43106.170189	3876.826782	22298.256622
51.052500	0.017919	-0.032009	0.005650	0.590798	3784.255052	12666.121700	3142.422369	7966.533106
51.550500	0.007068	-0.033560	-0.017015	-0.050598	6644.353863	45411.561562	3959.176372	25077.503406
52.039000	0.009001	-0.083250	-0.008951	-0.259587	8979.331839	64235.082275	4656.491360	38782.204113
52.537500	0.009737	-0.093945	-0.001997	-0.276612	9232.699666	65135.140523	4757.129117	40216.684703
53.038000	0.011234	-0.049208	0.008719	-0.206521	8308.927181	61607.710715	4517.737343	34655.440886
53.535500	0.014377	-0.036671	0.006985	-0.182281	8052.929392	60047.594130	4422.872619	32931.730853
54.035500	0.008946	-0.017202	0.013147	-0.108384	7194.307731	53319.882413	4200.591986	28233.269409
54.541500	0.006428	-0.024948	0.001629	-0.153308	7633.747690	57823.280812	4305.885569	30993.745077
55.036500	0.009881	-0.025582	0.005082	-0.168145	7836.947113	59648.224281	4367.062274	31970.017836
55.536000	0.027301	-0.016287	0.022272	-0.140615	7723.565091	57316.078938	4332.160254	30184.626540
56.037000	0.039455	-0.005551	0.039517	-0.082961	7244.773475	51746.969667	4203.467168	26793.023720
56.537000	0.046659	0.006499	0.048045	-0.007449	6613.888315	45110.432915	4014.830073	22980.269131
57.037000	0.056547	0.015940	0.061063	0.030329	6383.497049	42446.137524	3952.142154	21307.598369
57.534500	0.069441	0.025396	0.068029	0.078220	6114.564967	39099.332048	3856.055253	19385.967337
58.034500	0.082704	0.034175	0.085936	0.110303	5978.659361	37209.697757	3824.829251	18212.191129
58.535000	0.098098	0.043348	0.102104	0.139912	5879.839542	35633.981573	3796.146257	17203.216062
59.038000	0.112607	0.052813	0.118963	0.170035	5774.958047	34114.855163	3768.699056	16244.967855
59.536000	0.127669	0.061941	0.132426	0.202973	5659.428339	32451.276195	3729.889476	15270.501283
60.036000	0.140934	0.068115	0.147486	0.240098	5512.442789	30420.602421	3687.968284	14257.190814
60.536000	0.153027	0.079141	0.161101	0.269218	5412.383954	29298.844118	3659.762008	13520.847308
61.036500	0.164885	0.087162	0.171688	0.289487	5364.380185	28565.568684	3642.649885	13036.670334
61.537500	0.177757	0.095676	0.182977	0.295930	5400.989130	28688.130130	3651.167895	12887.456431
62.040500	0.180208	0.103284	0.182092	0.312242	5322.736567	28177.076917	3621.371359	12519.396157
62.535000	0.187164	0.108842	0.197903	0.319372	5321.769594	28085.833012	3636.262940	12362.796319
63.057500	0.193506	0.111895	0.194637	0.318503	5362.151122	28314.006165	3632.121702	12381.742091
63.586500	0.197676	0.116584	0.210098	0.318412	5386.329346	28594.960473	3659.409555	12383.734001
64.036000	0.203739	0.121350	0.203758	0.322306	5398.726964	28646.485733	3641.342275	12299.104440
64.535500	0.206256	0.122537	0.217829	0.324271	5401.889599	28600.456496	3662.759493	12256.682421
65.039000	0.209457	0.126418	0.216776	0.329126	5392.418048	28542.970542	3652.233720	12152.699528
65.536500	0.212097	0.129141	0.225408	0.334527	5376.686743	28385.516964	3657.971293	12038.375244
66.049000	0.218233	0.132453	0.225656	0.341536	5371.734731	28169.802157	3646.011924	11892.139145
66.540000	0.222045	0.134854	0.230354	0.348405	5354.467515	27911.427315	3642.210366	11751.067469
67.034500	0.223260	0.136734	0.234859	0.353239	5334.180059	27742.071338	3641.634548	11653.124943
67.535000	0.227675	0.138102	0.233607	0.359759	5322.460522	27449.522636	3628.192574	11522.746448
68.035500	0.231218	0.140977	0.243506	0.365201	5311.937658	27305.050687	3635.872548	11415.420060
68.541000	0.231722	0.142770	0.242766	0.369167	5292.860116	27183.348379	3627.765070	11338.025674
69.035500	0.235107	0.146375	0.245680	0.373114	5289.781624	27164.297839	3625.997353	11261.718040
69.536500	0.238953	0.146854	0.244703	0.374935	5300.898723	27089.500805	3621.231015	11226.734752
70.036500	0.240898	0.149026	0.249967	0.379203	5288.146945	26973.170172	3622.923525	11145.339851
70.537000	0.245841	0.152096	0.249738	0.384520	5286.099558	26849.137097	3613.544430	11045.045324
71.037000	0.246495	0.152277	0.254780	0.388269	5269.227214	26653.424308	3615.718994	10975.055103
71.537500	0.247221	0.153906	0.261274	0.390954	5258.612104	26595.834569	3622.169269	10925.314016
72.035000	0.254723	0.155475	0.260689	0.395228	5276.130612	26448.857061	3613.951570	10846.740319
72.538000	0.251125	0.155416	0.256641	0.398610	5238.404393	26263.283114	3601.566039	10785.133117
73.038000	0.251226	0.157282	0.258532	0.403749	5211.550059	26088.117012	3596.215776	10692.412226
73.536000	0.254682	0.159232	0.266930	0.406895	5213.193187	26024.457704	3604.885474	10636.191204
74.035500	0.258372	0.160138	0.270373	0.408854	5222.390768	25968.499466	3607.353877	10601.377992
74.539500	0.256368	0.159794	0.267371	0.410501	5203.029226	25863.081777	3599.648356	10572.235759
75.037000	0.262076	0.162702	0.270307	0.414373	5212.748165	25812.255637	3598.107311	10504.165341
75.536500	0.263541	0.161159	0.270620	0.414677	5218.909844	25715.185732	3598.122339	10498.847631
76.037000	0.266107	0.164021	0.272369	0.417867	5215.598045	25697.958661	3595.754756	10443.261908
76.534500	0.267069	0.164660	0.273538	0.419475	5212.166084	25647.177089	3595.035445	10415.383062
77.034500	0.266453	0.165218	0.273875	0.420408	5203.976979	25627.652980	3594.060595	10399.276060
77.553000	0.270942	0.167045	0.280591	0.422432	5217.029111	25617.314167	3601.777011	10364.414143
78.036000	0.267277	0.166187	0.269966	0.421979	5200.027712	25596.160060	3585.151298	10372.197057
78.535500	0.271662	0.167123	0.276468	0.423451	5215.440580	25568.205696	3593.322640	10346.919703
79.053500	0.271311	0.168429	0.279366	0.424857	5206.130150	25562.987080	3595.765429	10322.863805
79.539000	0.271752	0.170195	0.279132	0.426363	5200.507073	25576.521345	3592.918134	10297.174737
80.038000	0.272958	0.171481	0.280119	0.428681	5194.652665	25522.804205	3590.749578	10257.824373
80.537000	0.275089	0.171515	0.282996	0.429965	5199.108616	25457.850094	3593.347067	10236.100474
81.034500	0.272311	0.170927	0.283192	0.429905	5184.830957	25430.494014	3593.765929	10237.119456
81.535500	0.273892	0.172265	0.282109	0.432042	5181.919761	25389.142240	3588.520773	10201.124465
82.035000	0.272828	0.173009	0.286146	0.433305	5169.778029	25362.337036	3593.037443	10179.931969
82.538500	0.274787	0.172472	0.285728	0.435428	5168.923115	25225.362908	3588.897187	10144.436501
83.047000	0.277512	0.174572	0.289328	0.438799	5165.566700	25160.233784	3589.271277	10088.455187
83.539000	0.276417	0.174748	0.283140	0.439699	5155.232972	25123.217319	3577.848563	10073.580768
84.036500	0.277303	0.173153	0.291086	0.440252	5156.954856	25013.691703	3589.766396	10064.455990
84.540500	0.278535	0.174959	0.284487	0.444050	5143.713194	24912.623698	3573.062395	10002.091509
85.037500	0.275434	0.173846	0.292193	0.444287	5126.613175	24844.434365	3585.022746	9998.227112
85.536500	0.277464	0.172897	0.293785	0.444718	5134.792794	24774.935416	3586.899408	9991.191524
86.088500	0.279559	0.174133	0.290671	0.447446	5131.551649	24699.985562	3577.502876	9946.806082
86.535000	0.278319	0.173566	0.291323	0.449942	5112.518278	24547.008413	3574.564073	9906.439082
87.035500	0.278480	0.173797	0.293248	0.449752	5114.299700	24567.922302	3577.935182	9909.494852
87.535500	0.277182	0.172252	0.290226	0.449000	5111.530060	24528.458121	3574.315901	9921.636961
88.036000	0.279100	0.171387	0.290611	0.449293	5119.786014	24470.988647	3574.463923	9916.912467
88.536000	0.280381	0.172150	0.291150	0.452731	5108.832408	24338.696156	3569.867984	9861.602523
89.036500	0.276302	0.172796	0.289450	0.452227	5090.807661	24395.471490	3567.979599	9869.679143
89.536500	0.279049	0.172077	0.290114	0.452570	5102.915597	24343.025075	3568.485615	9864.185127
90.037000	0.279893	0.172707	0.296050	0.454201	5098.944986	24293.765871	3575.308929	9838.091204
90.540000	0.281975	0.172683	0.287340	0.457623	5092.196631	24124.892874	3556.254939	9783.655646
91.037000	0.280976	0.172505	0.289546	0.456362	5093.514849	24177.812383	3561.645328	9803.658902
91.535500	0.280670	0.172870	0.291119	0.456726	5090.148750	24177.888024	3563.534900	9797.882851
92.038000	0.280969	0.171554	0.297765	0.456673	5091.916288	24116.167030	3574.103880	9798.727604
92.535500	0.281603	0.173328	0.295187	0.460025	5078.303864	24039.321745	3564.739503	9745.699518
93.035500	0.281561	0.170865	0.293854	0.457716	5089.651058	24031.845514	3566.271528	9782.177001
93.539000	0.284108	0.173856	0.292967	0.461152	5085.195453	24010.221372	3559.510511	9727.967197
94.130000	0.284266	0.171236	0.297572	0.460131	5091.110633	23932.795895	3568.324012	9744.036812
94.537000	0.283193	0.170173	0.292186	0.460009	5086.339902	23887.318633	3560.074675	9745.958784
95.037000	0.286408	0.171753	0.293361	0.462733	5088.798614	23832.178039	3557.667277	9703.169180
95.535000	0.285100	0.171993	0.301393	0.463671	5077.560563	23798.599917	3568.767060	9688.501895
96.037500	0.283823	0.170304	0.300178	0.463463	5072.232059	23727.612603	3567.180415	9691.755388
96.540000	0.285839	0.169174	0.289639	0.463660	5081.309627	23664.135505	3550.490392	9688.677812
