sample name	sample
index	526
start time	 03-11-2021  04:10:59 PM


Wavelength (nm)	Absorbance
494.344910	-0.288474
494.563924	-0.288474
494.782919	-0.288474
495.001897	-0.157459
495.220856	-0.463743
495.439797	0.276091
495.658719	NaN
495.877624	NaN
496.096510	-0.010946
496.315378	0.541912
496.534227	NaN
496.753059	NaN
496.971872	-0.015361
497.190667	0.052322
497.409444	0.042299
497.628203	0.043638
497.846943	0.044134
498.065665	0.046753
498.284369	0.047074
498.503055	0.047007
498.721723	0.047161
498.940372	0.047894
499.159003	0.046730
499.377616	0.047803
499.596210	0.048150
499.814787	0.047962
500.033345	0.047299
500.251885	0.048945
500.470406	0.048155
500.688910	0.048563
500.907395	0.048008
501.125862	0.049264
501.344311	0.048737
501.562742	0.048361
501.781154	0.048496
501.999548	0.048369
502.217924	0.046967
502.436282	0.047056
502.654621	0.047320
502.872942	0.047660
503.091245	0.046118
503.309530	0.045930
503.527797	0.045856
503.746045	0.045938
503.964275	0.046618
504.182487	0.045886
504.400681	0.046002
504.618856	0.045931
504.837013	0.045262
505.055152	0.045968
505.273273	0.046788
505.491376	0.047413
505.709460	0.047487
505.927526	0.047289
506.145574	0.048862
506.363604	0.049102
506.581615	0.048794
506.799608	0.048850
507.017583	0.049698
507.235540	0.049798
507.453478	0.049652
507.671399	0.050303
507.889301	0.050365
508.107185	0.049318
508.325050	0.049734
508.542898	0.049631
508.760727	0.049324
508.978538	0.048911
509.196330	0.048699
509.414105	0.047894
509.631861	0.047234
509.849599	0.047258
510.067319	0.047041
510.285021	0.046758
510.502704	0.047070
510.720369	0.047730
510.938016	0.047948
511.155645	0.048659
511.373255	0.049209
511.590848	0.049283
511.808422	0.049878
512.025977	0.050659
512.243515	0.050092
512.461034	0.050446
512.678536	0.050780
512.896018	0.050293
513.113483	0.049351
513.330930	0.049006
513.548358	0.049178
513.765768	0.048542
513.983160	0.047958
514.200533	0.048851
514.417889	0.048486
514.635226	0.047898
514.852545	0.048447
515.069845	0.048684
515.287128	0.049134
515.504392	0.049248
515.721638	0.049131
515.938866	0.048835
516.156075	0.048408
516.373267	0.048585
516.590440	0.049048
516.807594	0.048363
517.024731	0.048657
517.241850	0.048307
517.458950	0.048179
517.676032	0.048283
517.893095	0.048786
518.110141	0.049035
518.327168	0.048554
518.544177	0.048281
518.761168	0.048795
518.978141	0.047724
519.195095	0.048210
519.412031	0.048436
519.628949	0.048775
519.845849	0.049536
520.062731	0.049693
520.279594	0.049467
520.496439	0.049493
520.713266	0.049957
520.930074	0.050369
521.146865	0.049904
521.363637	0.049356
521.580391	0.049284
521.797127	0.048407
522.013844	0.048251
522.230543	0.048903
522.447224	0.049241
522.663887	0.049138
522.880532	0.049618
523.097158	0.050127
523.313766	0.050368
523.530356	0.050800
523.746928	0.051628
523.963481	0.051379
524.180017	0.051165
524.396534	0.050658
524.613032	0.050167
524.829513	0.050251
525.045975	0.050392
525.262420	0.050580
525.478845	0.050244
525.695253	0.049962
525.911643	0.050674
526.128014	0.050939
526.344367	0.051441
526.560702	0.051718
526.777018	0.051544
526.993316	0.051693
527.209597	0.051850
527.425858	0.051944
527.642102	0.051993
527.858328	0.051532
528.074535	0.051655
528.290724	0.052170
528.506894	0.052538
528.723047	0.052830
528.939181	0.053103
529.155297	0.052979
529.371395	0.052978
529.587475	0.053267
529.803536	0.053631
530.019579	0.054004
530.235604	0.054015
530.451611	0.054397
530.667600	0.054728
530.883570	0.055157
531.099522	0.056001
531.315456	0.056141
531.531372	0.055951
531.747269	0.056102
531.963148	0.056156
532.179009	0.056419
532.394852	0.056076
532.610676	0.055541
532.826482	0.054894
533.042271	0.054878
533.258040	0.055038
533.473792	0.055489
533.689525	0.055733
533.905240	0.055675
534.120937	0.055613
534.336616	0.055579
534.552277	0.056215
534.767919	0.056679
534.983543	0.056214
535.199149	0.056335
535.414736	0.056735
535.630306	0.056862
535.845857	0.056993
536.061390	0.057226
536.276904	0.057631
536.492401	0.057908
536.707879	0.057951
536.923339	0.058266
537.138781	0.058397
537.354204	0.057833
537.569610	0.057510
537.784997	0.057740
538.000366	0.057616
538.215716	0.057446
538.431049	0.057550
538.646363	0.057481
538.861659	0.057486
539.076937	0.057689
539.292196	0.058084
539.507438	0.058105
539.722661	0.057749
539.937866	0.057920
540.153052	0.058292
540.368221	0.058036
540.583371	0.058271
540.798503	0.058901
541.013617	0.059009
541.228712	0.058975
541.443789	0.059052
541.658848	0.059146
541.873889	0.058774
542.088912	0.058738
542.303916	0.058978
542.518902	0.059072
542.733870	0.058889
542.948820	0.059138
543.163752	0.059168
543.378665	0.059853
543.593560	0.060683
543.808437	0.060707
544.023295	0.060910
544.238136	0.060964
544.452958	0.061161
544.667762	0.061295
544.882548	0.060519
545.097315	0.060269
545.312064	0.059857
545.526795	0.059403
545.741508	0.059818
545.956203	0.059935
546.170879	0.059877
546.385537	0.060043
546.600177	0.059588
546.814799	0.060196
547.029402	0.060672
547.243988	0.060830
547.458555	0.061178
547.673103	0.061592
547.887634	0.061493
548.102146	0.061563
548.316640	0.061058
548.531116	0.061222
548.745574	0.061422
548.960013	0.061497
549.174435	0.061386
549.388838	0.061332
549.603222	0.061191
549.817589	0.061622
550.031937	0.061708
550.246267	0.062034
550.460579	0.062714
550.674873	0.062563
550.889148	0.062789
551.103405	0.063209
551.317644	0.062873
551.531865	0.063016
551.746068	0.062461
551.960252	0.062839
552.174418	0.063124
552.388566	0.062959
552.602696	0.063704
552.816807	0.063579
553.030900	0.063218
553.244975	0.063776
553.459032	0.063706
553.673070	0.064230
553.887091	0.064069
554.101093	0.063728
554.315077	0.063518
554.529042	0.063092
554.742990	0.063140
554.956919	0.063917
555.170830	0.063865
555.384722	0.063642
555.598597	0.063471
555.812453	0.063452
556.026291	0.063684
556.240111	0.063937
556.453913	0.063491
556.667696	0.063311
556.881461	0.062983
557.095208	0.063131
557.308937	0.063517
557.522647	0.063584
557.736339	0.063980
557.950013	0.064068
558.163669	0.064108
558.377307	0.064571
558.590926	0.064903
558.804527	0.065055
559.018110	0.064996
559.231675	0.065262
559.445221	0.065407
559.658749	0.065248
559.872259	0.065312
560.085751	0.065095
560.299225	0.065232
560.512680	0.065371
560.726117	0.065608
560.939536	0.065729
561.152937	0.066006
561.366319	0.066165
561.579683	0.065931
561.793029	0.066007
562.006357	0.066361
562.219667	0.066397
562.432958	0.066259
562.646231	0.066328
562.859486	0.066428
563.072723	0.065766
563.285941	0.065747
563.499141	0.065801
563.712323	0.065872
563.925487	0.066081
564.138632	0.066305
564.351760	0.066509
564.564869	0.066534
564.777960	0.066405
564.991032	0.066615
565.204087	0.066641
565.417123	0.066831
565.630141	0.066934
565.843140	0.066897
566.056122	0.066984
566.269085	0.066849
566.482030	0.066661
566.694957	0.066622
566.907866	0.066910
567.120756	0.066805
567.333628	0.066900
567.546482	0.067063
567.759318	0.067323
567.972135	0.067466
568.184935	0.067814
568.397716	0.068106
568.610478	0.068548
568.823223	0.068292
569.035949	0.068509
569.248657	0.068972
569.461347	0.069188
569.674019	0.068913
569.886672	0.068548
570.099308	0.068589
570.311925	0.068407
570.524523	0.068223
570.737104	0.068610
570.949666	0.068533
571.162210	0.068627
571.374736	0.068506
571.587244	0.068779
571.799733	0.068948
572.012205	0.068953
572.224658	0.069122
572.437092	0.069301
572.649509	0.069685
572.861907	0.070230
573.074287	0.070193
573.286649	0.070443
573.498993	0.070485
573.711318	0.070605
573.923625	0.070670
574.135914	0.070993
574.348185	0.071392
574.560438	0.071105
574.772672	0.070865
574.984888	0.070689
575.197086	0.070574
575.409266	0.070662
575.621427	0.070577
575.833570	0.070767
576.045695	0.070478
576.257802	0.070292
576.469890	0.070344
576.681961	0.070470
576.894013	0.070621
577.106046	0.070874
577.318062	0.071038
577.530059	0.071414
577.742039	0.071523
577.954000	0.071926
578.165942	0.072028
578.377867	0.072270
578.589773	0.072731
578.801661	0.072805
579.013531	0.072418
579.225382	0.072681
579.437216	0.072964
579.649031	0.072584
579.860828	0.072676
580.072606	0.072657
580.284367	0.072722
580.496109	0.072254
580.707833	0.072420
580.919539	0.072716
581.131227	0.072562
581.342896	0.072517
581.554547	0.072666
581.766180	0.072449
581.977795	0.072371
582.189391	0.072244
582.400969	0.072700
582.612529	0.072797
582.824071	0.072737
583.035595	0.072654
583.247100	0.072433
583.458587	0.072996
583.670056	0.073135
583.881506	0.073519
584.092939	0.073767
584.304353	0.073668
584.515749	0.073687
584.727127	0.073775
584.938486	0.074204
585.149828	0.074504
585.361151	0.073963
585.572456	0.074100
585.783742	0.074229
585.995011	0.074141
586.206261	0.074482
586.417493	0.074570
586.628706	0.074621
586.839902	0.074463
587.051079	0.074276
587.262238	0.074804
587.473379	0.074806
587.684502	0.074700
587.895606	0.075044
588.106692	0.074473
588.317760	0.074715
588.528810	0.074977
588.739841	0.074880
588.950855	0.075252
589.161850	0.075174
589.372827	0.075503
589.583785	0.075410
589.794726	0.075149
590.005648	0.075456
590.216552	0.075537
590.427437	0.075519
590.638305	0.075653
590.849154	0.075778
591.059985	0.076080
591.270798	0.075864
591.481592	0.076055
591.692369	0.076171
591.903127	0.076312
592.113867	0.076157
592.324588	0.076117
592.535292	0.076115
592.745977	0.075965
592.956644	0.075865
593.167293	0.076045
593.377923	0.076442
593.588536	0.076570
593.799130	0.076786
594.009706	0.076880
594.220263	0.077232
594.430803	0.077636
594.641324	0.077619
594.851827	0.077867
595.062312	0.077842
595.272778	0.077844
595.483227	0.077832
595.693657	0.077953
595.904069	0.078122
596.114462	0.078213
596.324838	0.077970
596.535195	0.078404
596.745534	0.078314
596.955855	0.078822
597.166157	0.078790
597.376441	0.078976
597.586707	0.079259
597.796955	0.079362
598.007185	0.079559
598.217396	0.079798
598.427589	0.079674
598.637764	0.079778
598.847921	0.079763
599.058060	0.080029
599.268180	0.080203
599.478282	0.079883
599.688366	0.079732
599.898431	0.079469
600.108479	0.079641
600.318508	0.079753
600.528519	0.079757
600.738511	0.079701
600.948486	0.079277
601.158442	0.079398
601.368380	0.079528
601.578300	0.079868
601.788202	0.080066
601.998085	0.080067
602.207950	0.080067
602.417797	0.079972
602.627626	0.080328
602.837436	0.080680
603.047228	0.080674
603.257002	0.080658
603.466758	0.080951
603.676496	0.080978
603.886215	0.080891
604.095916	0.081156
604.305599	0.081603
604.515264	0.081520
604.724910	0.081773
604.934538	0.081655
605.144148	0.081773
605.353740	0.081625
605.563314	0.081756
605.772869	0.082059
605.982406	0.082033
606.191925	0.082195
606.401425	0.082187
606.610908	0.082136
606.820372	0.082515
607.029818	0.082671
607.239246	0.082533
607.448655	0.082713
607.658047	0.082822
607.867420	0.082815
608.076775	0.082585
608.286111	0.082590
608.495430	0.082566
608.704730	0.082513
608.914012	0.082441
609.123275	0.082525
609.332521	0.082250
609.541748	0.082159
609.750957	0.082196
609.960148	0.082183
610.169321	0.082380
610.378475	0.082463
610.587611	0.082364
610.796729	0.082455
611.005829	0.082521
611.214910	0.082626
611.423974	0.082593
611.633019	0.082597
611.842045	0.082832
612.051054	0.082807
612.260044	0.082764
612.469017	0.082860
612.677970	0.082804
612.886906	0.082806
613.095824	0.082948
613.304723	0.083157
613.513604	0.083199
613.722467	0.083086
613.931311	0.083022
614.140138	0.083104
614.348946	0.083321
614.557736	0.083379
614.766507	0.083639
614.975261	0.083983
615.183996	0.083862
615.392713	0.083935
615.601412	0.084036
615.810092	0.084063
616.018754	0.084090
616.227399	0.083971
616.436024	0.084248
616.644632	0.084208
616.853222	0.084398
617.061793	0.084728
617.270346	0.085019
617.478880	0.085256
617.687397	0.085398
617.895895	0.085558
618.104375	0.085735
618.312837	0.085657
618.521281	0.085860
618.729706	0.085502
618.938113	0.085649
619.146502	0.085418
619.354873	0.085373
619.563226	0.085274
619.771560	0.085423
619.979876	0.085304
620.188174	0.085498
620.396453	0.085196
620.604715	0.085222
620.812958	0.085093
621.021183	0.085307
621.229390	0.085431
621.437578	0.085530
621.645748	0.085686
621.853900	0.085804
622.062034	0.085817
622.270150	0.086241
622.478247	0.086372
622.686326	0.086067
622.894387	0.086006
623.102430	0.086138
623.310454	0.086244
623.518461	0.086116
623.726449	0.086454
623.934418	0.086433
624.142370	0.086264
624.350303	0.086386
624.558218	0.086545
624.766115	0.086660
624.973994	0.086742
625.181855	0.087073
625.389697	0.087157
625.597521	0.086857
625.805327	0.086953
626.013114	0.086882
626.220883	0.087011
626.428634	0.087250
626.636367	0.087116
626.844082	0.087019
627.051778	0.086838
627.259457	0.086761
627.467117	0.086982
627.674758	0.086978
627.882382	0.087593
628.089987	0.087776
628.297574	0.087765
628.505143	0.088231
628.712694	0.088421
628.920226	0.088447
629.127740	0.088864
629.335236	0.088800
629.542714	0.088664
629.750174	0.088290
629.957615	0.088185
630.165038	0.088424
630.372443	0.088308
630.579829	0.088204
630.787198	0.088108
630.994548	0.087899
631.201880	0.088142
631.409194	0.088422
631.616489	0.088531
631.823766	0.088534
632.031025	0.088620
632.238266	0.088781
632.445489	0.088800
632.652693	0.088877
632.859879	0.088868
633.067047	0.088984
633.274197	0.089357
633.481329	0.089577
633.688442	0.089824
633.895537	0.089844
634.102614	0.089899
634.309672	0.090029
634.516713	0.090116
634.723735	0.090299
634.930739	0.090324
635.137724	0.090290
635.344692	0.090384
635.551641	0.090367
635.758572	0.090368
635.965485	0.090361
636.172379	0.090619
636.379256	0.090929
636.586114	0.090837
636.792954	0.090812
636.999775	0.090791
637.206579	0.090737
637.413364	0.090892
637.620131	0.090899
637.826880	0.091003
638.033610	0.090945
638.240323	0.090945
638.447017	0.091286
638.653692	0.091438
638.860350	0.091407
639.066990	0.091402
639.273611	0.091470
639.480214	0.091534
639.686798	0.091597
639.893365	0.091712
640.099913	0.091645
640.306443	0.091718
640.512955	0.091719
640.719449	0.091899
640.925924	0.091988
641.132381	0.091818
641.338820	0.092018
641.545241	0.092089
641.751644	0.092293
641.958028	0.092346
642.164394	0.092238
642.370742	0.092225
642.577071	0.092466
642.783383	0.092641
642.989676	0.092846
643.195951	0.092808
643.402207	0.092789
643.608446	0.092675
643.814666	0.092888
644.020868	0.092980
644.227052	0.093214
644.433218	0.093222
644.639365	0.093255
644.845494	0.093208
645.051605	0.093505
645.257698	0.093705
645.463772	0.093870
645.669828	0.093937
645.875866	0.093902
646.081886	0.094040
646.287888	0.094020
646.493871	0.094169
646.699836	0.094378
646.905783	0.094364
647.111712	0.094284
647.317622	0.094410
647.523514	0.094527
647.729388	0.094805
647.935244	0.094689
648.141082	0.094597
648.346901	0.094579
648.552702	0.094692
648.758485	0.094591
648.964250	0.094744
649.169996	0.094652
649.375724	0.094786
649.581434	0.094807
649.787126	0.094869
649.992800	0.095158
650.198455	0.095454
650.404092	0.095481
650.609711	0.095799
650.815311	0.095861
651.020894	0.095989
651.226458	0.096002
651.432004	0.095998
651.637532	0.096203
651.843041	0.096238
652.048532	0.096036
652.254006	0.096009
652.459460	0.095926
652.664897	0.095956
652.870315	0.095949
653.075716	0.096035
653.281097	0.096256
653.486461	0.096198
653.691807	0.096468
653.897134	0.096633
654.102443	0.096845
654.307734	0.096997
654.513006	0.097078
654.718261	0.097228
654.923497	0.097341
655.128715	0.097268
655.333915	0.097554
655.539096	0.097299
655.744259	0.097377
655.949404	0.097416
656.154531	0.097521
656.359640	0.097569
656.564730	0.097605
656.769802	0.097543
656.974856	0.097654
657.179892	0.097655
657.384909	0.097902
657.589908	0.098009
657.794889	0.097965
657.999852	0.098109
658.204797	0.098288
658.409723	0.098655
658.614631	0.098764
658.819521	0.098917
659.024393	0.098969
659.229246	0.099090
659.434081	0.099185
659.638898	0.099512
659.843697	0.099572
660.048478	0.099824
660.253240	0.099758
660.457984	0.099995
660.662710	0.100138
660.867417	0.100202
661.072107	0.100101
661.276778	0.100081
661.481431	0.100003
661.686066	0.100092
661.890682	0.100272
662.095281	0.100237
662.299861	0.100449
662.504422	0.100438
662.708966	0.100516
662.913491	0.100793
663.117999	0.100948
663.322488	0.101036
663.526958	0.101023
663.731411	0.100726
663.935845	0.100961
664.140261	0.100848
664.344659	0.100965
664.549038	0.100988
664.753400	0.101058
664.957743	0.101140
665.162068	0.101163
665.366375	0.101279
665.570663	0.101383
665.774933	0.101253
665.979185	0.101218
666.183419	0.101276
666.387635	0.101426
666.591832	0.101327
666.796011	0.101520
667.000172	0.101774
667.204315	0.101926
667.408439	0.102109
667.612545	0.102410
667.816634	0.102704
668.020703	0.102805
668.224755	0.102816
668.428788	0.103153
668.632803	0.103280
668.836800	0.103345
669.040779	0.103349
669.244739	0.103372
669.448681	0.103440
669.652605	0.103656
669.856511	0.103802
670.060399	0.104028
670.264268	0.104007
670.468119	0.103994
670.671952	0.103984
670.875767	0.104174
671.079563	0.104557
671.283341	0.104553
671.487101	0.104559
671.690843	0.104761
671.894567	0.104903
672.098272	0.104927
672.301959	0.105068
672.505628	0.105195
672.709278	0.105314
672.912911	0.105284
673.116525	0.105412
673.320121	0.105433
673.523699	0.105360
673.727258	0.105408
673.930799	0.105650
674.134322	0.105804
674.337827	0.106034
674.541314	0.105958
674.744782	0.106183
674.948232	0.106435
675.151664	0.106577
675.355078	0.106813
675.558474	0.107042
675.761851	0.107245
675.965210	0.107343
676.168551	0.107467
676.371873	0.107888
676.575178	0.107933
676.778464	0.107784
676.981732	0.107725
677.184981	0.107660
677.388213	0.107785
677.591426	0.107743
677.794621	0.107722
677.997798	0.107495
678.200956	0.107461
678.404097	0.107637
678.607219	0.107811
678.810323	0.108129
679.013408	0.108296
679.216476	0.108412
679.419525	0.108620
679.622556	0.108799
679.825569	0.109193
680.028563	0.109200
680.231540	0.109189
680.434498	0.109392
680.637438	0.109410
680.840359	0.109686
681.043263	0.109674
681.246148	0.109599
681.449015	0.109570
681.651864	0.109633
681.854694	0.109713
682.057506	0.109746
682.260301	0.109822
682.463076	0.109907
682.665834	0.109898
682.868573	0.109933
683.071295	0.110140
683.273998	0.110202
683.476682	0.110343
683.679349	0.110446
683.881997	0.110638
684.084627	0.110762
684.287239	0.110786
684.489833	0.110893
684.692408	0.111200
684.894965	0.111125
685.097504	0.111328
685.300025	0.111356
685.502527	0.111469
685.705012	0.111568
685.907478	0.111598
686.109925	0.111782
686.312355	0.112056
686.514766	0.112147
686.717159	0.112457
686.919534	0.112399
687.121891	0.112443
687.324230	0.112552
687.526550	0.112516
687.728852	0.112466
687.931136	0.112457
688.133401	0.112347
688.335649	0.112265
688.537878	0.112245
688.740089	0.112650
688.942281	0.112907
689.144456	0.112766
689.346612	0.112804
689.548750	0.112803
689.750870	0.113037
689.952971	0.112986
690.155055	0.113097
690.357120	0.113122
690.559167	0.112979
690.761195	0.112956
690.963206	0.113252
691.165198	0.113368
691.367172	0.113649
691.569128	0.113460
691.771065	0.113884
691.972984	0.113979
692.174885	0.114110
692.376768	0.114209
692.578633	0.114195
692.780479	0.114300
692.982308	0.114506
693.184118	0.114607
693.385909	0.114911
693.587683	0.114692
