sample name	sample
index	920
start time	 04-12-2021  11:29:00 AM
880	0.538926
Peak Time (s)	121.035
Peak Height 	0.5389
calc peak height	120,123
Baseline Time (s)	8.539
Baseline Value 	-0.00264
subtract baseline	10,4
Abs	0.400823
Peak Time (s)	121.535
Peak Height 	0.4008
calc peak height	120,123
Baseline Time (s)	9.537
Baseline Value 	0.003092
subtract baseline	10,3
PK_550	0.228612
Peak Time (s)	121.035
Peak Height 	0.2286
calc peak height	120,123
Baseline Time (s)	11.537
Baseline Value 	7.147E-4
subtract baseline	10,2
PK_880	0.385016
Peak Time (s)	121.035
Peak Height 	0.385
calc peak height	120,123
Baseline Time (s)	9.537
Baseline Value 	0.002373
subtract baseline	10,1


Time (s)	A880-A510	A880-A775	A880-A975	A880	I510	I775	I975	I880	
0.039500	0.000158	-0.000529	0.002783	0.000450	7201.348238	43696.921473	3923.235725	23402.778832
0.536500	-0.003007	-0.000901	-0.000646	0.003363	7140.616999	43389.255036	3907.055023	23265.243883
1.037500	-0.002084	-0.000622	0.002537	0.003123	7152.176156	43437.684729	3915.758081	23276.543462
1.538000	-0.004828	-0.000952	-0.002056	0.005340	7103.102397	43200.480291	3898.507870	23172.415875
2.037500	-0.000882	-0.001031	-0.001276	-0.000564	7201.084100	43745.084857	3915.436355	23450.866715
2.535500	-0.001470	-0.000199	-0.001179	-0.000639	7195.927192	43830.606601	3915.878216	23454.441287
3.036000	-0.001640	-0.000491	0.002906	-0.001960	7207.502160	43927.752239	3929.764598	23517.264438
3.535500	-0.001464	-0.000003	-0.001921	0.000958	7179.960851	43698.573994	3909.919979	23378.708345
4.036000	-0.001975	-0.000722	0.002511	-0.000176	7186.209142	43737.686665	3924.145352	23432.452736
4.536500	-0.000867	-0.000152	0.000656	0.000119	7194.363761	43763.486228	3918.629045	23418.431495
5.037500	-0.002608	-0.001149	-0.001842	-0.000383	7181.934224	43716.927354	3913.530997	23442.264435
5.540000	-0.000496	-0.000837	-0.000432	0.000077	7198.520938	43703.041122	3915.956727	23420.462661
6.037500	-0.002212	-0.001386	-0.002231	-0.000650	7188.586578	43719.741229	3913.220478	23454.944897
6.535500	-0.000702	-0.000369	-0.001280	0.000175	7195.466656	43737.889510	3913.543925	23415.810663
7.035000	-0.001544	-0.001108	0.000474	-0.000543	7194.214201	43735.796765	3919.857540	23449.843975
7.535500	-0.003168	-0.000876	-0.001950	-0.000673	7179.232076	43769.913843	3913.995701	23456.048795
8.036000	0.000597	0.000016	0.003370	-0.000027	7210.567312	43793.092946	3925.973782	23425.387070
8.539000	-0.000084	-0.000284	0.005016	0.000000	7203.435597	43762.251502	3930.151977	23424.095677
9.036500	-0.000230	0.000060	-0.001409	0.000176	7200.198256	43778.111735	3913.211992	23415.769993
9.537000	0.000000	0.000190	0.000000	-0.000038	7204.661915	43810.522296	3917.352696	23425.895974
10.037000	0.000596	-0.000471	-0.000501	-0.000241	7212.714504	43767.366169	3916.592054	23435.530136
10.537500	-0.001323	-0.000644	0.002767	-0.000454	7195.538990	43771.117825	3925.519149	23445.635212
11.035000	0.000165	0.000037	0.001014	0.000115	7204.785831	43781.742084	3919.556333	23418.647448
11.537500	0.000268	0.000000	-0.000197	0.000164	7205.323494	43773.554299	3916.331196	23416.297968
12.035500	0.000781	-0.000209	-0.003374	-0.000252	7214.684765	43793.067147	3909.300954	23436.025627
12.536000	-0.002099	-0.000269	-0.000079	-0.000257	7185.773113	43787.863911	3917.711310	23436.278876
13.036000	0.002548	0.000376	0.005086	-0.002045	7250.762668	44017.802819	3935.635836	23521.299690
13.536000	0.000166	0.000068	0.000027	0.001293	7192.948801	43673.756194	3914.023122	23362.861474
14.036500	0.001163	0.000113	0.001630	-0.000055	7216.559272	43804.850142	3921.571687	23426.687064
14.537000	-0.001939	-0.000075	0.000878	0.002470	7160.113920	43549.980238	3913.192454	23307.300152
15.037000	-0.000553	-0.000555	0.002351	-0.000736	7206.120749	43806.058537	3925.174374	23459.009782
15.556000	-0.001898	0.000009	-0.001249	0.001588	7169.326818	43640.540221	3910.025241	23348.920940
16.035000	0.000437	-0.000070	0.000350	-0.000759	7216.340047	43854.005396	3920.094505	23460.122104
16.535500	0.000910	0.000240	0.001399	-0.000757	7221.087606	43883.092495	3922.779371	23460.011015
17.035500	0.002593	-0.000313	0.005448	-0.001645	7247.162769	43914.772001	3935.536805	23502.269666
17.535500	0.000128	-0.000610	0.006591	-0.003045	7236.348889	44019.115713	3942.164399	23569.012924
18.036000	-0.000576	-0.001482	-0.001242	-0.000449	7202.993441	43691.791371	3915.227948	23445.378114
18.536500	-0.001568	-0.000339	-0.002259	0.000459	7183.926225	43713.909736	3910.329529	23402.349429
19.037000	-0.000563	-0.000955	0.003008	0.000012	7198.495938	43698.057614	3924.941833	23423.527368
19.537500	-0.000857	-0.000788	-0.002996	0.000205	7193.592692	43695.522995	3909.101637	23414.355572
20.037000	-0.002298	-0.001028	-0.000605	0.000447	7176.727908	43650.361282	3914.570916	23402.916691
20.537500	-0.001537	-0.000182	0.006442	0.001284	7175.971316	43651.108266	3930.519904	23363.284018
21.040000	0.000847	-0.000190	0.001053	0.001397	7198.746290	43639.811895	3916.375814	23357.963269
21.535000	-0.001128	-0.000525	0.000100	0.001043	7182.482312	43641.535095	3914.846491	23374.698383
22.035500	0.000666	-0.000622	-0.002415	0.000663	7204.304148	43668.107021	3909.414566	23392.664912
22.536000	-0.001309	-0.000456	0.000932	0.000854	7182.554103	43665.844517	3917.455169	23383.640332
23.036000	-0.001831	-0.000763	0.003898	0.000787	7178.003337	43643.244507	3925.238461	23386.814440
23.536500	-0.001748	-0.000994	-0.001590	0.001114	7175.567007	43590.939120	3910.366195	23371.350052
24.037000	0.000088	-0.000456	-0.001613	0.001361	7191.484878	43618.185428	3909.679710	23359.650911
24.536500	-0.001079	-0.001436	-0.000611	0.000341	7190.007071	43621.956805	3914.825611	23407.933057
25.037500	-0.001112	-0.000836	0.000664	0.000858	7184.484639	43629.731922	3916.759148	23383.437980
25.535500	-0.002417	-0.001052	0.002585	0.000697	7173.035762	43624.584790	3922.093557	23391.065042
26.035000	-0.001457	-0.000146	-0.000299	0.001417	7175.442991	43642.112303	3912.877873	23357.025170
26.535500	-0.001650	-0.000156	0.003134	0.001093	7176.744756	43671.502406	3922.485308	23372.315366
27.036000	-0.000239	-0.000166	0.000516	0.001658	7185.217959	43617.575994	3914.339649	23345.622330
27.536000	0.000380	-0.000165	0.002700	-0.000452	7212.670876	43816.155502	3925.342673	23445.555979
28.036000	0.001570	-0.000165	0.003455	-0.001411	7234.392216	43906.594507	3929.765717	23491.115439
28.537000	-0.000108	-0.000600	0.001102	-0.000768	7210.932934	43804.880648	3922.046753	23460.548979
29.034500	-0.001174	-0.000379	0.000416	0.002214	7170.304364	43545.460815	3912.669156	23319.393587
29.537500	-0.002146	-0.000618	-0.001682	0.000598	7176.739271	43674.598211	3911.440213	23395.735995
30.037500	-0.000028	0.000179	0.001608	-0.000380	7207.817287	43841.770732	3922.348786	23442.110246
30.537500	0.001741	0.000248	0.003113	-0.000189	7223.753341	43830.293763	3925.729605	23433.077181
31.064500	-0.003337	0.000184	-0.004464	0.004104	7130.001000	43421.325493	3895.566277	23230.387381
31.535500	-0.002533	-0.000634	-0.003645	0.004031	7138.691354	43351.882703	3897.805083	23233.841033
32.039000	-0.001410	-0.000053	0.000799	0.001469	7175.386814	43645.869068	3915.543804	23354.535821
32.546500	-0.000841	-0.000348	0.003943	0.000312	7192.678438	43726.868240	3926.576952	23409.286476
33.036000	-0.002446	-0.000916	-0.001375	0.004157	7138.303893	43313.807204	3903.202151	23227.910184
33.537000	0.000588	-0.000333	-0.000361	0.001997	7190.113250	43570.081719	3911.243288	23329.594286
34.037500	0.000921	-0.000653	0.000852	0.000181	7211.733895	43710.488422	3918.972098	23415.491869
34.537000	-0.000971	-0.000462	0.001918	0.002780	7166.678624	43484.742257	3915.055294	23292.712008
35.043500	-0.001295	-0.000644	0.001745	0.002889	7162.362796	43457.559176	3914.337325	23287.577067
35.535500	-0.002251	-0.000898	-0.000868	0.002210	7159.597750	43497.242921	3909.414634	23319.545255
36.035000	-0.000191	-0.000616	0.002926	0.002796	7174.305065	43468.844139	3917.588834	23291.931145
36.536000	-0.001952	-0.001083	0.004692	0.002288	7161.806506	43472.700130	3923.417847	23315.898278
37.036000	-0.003914	-0.000997	0.002246	0.002512	7140.060512	43459.764167	3916.575373	23305.325657
37.536500	-0.000993	-0.000150	0.003263	0.002229	7171.967057	43565.547098	3919.902692	23318.681217
38.036500	-0.002064	-0.000672	-0.001659	0.002132	7162.244462	43525.670579	3907.607395	23323.247215
38.537000	-0.001606	-0.000434	0.001501	0.002041	7167.712051	43556.537713	3915.876942	23327.536173
39.037000	-0.002802	-0.000468	0.000907	0.002129	7154.918128	43545.062356	3914.136200	23323.398853
39.538000	-0.000618	-0.000775	0.005406	0.002033	7177.673437	43525.304109	3925.913447	23327.928274
40.035000	-0.000452	-0.000035	0.000626	0.002893	7170.731747	43514.108667	3911.474624	23287.356753
40.535500	-0.001803	-0.000563	0.000075	0.002372	7162.446790	43513.415846	3911.398727	23311.929437
41.036000	-0.003442	-0.001096	-0.002126	0.002056	7149.276028	43493.161635	3906.617380	23326.844738
41.536000	-0.001505	0.000189	-0.000821	0.002989	7159.265083	43526.043878	3907.558715	23282.842011
42.036000	-0.001376	-0.000471	-0.001563	0.002466	7165.768125	43513.258227	3907.002280	23307.477865
42.536000	-0.000361	-0.000270	0.006421	0.002578	7174.796334	43521.614159	3927.125262	23302.230843
43.037000	-0.001433	0.000016	0.005612	0.003241	7157.484057	43486.376229	3923.334980	23271.001527
43.537500	-0.004740	-0.000513	0.002030	0.003248	7124.595123	43436.215627	3914.146562	23270.644590
44.037500	-0.002723	-0.000071	0.000441	0.002441	7152.601513	43553.024627	3912.154499	23308.677576
44.537500	-0.000364	0.000136	0.000912	-0.000529	7205.936850	43851.724032	3920.944108	23449.173506
45.035500	-0.003576	-0.000394	-0.001241	0.004437	7124.353268	43336.438671	3902.834447	23214.777313
45.535500	-0.006011	-0.000592	-0.006144	0.005753	7087.439621	43195.586213	3887.256915	23153.106192
46.036000	0.001365	-0.000956	0.001061	-0.000009	7218.142863	43699.974541	3919.994200	23424.539339
46.536000	0.001156	0.000378	0.003430	-0.000208	7218.024925	43844.269846	3926.592428	23433.939866
47.036000	-0.002406	-0.000646	-0.000469	0.004513	7135.168680	43305.853063	3904.593453	23211.195280
47.537000	-0.005025	-0.000961	0.001141	0.004947	7105.028141	43236.135686	3907.567356	23190.836140
48.052000	0.000520	0.000183	0.001126	0.000555	7203.920393	43753.973995	3918.715751	23397.774014
48.534500	-0.000506	0.000310	0.002073	0.003000	7169.126615	43536.394411	3914.887598	23282.323332
49.037000	-0.003664	-0.000425	-0.000661	0.004276	7125.076460	43348.537086	3904.706152	23222.339134
49.554000	-0.002909	-0.000361	-0.002095	0.005771	7117.761489	43215.359292	3897.329862	23152.254519
50.035500	0.000739	0.000972	0.005510	0.000490	7206.786626	43834.417474	3930.163407	23400.855989
50.535500	0.000276	0.000645	0.001996	-0.000118	7208.252081	43860.985774	3922.672835	23429.696841
51.035500	-0.001591	0.000307	-0.002169	0.004440	7143.983296	43401.531338	3900.488434	23214.633948
51.536000	-0.010049	-0.001540	0.003028	0.010037	7006.661694	42712.589811	3899.482186	22953.589836
52.036500	-0.015286	-0.004890	0.005976	0.035737	6719.623341	40134.562727	3843.723670	21797.300581
52.537000	-0.124143	-0.020680	-0.048067	0.139301	5215.740539	31179.619373	3528.211402	17773.116175
53.036500	-0.158833	-0.020309	-0.123993	0.022120	5714.383977	39980.308701	3600.077289	22401.439732
53.537000	-0.130248	-0.043011	-0.074666	-0.190787	7858.289242	60375.319641	4257.575537	34784.341972
54.037500	-0.080453	-0.078938	-0.018147	-0.260157	9445.238522	64978.583545	4745.326238	40318.689976
54.535000	-0.052325	-0.120605	0.001381	-0.305697	10667.783620	65535.000000	5058.616691	44463.275640
55.035500	-0.034140	-0.073863	0.011008	-0.256452	10126.959099	65174.903974	4862.311499	40000.265168
55.535500	-0.010821	-0.037692	0.023156	-0.206196	9688.218419	63186.531218	4689.649091	35938.457335
56.036000	0.005881	-0.008315	0.030630	-0.126453	8761.851941	56581.668920	4401.050362	30384.733285
56.536000	0.013838	0.001165	0.030622	-0.068350	8115.193577	50892.436196	4201.415218	26934.211029
57.036500	0.029760	0.010703	0.030664	-0.047544	8056.121968	49662.474803	4136.318473	25806.669829
57.537000	0.052494	0.020827	0.047806	-0.036233	8195.348662	49534.733413	4154.284553	25215.975125
58.037000	0.066809	0.027678	0.055657	-0.015036	8111.023553	48018.292337	4113.512053	24149.570305
58.537500	0.081400	0.035706	0.065256	0.034302	7705.111084	43921.482205	3999.273869	21860.061043
59.034500	0.087909	0.041495	0.080092	0.055893	7538.782372	42454.657556	3980.872556	20937.115461
59.535000	0.104421	0.051723	0.098035	0.103111	7217.489782	39222.582543	3904.357005	19071.708071
60.035000	0.119134	0.060439	0.114304	0.137268	7025.477173	37154.103755	3860.076046	17843.240016
60.536000	0.130795	0.065150	0.132082	0.169777	6828.928325	35028.297382	3824.957356	16760.463543
61.036000	0.139449	0.074832	0.139062	0.194399	6684.627186	33940.715447	3784.433388	15992.624565
61.536500	0.158662	0.083239	0.157454	0.204103	6769.914179	33848.023735	3804.184175	15701.778795
62.036500	0.167776	0.090001	0.167363	0.236281	6566.233369	32087.028571	3754.341670	14782.544201
62.537500	0.183712	0.099047	0.187875	0.264891	6458.831944	30799.996638	3736.842170	14020.531867
63.034500	0.195088	0.105738	0.193229	0.294332	6311.065790	29374.527462	3686.677578	13287.065662
63.540000	0.212992	0.114577	0.213716	0.309868	6330.087550	28968.912207	3696.763298	12919.591928
64.035000	0.226706	0.121514	0.226253	0.334250	6245.205410	27941.253268	3672.824488	12368.749998
64.534500	0.226699	0.124051	0.239083	0.371981	5961.124944	25989.492384	3624.578405	11574.993549
65.036000	0.227931	0.129062	0.242905	0.411101	5699.710852	24243.050657	3560.760712	10821.717054
65.536000	0.251380	0.138555	0.260685	0.361156	6227.705579	27378.118424	3687.959711	11795.718578
66.036500	0.269567	0.149599	0.276151	0.390450	6141.960768	26369.428488	3660.351872	11210.897931
66.536000	0.277190	0.152639	0.283138	0.391924	6189.160267	26454.344203	3671.251579	11182.498420
67.037000	0.278313	0.157437	0.289030	0.397118	6157.833233	26432.855579	3672.641161	11083.197755
67.537000	0.290968	0.163825	0.305884	0.409232	6161.986557	26124.199596	3682.143937	10856.182807
68.040000	0.296413	0.167754	0.312270	0.420277	6119.313910	25746.248424	3672.803142	10654.616732
68.534500	0.298848	0.172493	0.319855	0.424462	6106.097445	25775.445900	3679.608950	10579.578739
69.035500	0.301547	0.176184	0.323563	0.431099	6076.549857	25620.629077	3673.745080	10462.062421
69.535500	0.306317	0.179931	0.332160	0.431403	6110.085745	25801.700776	3690.453436	10456.719890
70.035000	0.305547	0.180871	0.342328	0.438176	6053.646371	25495.754938	3697.386523	10338.701764
70.536000	0.307773	0.186445	0.340833	0.423801	6179.180303	26559.382184	3724.188792	10591.398593
71.036500	0.313764	0.189659	0.349985	0.427337	6198.145243	26541.792616	3736.123977	10528.450337
71.537000	0.316918	0.193231	0.350133	0.432069	6185.942690	26478.649066	3726.368537	10445.028424
72.037000	0.320455	0.194866	0.352837	0.418068	6324.153446	27344.177238	3762.419025	10694.528881
72.537000	0.320932	0.195121	0.357912	0.403478	6447.441714	28195.299612	3806.675644	10963.229414
73.037000	0.336344	0.207330	0.352150	0.443182	6250.757191	26641.557011	3707.315218	10252.644218
73.535500	0.351219	0.210424	0.357815	0.430633	6473.608332	27513.493719	3745.873701	10470.250459
74.035000	0.358263	0.213917	0.360060	0.420305	6622.230240	28310.404858	3773.450745	10654.122959
74.535500	0.363642	0.213688	0.356830	0.408717	6773.228992	28984.581241	3792.230279	10865.693942
75.043500	0.370503	0.217468	0.360971	0.399031	6926.299736	29807.095176	3824.101746	11046.931017
75.536000	0.371837	0.218162	0.365405	0.392198	7004.026148	30278.105060	3850.833921	11177.240567
76.039500	0.371342	0.218837	0.360843	0.386607	7053.263103	30676.412798	3853.309313	11285.396608
76.536500	0.375460	0.220351	0.359197	0.382631	7132.677950	31030.215425	3858.938164	11363.163244
77.037000	0.375190	0.220951	0.360554	0.384063	7115.855212	30976.259092	3858.754613	11335.065198
77.540000	0.380881	0.221531	0.368371	0.377051	7243.014633	31471.968269	3895.285882	11473.508613
78.035000	0.380790	0.221144	0.367954	0.375718	7255.644174	31534.339621	3897.583439	11500.073504
78.535000	0.383725	0.222499	0.363717	0.375451	7288.378311	31641.559575	3887.661198	11505.404365
79.035500	0.380668	0.222095	0.366725	0.379585	7215.205332	31342.536968	3884.863117	11423.227187
79.535500	0.384836	0.223460	0.367234	0.374683	7307.706305	31756.403509	3898.374739	11520.763383
80.036000	0.385761	0.222998	0.368999	0.374428	7319.879905	31742.629594	3903.464660	11525.873570
80.536500	0.386051	0.224173	0.369388	0.375221	7314.678084	31767.980765	3902.443316	11509.999332
81.036500	0.385405	0.224341	0.367420	0.378961	7269.636203	31531.276611	3888.140326	11435.573900
81.536500	0.386802	0.223683	0.372041	0.377272	7301.281921	31599.432051	3903.962414	11469.099393
82.037000	0.385998	0.223693	0.367732	0.377281	7292.919442	31599.450380	3893.111095	11468.921497
82.537500	0.388215	0.224534	0.371849	0.379155	7296.446761	31531.227300	3898.736193	11431.732576
83.035000	0.385863	0.224817	0.368741	0.385621	7206.712267	31126.041119	3874.931408	11304.609706
83.535000	0.389205	0.226708	0.376749	0.384863	7248.210623	31298.961984	3896.706035	11319.419150
84.036000	0.389447	0.227338	0.376639	0.386780	7231.213226	31214.808084	3891.632483	11282.022554
84.535500	0.389050	0.227097	0.374538	0.389120	7203.575670	31046.865361	3880.598061	11236.604024
85.036500	0.390545	0.226723	0.373305	0.395634	7153.349804	30603.467156	3861.617539	11111.460942
85.536000	0.389804	0.227016	0.377707	0.394613	7156.131056	30687.469371	3874.867924	11130.951324
86.036500	0.390570	0.226972	0.375547	0.397775	7132.342763	30482.852905	3861.862697	11070.729397
86.537000	0.388398	0.225490	0.379645	0.400776	7081.421425	30199.282570	3864.529007	11013.983464
87.040500	0.386578	0.226357	0.374551	0.406650	7006.793960	29885.982028	3838.155601	10904.029112
87.535000	0.388001	0.224232	0.375698	0.408603	7001.711757	29633.481361	3836.245647	10867.815738
88.035500	0.389249	0.226183	0.378820	0.411502	6985.891961	29575.179374	3836.774282	10814.340353
88.535500	0.387870	0.224251	0.378860	0.414256	6946.538821	29288.513307	3830.358263	10763.859615
89.036000	0.388797	0.225520	0.377732	0.422655	6876.360439	28858.306444	3808.155753	10611.904795
89.536000	0.388644	0.224426	0.373598	0.423738	6864.864328	28728.354186	3796.200291	10592.518072
90.036500	0.389534	0.225366	0.385190	0.427153	6841.487163	28581.360857	3815.001618	10531.721062
90.536500	0.391725	0.226753	0.381563	0.431947	6817.522928	28380.405996	3795.645353	10447.164387
91.037000	0.390537	0.226176	0.383328	0.438395	6748.061413	27971.090335	3785.041137	10334.905349
91.537500	0.389307	0.226264	0.383433	0.439476	6727.276167	27913.774689	3782.848551	10316.255359
92.035000	0.391925	0.226273	0.385989	0.443459	6715.052763	27685.614902	3779.645051	10247.904472
92.535000	0.391630	0.226462	0.383737	0.447036	6680.584685	27492.741568	3766.679037	10187.057199
93.035000	0.390381	0.225903	0.385515	0.452414	6622.306527	27158.419104	3758.758345	10096.518059
93.535500	0.390772	0.225914	0.386337	0.454434	6608.114295	27046.311976	3756.136361	10062.800893
94.036000	0.390461	0.225895	0.386812	0.457271	6580.846857	26887.863871	3750.988738	10015.708078
94.536000	0.393670	0.227126	0.389105	0.462400	6564.303079	26673.203594	3744.843491	9931.333691
95.036000	0.388493	0.226028	0.386801	0.466403	6486.242518	26395.266136	3731.322781	9866.187775
95.536500	0.395346	0.227783	0.392718	0.469256	6520.043433	26335.820171	3737.866905	9820.105245
96.036500	0.393448	0.228067	0.387870	0.472631	6475.545390	26169.398626	3720.408425	9766.001596
96.539500	0.393738	0.227677	0.384693	0.475293	6455.693420	26006.221642	3708.210644	9723.614472
97.034500	0.389290	0.226414	0.387843	0.478942	6388.760877	25745.988138	3707.174651	9665.933967
