sample name	sample
index	342
start time	 03-01-2021  11:15:00 AM


Wavelength (nm)	Absorbance
494.344910	-0.066673
494.563924	-0.066673
494.782919	-0.066673
495.001897	0.301030
495.220856	-0.066995
495.439797	-0.066402
495.658719	-0.066528
495.877624	-0.056276
496.096510	-0.095075
496.315378	-0.061568
496.534227	-0.045318
496.753059	-0.015114
496.971872	-0.018927
497.190667	0.258769
497.409444	0.290345
497.628203	0.300864
497.846943	0.305123
498.065665	0.306244
498.284369	0.306707
498.503055	0.309132
498.721723	0.308870
498.940372	0.310403
499.159003	0.308161
499.377616	0.307971
499.596210	0.307074
499.814787	0.307160
500.033345	0.306721
500.251885	0.307148
500.470406	0.305971
500.688910	0.304150
500.907395	0.304131
501.125862	0.304016
501.344311	0.304583
501.562742	0.304105
501.781154	0.301811
501.999548	0.301240
502.217924	0.298775
502.436282	0.298213
502.654621	0.298471
502.872942	0.296760
503.091245	0.295511
503.309530	0.292722
503.527797	0.292016
503.746045	0.291241
503.964275	0.291040
504.182487	0.292244
504.400681	0.291762
504.618856	0.291302
504.837013	0.291125
505.055152	0.291329
505.273273	0.291746
505.491376	0.291518
505.709460	0.291321
505.927526	0.290411
506.145574	0.289349
506.363604	0.288732
506.581615	0.288725
506.799608	0.287826
507.017583	0.286979
507.235540	0.286392
507.453478	0.284664
507.671399	0.284125
507.889301	0.283538
508.107185	0.282400
508.325050	0.281641
508.542898	0.280788
508.760727	0.280004
508.978538	0.278966
509.196330	0.278356
509.414105	0.277664
509.631861	0.276866
509.849599	0.276507
510.067319	0.276411
510.285021	0.274908
510.502704	0.274011
510.720369	0.272902
510.938016	0.271905
511.155645	0.271101
511.373255	0.271647
511.590848	0.271862
511.808422	0.271439
512.025977	0.270792
512.243515	0.270516
512.461034	0.269873
512.678536	0.270069
512.896018	0.269875
513.113483	0.269784
513.330930	0.268723
513.548358	0.267683
513.765768	0.266827
513.983160	0.266311
514.200533	0.265761
514.417889	0.265561
514.635226	0.265122
514.852545	0.264695
515.069845	0.263876
515.287128	0.264033
515.504392	0.263640
515.721638	0.262483
515.938866	0.262109
516.156075	0.262129
516.373267	0.262037
516.590440	0.260491
516.807594	0.260109
517.024731	0.260273
517.241850	0.259308
517.458950	0.258507
517.676032	0.259048
517.893095	0.258171
518.110141	0.258128
518.327168	0.256922
518.544177	0.256777
518.761168	0.256617
518.978141	0.255756
519.195095	0.255352
519.412031	0.255605
519.628949	0.255137
519.845849	0.255426
520.062731	0.254771
520.279594	0.254632
520.496439	0.255522
520.713266	0.255664
520.930074	0.256322
521.146865	0.256378
521.363637	0.256022
521.580391	0.255537
521.797127	0.255344
522.013844	0.255398
522.230543	0.255647
522.447224	0.254878
522.663887	0.254096
522.880532	0.252635
523.097158	0.252747
523.313766	0.252204
523.530356	0.253108
523.746928	0.252213
523.963481	0.251655
524.180017	0.250862
524.396534	0.250698
524.613032	0.250869
524.829513	0.251417
525.045975	0.250460
525.262420	0.250995
525.478845	0.249748
525.695253	0.250613
525.911643	0.249949
526.128014	0.250499
526.344367	0.250136
526.560702	0.250193
526.777018	0.249900
526.993316	0.249907
527.209597	0.249175
527.425858	0.249268
527.642102	0.248408
527.858328	0.249126
528.074535	0.248997
528.290724	0.248758
528.506894	0.247739
528.723047	0.248141
528.939181	0.248209
529.155297	0.247621
529.371395	0.247586
529.587475	0.247889
529.803536	0.247468
530.019579	0.247180
530.235604	0.247950
530.451611	0.248475
530.667600	0.247529
530.883570	0.247038
531.099522	0.247591
531.315456	0.247547
531.531372	0.246973
531.747269	0.246841
531.963148	0.246948
532.179009	0.245982
532.394852	0.245571
532.610676	0.245740
532.826482	0.245951
533.042271	0.245574
533.258040	0.245545
533.473792	0.245932
533.689525	0.245900
533.905240	0.246035
534.120937	0.246520
534.336616	0.246723
534.552277	0.246209
534.767919	0.246576
534.983543	0.246872
535.199149	0.246921
535.414736	0.246811
535.630306	0.246540
535.845857	0.246233
536.061390	0.246647
536.276904	0.247208
536.492401	0.247562
536.707879	0.247476
536.923339	0.247349
537.138781	0.247358
537.354204	0.247309
537.569610	0.247550
537.784997	0.247035
538.000366	0.246277
538.215716	0.245793
538.431049	0.245763
538.646363	0.245515
538.861659	0.245982
539.076937	0.246232
539.292196	0.246300
539.507438	0.246600
539.722661	0.246880
539.937866	0.247074
540.153052	0.247060
540.368221	0.247391
540.583371	0.246848
540.798503	0.246500
541.013617	0.246325
541.228712	0.246361
541.443789	0.246437
541.658848	0.246464
541.873889	0.246116
542.088912	0.246460
542.303916	0.246579
542.518902	0.247126
542.733870	0.246961
542.948820	0.246652
543.163752	0.247220
543.378665	0.246933
543.593560	0.246998
543.808437	0.247875
544.023295	0.247529
544.238136	0.247358
544.452958	0.247547
544.667762	0.247898
544.882548	0.248109
545.097315	0.247899
545.312064	0.247716
545.526795	0.247896
545.741508	0.247485
545.956203	0.247825
546.170879	0.247812
546.385537	0.247876
546.600177	0.247680
546.814799	0.247666
547.029402	0.247345
547.243988	0.247184
547.458555	0.247203
547.673103	0.247096
547.887634	0.246672
548.102146	0.246993
548.316640	0.246650
548.531116	0.247086
548.745574	0.247601
548.960013	0.247096
549.174435	0.247491
549.388838	0.247290
549.603222	0.247537
549.817589	0.248187
550.031937	0.247902
550.246267	0.248062
550.460579	0.247670
550.674873	0.247251
550.889148	0.247935
551.103405	0.247657
551.317644	0.247885
551.531865	0.248059
551.746068	0.248028
551.960252	0.248314
552.174418	0.248377
552.388566	0.248429
552.602696	0.248478
552.816807	0.248428
553.030900	0.248794
553.244975	0.248966
553.459032	0.249238
553.673070	0.249096
553.887091	0.248687
554.101093	0.249091
554.315077	0.249576
554.529042	0.249724
554.742990	0.249754
554.956919	0.249694
555.170830	0.249994
555.384722	0.249805
555.598597	0.249525
555.812453	0.249800
556.026291	0.249566
556.240111	0.249479
556.453913	0.249979
556.667696	0.249979
556.881461	0.250525
557.095208	0.249725
557.308937	0.249573
557.522647	0.250137
557.736339	0.250075
557.950013	0.249932
558.163669	0.249443
558.377307	0.248839
558.590926	0.248914
558.804527	0.248452
559.018110	0.249066
559.231675	0.249237
559.445221	0.248866
559.658749	0.249158
559.872259	0.249447
560.085751	0.249795
560.299225	0.249980
560.512680	0.250260
560.726117	0.250578
560.939536	0.250459
561.152937	0.250377
561.366319	0.250265
561.579683	0.250744
561.793029	0.250351
562.006357	0.250700
562.219667	0.250759
562.432958	0.250497
562.646231	0.250808
562.859486	0.250939
563.072723	0.251234
563.285941	0.251280
563.499141	0.250819
563.712323	0.251369
563.925487	0.251290
564.138632	0.251297
564.351760	0.251549
564.564869	0.251457
564.777960	0.251787
564.991032	0.251754
565.204087	0.252339
565.417123	0.252322
565.630141	0.252202
565.843140	0.252492
566.056122	0.252598
566.269085	0.252628
566.482030	0.252421
566.694957	0.252425
566.907866	0.251978
567.120756	0.252154
567.333628	0.251904
567.546482	0.252242
567.759318	0.251894
567.972135	0.252119
568.184935	0.251879
568.397716	0.252192
568.610478	0.252134
568.823223	0.252069
569.035949	0.251917
569.248657	0.252345
569.461347	0.252725
569.674019	0.252742
569.886672	0.252862
570.099308	0.252964
570.311925	0.252925
570.524523	0.253288
570.737104	0.254017
570.949666	0.253910
571.162210	0.254041
571.374736	0.253492
571.587244	0.253863
571.799733	0.253758
572.012205	0.254347
572.224658	0.254434
572.437092	0.254088
572.649509	0.253937
572.861907	0.254433
573.074287	0.254397
573.286649	0.254597
573.498993	0.254565
573.711318	0.254776
573.923625	0.254715
574.135914	0.254728
574.348185	0.255182
574.560438	0.255403
574.772672	0.255398
574.984888	0.255652
575.197086	0.255518
575.409266	0.255711
575.621427	0.255588
575.833570	0.255426
576.045695	0.255712
576.257802	0.255583
576.469890	0.255519
576.681961	0.255692
576.894013	0.255882
577.106046	0.256358
577.318062	0.256311
577.530059	0.256821
577.742039	0.257417
577.954000	0.257113
578.165942	0.257458
578.377867	0.257517
578.589773	0.257125
578.801661	0.257162
579.013531	0.257389
579.225382	0.257993
579.437216	0.258107
579.649031	0.257876
579.860828	0.258299
580.072606	0.257963
580.284367	0.258312
580.496109	0.258842
580.707833	0.259111
580.919539	0.259076
581.131227	0.258559
581.342896	0.258583
581.554547	0.258999
581.766180	0.258768
581.977795	0.259279
582.189391	0.259503
582.400969	0.259195
582.612529	0.259316
582.824071	0.259584
583.035595	0.259924
583.247100	0.260140
583.458587	0.259387
583.670056	0.260198
583.881506	0.260233
584.092939	0.260136
584.304353	0.260728
584.515749	0.260770
584.727127	0.260932
584.938486	0.261370
585.149828	0.261271
585.361151	0.261984
585.572456	0.261973
585.783742	0.261930
585.995011	0.262439
586.206261	0.262394
586.417493	0.262473
586.628706	0.262399
586.839902	0.262383
587.051079	0.262523
587.262238	0.263025
587.473379	0.262855
587.684502	0.263230
587.895606	0.263226
588.106692	0.263637
588.317760	0.263816
588.528810	0.263491
588.739841	0.263322
588.950855	0.263767
589.161850	0.263705
589.372827	0.263811
589.583785	0.264081
589.794726	0.264055
590.005648	0.263676
590.216552	0.263592
590.427437	0.264125
590.638305	0.264537
590.849154	0.264014
591.059985	0.263990
591.270798	0.264356
591.481592	0.263933
591.692369	0.264195
591.903127	0.264438
592.113867	0.265071
592.324588	0.265464
592.535292	0.265718
592.745977	0.266020
592.956644	0.266410
593.167293	0.266504
593.377923	0.267158
593.588536	0.267468
593.799130	0.267778
594.009706	0.267493
594.220263	0.267374
594.430803	0.267615
594.641324	0.267990
594.851827	0.268178
595.062312	0.268290
595.272778	0.268162
595.483227	0.267946
595.693657	0.268356
595.904069	0.268593
596.114462	0.268854
596.324838	0.268749
596.535195	0.268723
596.745534	0.268652
596.955855	0.269274
597.166157	0.269216
597.376441	0.269875
597.586707	0.269693
597.796955	0.269971
598.007185	0.269836
598.217396	0.270157
598.427589	0.270500
598.637764	0.270975
598.847921	0.270443
599.058060	0.270986
599.268180	0.270683
599.478282	0.270878
599.688366	0.271003
599.898431	0.271295
600.108479	0.271044
600.318508	0.270806
600.528519	0.270776
600.738511	0.271066
600.948486	0.271122
601.158442	0.271440
601.368380	0.271932
601.578300	0.272102
601.788202	0.272575
601.998085	0.273026
602.207950	0.273400
602.417797	0.273445
602.627626	0.273697
602.837436	0.273519
603.047228	0.273609
603.257002	0.273437
603.466758	0.273447
603.676496	0.273514
603.886215	0.273368
604.095916	0.273690
604.305599	0.273704
604.515264	0.274037
604.724910	0.274408
604.934538	0.274697
605.144148	0.274885
605.353740	0.274822
605.563314	0.274818
605.772869	0.275408
605.982406	0.275501
606.191925	0.275750
606.401425	0.275985
606.610908	0.276249
606.820372	0.276444
607.029818	0.276732
607.239246	0.277151
607.448655	0.277167
607.658047	0.277093
607.867420	0.277422
608.076775	0.277622
608.286111	0.277718
608.495430	0.277779
608.704730	0.277981
608.914012	0.278366
609.123275	0.278455
609.332521	0.278704
609.541748	0.278785
609.750957	0.278768
609.960148	0.278504
610.169321	0.278380
610.378475	0.278395
610.587611	0.277907
610.796729	0.277590
611.005829	0.277692
611.214910	0.277553
611.423974	0.277775
611.633019	0.277827
611.842045	0.278055
612.051054	0.277983
612.260044	0.278310
612.469017	0.279027
612.677970	0.279129
612.886906	0.279372
613.095824	0.279610
613.304723	0.279860
613.513604	0.279762
613.722467	0.279926
613.931311	0.280534
614.140138	0.280636
614.348946	0.280721
614.557736	0.280735
614.766507	0.280641
614.975261	0.280925
615.183996	0.280895
615.392713	0.281383
615.601412	0.281641
615.810092	0.281622
616.018754	0.281807
616.227399	0.281930
616.436024	0.281972
616.644632	0.282043
616.853222	0.282050
617.061793	0.282402
617.270346	0.282217
617.478880	0.282164
617.687397	0.281951
617.895895	0.281905
618.104375	0.282064
618.312837	0.282314
618.521281	0.282460
618.729706	0.282687
618.938113	0.282281
619.146502	0.282505
619.354873	0.283012
619.563226	0.283447
619.771560	0.283485
619.979876	0.283476
620.188174	0.283749
620.396453	0.283837
620.604715	0.283893
620.812958	0.284428
621.021183	0.284628
621.229390	0.284603
621.437578	0.284628
621.645748	0.285112
621.853900	0.284963
622.062034	0.285053
622.270150	0.285382
622.478247	0.285670
622.686326	0.285366
622.894387	0.285695
623.102430	0.285727
623.310454	0.286028
623.518461	0.285971
623.726449	0.286314
623.934418	0.286799
624.142370	0.287025
624.350303	0.286852
624.558218	0.287308
624.766115	0.287143
624.973994	0.287605
625.181855	0.287697
625.389697	0.287930
625.597521	0.288127
625.805327	0.287966
626.013114	0.288070
626.220883	0.288487
626.428634	0.288776
626.636367	0.289091
626.844082	0.289113
627.051778	0.289165
627.259457	0.289193
627.467117	0.289357
627.674758	0.289494
627.882382	0.289662
628.089987	0.289835
628.297574	0.289821
628.505143	0.289916
628.712694	0.290084
628.920226	0.289889
629.127740	0.290144
629.335236	0.290094
629.542714	0.290197
629.750174	0.290117
629.957615	0.290209
630.165038	0.290342
630.372443	0.290467
630.579829	0.290817
630.787198	0.291238
630.994548	0.291492
631.201880	0.291641
631.409194	0.291573
631.616489	0.291836
631.823766	0.291820
632.031025	0.291912
632.238266	0.292201
632.445489	0.292362
632.652693	0.292548
632.859879	0.292359
633.067047	0.292584
633.274197	0.293079
633.481329	0.293325
633.688442	0.293641
633.895537	0.293954
634.102614	0.294001
634.309672	0.293521
634.516713	0.293540
634.723735	0.293815
634.930739	0.294054
635.137724	0.293945
635.344692	0.294265
635.551641	0.294344
635.758572	0.294422
635.965485	0.294302
636.172379	0.294592
636.379256	0.294712
636.586114	0.295030
636.792954	0.295107
636.999775	0.295317
637.206579	0.295112
637.413364	0.295289
637.620131	0.295404
637.826880	0.295938
638.033610	0.296259
638.240323	0.296480
638.447017	0.296547
638.653692	0.296603
638.860350	0.296990
639.066990	0.297254
639.273611	0.297422
639.480214	0.297546
639.686798	0.297343
639.893365	0.297323
640.099913	0.297449
640.306443	0.297433
640.512955	0.297866
640.719449	0.297824
640.925924	0.297838
641.132381	0.297742
641.338820	0.297925
641.545241	0.298236
641.751644	0.298438
641.958028	0.298690
642.164394	0.298919
642.370742	0.298767
642.577071	0.298862
642.783383	0.299106
642.989676	0.299607
643.195951	0.299859
643.402207	0.300216
643.608446	0.300336
643.814666	0.300507
644.020868	0.300622
644.227052	0.301029
644.433218	0.301028
644.639365	0.301162
644.845494	0.301145
645.051605	0.301399
645.257698	0.301464
645.463772	0.301724
645.669828	0.301786
645.875866	0.301985
646.081886	0.301878
646.287888	0.302142
646.493871	0.302389
646.699836	0.302726
646.905783	0.302679
647.111712	0.302891
647.317622	0.303037
647.523514	0.303233
647.729388	0.303412
647.935244	0.303534
648.141082	0.304052
648.346901	0.303997
648.552702	0.304007
648.758485	0.303953
648.964250	0.303908
649.169996	0.304043
649.375724	0.303940
649.581434	0.304162
649.787126	0.304304
649.992800	0.304042
650.198455	0.304143
650.404092	0.304182
650.609711	0.304601
650.815311	0.304696
651.020894	0.304701
651.226458	0.305022
651.432004	0.305171
651.637532	0.305726
651.843041	0.305841
652.048532	0.306323
652.254006	0.306735
652.459460	0.306861
652.664897	0.307007
652.870315	0.307232
653.075716	0.307359
653.281097	0.307630
653.486461	0.307512
653.691807	0.307618
653.897134	0.307681
654.102443	0.307843
654.307734	0.307890
654.513006	0.308295
654.718261	0.308487
654.923497	0.308732
655.128715	0.308831
655.333915	0.308967
655.539096	0.309210
655.744259	0.309307
655.949404	0.309345
656.154531	0.309572
656.359640	0.309372
656.564730	0.309578
656.769802	0.309653
656.974856	0.309647
657.179892	0.309828
657.384909	0.310232
657.589908	0.310384
657.794889	0.310451
657.999852	0.310755
658.204797	0.311192
658.409723	0.311492
658.614631	0.311907
658.819521	0.311900
659.024393	0.312417
659.229246	0.312290
659.434081	0.312615
659.638898	0.312590
659.843697	0.312470
660.048478	0.312710
660.253240	0.312645
660.457984	0.312653
660.662710	0.313067
660.867417	0.313016
661.072107	0.313449
661.276778	0.313425
661.481431	0.313773
661.686066	0.314175
661.890682	0.314205
662.095281	0.314659
662.299861	0.314717
662.504422	0.314815
662.708966	0.314761
662.913491	0.315002
663.117999	0.315116
663.322488	0.315425
663.526958	0.315623
663.731411	0.315839
663.935845	0.315692
664.140261	0.316023
664.344659	0.316393
664.549038	0.316528
664.753400	0.316284
664.957743	0.316312
665.162068	0.316539
665.366375	0.316667
665.570663	0.316725
665.774933	0.316932
665.979185	0.317057
666.183419	0.317072
666.387635	0.317448
666.591832	0.317766
666.796011	0.318232
667.000172	0.318467
667.204315	0.318573
667.408439	0.318658
667.612545	0.318793
667.816634	0.319190
668.020703	0.319367
668.224755	0.319560
668.428788	0.319551
668.632803	0.319617
668.836800	0.319739
669.040779	0.319895
669.244739	0.320266
669.448681	0.320711
669.652605	0.320778
669.856511	0.321182
670.060399	0.321335
670.264268	0.321734
670.468119	0.322082
670.671952	0.322454
670.875767	0.322791
671.079563	0.323046
671.283341	0.323175
671.487101	0.323390
671.690843	0.323369
671.894567	0.323777
672.098272	0.323990
672.301959	0.324088
672.505628	0.323804
672.709278	0.323978
672.912911	0.323940
673.116525	0.323922
673.320121	0.323980
673.523699	0.324171
673.727258	0.324139
673.930799	0.324270
674.134322	0.324344
674.337827	0.324826
674.541314	0.324851
674.744782	0.325246
674.948232	0.325502
675.151664	0.325771
675.355078	0.325857
675.558474	0.326162
675.761851	0.326402
675.965210	0.326811
676.168551	0.326575
676.371873	0.326823
676.575178	0.326936
676.778464	0.327118
676.981732	0.327318
677.184981	0.327413
677.388213	0.327557
677.591426	0.328016
677.794621	0.328171
677.997798	0.328511
678.200956	0.328618
678.404097	0.328948
678.607219	0.328866
678.810323	0.329050
679.013408	0.329202
679.216476	0.329345
679.419525	0.329081
679.622556	0.329454
679.825569	0.329894
680.028563	0.329961
680.231540	0.329887
680.434498	0.330484
680.637438	0.330632
680.840359	0.330697
681.043263	0.330669
681.246148	0.331099
681.449015	0.331005
681.651864	0.331007
681.854694	0.331389
682.057506	0.331708
682.260301	0.331749
682.463076	0.331748
682.665834	0.332038
682.868573	0.332622
683.071295	0.332704
683.273998	0.332783
683.476682	0.332696
683.679349	0.332889
683.881997	0.333121
684.084627	0.333161
684.287239	0.333310
684.489833	0.333364
684.692408	0.333155
684.894965	0.333347
685.097504	0.333742
685.300025	0.334316
685.502527	0.334342
685.705012	0.334258
685.907478	0.334586
686.109925	0.334783
686.312355	0.335202
686.514766	0.335426
686.717159	0.335678
686.919534	0.335527
687.121891	0.335214
687.324230	0.335390
687.526550	0.335549
687.728852	0.335651
687.931136	0.335842
688.133401	0.336097
688.335649	0.336141
688.537878	0.336242
688.740089	0.336671
688.942281	0.337153
689.144456	0.337258
689.346612	0.337281
689.548750	0.337516
689.750870	0.337855
689.952971	0.337827
690.155055	0.338221
690.357120	0.338303
690.559167	0.338067
690.761195	0.338296
690.963206	0.338505
691.165198	0.338970
691.367172	0.338950
691.569128	0.338736
691.771065	0.338948
691.972984	0.338798
692.174885	0.338962
692.376768	0.339183
692.578633	0.339121
692.780479	0.339190
692.982308	0.339048
693.184118	0.339300
693.385909	0.339552
