sample name	sample
index	640
start time	 03-19-2021  03:32:51 PM


Wavelength (nm)	Absorbance
494.344910	0.788022
494.563924	0.788022
494.782919	0.788022
495.001897	-1.079181
495.220856	-0.259812
495.439797	-0.381337
495.658719	-0.437083
495.877624	-0.392758
496.096510	-0.311026
496.315378	-0.326494
496.534227	-0.222476
496.753059	-0.173700
496.971872	0.108974
497.190667	0.121779
497.409444	0.128948
497.628203	0.121696
497.846943	0.121857
498.065665	0.123262
498.284369	0.125975
498.503055	0.126108
498.721723	0.126406
498.940372	0.126590
499.159003	0.126220
499.377616	0.125914
499.596210	0.127154
499.814787	0.127818
500.033345	0.126976
500.251885	0.125862
500.470406	0.125454
500.688910	0.126427
500.907395	0.125469
501.125862	0.125922
501.344311	0.126156
501.562742	0.125646
501.781154	0.125360
501.999548	0.126188
502.217924	0.126314
502.436282	0.126116
502.654621	0.125285
502.872942	0.125459
503.091245	0.124956
503.309530	0.125111
503.527797	0.125403
503.746045	0.124262
503.964275	0.124611
504.182487	0.125117
504.400681	0.125872
504.618856	0.125426
504.837013	0.124935
505.055152	0.125247
505.273273	0.124903
505.491376	0.125328
505.709460	0.126198
505.927526	0.125680
506.145574	0.125523
506.363604	0.125457
506.581615	0.125906
506.799608	0.127239
507.017583	0.127413
507.235540	0.127366
507.453478	0.128478
507.671399	0.128125
507.889301	0.128316
508.107185	0.129137
508.325050	0.128568
508.542898	0.128410
508.760727	0.127462
508.978538	0.127523
509.196330	0.128467
509.414105	0.128025
509.631861	0.128149
509.849599	0.128277
510.067319	0.127927
510.285021	0.128574
510.502704	0.129074
510.720369	0.129182
510.938016	0.129853
511.155645	0.128842
511.373255	0.129455
511.590848	0.130301
511.808422	0.130887
512.025977	0.129992
512.243515	0.129535
512.461034	0.128990
512.678536	0.129044
512.896018	0.128543
513.113483	0.129097
513.330930	0.128839
513.548358	0.128123
513.765768	0.127513
513.983160	0.128512
514.200533	0.128411
514.417889	0.129131
514.635226	0.129931
514.852545	0.130787
515.069845	0.131367
515.287128	0.130981
515.504392	0.131181
515.721638	0.131865
515.938866	0.131906
516.156075	0.132329
516.373267	0.132172
516.590440	0.131795
516.807594	0.131455
517.024731	0.131569
517.241850	0.132044
517.458950	0.132703
517.676032	0.132025
517.893095	0.131515
518.110141	0.131904
518.327168	0.132368
518.544177	0.132876
518.761168	0.133165
518.978141	0.133225
519.195095	0.132839
519.412031	0.132454
519.628949	0.132996
519.845849	0.133166
520.062731	0.132671
520.279594	0.132481
520.496439	0.132906
520.713266	0.132424
520.930074	0.132327
521.146865	0.132879
521.363637	0.133629
521.580391	0.133879
521.797127	0.133904
522.013844	0.134433
522.230543	0.134202
522.447224	0.133617
522.663887	0.134312
522.880532	0.134765
523.097158	0.135062
523.313766	0.134624
523.530356	0.134997
523.746928	0.135064
523.963481	0.135375
524.180017	0.135913
524.396534	0.135610
524.613032	0.135571
524.829513	0.135489
525.045975	0.135534
525.262420	0.136101
525.478845	0.136240
525.695253	0.137126
525.911643	0.137735
526.128014	0.138814
526.344367	0.139443
526.560702	0.139299
526.777018	0.139000
526.993316	0.138745
527.209597	0.138226
527.425858	0.138215
527.642102	0.138064
527.858328	0.138104
528.074535	0.137378
528.290724	0.137472
528.506894	0.137397
528.723047	0.137922
528.939181	0.138354
529.155297	0.139489
529.371395	0.139640
529.587475	0.139751
529.803536	0.139202
530.019579	0.139363
530.235604	0.139885
530.451611	0.140495
530.667600	0.141182
530.883570	0.141383
531.099522	0.141130
531.315456	0.140962
531.531372	0.141458
531.747269	0.142482
531.963148	0.142571
532.179009	0.142184
532.394852	0.141982
532.610676	0.141833
532.826482	0.142779
533.042271	0.143017
533.258040	0.143519
533.473792	0.143634
533.689525	0.143820
533.905240	0.144468
534.120937	0.145153
534.336616	0.145502
534.552277	0.145974
534.767919	0.145177
534.983543	0.144897
535.199149	0.145182
535.414736	0.145108
535.630306	0.145046
535.845857	0.144999
536.061390	0.145520
536.276904	0.145899
536.492401	0.145598
536.707879	0.146332
536.923339	0.147442
537.138781	0.147737
537.354204	0.148017
537.569610	0.148236
537.784997	0.147996
538.000366	0.147900
538.215716	0.147817
538.431049	0.148555
538.646363	0.148414
538.861659	0.148766
539.076937	0.148580
539.292196	0.148543
539.507438	0.148516
539.722661	0.149150
539.937866	0.149095
540.153052	0.149490
540.368221	0.149275
540.583371	0.149282
540.798503	0.148564
541.013617	0.149072
541.228712	0.149759
541.443789	0.150331
541.658848	0.150175
541.873889	0.150895
542.088912	0.150903
542.303916	0.151060
542.518902	0.151524
542.733870	0.152316
542.948820	0.152573
543.163752	0.152614
543.378665	0.152576
543.593560	0.153147
543.808437	0.153014
544.023295	0.153712
544.238136	0.153857
544.452958	0.154070
544.667762	0.154141
544.882548	0.153766
545.097315	0.153949
545.312064	0.154083
545.526795	0.154410
545.741508	0.155142
545.956203	0.155430
546.170879	0.155507
546.385537	0.155783
546.600177	0.155846
546.814799	0.156371
547.029402	0.156532
547.243988	0.156942
547.458555	0.157558
547.673103	0.157457
547.887634	0.157181
548.102146	0.157641
548.316640	0.157267
548.531116	0.157805
548.745574	0.158218
548.960013	0.158461
549.174435	0.158412
549.388838	0.158114
549.603222	0.158034
549.817589	0.158602
550.031937	0.158545
550.246267	0.159158
550.460579	0.158997
550.674873	0.158625
550.889148	0.158878
551.103405	0.158772
551.317644	0.158549
551.531865	0.158767
551.746068	0.158455
551.960252	0.158228
552.174418	0.157981
552.388566	0.158219
552.602696	0.158502
552.816807	0.158864
553.030900	0.159459
553.244975	0.159962
553.459032	0.160152
553.673070	0.160530
553.887091	0.161203
554.101093	0.161715
554.315077	0.161733
554.529042	0.161993
554.742990	0.161716
554.956919	0.161802
555.170830	0.161873
555.384722	0.162271
555.598597	0.162575
555.812453	0.162675
556.026291	0.163002
556.240111	0.163085
556.453913	0.163663
556.667696	0.163771
556.881461	0.163666
557.095208	0.163462
557.308937	0.163522
557.522647	0.163478
557.736339	0.163616
557.950013	0.163650
558.163669	0.163779
558.377307	0.163369
558.590926	0.163785
558.804527	0.164141
559.018110	0.164651
559.231675	0.164234
559.445221	0.164311
559.658749	0.164610
559.872259	0.165272
560.085751	0.165940
560.299225	0.166529
560.512680	0.166559
560.726117	0.166338
560.939536	0.166468
561.152937	0.167039
561.366319	0.167597
561.579683	0.167530
561.793029	0.167358
562.006357	0.167323
562.219667	0.167316
562.432958	0.167554
562.646231	0.167847
562.859486	0.168263
563.072723	0.168695
563.285941	0.168545
563.499141	0.168588
563.712323	0.168268
563.925487	0.168366
564.138632	0.168686
564.351760	0.168614
564.564869	0.169021
564.777960	0.168991
564.991032	0.168922
565.204087	0.169272
565.417123	0.169485
565.630141	0.170008
565.843140	0.170064
566.056122	0.170292
566.269085	0.170553
566.482030	0.170857
566.694957	0.171192
566.907866	0.171215
567.120756	0.171120
567.333628	0.171338
567.546482	0.171472
567.759318	0.171522
567.972135	0.171908
568.184935	0.172121
568.397716	0.171903
568.610478	0.172155
568.823223	0.172652
569.035949	0.172883
569.248657	0.173196
569.461347	0.173355
569.674019	0.173632
569.886672	0.173346
570.099308	0.173558
570.311925	0.173382
570.524523	0.173402
570.737104	0.172989
570.949666	0.173147
571.162210	0.173194
571.374736	0.173779
571.587244	0.173826
571.799733	0.173827
572.012205	0.174064
572.224658	0.174744
572.437092	0.174732
572.649509	0.175007
572.861907	0.175172
573.074287	0.175372
573.286649	0.175297
573.498993	0.175614
573.711318	0.176264
573.923625	0.176296
574.135914	0.176570
574.348185	0.176718
574.560438	0.177076
574.772672	0.177427
574.984888	0.177813
575.197086	0.177631
575.409266	0.178134
575.621427	0.178098
575.833570	0.178417
576.045695	0.178409
576.257802	0.178629
576.469890	0.178356
576.681961	0.178210
576.894013	0.178151
577.106046	0.178554
577.318062	0.178202
577.530059	0.178323
577.742039	0.178028
577.954000	0.177892
578.165942	0.178087
578.377867	0.178926
578.589773	0.178876
578.801661	0.179032
579.013531	0.179073
579.225382	0.179322
579.437216	0.179744
579.649031	0.180219
579.860828	0.180864
580.072606	0.180962
580.284367	0.181036
580.496109	0.181609
580.707833	0.181772
580.919539	0.182033
581.131227	0.181904
581.342896	0.181750
581.554547	0.182364
581.766180	0.182547
581.977795	0.182680
582.189391	0.182532
582.400969	0.182248
582.612529	0.182330
582.824071	0.182651
583.035595	0.183214
583.247100	0.183168
583.458587	0.183049
583.670056	0.182773
583.881506	0.182802
584.092939	0.182791
584.304353	0.183409
584.515749	0.183533
584.727127	0.183483
584.938486	0.183442
585.149828	0.183599
585.361151	0.183295
585.572456	0.183458
585.783742	0.183503
585.995011	0.184208
586.206261	0.184444
586.417493	0.184651
586.628706	0.184874
586.839902	0.184648
587.051079	0.185023
587.262238	0.185261
587.473379	0.185625
587.684502	0.186269
587.895606	0.186007
588.106692	0.185876
588.317760	0.185964
588.528810	0.186155
588.739841	0.186871
588.950855	0.186697
589.161850	0.187015
589.372827	0.187207
589.583785	0.186631
589.794726	0.186923
590.005648	0.187204
590.216552	0.187403
590.427437	0.187235
590.638305	0.187354
590.849154	0.187474
591.059985	0.187364
591.270798	0.187423
591.481592	0.187953
591.692369	0.188113
591.903127	0.188417
592.113867	0.188689
592.324588	0.188755
592.535292	0.188844
592.745977	0.189152
592.956644	0.189556
593.167293	0.189533
593.377923	0.189595
593.588536	0.189772
593.799130	0.189505
594.009706	0.189291
594.220263	0.189400
594.430803	0.189477
594.641324	0.189735
594.851827	0.189696
595.062312	0.189766
595.272778	0.190237
595.483227	0.190465
595.693657	0.191128
595.904069	0.191783
596.114462	0.192279
596.324838	0.192490
596.535195	0.192751
596.745534	0.192811
596.955855	0.193363
597.166157	0.193436
597.376441	0.193234
597.586707	0.192866
597.796955	0.192357
598.007185	0.192389
598.217396	0.192653
598.427589	0.192540
598.637764	0.193104
598.847921	0.192978
599.058060	0.193179
599.268180	0.193375
599.478282	0.193543
599.688366	0.193772
599.898431	0.193946
600.108479	0.194055
600.318508	0.194349
600.528519	0.194175
600.738511	0.194440
600.948486	0.194218
601.158442	0.194460
601.368380	0.194558
601.578300	0.195140
601.788202	0.195215
601.998085	0.195250
602.207950	0.195305
602.417797	0.195756
602.627626	0.195625
602.837436	0.195786
603.047228	0.195756
603.257002	0.196055
603.466758	0.196028
603.676496	0.196152
603.886215	0.196382
604.095916	0.196405
604.305599	0.196259
604.515264	0.196679
604.724910	0.196767
604.934538	0.197413
605.144148	0.197629
605.353740	0.197690
605.563314	0.197393
605.772869	0.197126
605.982406	0.197682
606.191925	0.197931
606.401425	0.197942
606.610908	0.198022
606.820372	0.197671
607.029818	0.197448
607.239246	0.197591
607.448655	0.198006
607.658047	0.198493
607.867420	0.198188
608.076775	0.197964
608.286111	0.197868
608.495430	0.198079
608.704730	0.198477
608.914012	0.198956
609.123275	0.198874
609.332521	0.199181
609.541748	0.199199
609.750957	0.199284
609.960148	0.199655
610.169321	0.199877
610.378475	0.200112
610.587611	0.200148
610.796729	0.200234
611.005829	0.200540
611.214910	0.200696
611.423974	0.201223
611.633019	0.201636
611.842045	0.201754
612.051054	0.201865
612.260044	0.201893
612.469017	0.201844
612.677970	0.201866
612.886906	0.202122
613.095824	0.202200
613.304723	0.201781
613.513604	0.201415
613.722467	0.201585
613.931311	0.201712
614.140138	0.201783
614.348946	0.201761
614.557736	0.201752
614.766507	0.201749
614.975261	0.201718
615.183996	0.201931
615.392713	0.202032
615.601412	0.202127
615.810092	0.202311
616.018754	0.202795
616.227399	0.203159
616.436024	0.203463
616.644632	0.203603
616.853222	0.203661
617.061793	0.203561
617.270346	0.203951
617.478880	0.204133
617.687397	0.204121
617.895895	0.204051
618.104375	0.204081
618.312837	0.204161
618.521281	0.204214
618.729706	0.204301
618.938113	0.204762
619.146502	0.204847
619.354873	0.205098
619.563226	0.205380
619.771560	0.205538
619.979876	0.205779
620.188174	0.205631
620.396453	0.205611
620.604715	0.205993
620.812958	0.206149
621.021183	0.206408
621.229390	0.206015
621.437578	0.206044
621.645748	0.206340
621.853900	0.206458
622.062034	0.206793
622.270150	0.207182
622.478247	0.207219
622.686326	0.207062
622.894387	0.207303
623.102430	0.207649
623.310454	0.207606
623.518461	0.207391
623.726449	0.207194
623.934418	0.207219
624.142370	0.207032
624.350303	0.206907
624.558218	0.207164
624.766115	0.206885
624.973994	0.206968
625.181855	0.207296
625.389697	0.207492
625.597521	0.207953
625.805327	0.208117
626.013114	0.208465
626.220883	0.208589
626.428634	0.208588
626.636367	0.208802
626.844082	0.208788
627.051778	0.208573
627.259457	0.208631
627.467117	0.208456
627.674758	0.208504
627.882382	0.208415
628.089987	0.209018
628.297574	0.209220
628.505143	0.209293
628.712694	0.209582
628.920226	0.210025
629.127740	0.209875
629.335236	0.210229
629.542714	0.210561
629.750174	0.210821
629.957615	0.210515
630.165038	0.210691
630.372443	0.210914
630.579829	0.211152
630.787198	0.211112
630.994548	0.211612
631.201880	0.211751
631.409194	0.211523
631.616489	0.211518
631.823766	0.211700
632.031025	0.211761
632.238266	0.211902
632.445489	0.211987
632.652693	0.212143
632.859879	0.211960
633.067047	0.211904
633.274197	0.212163
633.481329	0.212395
633.688442	0.212431
633.895537	0.212555
634.102614	0.212524
634.309672	0.212723
634.516713	0.212706
634.723735	0.212764
634.930739	0.212957
635.137724	0.213006
635.344692	0.212816
635.551641	0.212859
635.758572	0.212935
635.965485	0.213145
636.172379	0.213004
636.379256	0.213474
636.586114	0.214049
636.792954	0.213971
636.999775	0.214104
637.206579	0.214503
637.413364	0.214922
637.620131	0.215207
637.826880	0.215673
638.033610	0.216006
638.240323	0.215966
638.447017	0.215923
638.653692	0.216155
638.860350	0.216233
639.066990	0.216238
639.273611	0.216371
639.480214	0.216430
639.686798	0.216313
639.893365	0.216131
640.099913	0.216461
640.306443	0.216689
640.512955	0.217100
640.719449	0.217508
640.925924	0.217697
641.132381	0.217440
641.338820	0.217348
641.545241	0.217380
641.751644	0.217519
641.958028	0.217637
642.164394	0.217736
642.370742	0.217504
642.577071	0.217367
642.783383	0.217498
642.989676	0.218235
643.195951	0.218495
643.402207	0.218506
643.608446	0.218716
643.814666	0.218837
644.020868	0.219162
644.227052	0.219578
644.433218	0.219976
644.639365	0.220077
644.845494	0.219851
645.051605	0.220115
645.257698	0.220552
645.463772	0.220770
645.669828	0.220938
645.875866	0.220855
646.081886	0.220987
646.287888	0.220907
646.493871	0.221151
646.699836	0.220984
646.905783	0.221183
647.111712	0.221066
647.317622	0.221140
647.523514	0.221176
647.729388	0.221199
647.935244	0.221117
648.141082	0.221337
648.346901	0.221413
648.552702	0.221857
648.758485	0.221890
648.964250	0.222203
649.169996	0.222413
649.375724	0.222412
649.581434	0.222557
649.787126	0.222838
649.992800	0.222989
650.198455	0.223312
650.404092	0.223360
650.609711	0.223412
650.815311	0.223463
651.020894	0.223371
651.226458	0.223532
651.432004	0.223784
651.637532	0.223897
651.843041	0.223937
652.048532	0.224027
652.254006	0.224177
652.459460	0.224109
652.664897	0.224183
652.870315	0.224333
653.075716	0.224406
653.281097	0.224339
653.486461	0.224524
653.691807	0.224728
653.897134	0.224710
654.102443	0.224714
654.307734	0.224980
654.513006	0.225220
654.718261	0.225438
654.923497	0.225495
655.128715	0.225722
655.333915	0.225747
655.539096	0.225754
655.744259	0.225913
655.949404	0.226328
656.154531	0.226571
656.359640	0.226511
656.564730	0.226917
656.769802	0.227339
656.974856	0.227558
657.179892	0.227738
657.384909	0.228082
657.589908	0.228157
657.794889	0.228288
657.999852	0.228474
658.204797	0.228664
658.409723	0.228653
658.614631	0.229016
658.819521	0.229258
659.024393	0.229364
659.229246	0.229462
659.434081	0.229625
659.638898	0.230011
659.843697	0.229998
660.048478	0.230344
660.253240	0.230257
660.457984	0.229959
660.662710	0.230005
660.867417	0.230105
661.072107	0.230407
661.276778	0.230483
661.481431	0.230327
661.686066	0.230355
661.890682	0.230231
662.095281	0.230484
662.299861	0.230640
662.504422	0.230857
662.708966	0.230877
662.913491	0.230817
663.117999	0.231068
663.322488	0.231263
663.526958	0.231541
663.731411	0.231839
663.935845	0.232158
664.140261	0.232688
664.344659	0.232738
664.549038	0.233007
664.753400	0.232942
664.957743	0.233104
665.162068	0.233118
665.366375	0.233416
665.570663	0.233445
665.774933	0.233687
665.979185	0.233667
666.183419	0.233947
666.387635	0.234179
666.591832	0.234539
666.796011	0.234739
667.000172	0.234934
667.204315	0.235006
667.408439	0.235205
667.612545	0.235317
667.816634	0.235370
668.020703	0.235374
668.224755	0.235612
668.428788	0.235633
668.632803	0.235702
668.836800	0.235945
669.040779	0.236136
669.244739	0.236183
669.448681	0.236091
669.652605	0.236093
669.856511	0.236073
670.060399	0.236151
670.264268	0.236502
670.468119	0.236761
670.671952	0.236905
670.875767	0.237159
671.079563	0.237481
671.283341	0.237818
671.487101	0.238033
671.690843	0.238471
671.894567	0.238617
672.098272	0.238835
672.301959	0.239125
672.505628	0.239317
672.709278	0.239248
672.912911	0.239458
673.116525	0.239529
673.320121	0.239931
673.523699	0.240022
673.727258	0.240167
673.930799	0.240252
674.134322	0.240326
674.337827	0.240288
674.541314	0.240503
674.744782	0.240535
674.948232	0.240632
675.151664	0.240681
675.355078	0.240907
675.558474	0.240904
675.761851	0.241279
675.965210	0.241323
676.168551	0.241651
676.371873	0.241821
676.575178	0.241832
676.778464	0.242164
676.981732	0.242149
677.184981	0.242124
677.388213	0.242438
677.591426	0.242550
677.794621	0.242788
677.997798	0.242748
678.200956	0.242875
678.404097	0.243449
678.607219	0.243559
678.810323	0.243893
679.013408	0.243871
679.216476	0.243933
679.419525	0.243912
679.622556	0.244077
679.825569	0.244308
680.028563	0.244635
680.231540	0.244631
680.434498	0.244883
680.637438	0.244891
680.840359	0.244922
681.043263	0.245240
681.246148	0.245298
681.449015	0.245407
681.651864	0.245554
681.854694	0.245553
682.057506	0.245582
682.260301	0.245613
682.463076	0.245750
682.665834	0.246153
682.868573	0.246335
683.071295	0.246541
683.273998	0.246553
683.476682	0.246719
683.679349	0.246916
683.881997	0.247262
684.084627	0.247303
684.287239	0.247250
684.489833	0.247363
684.692408	0.247421
684.894965	0.247669
685.097504	0.247740
685.300025	0.248182
685.502527	0.248115
685.705012	0.247984
685.907478	0.248156
686.109925	0.248411
686.312355	0.248618
686.514766	0.248643
686.717159	0.248641
686.919534	0.249020
687.121891	0.248870
687.324230	0.249171
687.526550	0.249523
687.728852	0.249477
687.931136	0.249619
688.133401	0.249576
688.335649	0.249634
688.537878	0.249709
688.740089	0.249735
688.942281	0.249889
689.144456	0.249825
689.346612	0.249671
689.548750	0.249822
689.750870	0.249921
689.952971	0.250065
690.155055	0.250167
690.357120	0.250069
690.559167	0.250049
690.761195	0.250169
690.963206	0.250399
691.165198	0.250922
691.367172	0.251111
691.569128	0.251071
691.771065	0.251293
691.972984	0.251578
692.174885	0.252049
692.376768	0.252240
692.578633	0.252171
692.780479	0.252258
692.982308	0.252093
693.184118	0.252283
693.385909	0.252482
