sample name	sample
index	1348
start time	 05-03-2021  12:57:51 PM
880	0.516248
Peak Time (s)	92.037
Peak Height 	0.5162
calc peak height	90,93
Baseline Time (s)	10.037
Baseline Value 	-0.002442
subtract baseline	10,4
Abs	0.294155
Peak Time (s)	90.537
Peak Height 	0.2942
calc peak height	90,93
Baseline Time (s)	8.536
Baseline Value 	-0.001006
subtract baseline	10,3
PK_550	0.178078
Peak Time (s)	90.537
Peak Height 	0.1781
calc peak height	90,93
Baseline Time (s)	8.536
Baseline Value 	5.2252E-4
subtract baseline	10,2
PK_880	0.281959
Peak Time (s)	92.535
Peak Height 	0.282
calc peak height	90,93
Baseline Time (s)	10.037
Baseline Value 	-6.76E-4
subtract baseline	10,1


Time (s)	A880-A510	A880-A775	A880-A975	A880	I510	I775	I975	I880	
0.036500	0.002934	0.000370	0.005810	0.002395	6129.879907	42578.198165	3903.786455	22048.167395
0.537000	-0.002549	-0.001457	-0.002506	0.006113	6063.194752	42075.760236	3877.037978	21885.270268
1.037500	-0.002171	-0.000111	-0.002882	0.003593	6084.053370	42425.412290	3881.750144	21995.539894
1.534500	0.001068	-0.001036	0.000623	0.000003	6133.738411	42668.224044	3897.506200	22153.698359
2.035000	0.001193	-0.000200	-0.001004	0.000243	6132.890364	42722.673098	3893.335063	22143.053906
2.537500	0.001683	0.000933	0.002615	0.004670	6104.163697	42422.335382	3891.535415	21948.331142
3.035500	0.001224	-0.000103	0.002534	-0.001348	6144.805311	42877.479411	3904.838612	22213.541543
3.535500	0.000911	-0.000454	0.004087	0.000181	6131.279204	42705.085856	3904.891355	22145.803369
4.036000	-0.000079	-0.000179	0.004762	0.000246	6123.558837	42724.316903	3906.268835	22142.932834
4.536500	0.002494	-0.000027	-0.003041	0.000310	6141.956716	42732.385760	3888.657307	22140.127997
5.036500	-0.000235	-0.000506	0.005093	0.000066	6123.738684	42710.854966	3907.425876	22150.906484
5.537000	0.001554	0.000134	0.001609	0.000179	6136.013571	42759.177907	3899.323578	22145.922364
6.037500	0.004257	-0.000259	0.003235	0.000137	6156.222122	42726.990866	3903.070896	22147.779034
6.534500	0.000813	0.000018	0.002649	0.000475	6128.412279	42721.424915	3900.993934	22132.836511
7.038000	0.001952	-0.000115	-0.000817	0.000128	6139.303977	42740.991870	3894.008999	22148.145838
7.535500	0.001523	0.001305	0.004456	0.000753	6131.574617	42813.858171	3904.434398	22120.539099
8.035000	0.002706	0.000275	0.004685	0.000074	6145.249691	42781.668969	3906.482820	22150.539923
8.536000	-0.000410	0.000000	0.000000	-0.000265	6124.877400	42787.554717	3896.712800	22165.559120
9.036500	0.000665	-0.000439	-0.000798	-0.000180	6132.121173	42739.529708	3894.737038	22161.766524
9.536500	0.000960	-0.000150	0.001434	-0.000057	6133.383559	42754.730885	3899.458449	22156.325300
10.037000	0.000000	0.000026	-0.000207	0.000000	6125.936372	42765.656409	3895.655686	22153.817567
10.537000	-0.001761	-0.000469	0.002792	0.001543	6101.862894	42579.355144	3898.916507	22085.684735
11.037000	-0.000055	0.000540	-0.000767	0.000502	6121.868327	42766.715169	3893.285625	22131.631331
11.537500	0.001086	0.000122	0.000261	0.000131	6132.931324	42762.406630	3896.409184	22148.008941
12.035000	-0.000951	-0.000025	0.001290	-0.000421	6122.061711	42799.505950	3899.951244	22172.446172
12.535500	0.005463	0.001185	0.005212	0.000545	6162.117885	42821.897493	3906.609565	22129.705808
13.036000	0.003340	0.000562	0.002619	-0.000525	6154.337832	42862.925974	3903.175177	22177.051573
13.537000	0.000950	0.000201	0.007544	-0.000778	6138.606379	42853.065270	3914.907359	22188.277997
14.036500	0.001605	-0.000375	0.000882	0.001902	6123.764722	42555.237069	3893.843334	22069.878327
14.539500	0.001174	-0.000717	-0.001185	0.002175	6118.625453	42499.243930	3888.636874	22057.860848
15.037000	0.002137	-0.000062	0.005009	-0.000469	6145.059419	42800.560957	3908.445654	22174.592934
15.537500	0.002163	0.000330	0.002286	-0.000539	6145.763341	42842.942633	3902.455039	22177.668617
16.037500	0.002674	0.000243	0.002040	-0.000521	6149.393825	42833.238596	3901.861783	22176.861769
16.537500	-0.001928	0.000120	0.001220	0.003553	6086.096064	42450.073917	3890.919024	21997.301445
17.035000	0.005760	0.000145	0.003079	-0.002352	6185.834139	42992.587824	3908.337982	22258.130597
17.535000	0.004247	0.000559	0.001267	0.001210	6148.234011	42703.641364	3896.246376	22100.368923
18.035000	-0.000438	0.000033	0.001175	0.000878	6116.324402	42685.852100	3896.783721	22115.004053
18.536500	-0.002745	-0.000083	0.001562	0.001022	6098.496202	42662.187544	3897.326626	22108.663298
19.036500	0.000689	0.000031	-0.001271	0.001001	6123.658889	42674.521599	3891.054187	22109.593089
19.536500	0.002408	0.000285	0.004887	0.001274	6134.248010	42672.804588	3904.232068	22097.558190
20.037000	0.001983	0.000669	0.003207	0.001327	6130.740553	42702.997469	3900.332615	22095.216835
20.537500	0.000197	-0.000520	0.001550	0.001238	6118.326037	42602.527380	3896.816255	22099.116939
21.037000	0.001139	0.000282	0.008563	0.001313	6124.664302	42668.906703	3912.465999	22095.820613
21.535000	0.001076	0.000543	0.002964	0.001241	6124.728681	42699.387830	3899.978734	22099.000526
22.035500	0.000723	-0.000072	0.005435	0.000875	6124.831105	42676.645253	3906.370414	22115.165887
22.536000	-0.003270	0.000214	-0.000350	0.001667	6090.031250	42630.397277	3891.620537	22080.227959
23.036000	0.001599	0.000132	-0.000191	0.001329	6127.911721	42653.663923	3892.726419	22095.102347
23.536000	0.001578	-0.000337	0.002901	0.000771	6131.844289	42661.840777	3900.893629	22119.732847
24.036500	0.000885	0.000793	0.002764	0.001558	6121.012918	42693.210265	3898.817718	22085.000013
24.537000	0.003236	0.000205	0.003173	0.001488	6138.751837	42645.925885	3899.895489	22088.122170
25.037000	0.002194	0.000212	0.006180	0.001150	6133.577142	42677.398829	3907.429560	22102.995236
25.537500	0.001335	-0.000257	-0.000344	0.000889	6129.198021	42658.378667	3893.366168	22114.509470
26.035000	0.000735	0.000222	0.001482	0.000749	6125.832713	42714.978677	3897.758193	22120.698313
26.535500	0.002699	0.000599	0.004035	0.001260	6136.478851	42702.739343	3902.343683	22098.161005
27.035500	0.002168	0.000505	0.004255	0.001207	6132.971592	42698.955386	3902.958042	22100.500618
27.536000	0.003126	0.000370	0.005617	-0.001127	6157.204412	42900.635498	3911.316084	22203.759531
28.036000	0.002442	0.000059	0.008225	-0.000729	6149.222674	42835.532796	3916.348771	22186.112309
28.539000	0.002131	0.000608	0.000493	-0.000759	6147.147964	42888.596135	3898.920793	22187.407193
29.036500	0.004506	0.000415	0.007105	-0.000307	6161.341134	42829.460682	3912.832721	22167.404296
29.536500	0.002050	0.000558	0.000022	-0.000218	6142.568097	42834.388397	3896.655771	22163.466921
30.040000	0.002359	0.000834	0.003463	-0.000527	6147.117528	42888.121870	3905.081963	22177.152855
30.534500	0.000832	0.000253	0.000802	0.000703	6126.881259	42722.022923	3896.341121	22122.750896
31.035000	0.001729	-0.000094	0.001992	0.001731	6125.915916	42596.347069	3896.702283	22077.379084
31.535500	0.001850	0.000608	0.001061	-0.000369	6142.209292	42852.788303	3899.322081	22170.129510
32.036000	0.002977	0.000508	0.006047	-0.000767	6153.443243	42880.179650	3911.474847	22187.783018
32.536000	0.000927	0.000321	0.001751	0.000868	6126.372401	42713.208455	3898.095393	22115.468284
33.036500	0.003622	0.000346	0.005836	-0.000239	6154.310509	42816.868557	3909.796987	22164.398338
33.537000	-0.000348	0.000076	0.008502	-0.002873	6144.458365	43034.269941	3921.888679	22281.330492
34.036500	-0.001349	0.000383	0.001384	0.001283	6106.737038	42680.861452	3896.345252	22097.124700
34.537000	-0.001177	0.001085	0.003802	0.002184	6101.447171	42662.705993	3899.743646	22057.446125
35.035000	0.002385	-0.000297	0.005989	0.001073	6135.543104	42637.903648	3907.172455	22106.396602
35.535000	-0.001911	-0.000875	0.000303	0.000620	6107.472236	42626.457533	3895.410303	22126.398774
36.035500	0.001742	0.000622	-0.000651	0.001932	6124.544881	42643.388850	3890.361694	22068.529964
36.535500	0.000288	0.000146	0.003363	0.001449	6117.454225	42644.035967	3900.408425	22089.811859
37.036000	0.001424	0.001223	0.000631	0.002137	6120.723138	42679.564012	3892.757748	22059.494316
37.535500	0.000197	0.000342	0.004067	0.001538	6116.142282	42653.903262	3901.791379	22085.915422
38.036000	0.001149	-0.000391	0.006118	0.001153	6125.901934	42621.964624	3907.284017	22102.859302
38.537000	0.001016	0.000137	0.001409	0.001453	6122.740979	42642.931247	3896.022408	22089.666416
39.037000	0.001058	0.000581	0.000981	0.001626	6121.790360	42667.677562	3894.679717	22082.039866
39.537500	0.001455	0.000257	0.001805	0.001324	6126.898255	42665.635628	3897.195302	22095.345582
40.034500	-0.000322	0.000065	0.006536	0.001039	6115.999196	42674.115450	3908.487880	22107.924037
40.535000	0.000362	0.000127	0.005935	0.002279	6111.941477	42566.571891	3904.328912	22053.265942
41.035500	0.002993	0.000863	0.003024	0.002000	6133.203021	42659.164378	3898.410938	22065.525663
41.536000	0.002871	0.001038	0.008628	0.002449	6129.025339	42634.206630	3910.034778	22045.786723
42.036000	0.001398	-0.000233	-0.001086	0.001098	6128.130700	42641.508380	3891.248031	22105.304795
42.536500	0.000350	0.000830	0.001696	0.002714	6108.689907	42591.067313	3893.845073	22034.133247
43.036500	0.000961	0.000501	0.001443	0.001793	6119.856909	42645.068250	3895.336370	22074.662562
43.537000	0.001207	0.000872	0.008155	0.001450	6124.161422	42710.332562	3911.227210	22089.780514
44.039500	0.001881	0.000426	0.006052	-0.003219	6163.463771	43098.535222	3917.070716	22296.730089
44.537500	-0.000994	0.000325	-0.000322	0.002445	6100.877393	42569.522218	3889.952678	22045.962365
45.037500	0.002182	0.000250	0.000457	-0.000386	6144.783769	42821.545104	3898.007104	22170.920692
45.535500	0.002615	0.000924	0.003211	-0.000066	6145.606173	42854.043409	3903.473904	22156.730935
46.035500	0.002559	0.000295	0.000289	-0.000792	6150.543115	42862.935513	3898.539199	22188.877865
46.536000	0.001493	0.000337	0.004636	0.002381	6119.450079	42576.469033	3901.175901	22048.784768
47.036000	0.002957	0.000840	0.005063	0.000941	6140.719183	42753.975368	3905.380846	22112.248067
47.536500	-0.000220	0.000828	0.006004	0.002801	6103.916112	42582.890789	3903.306587	22030.299530
48.036500	0.001563	0.000285	-0.001742	0.000243	6135.604766	42767.069279	3891.691389	22143.064828
48.540000	0.001917	0.000641	0.008607	0.002998	6118.041593	42547.950426	3908.742798	22021.664827
49.037500	0.002272	0.000629	0.006370	0.000099	6141.868621	42811.749715	3910.241171	22149.420018
49.534500	0.003928	0.000234	0.001804	-0.002447	6172.915410	43009.629170	3905.670106	22262.376509
50.035000	0.003380	0.000691	0.004961	0.000409	6147.749067	42789.143956	3906.351857	22135.749038
50.535500	0.004184	0.000203	0.005232	0.020687	6007.475606	40930.206730	3862.171048	21260.099584
51.035500	0.041671	-0.018759	0.021405	0.519278	4006.765422	14504.043467	3233.668259	8753.105247
51.536000	0.008700	-0.018162	-0.011685	-0.019370	6338.061580	42874.111802	3913.454741	23030.127951
52.036000	0.013221	-0.038641	-0.005462	-0.186738	7983.658544	58930.543136	4399.127051	32475.288215
52.536500	-0.014693	-0.027215	-0.019745	-0.140570	7194.090680	54628.834371	4207.589091	29496.765423
53.039500	-0.011280	-0.027613	-0.016901	-0.184279	7680.621488	60045.453154	4352.701962	32308.522056
53.534000	0.012442	-0.045279	0.004819	-0.228170	8477.693854	63597.612119	4585.516475	35431.562386
54.037500	0.024185	-0.033871	0.010657	-0.200552	8279.256121	61376.697776	4504.298983	33429.750118
54.537500	0.029660	-0.016227	0.016944	-0.113889	7370.386905	52795.777842	4237.482386	27914.396226
55.035000	0.042542	-0.008449	0.027352	-0.075803	7121.097449	49437.707307	4156.453557	25817.649651
55.535500	0.054289	0.005499	0.046842	-0.049179	6980.608221	48101.317110	4136.392785	24457.391324
56.035000	0.073507	0.019558	0.065453	-0.001465	6724.556676	44736.460252	4057.880592	22218.714114
56.536500	0.095762	0.034530	0.089484	0.015827	6767.956665	44514.045074	4075.597228	21466.268417
57.036000	0.118009	0.047864	0.107158	0.061744	6565.387743	41511.857204	4003.158914	19607.670502
57.539500	0.136336	0.061951	0.125791	0.099386	6408.066291	39477.430839	3956.986936	18223.938036
58.037000	0.156877	0.076776	0.151673	0.142787	6230.695235	37153.198585	3916.192952	16770.531018
58.537000	0.172438	0.082356	0.170943	0.183243	6047.871907	34516.020264	3869.004656	15540.484815
59.037500	0.187811	0.092428	0.192352	0.219736	5900.776275	32654.511816	3836.782768	14525.058477
59.535000	0.199852	0.101637	0.202605	0.255420	5744.371992	30899.481484	3784.930470	13611.344395
60.035500	0.212830	0.109403	0.213105	0.289465	5612.009763	29260.075065	3739.556178	12806.856623
60.536000	0.217149	0.116181	0.216401	0.364021	5214.342230	25462.356645	3616.306448	11250.629840
61.035500	0.231373	0.119145	0.230692	0.362939	5295.606781	25672.796456	3641.210642	11271.356807
61.539000	0.232019	0.119028	0.235550	0.405388	5080.258264	23553.945761	3581.832621	10495.684170
62.036500	0.228783	0.127427	0.232474	0.399247	5094.567002	24254.486371	3586.484453	10603.268649
62.536500	0.237108	0.134742	0.227996	0.377681	5247.442138	25717.542701	3613.027810	10993.347162
63.037000	0.244602	0.137661	0.236086	0.377075	5290.710848	25902.801722	3626.940186	11004.576681
63.536000	0.241330	0.141973	0.237881	0.371767	5301.717668	26416.337845	3638.514071	11103.744749
64.037500	0.239884	0.144607	0.241270	0.367642	5316.275720	26783.963570	3650.964136	11181.643769
64.535500	0.244609	0.148035	0.239098	0.365532	5353.824168	27089.449480	3650.860595	11221.760408
65.035500	0.245208	0.149285	0.242594	0.358083	5398.803794	27577.305079	3669.383110	11365.016119
65.536000	0.246337	0.151472	0.255876	0.353955	5428.636074	27937.589704	3699.825920	11445.457614
66.036000	0.246293	0.152749	0.244111	0.352753	5435.260315	28080.476461	3681.210106	11469.037696
66.536000	0.248420	0.155591	0.249075	0.348050	5474.671362	28520.385785	3698.229584	11561.885165
67.039500	0.251468	0.157503	0.254112	0.346829	5499.621839	28705.363701	3709.452136	11586.156681
67.536500	0.250450	0.159336	0.252635	0.345372	5502.201751	28900.983875	3709.414575	11615.201244
68.037500	0.250646	0.159999	0.256125	0.347642	5490.035760	28805.221462	3711.620916	11569.979199
68.535000	0.252832	0.160933	0.257499	0.344590	5520.868314	29043.317374	3719.676633	11630.827465
69.035000	0.253187	0.162524	0.256071	0.345443	5517.921989	29087.700060	3715.515032	11613.789198
69.535000	0.255761	0.163835	0.254555	0.347848	5518.927352	29022.025973	3708.411546	11565.901322
70.035500	0.255290	0.164127	0.261915	0.354845	5475.108626	28622.997930	3709.066565	11428.061625
70.536000	0.256227	0.165388	0.261569	0.360931	5445.337218	28339.642013	3697.541154	11309.957621
71.036000	0.260262	0.165836	0.260976	0.361651	5464.462982	28323.793974	3695.208206	11296.089789
71.539000	0.258337	0.167219	0.266009	0.366511	5425.466868	28121.642821	3695.514818	11203.115291
72.036500	0.257400	0.167282	0.267857	0.375076	5371.871790	27634.214539	3683.691953	11041.786087
72.540000	0.259340	0.168865	0.263975	0.377841	5367.274927	27567.214466	3672.171052	10990.380729
73.037500	0.257751	0.168364	0.269816	0.382428	5333.122323	27280.821870	3674.329607	10905.800982
73.534500	0.259952	0.168487	0.267148	0.387434	5317.780257	27009.119124	3661.207706	10814.530103
74.035000	0.254996	0.167780	0.264838	0.396277	5243.691592	26486.401477	3642.543728	10655.834216
74.535500	0.259291	0.170035	0.263265	0.403786	5226.776262	26203.742446	3627.696473	10523.599654
75.035500	0.264910	0.170845	0.267077	0.405361	5248.088005	26162.870485	3631.326203	10496.159957
75.535500	0.262922	0.172259	0.260067	0.411951	5203.117124	25888.167901	3609.551576	10382.382450
76.039000	0.261400	0.171769	0.269075	0.422092	5143.389025	25334.186620	3607.769434	10210.649676
76.536000	0.260410	0.172114	0.269912	0.428498	5106.337478	25024.366169	3599.071936	10104.215960
77.036500	0.262575	0.171137	0.264401	0.429637	5111.437320	24917.156781	3588.828745	10085.443393
77.537000	0.263371	0.171584	0.268643	0.434768	5089.959169	24681.822943	3587.472524	10001.546541
78.037500	0.265822	0.172767	0.274633	0.441516	5068.880387	24405.486626	3586.317291	9892.686761
78.534500	0.266712	0.171964	0.275969	0.450051	5031.888181	23949.654902	3575.446726	9757.405876
79.035000	0.267717	0.172269	0.275286	0.450333	5035.361644	23950.771726	3574.003798	9752.988927
79.535000	0.270028	0.171707	0.276064	0.454513	5026.403398	23723.037112	3568.939869	9687.745067
80.036000	0.272547	0.173184	0.279594	0.459815	5013.130262	23541.092434	3566.318195	9605.879588
80.536000	0.268013	0.173203	0.269404	0.468262	4952.343883	23145.900441	3539.383913	9477.506506
81.036500	0.272231	0.174377	0.282759	0.468636	4970.158249	23183.139252	3558.021606	9471.889730
81.536500	0.275134	0.174292	0.276177	0.471565	4970.032405	23043.341067	3544.310580	9427.982633
82.036500	0.274246	0.176120	0.283288	0.476136	4944.788689	22917.020366	3547.943167	9360.071644
82.537000	0.274344	0.174583	0.282319	0.482497	4916.210939	22557.681304	3537.518525	9266.741804
83.034000	0.275501	0.175426	0.282421	0.480974	4928.393186	22664.652727	3539.814653	9288.969192
83.535000	0.277826	0.176304	0.277783	0.485072	4920.324340	22519.189658	3527.572478	9229.347072
84.035500	0.277223	0.175570	0.278492	0.494008	4877.501541	22088.923560	3516.268179	9101.295824
84.536000	0.278344	0.176418	0.284068	0.495250	4876.959530	22071.566081	3522.196807	9083.700644
85.035500	0.276453	0.175248	0.289564	0.493347	4877.014127	22103.820085	3532.456988	9110.674363
85.539000	0.274556	0.175681	0.278442	0.495473	4859.237509	22029.461664	3514.209171	9080.555414
86.036500	0.270772	0.173918	0.274127	0.502289	4813.177270	21656.799753	3499.302718	8984.954907
86.537000	0.279894	0.176708	0.290417	0.500736	4859.567261	21844.507168	3523.383456	9006.596504
87.037000	0.276726	0.175878	0.291729	0.502179	4839.388701	21746.019156	3523.203589	8986.482731
87.537500	0.278561	0.178053	0.291053	0.505346	4833.601094	21703.187641	3517.934764	8942.557282
88.037500	0.274093	0.175214	0.290476	0.511015	4790.122447	21339.954960	3509.470702	8864.741016
88.535500	0.275633	0.175036	0.291427	0.504402	4825.011830	21614.042433	3519.736977	8955.624338
89.035000	0.278657	0.178086	0.280421	0.507714	4823.768762	21602.841131	3500.453372	8909.935084
89.536000	0.279790	0.176955	0.291094	0.508105	4826.971072	21537.622780	3514.236368	8904.553929
90.039000	0.273317	0.175184	0.280882	0.514198	4773.414188	21204.596968	3492.527412	8821.481224
90.536500	0.278573	0.178078	0.294155	0.510253	4812.479228	21493.907848	3515.477171	8875.143738
91.039500	0.279989	0.176622	0.289938	0.509201	4823.099081	21476.677554	3511.189961	8889.528324
91.536500	0.279254	0.176662	0.279918	0.508637	4822.356422	21502.405485	3498.565142	8897.251437
92.037000	0.276843	0.177665	0.283154	0.516248	4779.620581	21222.692020	3492.817946	8793.785566
92.535000	0.281959	0.177386	0.292827	0.509461	4830.489745	21498.163066	3514.748168	8885.965697
93.035000	0.280190	0.178102	0.298105	0.508802	4825.688775	21556.887225	3522.863083	8894.990667
93.535000	0.279401	0.175962	0.285303	0.507238	4829.040002	21532.257403	3507.594418	8916.473920
94.036000	0.276077	0.174274	0.286105	0.512269	4793.218677	21247.425004	3501.949937	8847.657596
94.541500	0.277554	0.175712	0.283582	0.510041	4809.014608	21402.252960	3501.557893	8878.029915
95.036500	0.284133	0.177121	0.291172	0.506584	4852.503631	21609.887117	3516.409348	8925.478223
95.536500	0.279069	0.177681	0.288157	0.505447	4835.367248	21682.818934	3513.858595	8941.167317
96.036500	0.285539	0.177923	0.296114	0.504983	4865.727705	21713.249725	3525.385968	8947.578612
