sample name	sample
index	1469
start time	 05-10-2021  02:15:36 PM
880	0.374704
Peak Time (s)	92.036
Peak Height 	0.3747
calc peak height	90,93
Baseline Time (s)	10.036
Baseline Value 	-0.002408
subtract baseline	10,4
Abs	0.254582
Peak Time (s)	92.036
Peak Height 	0.2546
calc peak height	90,93
Baseline Time (s)	11.537
Baseline Value 	0.001381
subtract baseline	10,3
PK_550	0.137005
Peak Time (s)	92.536
Peak Height 	0.137
calc peak height	90,93
Baseline Time (s)	8.534
Baseline Value 	2.7656E-4
subtract baseline	10,2
PK_880	0.234006
Peak Time (s)	90.535
Peak Height 	0.234
calc peak height	90,93
Baseline Time (s)	10.536
Baseline Value 	5.6113E-4
subtract baseline	10,1


Time (s)	A880-A510	A880-A775	A880-A975	A880	I510	I775	I975	I880	
0.035000	-0.002559	0.000137	0.002239	0.005828	6428.265356	43534.005307	3946.792425	22417.724180
0.535500	-0.002401	0.000258	-0.003966	0.004621	6439.514771	43658.286161	3933.842867	22472.123580
1.036000	-0.003324	-0.000187	-0.004333	0.003202	6443.627184	43749.720150	3936.555826	22536.333359
1.541000	-0.000657	-0.000209	0.001496	0.001469	6480.213797	43910.804681	3956.250410	22615.001480
2.036500	-0.001110	0.000267	-0.004170	0.004623	6450.189763	43659.014396	3933.314008	22472.064351
2.536500	-0.000798	-0.000348	0.002040	0.000680	6485.631582	43972.221736	3959.759247	22650.940823
3.037000	-0.000439	-0.000125	0.004871	-0.001888	6510.214313	44236.749900	3974.076060	22768.312363
3.537000	-0.000037	-0.000133	0.004778	0.000164	6496.334787	44041.232540	3968.365014	22674.445912
4.037500	-0.003375	-0.001000	0.000215	0.004512	6432.377967	43550.677106	3944.947607	22477.050700
4.535000	-0.001420	0.000902	0.001526	0.001153	6476.479457	44045.723802	3957.161466	22629.412959
5.035500	-0.000070	-0.000222	0.001203	-0.000152	6498.714446	44062.792540	3959.744220	22688.875560
5.538000	0.000628	0.000650	-0.000771	0.000278	6500.965001	44104.622315	3953.426697	22669.249189
6.036000	-0.000660	-0.000738	-0.004163	-0.000772	6498.967665	44072.684188	3947.307374	22717.244634
6.536000	-0.000628	-0.000373	0.001212	-0.000498	6496.926700	44081.233041	3960.679479	22704.680737
7.036500	0.000167	-0.000192	-0.001404	-0.000470	6503.377912	44095.711753	3953.729109	22703.415182
7.536500	-0.000923	0.000982	-0.001473	0.000488	6486.194493	44116.196421	3951.039578	22659.678191
8.037000	0.002445	0.000759	0.003172	0.000441	6514.891317	44099.528119	3963.376583	22661.811718
8.534500	0.000225	0.000000	0.000623	0.000114	6498.957981	44058.589709	3957.516018	22676.732977
9.035000	-0.000122	0.000158	0.000273	0.000059	6496.501886	44078.796128	3956.742224	22679.241007
9.535500	0.001062	-0.000127	-0.003612	-0.000363	6510.010503	44091.782281	3947.675525	22698.523415
10.035500	-0.002002	-0.000091	-0.000545	0.000000	6481.251128	44060.831741	3954.748508	22681.952657
10.536000	0.000000	0.000645	0.000166	0.000248	6495.942237	44107.026708	3955.964076	22670.632174
11.036000	-0.000592	0.000040	-0.002316	-0.000844	6500.145661	44153.292464	3952.319474	22720.526457
11.536500	0.001506	-0.000148	0.000000	-0.000236	6512.682265	44077.750515	3956.800527	22692.731296
12.036500	-0.001868	0.000043	-0.003248	0.004155	6447.785054	43681.815200	3936.896779	22493.190911
12.537000	-0.001204	0.000455	0.001681	-0.000169	6489.345220	44128.569075	3961.050401	22689.671286
13.037500	0.002029	0.000616	0.004159	0.000285	6512.708254	44100.797873	3966.403074	22668.965223
13.537500	0.001281	0.000661	0.002549	0.000587	6503.851838	44076.343065	3961.345444	22655.154666
14.035000	-0.004867	-0.001090	-0.003731	0.003502	6428.405577	43636.814108	3937.337727	22522.757162
14.538000	-0.001908	-0.000703	-0.001604	0.001116	6472.712458	43897.521584	3949.056913	22631.075816
15.035500	-0.000699	0.000213	-0.002106	-0.000123	6493.192805	44101.295850	3950.982480	22687.576169
15.536000	-0.000109	0.000575	-0.002766	0.000616	6491.944797	44065.543354	3947.329838	22653.858552
16.036500	-0.001871	-0.000243	0.002003	0.004140	6447.879473	43656.373153	3950.579781	22493.860716
16.539000	0.000331	0.000058	0.005867	0.000119	6499.802074	44063.656200	3971.380453	22676.517901
17.037000	0.001276	0.000170	0.004691	-0.003135	6535.263509	44383.578048	3976.926213	22825.560401
17.537500	0.000411	0.000002	0.004314	0.001314	6490.449746	43945.322745	3964.087340	22622.048349
18.040000	-0.000410	0.000553	0.000451	0.003745	6463.294219	43768.211591	3947.558919	22511.747592
18.535000	-0.000328	-0.000067	-0.003967	0.001342	6484.023139	43936.185460	3942.317894	22620.786948
19.035500	-0.000278	0.000873	0.001006	0.001832	6480.345421	43978.702929	3954.012878	22598.500751
19.535500	-0.000807	0.000030	-0.001089	0.001502	6478.683469	43930.222460	3949.393133	22613.505871
20.036000	-0.000432	0.000171	-0.003423	0.002608	6472.581081	43839.323473	3940.445295	22563.274472
20.536000	-0.000283	0.000393	-0.000112	0.001332	6484.484022	43980.585102	3952.393562	22621.236080
21.036000	-0.001011	0.000571	0.002320	0.001572	6476.392350	43974.729036	3958.145852	22610.315640
21.536500	0.000899	0.000418	0.000572	0.001842	6490.117524	43934.865791	3952.849985	22598.072615
22.039500	0.000550	0.000941	-0.001223	0.003015	6477.383879	43873.477045	3945.100587	22544.807464
22.537000	0.001173	0.000707	-0.002470	0.001639	6494.116496	43981.234362	3945.436427	22607.294071
23.037500	0.001269	0.000000	0.000885	0.001097	6499.467036	43965.650436	3955.621470	22631.922585
23.537000	-0.000314	-0.000055	-0.001777	0.000662	6489.840046	44001.576097	3949.790289	22651.758203
24.035500	-0.000215	-0.000057	-0.008593	0.002372	6476.364731	43839.983536	3927.735267	22573.973220
24.535500	0.001548	0.000836	0.000591	0.001841	6495.563175	43974.304576	3952.899423	22598.080765
25.035500	0.000477	0.000512	-0.000841	0.001233	6491.682042	44001.259158	3950.745739	22625.763217
25.536000	0.000937	0.000276	-0.002422	0.000895	6498.376097	44010.835441	3947.499411	22641.132852
26.040000	-0.001045	0.000066	0.000251	0.001079	6480.230003	43973.607946	3954.005373	22632.753055
26.550500	-0.000889	-0.000755	-0.002311	0.000344	6487.689988	43965.525320	3949.228672	22666.274362
27.034000	0.001783	0.000623	0.001975	-0.002123	6530.979104	44330.279801	3966.997293	22779.087999
27.537000	0.000195	0.000643	-0.000974	-0.000418	6503.172274	44169.991473	3954.720106	22701.023235
28.034500	0.000250	-0.000132	-0.001041	-0.000604	6505.208199	44114.099318	3955.033861	22709.542731
28.538000	-0.000771	0.000379	0.001298	0.000035	6491.268247	44102.026043	3959.505379	22680.374386
29.035500	0.000429	0.000114	-0.000650	-0.000140	6502.807047	44093.453405	3954.841980	22688.349510
29.535500	-0.000593	-0.000217	0.004570	-0.000463	6496.935791	44092.786787	3969.480500	22703.111822
30.036000	-0.000580	-0.000079	-0.001024	0.003090	6467.330889	43770.345444	3945.423499	22541.399988
30.537000	-0.000701	-0.000171	-0.003413	0.001642	6478.394875	43898.020623	3942.976063	22607.130160
31.039000	-0.000846	0.000025	-0.001971	0.000731	6484.806807	44002.633466	3949.103872	22648.621427
31.541000	-0.000042	0.000289	0.001141	-0.000096	6498.476742	44105.835580	3959.432651	22686.324033
32.037500	-0.003825	-0.000105	-0.004718	0.003023	6440.966490	43774.286598	3936.025625	22544.465779
32.537500	0.001756	0.000969	-0.004323	0.000360	6509.766277	44127.097556	3943.943391	22665.517534
33.034500	0.000689	0.000517	0.003624	-0.001853	6519.435906	44294.494602	3970.660383	22766.723956
33.535500	-0.000516	-0.000171	0.000187	0.001267	6483.080970	43933.518199	3953.346309	22624.210333
34.035500	-0.000827	-0.000164	0.001089	0.003279	6463.699714	43744.577468	3950.440022	22532.831344
34.538500	0.000753	0.000690	0.002023	0.001566	6491.199866	43986.544330	3957.380632	22610.591840
35.036000	0.000581	0.000494	0.000482	0.001634	6489.186174	43961.577446	3953.157354	22607.487249
35.536000	-0.000828	-0.000385	0.000555	0.001004	6482.671769	43938.163819	3955.000948	22636.193251
36.037500	0.000103	-0.000178	-0.001891	0.003546	6469.218243	43718.274068	3941.986185	22520.752857
36.540000	-0.001278	-0.000431	-0.004673	0.001137	6477.800936	43921.208003	3941.020510	22630.135555
37.040000	-0.002721	-0.001051	0.001141	0.000426	6471.692025	43929.823085	3958.059525	22662.528241
37.535000	0.000644	0.000170	-0.002819	0.001401	6491.675619	43953.026432	3945.150025	22618.127280
38.035500	-0.001752	-0.000022	-0.000624	0.002867	6459.440854	43796.770152	3947.046964	22551.531956
38.538000	-0.000981	-0.000033	0.001049	0.001020	6481.258539	43969.820528	3956.255970	22635.462024
39.036000	-0.000838	0.000165	0.000604	0.000854	6483.843490	44004.221807	3955.524023	22643.031513
39.536000	-0.000486	0.000137	0.003600	0.001041	6485.216749	43983.884356	3962.922329	22634.483292
40.036000	-0.001506	-0.000015	-0.001524	0.002138	6467.548978	43866.012642	3946.602333	22584.614871
40.536500	-0.002126	0.000420	-0.001067	0.001200	6470.191392	43995.569773	3950.240325	22627.243543
41.037000	-0.000850	0.000048	0.001563	0.000973	6482.738767	43981.886368	3957.729090	22637.569292
41.537500	-0.000678	0.000380	-0.002727	0.001606	6478.895135	43953.500239	3944.853999	22608.800960
42.034500	-0.002137	0.000274	-0.000027	0.002989	6455.222557	43813.094671	3948.285598	22545.993634
42.535000	-0.000425	-0.000082	-0.001486	0.001713	6480.115129	43899.764990	3947.807607	22603.927838
43.035000	-0.000370	-0.000083	-0.003671	0.001570	6481.760529	43913.119975	3942.494543	22610.396950
43.535500	0.001952	0.001309	0.002968	-0.002722	6537.497957	44452.962079	3971.226131	22806.594778
44.036000	-0.004700	0.000027	-0.001302	0.005182	6415.960180	43584.099825	3939.271642	22446.805556
44.536500	-0.000214	0.001376	-0.003985	0.000492	6492.103793	44153.223488	3944.478257	22659.506581
45.036500	-0.000191	-0.000011	-0.003099	-0.000494	6500.571265	44115.207022	3949.357965	22704.525762
45.537000	-0.000829	-0.000045	-0.000258	-0.000325	6493.790598	44095.930218	3956.355001	22696.779966
46.037000	-0.000864	-0.000662	0.002527	0.003863	6458.532825	43643.100402	3952.675970	22506.397148
46.537000	0.000096	0.000149	0.000644	0.000031	6498.565727	44080.595757	3957.792350	22680.530323
47.037500	-0.000325	-0.000419	-0.004223	0.001615	6481.769175	43877.190212	3940.946353	22608.365844
47.535500	0.000697	0.000672	-0.003309	0.001428	6491.898254	43997.931869	3943.805526	22616.897492
48.035500	-0.002484	-0.000239	-0.003523	0.004990	6435.789077	43577.175496	3934.035128	22455.502382
48.535500	0.002422	0.000161	0.000428	0.000828	6511.436777	44006.289229	3955.129724	22644.203332
49.036000	-0.000512	0.000208	0.000583	-0.000423	6497.278044	44129.251605	3958.826106	22701.285176
49.536500	0.001492	0.000842	0.000622	-0.001386	6522.278721	44280.995402	3961.467990	22745.337953
50.036500	-0.003011	-0.000919	-0.003215	0.006527	6418.788419	43370.227988	3930.873027	22386.248474
50.536500	0.016728	-0.001729	0.057839	0.245249	5005.601995	26230.273264	3556.308353	14128.592010
51.039500	-0.007741	-0.021086	-0.003487	0.037663	6135.935308	38865.580729	3853.040262	21035.234408
51.537500	-0.015798	-0.075813	-0.038429	-0.248322	9081.062261	64127.250031	4665.155877	37974.288593
52.035000	-0.020736	-0.094585	-0.035324	-0.275123	9402.747550	65269.016833	4797.029774	40209.600587
52.535000	0.002886	-0.036850	-0.013044	-0.176836	8367.766817	59712.454350	4478.847822	32644.771707
53.035500	0.005760	-0.032594	-0.003955	-0.164595	8250.055528	58678.361515	4466.820217	31816.979243
53.535500	0.003261	-0.022713	0.001946	-0.120752	7703.549529	54485.597587	4328.656597	29036.250292
54.036000	-0.000643	-0.027036	-0.003250	-0.149327	7987.226082	57445.910529	4412.358793	30816.581604
54.536000	0.011815	-0.019625	0.013606	-0.139577	8019.360054	57153.158047	4438.706516	30195.931259
55.039000	0.025680	-0.008991	0.029186	-0.106165	7791.866890	54382.984930	4373.396768	28171.591971
55.537000	0.038552	0.001266	0.049674	-0.026782	7090.193500	46813.314216	4175.797944	23942.911183
56.037000	0.051428	0.011346	0.066017	0.040444	6591.458014	41404.012765	4025.379067	20919.204282
56.535000	0.069248	0.022121	0.087712	0.092933	6304.420353	37881.413460	3942.546596	18863.112303
57.035000	0.088925	0.035285	0.101427	0.130727	6163.303292	35955.025994	3881.747821	17529.223351
57.535500	0.105537	0.047688	0.122164	0.155288	6103.215648	35043.553235	3872.397558	16722.550070
58.035500	0.126086	0.059444	0.134664	0.175967	6102.235335	34390.629672	3852.674142	16077.859950
58.536000	0.137728	0.067723	0.151138	0.218722	5877.429892	31990.501065	3791.759276	14838.458641
59.036500	0.151019	0.072829	0.163018	0.234782	5858.181841	31266.899455	3782.403162	14403.511171
59.537000	0.158753	0.079336	0.182323	0.259614	5742.068125	30096.540840	3770.175636	13761.913490
60.037000	0.167385	0.084765	0.187876	0.275775	5692.368954	29433.683844	3747.132630	13363.618335
60.537000	0.176940	0.090721	0.192104	0.288429	5672.169642	29028.276782	3729.228537	13061.957343
61.037000	0.182885	0.096722	0.206678	0.310322	5570.423459	28090.831991	3713.953932	12560.322507
61.540000	0.184936	0.099246	0.205925	0.329026	5468.098654	27171.091613	3674.579052	12151.357993
62.035500	0.185184	0.102415	0.204961	0.335043	5433.557798	27012.693350	3660.878475	12023.496434
62.535500	0.187826	0.106682	0.210028	0.335353	5447.465339	27233.064983	3670.190712	12016.960545
63.092500	0.194514	0.111022	0.219258	0.331115	5513.629877	27717.638814	3697.118676	12106.758286
63.536000	0.194916	0.113682	0.215485	0.330078	5522.472310	27929.453995	3691.580129	12128.882199
64.036500	0.198127	0.115196	0.220173	0.329325	5546.970008	28060.290824	3702.629200	12144.970550
64.536500	0.203478	0.119118	0.224890	0.331197	5568.664123	28179.160067	3708.461897	12105.030881
65.036500	0.205520	0.119630	0.222842	0.330113	5588.296077	28272.014030	3706.479438	12128.134482
65.537000	0.205050	0.121349	0.220229	0.331855	5574.385671	28270.673176	3697.586977	12091.014147
66.037500	0.208757	0.121998	0.220456	0.335322	5575.893469	28106.891061	3691.030682	12017.619612
66.534500	0.207401	0.123072	0.228642	0.337254	5555.332932	28057.142009	3703.731243	11976.946632
67.035500	0.212083	0.124158	0.222651	0.340181	5566.288713	27950.980486	3685.675462	11915.711680
67.538000	0.212410	0.125473	0.227938	0.343968	5544.732349	27808.979546	3688.684067	11837.062959
68.035500	0.216441	0.127874	0.235000	0.348844	5539.501575	27667.700027	3693.093064	11736.835330
68.535500	0.219742	0.129176	0.230729	0.350735	5548.242572	27634.122308	3680.726176	11698.251480
69.036500	0.218144	0.129648	0.232242	0.352324	5528.518126	27570.683717	3680.573954	11665.961641
69.536500	0.221307	0.130521	0.232277	0.354875	5532.294710	27475.716244	3675.575988	11614.379259
70.037000	0.220197	0.131287	0.227653	0.362722	5477.551874	27078.950632	3651.223720	11457.598547
70.537500	0.223882	0.133876	0.239730	0.361145	5509.574777	27311.633944	3677.924480	11488.888054
71.034500	0.221841	0.132771	0.235398	0.361230	5496.588506	27244.912633	3669.192795	11487.181310
71.538000	0.225009	0.133671	0.242169	0.362777	5506.481165	27208.701765	3679.526978	11456.500003
72.035500	0.221714	0.133747	0.236077	0.369496	5445.941483	26840.391734	3654.406408	11324.517636
72.536000	0.224257	0.134983	0.250352	0.365769	5483.684254	27115.043615	3689.919396	11397.473809
73.035500	0.229478	0.136292	0.248089	0.367742	5503.453415	27078.127640	3681.429341	11358.770988
73.536000	0.229523	0.137156	0.249716	0.369021	5495.923716	27055.046370	3682.125138	11333.777356
74.036000	0.228798	0.137081	0.242221	0.375494	5452.436619	26694.167362	3654.686803	11208.377658
74.537000	0.233258	0.136874	0.249437	0.369136	5518.069177	27033.039553	3681.339864	11331.538307
75.037500	0.233498	0.137901	0.248942	0.369058	5520.019328	27094.378422	3680.506786	11333.050368
75.537500	0.230379	0.137599	0.249370	0.367933	5507.791675	27140.170902	3683.605936	11355.028540
76.038000	0.230863	0.138086	0.245430	0.374434	5471.225073	26807.395800	3662.978814	11228.785105
76.535500	0.234009	0.139281	0.249144	0.368309	5527.781248	27213.120535	3682.404707	11347.682490
77.035500	0.235302	0.139218	0.246810	0.367849	5538.607282	27235.299710	3678.670249	11356.681469
77.536000	0.234612	0.139615	0.255379	0.366531	5542.500273	27331.417167	3698.550552	11382.508816
78.036000	0.231022	0.138726	0.245766	0.371481	5490.075484	27005.642512	3669.423305	11285.898775
78.536500	0.234892	0.138843	0.248266	0.365645	5549.736437	27337.829512	3685.977271	11399.917951
79.036500	0.235257	0.140463	0.249268	0.366308	5547.884608	27391.657010	3686.657059	11386.893672
79.537000	0.233155	0.139591	0.249696	0.365173	5541.883161	27406.470276	3689.798211	11409.203990
80.037500	0.235852	0.142011	0.253534	0.366313	5551.550518	27478.624072	3695.248400	11386.777978
80.534500	0.234680	0.141779	0.245789	0.366030	5546.028876	27481.531386	3680.258099	11392.346927
81.035000	0.239087	0.143145	0.247008	0.367216	5566.095625	27491.749661	3680.322943	11369.075199
81.535500	0.235337	0.141828	0.246035	0.366341	5548.176859	27466.779022	3680.127670	11386.237700
82.035500	0.238350	0.142448	0.247018	0.367147	5561.922636	27456.237986	3680.480259	11370.426900
82.535500	0.236512	0.141166	0.251756	0.365187	5562.680117	27494.557182	3693.927794	11408.925683
83.036000	0.236197	0.141275	0.247347	0.365429	5559.202948	27487.008916	3684.568530	11404.155469
83.536500	0.236351	0.143028	0.249415	0.366437	5553.882745	27529.179104	3686.691780	11384.344124
84.039500	0.239167	0.142540	0.255808	0.366737	5569.591569	27484.632483	3699.005322	11378.466432
84.537000	0.238697	0.140975	0.243901	0.365475	5574.559589	27467.489330	3677.608177	11403.266586
85.037000	0.234945	0.140384	0.248412	0.364914	5554.612063	27465.787224	3687.738601	11414.309243
85.535000	0.231437	0.138944	0.243687	0.364046	5538.225355	27433.516503	3680.023010	11431.422625
86.035500	0.237286	0.141198	0.248543	0.366678	5558.205490	27412.224535	3684.463268	11379.622609
86.535500	0.234830	0.140243	0.246662	0.366467	5544.242464	27370.260561	3681.126482	11383.753101
87.036000	0.233484	0.139939	0.253386	0.366323	5536.798438	27361.280089	3694.928482	11386.582004
87.536500	0.235327	0.139882	0.249880	0.367768	5539.266391	27277.032548	3684.957337	11358.268913
88.039500	0.231734	0.138809	0.250868	0.365333	5532.102462	27353.439255	3691.839334	11406.051932
88.536000	0.234263	0.138307	0.249557	0.366107	5542.961056	27281.808962	3687.640327	11390.824907
89.036500	0.232494	0.138161	0.250287	0.366472	5529.759414	27253.155863	3688.374219	11383.656783
89.537500	0.231836	0.137903	0.251195	0.367494	5519.419954	27181.669674	3688.145741	11363.627116
90.035000	0.227738	0.135423	0.242492	0.371846	5467.989610	26803.249054	3662.296305	11278.814695
90.535000	0.234006	0.136466	0.249027	0.367244	5534.337996	27115.512644	3684.299479	11368.530499
91.035500	0.232944	0.135738	0.248966	0.367701	5524.966004	27049.624725	3683.262349	11359.574176
91.535500	0.232683	0.136214	0.252257	0.369683	5511.183368	26966.127775	3685.881166	11320.857607
92.036000	0.229978	0.135090	0.254582	0.374704	5464.270586	26628.588601	3680.495374	11223.589881
92.536000	0.233834	0.137005	0.249163	0.371181	5509.057569	26927.042606	3676.725816	11291.723195
93.084500	0.232396	0.135368	0.248966	0.371664	5497.328496	26810.282863	3675.379217	11282.358916
93.536500	0.234384	0.136529	0.255611	0.375831	5484.075569	26645.568881	3680.299722	11201.902771
94.037000	0.232758	0.134662	0.249602	0.373376	5489.108264	26677.682844	3673.248755	11249.199144
94.537500	0.234151	0.134757	0.253059	0.374557	5490.398566	26618.464371	3677.758814	11226.423687
95.035000	0.232855	0.134548	0.247570	0.375689	5475.679294	26545.405496	3664.708815	11204.635295
95.535000	0.236228	0.134714	0.255063	0.377051	5487.865147	26480.545960	3676.785995	11178.506902
