sample name	sample
index	138
start time	 02-15-2021  01:42:51 PM


Wavelength (nm)	Absorbance
494.344910	-1.538061
494.563924	-1.538061
494.782919	-1.538061
495.001897	-0.104340
495.220856	0.263724
495.439797	0.092896
495.658719	-0.024339
495.877624	-0.162727
496.096510	-0.282072
496.315378	-0.198113
496.534227	-0.187895
496.753059	-0.204052
496.971872	-0.090581
497.190667	0.114487
497.409444	0.156510
497.628203	0.161049
497.846943	0.157343
498.065665	0.159396
498.284369	0.158316
498.503055	0.161489
498.721723	0.166621
498.940372	0.170591
499.159003	0.173666
499.377616	0.169618
499.596210	0.170678
499.814787	0.173891
500.033345	0.177149
500.251885	0.177690
500.470406	0.173429
500.688910	0.167611
500.907395	0.165359
501.125862	0.164461
501.344311	0.164972
501.562742	0.162946
501.781154	0.164007
501.999548	0.163012
502.217924	0.163372
502.436282	0.164057
502.654621	0.168578
502.872942	0.168352
503.091245	0.170550
503.309530	0.170219
503.527797	0.171129
503.746045	0.171002
503.964275	0.170450
504.182487	0.171068
504.400681	0.172255
504.618856	0.173050
504.837013	0.173570
505.055152	0.171655
505.273273	0.172031
505.491376	0.170872
505.709460	0.167990
505.927526	0.168379
506.145574	0.169809
506.363604	0.169762
506.581615	0.168250
506.799608	0.169489
507.017583	0.169546
507.235540	0.170958
507.453478	0.173705
507.671399	0.175666
507.889301	0.176786
508.107185	0.176463
508.325050	0.176071
508.542898	0.178843
508.760727	0.176281
508.978538	0.175745
509.196330	0.176612
509.414105	0.175314
509.631861	0.176609
509.849599	0.174723
510.067319	0.174886
510.285021	0.175228
510.502704	0.172795
510.720369	0.174648
510.938016	0.174599
511.155645	0.172638
511.373255	0.172979
511.590848	0.172757
511.808422	0.173109
512.025977	0.172170
512.243515	0.173442
512.461034	0.174433
512.678536	0.174179
512.896018	0.175006
513.113483	0.177259
513.330930	0.177496
513.548358	0.179170
513.765768	0.179576
513.983160	0.180063
514.200533	0.179917
514.417889	0.178276
514.635226	0.178820
514.852545	0.179506
515.069845	0.179769
515.287128	0.180584
515.504392	0.180287
515.721638	0.181887
515.938866	0.180155
516.156075	0.179408
516.373267	0.181534
516.590440	0.182140
516.807594	0.180983
517.024731	0.180646
517.241850	0.181494
517.458950	0.180924
517.676032	0.180712
517.893095	0.182674
518.110141	0.182538
518.327168	0.182180
518.544177	0.182822
518.761168	0.184288
518.978141	0.185053
519.195095	0.186241
519.412031	0.186152
519.628949	0.187873
519.845849	0.189717
520.062731	0.190800
520.279594	0.191971
520.496439	0.191532
520.713266	0.191551
520.930074	0.190284
521.146865	0.188839
521.363637	0.188701
521.580391	0.188058
521.797127	0.188142
522.013844	0.189283
522.230543	0.186636
522.447224	0.186545
522.663887	0.186162
522.880532	0.187042
523.097158	0.187616
523.313766	0.189524
523.530356	0.187948
523.746928	0.186902
523.963481	0.185377
524.180017	0.189258
524.396534	0.191824
524.613032	0.193123
524.829513	0.192993
525.045975	0.192362
525.262420	0.192605
525.478845	0.194067
525.695253	0.194111
525.911643	0.194821
526.128014	0.194052
526.344367	0.192237
526.560702	0.191611
526.777018	0.192941
526.993316	0.191942
527.209597	0.190993
527.425858	0.191966
527.642102	0.192716
527.858328	0.193889
528.074535	0.194413
528.290724	0.194700
528.506894	0.195856
528.723047	0.195266
528.939181	0.197907
529.155297	0.198513
529.371395	0.197710
529.587475	0.199255
529.803536	0.199244
530.019579	0.198286
530.235604	0.198693
530.451611	0.199618
530.667600	0.199921
530.883570	0.200003
531.099522	0.200679
531.315456	0.200995
531.531372	0.200649
531.747269	0.200369
531.963148	0.200641
532.179009	0.201122
532.394852	0.201218
532.610676	0.202491
532.826482	0.202918
533.042271	0.202157
533.258040	0.201997
533.473792	0.202201
533.689525	0.202801
533.905240	0.203837
534.120937	0.202938
534.336616	0.202813
534.552277	0.201936
534.767919	0.201373
534.983543	0.202029
535.199149	0.203187
535.414736	0.202594
535.630306	0.202871
535.845857	0.202922
536.061390	0.204669
536.276904	0.204269
536.492401	0.205074
536.707879	0.206607
536.923339	0.207699
537.138781	0.208366
537.354204	0.208830
537.569610	0.208434
537.784997	0.209206
538.000366	0.208492
538.215716	0.209925
538.431049	0.211137
538.646363	0.211228
538.861659	0.210876
539.076937	0.209529
539.292196	0.210773
539.507438	0.212292
539.722661	0.212770
539.937866	0.212760
540.153052	0.212296
540.368221	0.212572
540.583371	0.211964
540.798503	0.212979
541.013617	0.214214
541.228712	0.214458
541.443789	0.213682
541.658848	0.214140
541.873889	0.214527
542.088912	0.214051
542.303916	0.213836
542.518902	0.212632
542.733870	0.211797
542.948820	0.212435
543.163752	0.211811
543.378665	0.212366
543.593560	0.211583
543.808437	0.212597
544.023295	0.212782
544.238136	0.213588
544.452958	0.216200
544.667762	0.216575
544.882548	0.217588
545.097315	0.217572
545.312064	0.218371
545.526795	0.219141
545.741508	0.220121
545.956203	0.220820
546.170879	0.219938
546.385537	0.220917
546.600177	0.222215
546.814799	0.222361
547.029402	0.222986
547.243988	0.223231
547.458555	0.223987
547.673103	0.223692
547.887634	0.223880
548.102146	0.224766
548.316640	0.223261
548.531116	0.224343
548.745574	0.224195
548.960013	0.225503
549.174435	0.225762
549.388838	0.225643
549.603222	0.225986
549.817589	0.226863
550.031937	0.225860
550.246267	0.228205
550.460579	0.227899
550.674873	0.227502
550.889148	0.226879
551.103405	0.226712
551.317644	0.227069
551.531865	0.227363
551.746068	0.227007
551.960252	0.228298
552.174418	0.227230
552.388566	0.226702
552.602696	0.227225
552.816807	0.227732
553.030900	0.228815
553.244975	0.228000
553.459032	0.227400
553.673070	0.228551
553.887091	0.228798
554.101093	0.227857
554.315077	0.228078
554.529042	0.228493
554.742990	0.227933
554.956919	0.227758
555.170830	0.228324
555.384722	0.229462
555.598597	0.229884
555.812453	0.229981
556.026291	0.230556
556.240111	0.229743
556.453913	0.229501
556.667696	0.230179
556.881461	0.230312
557.095208	0.230615
557.308937	0.231280
557.522647	0.230982
557.736339	0.231076
557.950013	0.231676
558.163669	0.232906
558.377307	0.233720
558.590926	0.234296
558.804527	0.234523
559.018110	0.235662
559.231675	0.235412
559.445221	0.235292
559.658749	0.235763
559.872259	0.236198
560.085751	0.236803
560.299225	0.237138
560.512680	0.236668
560.726117	0.236524
560.939536	0.235722
561.152937	0.236025
561.366319	0.235729
561.579683	0.235657
561.793029	0.235322
562.006357	0.235162
562.219667	0.234365
562.432958	0.234832
562.646231	0.235231
562.859486	0.235021
563.072723	0.234733
563.285941	0.235827
563.499141	0.236483
563.712323	0.236355
563.925487	0.237133
564.138632	0.238039
564.351760	0.238185
564.564869	0.238672
564.777960	0.239558
564.991032	0.240464
565.204087	0.240524
565.417123	0.240813
565.630141	0.242225
565.843140	0.242150
566.056122	0.242135
566.269085	0.242703
566.482030	0.242222
566.694957	0.242552
566.907866	0.242130
567.120756	0.241779
567.333628	0.242205
567.546482	0.241624
567.759318	0.242442
567.972135	0.242382
568.184935	0.243668
568.397716	0.245249
568.610478	0.245437
568.823223	0.245991
569.035949	0.246549
569.248657	0.246969
569.461347	0.247550
569.674019	0.246052
569.886672	0.246526
570.099308	0.244834
570.311925	0.244390
570.524523	0.243892
570.737104	0.243744
570.949666	0.243597
571.162210	0.242881
571.374736	0.242843
571.587244	0.243791
571.799733	0.244627
572.012205	0.245566
572.224658	0.245979
572.437092	0.246456
572.649509	0.246156
572.861907	0.247418
573.074287	0.247667
573.286649	0.248370
573.498993	0.248647
573.711318	0.248349
573.923625	0.248943
574.135914	0.247886
574.348185	0.248541
574.560438	0.248705
574.772672	0.247441
574.984888	0.247879
575.197086	0.247656
575.409266	0.248435
575.621427	0.248538
575.833570	0.248173
576.045695	0.249540
576.257802	0.249191
576.469890	0.249481
576.681961	0.250974
576.894013	0.250985
577.106046	0.251046
577.318062	0.251331
577.530059	0.251868
577.742039	0.251376
577.954000	0.251034
578.165942	0.251143
578.377867	0.251342
578.589773	0.250830
578.801661	0.251071
579.013531	0.251803
579.225382	0.250437
579.437216	0.251256
579.649031	0.252292
579.860828	0.251770
580.072606	0.252914
580.284367	0.252936
580.496109	0.253874
580.707833	0.254002
580.919539	0.254187
581.131227	0.255420
581.342896	0.255082
581.554547	0.255482
581.766180	0.257541
581.977795	0.257411
582.189391	0.258344
582.400969	0.258175
582.612529	0.259467
582.824071	0.259577
583.035595	0.259173
583.247100	0.258418
583.458587	0.258284
583.670056	0.257753
583.881506	0.257134
584.092939	0.256960
584.304353	0.256960
584.515749	0.255177
584.727127	0.255667
584.938486	0.256240
585.149828	0.256972
585.361151	0.257092
585.572456	0.256485
585.783742	0.257082
585.995011	0.257741
586.206261	0.257866
586.417493	0.258948
586.628706	0.259439
586.839902	0.260301
587.051079	0.261163
587.262238	0.261339
587.473379	0.261726
587.684502	0.262147
587.895606	0.261552
588.106692	0.261672
588.317760	0.261293
588.528810	0.260811
588.739841	0.260278
588.950855	0.260080
589.161850	0.260407
589.372827	0.260708
589.583785	0.260624
589.794726	0.261799
590.005648	0.261775
590.216552	0.263011
590.427437	0.263547
590.638305	0.264062
590.849154	0.263621
591.059985	0.263385
591.270798	0.263835
591.481592	0.264776
591.692369	0.264165
591.903127	0.264689
592.113867	0.264217
592.324588	0.263780
592.535292	0.263461
592.745977	0.263397
592.956644	0.263335
593.167293	0.263009
593.377923	0.263232
593.588536	0.263914
593.799130	0.263916
594.009706	0.264742
594.220263	0.265167
594.430803	0.265256
594.641324	0.266459
594.851827	0.268007
595.062312	0.268354
595.272778	0.268657
595.483227	0.269062
595.693657	0.269895
595.904069	0.269757
596.114462	0.269630
596.324838	0.269855
596.535195	0.269742
596.745534	0.269091
596.955855	0.269508
597.166157	0.268829
597.376441	0.268958
597.586707	0.268536
597.796955	0.268346
598.007185	0.269081
598.217396	0.270067
598.427589	0.270005
598.637764	0.270072
598.847921	0.270146
599.058060	0.270754
599.268180	0.270575
599.478282	0.270916
599.688366	0.271688
599.898431	0.272057
600.108479	0.272047
600.318508	0.272861
600.528519	0.273051
600.738511	0.273568
600.948486	0.273739
601.158442	0.274188
601.368380	0.274918
601.578300	0.275015
601.788202	0.274163
601.998085	0.274308
602.207950	0.273454
602.417797	0.273624
602.627626	0.274421
602.837436	0.275196
603.047228	0.275145
603.257002	0.274933
603.466758	0.275161
603.676496	0.276222
603.886215	0.275902
604.095916	0.277475
604.305599	0.278206
604.515264	0.277550
604.724910	0.277312
604.934538	0.277289
605.144148	0.277930
605.353740	0.278613
605.563314	0.278560
605.772869	0.278780
605.982406	0.277709
606.191925	0.277834
606.401425	0.277479
606.610908	0.277043
606.820372	0.277538
607.029818	0.277596
607.239246	0.277475
607.448655	0.277048
607.658047	0.277456
607.867420	0.277841
608.076775	0.278103
608.286111	0.278960
608.495430	0.279483
608.704730	0.279750
608.914012	0.279382
609.123275	0.279463
609.332521	0.280765
609.541748	0.280739
609.750957	0.281337
609.960148	0.281557
610.169321	0.281685
610.378475	0.281617
610.587611	0.282005
610.796729	0.282436
611.005829	0.282301
611.214910	0.281596
611.423974	0.281947
611.633019	0.282338
611.842045	0.281977
612.051054	0.281584
612.260044	0.281789
612.469017	0.281668
612.677970	0.281459
612.886906	0.282234
613.095824	0.283344
613.304723	0.283266
613.513604	0.282960
613.722467	0.283212
613.931311	0.284274
614.140138	0.285190
614.348946	0.285289
614.557736	0.285368
614.766507	0.285403
614.975261	0.285029
615.183996	0.285302
615.392713	0.285598
615.601412	0.285973
615.810092	0.285564
616.018754	0.285039
616.227399	0.285250
616.436024	0.285945
616.644632	0.285851
616.853222	0.286274
617.061793	0.286491
617.270346	0.286321
617.478880	0.287003
617.687397	0.287531
617.895895	0.287981
618.104375	0.287680
618.312837	0.288228
618.521281	0.288662
618.729706	0.288505
618.938113	0.288971
619.146502	0.290322
619.354873	0.289624
619.563226	0.290226
619.771560	0.290441
619.979876	0.290742
620.188174	0.290413
620.396453	0.290226
620.604715	0.290753
620.812958	0.290662
621.021183	0.289726
621.229390	0.290544
621.437578	0.290119
621.645748	0.290385
621.853900	0.290497
622.062034	0.291524
622.270150	0.291956
622.478247	0.291684
622.686326	0.292064
622.894387	0.292636
623.102430	0.292876
623.310454	0.293453
623.518461	0.293957
623.726449	0.294581
623.934418	0.294483
624.142370	0.294885
624.350303	0.296068
624.558218	0.295057
624.766115	0.295864
624.973994	0.295817
625.181855	0.295701
625.389697	0.295488
625.597521	0.295544
625.805327	0.295889
626.013114	0.296120
626.220883	0.296283
626.428634	0.297818
626.636367	0.297308
626.844082	0.297726
627.051778	0.297702
627.259457	0.297829
627.467117	0.298613
627.674758	0.298461
627.882382	0.298355
628.089987	0.297793
628.297574	0.297791
628.505143	0.297852
628.712694	0.298511
628.920226	0.298711
629.127740	0.299032
629.335236	0.298760
629.542714	0.298180
629.750174	0.298144
629.957615	0.298054
630.165038	0.297946
630.372443	0.298560
630.579829	0.297797
630.787198	0.298124
630.994548	0.298061
631.201880	0.297894
631.409194	0.298747
631.616489	0.299392
631.823766	0.299768
632.031025	0.300104
632.238266	0.300394
632.445489	0.300854
632.652693	0.301071
632.859879	0.301277
633.067047	0.302047
633.274197	0.302683
633.481329	0.302335
633.688442	0.302886
633.895537	0.303117
634.102614	0.303505
634.309672	0.303962
634.516713	0.304275
634.723735	0.303868
634.930739	0.304396
635.137724	0.304143
635.344692	0.304346
635.551641	0.304204
635.758572	0.304391
635.965485	0.303997
636.172379	0.303738
636.379256	0.304050
636.586114	0.305416
636.792954	0.305338
636.999775	0.305337
637.206579	0.305734
637.413364	0.306592
637.620131	0.307019
637.826880	0.307341
638.033610	0.307634
638.240323	0.308368
638.447017	0.307854
638.653692	0.308297
638.860350	0.308424
639.066990	0.308820
639.273611	0.308707
639.480214	0.309201
639.686798	0.309911
639.893365	0.310324
640.099913	0.310124
640.306443	0.310383
640.512955	0.310582
640.719449	0.311274
640.925924	0.311780
641.132381	0.311998
641.338820	0.312145
641.545241	0.311623
641.751644	0.311986
641.958028	0.312166
642.164394	0.312901
642.370742	0.312369
642.577071	0.312341
642.783383	0.311680
642.989676	0.311547
643.195951	0.312091
643.402207	0.312936
643.608446	0.312978
643.814666	0.312991
644.020868	0.313281
644.227052	0.313603
644.433218	0.313867
644.639365	0.314386
644.845494	0.315058
645.051605	0.314735
645.257698	0.314590
645.463772	0.314726
645.669828	0.315098
645.875866	0.315086
646.081886	0.315477
646.287888	0.315465
646.493871	0.315625
646.699836	0.315249
646.905783	0.315313
647.111712	0.315512
647.317622	0.316329
647.523514	0.317154
647.729388	0.317459
647.935244	0.318763
648.141082	0.319616
648.346901	0.320610
648.552702	0.320907
648.758485	0.321446
648.964250	0.321615
649.169996	0.321369
649.375724	0.321007
649.581434	0.321126
649.787126	0.320078
649.992800	0.319830
650.198455	0.319505
650.404092	0.319855
650.609711	0.319942
650.815311	0.320560
651.020894	0.320716
651.226458	0.320840
651.432004	0.321009
651.637532	0.321768
651.843041	0.322091
652.048532	0.321997
652.254006	0.322182
652.459460	0.322854
652.664897	0.322776
652.870315	0.323187
653.075716	0.323626
653.281097	0.324319
653.486461	0.324668
653.691807	0.324821
653.897134	0.325775
654.102443	0.326398
654.307734	0.326104
654.513006	0.326283
654.718261	0.326136
654.923497	0.326190
655.128715	0.326159
655.333915	0.325787
655.539096	0.326578
655.744259	0.326231
655.949404	0.326434
656.154531	0.326816
656.359640	0.326748
656.564730	0.327364
656.769802	0.328665
656.974856	0.328117
657.179892	0.328289
657.384909	0.328117
657.589908	0.328418
657.794889	0.328597
657.999852	0.328620
658.204797	0.329598
658.409723	0.330077
658.614631	0.329282
658.819521	0.329875
659.024393	0.330669
659.229246	0.330973
659.434081	0.331196
659.638898	0.331139
659.843697	0.331953
660.048478	0.331870
660.253240	0.332098
660.457984	0.332309
660.662710	0.332565
660.867417	0.332668
661.072107	0.332758
661.276778	0.332961
661.481431	0.333790
661.686066	0.333429
661.890682	0.334039
662.095281	0.333826
662.299861	0.333657
662.504422	0.334340
662.708966	0.334202
662.913491	0.334515
663.117999	0.335138
663.322488	0.335167
663.526958	0.335061
663.731411	0.334509
663.935845	0.335211
664.140261	0.335868
664.344659	0.335454
664.549038	0.336252
664.753400	0.336412
664.957743	0.336627
665.162068	0.336657
665.366375	0.337625
665.570663	0.338618
665.774933	0.339112
665.979185	0.339233
666.183419	0.340321
666.387635	0.340174
666.591832	0.340708
666.796011	0.340834
667.000172	0.341569
667.204315	0.341396
667.408439	0.341187
667.612545	0.340853
667.816634	0.341731
668.020703	0.341547
668.224755	0.342304
668.428788	0.342360
668.632803	0.343268
668.836800	0.342824
669.040779	0.343596
669.244739	0.344420
669.448681	0.344759
669.652605	0.344430
669.856511	0.345159
670.060399	0.344634
670.264268	0.344466
670.468119	0.344368
670.671952	0.345184
670.875767	0.344868
671.079563	0.345218
671.283341	0.345635
671.487101	0.345962
671.690843	0.346189
671.894567	0.346966
672.098272	0.347755
672.301959	0.347780
672.505628	0.348281
672.709278	0.348866
672.912911	0.348630
673.116525	0.349036
673.320121	0.349291
673.523699	0.348923
673.727258	0.348904
673.930799	0.349254
674.134322	0.349595
674.337827	0.349602
674.541314	0.349806
674.744782	0.349982
674.948232	0.349826
675.151664	0.350416
675.355078	0.351572
675.558474	0.352378
675.761851	0.352570
675.965210	0.352755
676.168551	0.352875
676.371873	0.353310
676.575178	0.353600
676.778464	0.354020
676.981732	0.353841
677.184981	0.353189
677.388213	0.353367
677.591426	0.353984
677.794621	0.354189
677.997798	0.354779
678.200956	0.354506
678.404097	0.354900
678.607219	0.355048
678.810323	0.355313
679.013408	0.356106
679.216476	0.356240
679.419525	0.355525
679.622556	0.355748
679.825569	0.355608
680.028563	0.356291
680.231540	0.356514
680.434498	0.356765
680.637438	0.357433
680.840359	0.357361
681.043263	0.357499
681.246148	0.358343
681.449015	0.359013
681.651864	0.359287
681.854694	0.359433
682.057506	0.360133
682.260301	0.360118
682.463076	0.359751
682.665834	0.360232
682.868573	0.360419
683.071295	0.360383
683.273998	0.360386
683.476682	0.360607
683.679349	0.361438
683.881997	0.361760
684.084627	0.361884
684.287239	0.362500
684.489833	0.363113
684.692408	0.363522
684.894965	0.364138
685.097504	0.364541
685.300025	0.364511
685.502527	0.363817
685.705012	0.363886
685.907478	0.364487
686.109925	0.364348
686.312355	0.363868
686.514766	0.364129
686.717159	0.364333
686.919534	0.364255
687.121891	0.364773
687.324230	0.365456
687.526550	0.365306
687.728852	0.365620
687.931136	0.365949
688.133401	0.366087
688.335649	0.366367
688.537878	0.366703
688.740089	0.367466
688.942281	0.367795
689.144456	0.368321
689.346612	0.368579
689.548750	0.368725
689.750870	0.369546
689.952971	0.370738
690.155055	0.370915
690.357120	0.370798
690.559167	0.370440
690.761195	0.370116
690.963206	0.369756
691.165198	0.370119
691.367172	0.370238
691.569128	0.370572
691.771065	0.370249
691.972984	0.370315
692.174885	0.371026
692.376768	0.371666
692.578633	0.372165
692.780479	0.372383
692.982308	0.372818
693.184118	0.372997
693.385909	0.372751
