sample name	sample
index	567
start time	 03-16-2021  02:44:36 PM


Wavelength (nm)	Absorbance
494.344910	-0.003332
494.563924	-0.003332
494.782919	-0.003332
495.001897	-0.056448
495.220856	-0.017379
495.439797	-0.015829
495.658719	-0.026432
495.877624	-0.032220
496.096510	-0.019519
496.315378	-0.021636
496.534227	-0.023455
496.753059	-0.035574
496.971872	-0.028977
497.190667	0.030102
497.409444	0.064287
497.628203	0.076636
497.846943	0.085079
498.065665	0.090737
498.284369	0.094400
498.503055	0.096834
498.721723	0.099268
498.940372	0.100040
499.159003	0.102957
499.377616	0.102928
499.596210	0.103675
499.814787	0.103832
500.033345	0.101753
500.251885	0.101263
500.470406	0.100651
500.688910	0.100236
500.907395	0.100987
501.125862	0.100248
501.344311	0.101732
501.562742	0.101937
501.781154	0.101941
501.999548	0.103009
502.217924	0.103888
502.436282	0.103484
502.654621	0.103586
502.872942	0.104111
503.091245	0.103871
503.309530	0.102170
503.527797	0.102627
503.746045	0.102847
503.964275	0.101400
504.182487	0.100190
504.400681	0.100457
504.618856	0.100398
504.837013	0.098771
505.055152	0.098570
505.273273	0.098839
505.491376	0.098533
505.709460	0.098917
505.927526	0.100907
506.145574	0.101865
506.363604	0.102224
506.581615	0.101874
506.799608	0.102626
507.017583	0.104500
507.235540	0.105493
507.453478	0.106134
507.671399	0.105296
507.889301	0.104589
508.107185	0.105134
508.325050	0.105885
508.542898	0.108620
508.760727	0.109127
508.978538	0.107784
509.196330	0.108679
509.414105	0.109034
509.631861	0.109527
509.849599	0.110098
510.067319	0.110156
510.285021	0.110575
510.502704	0.109478
510.720369	0.110422
510.938016	0.110974
511.155645	0.109691
511.373255	0.109821
511.590848	0.110211
511.808422	0.110069
512.025977	0.110709
512.243515	0.110698
512.461034	0.109966
512.678536	0.109463
512.896018	0.109504
513.113483	0.109366
513.330930	0.109319
513.548358	0.109570
513.765768	0.110158
513.983160	0.110920
514.200533	0.110662
514.417889	0.110643
514.635226	0.110292
514.852545	0.110961
515.069845	0.112236
515.287128	0.113319
515.504392	0.113423
515.721638	0.113874
515.938866	0.112024
516.156075	0.112073
516.373267	0.112888
516.590440	0.113287
516.807594	0.113581
517.024731	0.113469
517.241850	0.113054
517.458950	0.113218
517.676032	0.112705
517.893095	0.113045
518.110141	0.113109
518.327168	0.112883
518.544177	0.113540
518.761168	0.112315
518.978141	0.112061
519.195095	0.112014
519.412031	0.111621
519.628949	0.111973
519.845849	0.112448
520.062731	0.112931
520.279594	0.112415
520.496439	0.111660
520.713266	0.112409
520.930074	0.112301
521.146865	0.112620
521.363637	0.113282
521.580391	0.113495
521.797127	0.113384
522.013844	0.113372
522.230543	0.114897
522.447224	0.115612
522.663887	0.116123
522.880532	0.117026
523.097158	0.117223
523.313766	0.117471
523.530356	0.117300
523.746928	0.117126
523.963481	0.117827
524.180017	0.117498
524.396534	0.118148
524.613032	0.118309
524.829513	0.117727
525.045975	0.116972
525.262420	0.117618
525.478845	0.117311
525.695253	0.118326
525.911643	0.118152
526.128014	0.118100
526.344367	0.117771
526.560702	0.118371
526.777018	0.119186
526.993316	0.120399
527.209597	0.120415
527.425858	0.121101
527.642102	0.120840
527.858328	0.120712
528.074535	0.120620
528.290724	0.121159
528.506894	0.121673
528.723047	0.121810
528.939181	0.121992
529.155297	0.121985
529.371395	0.122271
529.587475	0.122265
529.803536	0.123395
530.019579	0.124377
530.235604	0.124779
530.451611	0.123867
530.667600	0.123709
530.883570	0.123309
531.099522	0.123660
531.315456	0.124483
531.531372	0.125248
531.747269	0.125200
531.963148	0.124788
532.179009	0.123998
532.394852	0.124789
532.610676	0.125020
532.826482	0.125026
533.042271	0.125076
533.258040	0.125239
533.473792	0.125334
533.689525	0.125672
533.905240	0.125780
534.120937	0.125924
534.336616	0.125548
534.552277	0.125859
534.767919	0.126804
534.983543	0.127025
535.199149	0.126483
535.414736	0.126687
535.630306	0.126236
535.845857	0.127218
536.061390	0.128970
536.276904	0.130159
536.492401	0.130553
536.707879	0.130464
536.923339	0.130655
537.138781	0.131623
537.354204	0.131526
537.569610	0.131698
537.784997	0.131327
538.000366	0.130521
538.215716	0.130112
538.431049	0.130249
538.646363	0.130124
538.861659	0.129566
539.076937	0.129356
539.292196	0.130424
539.507438	0.130768
539.722661	0.131129
539.937866	0.131552
540.153052	0.131807
540.368221	0.131546
540.583371	0.131680
540.798503	0.132724
541.013617	0.132651
541.228712	0.132316
541.443789	0.132850
541.658848	0.133231
541.873889	0.133254
542.088912	0.133241
542.303916	0.133964
542.518902	0.134478
542.733870	0.134440
542.948820	0.134693
543.163752	0.134568
543.378665	0.134376
543.593560	0.134442
543.808437	0.134699
544.023295	0.135112
544.238136	0.135258
544.452958	0.134913
544.667762	0.135374
544.882548	0.135430
545.097315	0.135427
545.312064	0.135454
545.526795	0.135059
545.741508	0.134211
545.956203	0.134068
546.170879	0.134032
546.385537	0.134780
546.600177	0.134617
546.814799	0.135306
547.029402	0.135523
547.243988	0.136047
547.458555	0.136235
547.673103	0.137490
547.887634	0.138101
548.102146	0.138142
548.316640	0.138407
548.531116	0.138683
548.745574	0.138655
548.960013	0.139092
549.174435	0.139306
549.388838	0.140135
549.603222	0.139864
549.817589	0.139747
550.031937	0.140096
550.246267	0.140352
550.460579	0.140075
550.674873	0.140092
550.889148	0.140154
551.103405	0.140156
551.317644	0.140391
551.531865	0.140540
551.746068	0.140667
551.960252	0.140725
552.174418	0.140565
552.388566	0.141450
552.602696	0.141333
552.816807	0.142037
553.030900	0.142251
553.244975	0.141877
553.459032	0.141846
553.673070	0.142357
553.887091	0.142188
554.101093	0.142316
554.315077	0.142075
554.529042	0.142706
554.742990	0.142495
554.956919	0.142250
555.170830	0.142535
555.384722	0.142998
555.598597	0.142982
555.812453	0.143393
556.026291	0.144121
556.240111	0.144525
556.453913	0.144542
556.667696	0.144260
556.881461	0.144643
557.095208	0.144775
557.308937	0.145014
557.522647	0.145058
557.736339	0.145850
557.950013	0.145396
558.163669	0.145242
558.377307	0.144860
558.590926	0.145251
558.804527	0.145345
559.018110	0.145309
559.231675	0.144683
559.445221	0.144317
559.658749	0.143429
559.872259	0.143629
560.085751	0.143878
560.299225	0.144213
560.512680	0.144190
560.726117	0.144470
560.939536	0.144542
561.152937	0.144914
561.366319	0.145072
561.579683	0.145782
561.793029	0.145559
562.006357	0.145561
562.219667	0.145855
562.432958	0.145725
562.646231	0.145115
562.859486	0.145514
563.072723	0.145960
563.285941	0.146008
563.499141	0.145899
563.712323	0.146156
563.925487	0.146361
564.138632	0.146551
564.351760	0.147173
564.564869	0.148153
564.777960	0.148397
564.991032	0.148530
565.204087	0.148779
565.417123	0.148592
565.630141	0.148814
565.843140	0.148856
566.056122	0.148821
566.269085	0.149087
566.482030	0.148875
566.694957	0.148760
566.907866	0.148840
567.120756	0.148915
567.333628	0.149325
567.546482	0.149512
567.759318	0.149531
567.972135	0.149833
568.184935	0.149586
568.397716	0.149626
568.610478	0.150025
568.823223	0.150028
569.035949	0.150358
569.248657	0.150403
569.461347	0.150374
569.674019	0.150385
569.886672	0.150432
570.099308	0.150450
570.311925	0.150801
570.524523	0.150471
570.737104	0.150977
570.949666	0.150999
571.162210	0.150942
571.374736	0.151248
571.587244	0.151085
571.799733	0.150998
572.012205	0.151057
572.224658	0.150670
572.437092	0.151110
572.649509	0.150759
572.861907	0.150793
573.074287	0.150978
573.286649	0.151038
573.498993	0.151607
573.711318	0.151511
573.923625	0.151446
574.135914	0.151836
574.348185	0.151648
574.560438	0.151946
574.772672	0.152324
574.984888	0.152664
575.197086	0.152567
575.409266	0.152961
575.621427	0.153140
575.833570	0.153612
576.045695	0.153770
576.257802	0.153906
576.469890	0.154560
576.681961	0.154624
576.894013	0.154405
577.106046	0.154376
577.318062	0.154004
577.530059	0.154063
577.742039	0.154386
577.954000	0.154185
578.165942	0.154257
578.377867	0.153743
578.589773	0.153180
578.801661	0.153445
579.013531	0.153862
579.225382	0.154204
579.437216	0.154338
579.649031	0.153940
579.860828	0.154079
580.072606	0.154314
580.284367	0.154642
580.496109	0.155154
580.707833	0.155107
580.919539	0.155082
581.131227	0.155024
581.342896	0.155075
581.554547	0.155363
581.766180	0.155209
581.977795	0.155195
582.189391	0.155199
582.400969	0.155303
582.612529	0.156078
582.824071	0.156364
583.035595	0.156554
583.247100	0.156733
583.458587	0.157010
583.670056	0.157559
583.881506	0.157670
584.092939	0.157439
584.304353	0.157621
584.515749	0.157083
584.727127	0.157139
584.938486	0.157204
585.149828	0.157648
585.361151	0.157813
585.572456	0.158260
585.783742	0.158571
585.995011	0.159047
586.206261	0.159147
586.417493	0.159359
586.628706	0.158889
586.839902	0.158676
587.051079	0.158825
587.262238	0.158931
587.473379	0.158524
587.684502	0.158488
587.895606	0.158738
588.106692	0.158907
588.317760	0.158921
588.528810	0.159492
588.739841	0.159856
588.950855	0.159691
589.161850	0.159590
589.372827	0.159601
589.583785	0.159474
589.794726	0.159174
590.005648	0.159117
590.216552	0.159564
590.427437	0.159706
590.638305	0.159360
590.849154	0.159536
591.059985	0.159618
591.270798	0.159953
591.481592	0.160058
591.692369	0.160388
591.903127	0.160410
592.113867	0.160240
592.324588	0.160278
592.535292	0.160762
592.745977	0.160807
592.956644	0.160450
593.167293	0.160068
593.377923	0.160119
593.588536	0.160318
593.799130	0.160705
594.009706	0.161348
594.220263	0.161331
594.430803	0.161192
594.641324	0.161049
594.851827	0.161742
595.062312	0.162260
595.272778	0.162445
595.483227	0.162737
595.693657	0.162754
595.904069	0.162608
596.114462	0.162913
596.324838	0.163434
596.535195	0.163971
596.745534	0.163899
596.955855	0.164077
597.166157	0.164015
597.376441	0.163530
597.586707	0.163613
597.796955	0.163591
598.007185	0.163579
598.217396	0.163567
598.427589	0.163343
598.637764	0.163337
598.847921	0.163230
599.058060	0.163778
599.268180	0.164397
599.478282	0.164451
599.688366	0.164385
599.898431	0.164179
600.108479	0.163905
600.318508	0.164589
600.528519	0.164501
600.738511	0.164915
600.948486	0.165076
601.158442	0.164988
601.368380	0.165247
601.578300	0.165470
601.788202	0.165886
601.998085	0.166182
602.207950	0.166010
602.417797	0.166208
602.627626	0.165829
602.837436	0.165881
603.047228	0.165727
603.257002	0.165863
603.466758	0.165849
603.676496	0.165785
603.886215	0.165757
604.095916	0.165378
604.305599	0.165750
604.515264	0.166067
604.724910	0.165912
604.934538	0.166118
605.144148	0.166186
605.353740	0.166568
605.563314	0.166669
605.772869	0.166721
605.982406	0.167545
606.191925	0.167568
606.401425	0.167600
606.610908	0.167540
606.820372	0.167423
607.029818	0.167519
607.239246	0.167516
607.448655	0.168104
607.658047	0.168326
607.867420	0.167847
608.076775	0.167932
608.286111	0.168408
608.495430	0.168772
608.704730	0.168685
608.914012	0.168740
609.123275	0.168740
609.332521	0.168524
609.541748	0.168738
609.750957	0.168735
609.960148	0.168950
610.169321	0.168626
610.378475	0.168608
610.587611	0.169179
610.796729	0.169440
611.005829	0.169629
611.214910	0.169491
611.423974	0.169741
611.633019	0.170177
611.842045	0.170328
612.051054	0.170295
612.260044	0.170458
612.469017	0.170102
612.677970	0.169744
612.886906	0.169915
613.095824	0.170240
613.304723	0.169981
613.513604	0.169899
613.722467	0.169722
613.931311	0.170327
614.140138	0.170361
614.348946	0.170349
614.557736	0.170873
614.766507	0.170522
614.975261	0.170566
615.183996	0.170948
615.392713	0.170605
615.601412	0.171070
615.810092	0.170943
616.018754	0.171200
616.227399	0.171406
616.436024	0.171313
616.644632	0.171408
616.853222	0.171579
617.061793	0.171602
617.270346	0.172249
617.478880	0.171966
617.687397	0.171975
617.895895	0.171762
618.104375	0.171933
618.312837	0.171782
618.521281	0.172081
618.729706	0.171969
618.938113	0.171971
619.146502	0.171867
619.354873	0.171885
619.563226	0.172015
619.771560	0.172184
619.979876	0.172041
620.188174	0.172378
620.396453	0.172358
620.604715	0.172532
620.812958	0.172920
621.021183	0.173282
621.229390	0.173489
621.437578	0.173699
621.645748	0.174283
621.853900	0.174675
622.062034	0.174850
622.270150	0.175036
622.478247	0.174689
622.686326	0.174470
622.894387	0.174453
623.102430	0.174562
623.310454	0.174661
623.518461	0.174397
623.726449	0.174497
623.934418	0.174417
624.142370	0.174228
624.350303	0.174406
624.558218	0.174588
624.766115	0.174769
624.973994	0.175110
625.181855	0.175025
625.389697	0.175123
625.597521	0.175251
625.805327	0.175455
626.013114	0.175792
626.220883	0.175962
626.428634	0.175959
626.636367	0.175642
626.844082	0.175594
627.051778	0.175605
627.259457	0.175623
627.467117	0.175787
627.674758	0.175721
627.882382	0.175820
628.089987	0.175909
628.297574	0.175989
628.505143	0.176511
628.712694	0.176661
628.920226	0.176888
629.127740	0.176985
629.335236	0.177062
629.542714	0.177306
629.750174	0.177169
629.957615	0.177450
630.165038	0.177545
630.372443	0.177566
630.579829	0.177730
630.787198	0.177835
630.994548	0.177808
631.201880	0.177723
631.409194	0.177718
631.616489	0.177996
631.823766	0.178140
632.031025	0.178334
632.238266	0.178519
632.445489	0.178293
632.652693	0.178314
632.859879	0.178671
633.067047	0.179004
633.274197	0.179542
633.481329	0.179746
633.688442	0.179887
633.895537	0.179768
634.102614	0.179638
634.309672	0.179773
634.516713	0.179690
634.723735	0.179551
634.930739	0.179573
635.137724	0.179222
635.344692	0.179068
635.551641	0.179059
635.758572	0.179295
635.965485	0.179592
636.172379	0.179850
636.379256	0.180402
636.586114	0.180489
636.792954	0.180804
636.999775	0.181097
637.206579	0.181162
637.413364	0.181300
637.620131	0.181458
637.826880	0.181493
638.033610	0.181648
638.240323	0.181500
638.447017	0.181920
638.653692	0.182039
638.860350	0.182062
639.066990	0.182370
639.273611	0.182555
639.480214	0.182721
639.686798	0.182644
639.893365	0.182505
640.099913	0.182906
640.306443	0.182954
640.512955	0.182802
640.719449	0.182681
640.925924	0.182936
641.132381	0.182975
641.338820	0.183127
641.545241	0.183538
641.751644	0.183910
641.958028	0.183630
642.164394	0.183487
642.370742	0.183722
642.577071	0.183974
642.783383	0.184221
642.989676	0.184415
643.195951	0.184416
643.402207	0.184391
643.608446	0.184247
643.814666	0.184401
644.020868	0.184756
644.227052	0.184823
644.433218	0.185052
644.639365	0.184867
644.845494	0.184799
645.051605	0.184773
645.257698	0.184840
645.463772	0.185109
645.669828	0.185192
645.875866	0.185380
646.081886	0.185583
646.287888	0.185682
646.493871	0.185863
646.699836	0.186174
646.905783	0.186240
647.111712	0.186417
647.317622	0.186589
647.523514	0.187046
647.729388	0.186983
647.935244	0.187296
648.141082	0.187206
648.346901	0.187174
648.552702	0.187085
648.758485	0.187282
648.964250	0.187249
649.169996	0.187357
649.375724	0.187262
649.581434	0.187344
649.787126	0.187336
649.992800	0.187539
650.198455	0.187718
650.404092	0.188200
650.609711	0.188500
650.815311	0.188584
651.020894	0.188753
651.226458	0.189090
651.432004	0.189208
651.637532	0.189149
651.843041	0.189312
652.048532	0.189494
652.254006	0.188968
652.459460	0.188963
652.664897	0.189303
652.870315	0.189241
653.075716	0.189140
653.281097	0.189300
653.486461	0.189449
653.691807	0.189751
653.897134	0.189788
654.102443	0.190150
654.307734	0.190289
654.513006	0.190428
654.718261	0.190556
654.923497	0.190928
655.128715	0.191026
655.333915	0.191080
655.539096	0.191000
655.744259	0.191467
655.949404	0.191965
656.154531	0.192113
656.359640	0.192054
656.564730	0.192367
656.769802	0.192306
656.974856	0.192669
657.179892	0.192944
657.384909	0.193266
657.589908	0.193217
657.794889	0.193090
657.999852	0.193449
658.204797	0.193656
658.409723	0.193710
658.614631	0.193834
658.819521	0.193820
659.024393	0.193927
659.229246	0.193826
659.434081	0.193845
659.638898	0.194115
659.843697	0.194231
660.048478	0.194032
660.253240	0.194142
660.457984	0.194451
660.662710	0.194602
660.867417	0.194682
661.072107	0.195191
661.276778	0.195361
661.481431	0.195367
661.686066	0.195318
661.890682	0.195947
662.095281	0.196045
662.299861	0.196019
662.504422	0.196114
662.708966	0.196406
662.913491	0.196335
663.117999	0.196291
663.322488	0.196465
663.526958	0.196569
663.731411	0.196420
663.935845	0.196528
664.140261	0.196571
664.344659	0.196551
664.549038	0.196517
664.753400	0.196564
664.957743	0.196780
665.162068	0.197073
665.366375	0.196848
665.570663	0.197045
665.774933	0.197269
665.979185	0.197564
666.183419	0.197697
666.387635	0.197849
666.591832	0.197823
666.796011	0.198084
667.000172	0.197963
667.204315	0.198744
667.408439	0.198932
667.612545	0.198976
667.816634	0.198955
668.020703	0.199211
668.224755	0.199345
668.428788	0.199562
668.632803	0.199800
668.836800	0.200198
669.040779	0.200002
669.244739	0.200108
669.448681	0.200432
669.652605	0.200770
669.856511	0.200977
670.060399	0.201260
670.264268	0.201572
670.468119	0.201668
670.671952	0.201678
670.875767	0.201735
671.079563	0.201970
671.283341	0.201852
671.487101	0.201796
671.690843	0.201803
671.894567	0.201691
672.098272	0.201899
672.301959	0.201971
672.505628	0.202161
672.709278	0.202709
672.912911	0.202793
673.116525	0.203203
673.320121	0.203231
673.523699	0.203454
673.727258	0.203711
673.930799	0.203683
674.134322	0.203614
674.337827	0.203643
674.541314	0.203512
674.744782	0.203672
674.948232	0.203724
675.151664	0.203834
675.355078	0.203928
675.558474	0.204148
675.761851	0.204146
675.965210	0.204601
676.168551	0.204964
676.371873	0.205333
676.575178	0.205445
676.778464	0.205502
676.981732	0.205798
677.184981	0.206125
677.388213	0.206420
677.591426	0.206428
677.794621	0.206492
677.997798	0.206459
678.200956	0.206402
678.404097	0.206656
678.607219	0.206635
678.810323	0.206817
679.013408	0.206870
679.216476	0.206789
679.419525	0.207020
679.622556	0.207323
679.825569	0.207712
680.028563	0.208006
680.231540	0.207958
680.434498	0.208099
680.637438	0.208279
680.840359	0.208413
681.043263	0.208147
681.246148	0.208251
681.449015	0.208106
681.651864	0.208003
681.854694	0.207894
682.057506	0.208160
682.260301	0.208387
682.463076	0.208428
682.665834	0.208224
682.868573	0.208727
683.071295	0.209024
683.273998	0.209223
683.476682	0.209134
683.679349	0.209370
683.881997	0.209240
684.084627	0.209617
684.287239	0.209614
684.489833	0.209724
684.692408	0.209688
684.894965	0.209801
685.097504	0.209993
685.300025	0.210253
685.502527	0.210262
685.705012	0.210774
685.907478	0.210699
686.109925	0.211177
686.312355	0.211318
686.514766	0.211474
686.717159	0.211596
686.919534	0.211564
687.121891	0.211531
687.324230	0.211678
687.526550	0.211698
687.728852	0.211676
687.931136	0.211702
688.133401	0.212129
688.335649	0.212516
688.537878	0.212614
688.740089	0.212687
688.942281	0.212943
689.144456	0.213167
689.346612	0.213149
689.548750	0.213276
689.750870	0.212950
689.952971	0.212965
690.155055	0.212863
690.357120	0.213142
690.559167	0.213459
690.761195	0.213544
690.963206	0.213629
691.165198	0.213703
691.367172	0.214144
691.569128	0.214418
691.771065	0.214640
691.972984	0.214770
692.174885	0.214857
692.376768	0.214907
692.578633	0.215067
692.780479	0.215281
692.982308	0.215265
693.184118	0.215137
693.385909	0.215509
