sample name	sample
index	147
start time	 02-15-2021  02:25:03 PM
880	-0.055244
Peak Time (s)	92.036
Peak Height 	-0.05524
calc peak height	90,93
Baseline Time (s)	10.036
Baseline Value 	-0.002947
subtract baseline	10,4
Abs	-0.002416
Peak Time (s)	91.535
Peak Height 	-0.002416
calc peak height	90,93
Baseline Time (s)	9.035
Baseline Value 	-0.004098
subtract baseline	10,3
PK_550	-0.001099
Peak Time (s)	92.036
Peak Height 	-0.001099
calc peak height	90,93
Baseline Time (s)	11.036
Baseline Value 	-1.5527E-4
subtract baseline	10,2
PK_880	-0.015809
Peak Time (s)	92.036
Peak Height 	-0.01581
calc peak height	90,93
Baseline Time (s)	9.535
Baseline Value 	-0.001243
subtract baseline	10,1


Time (s)	A880-A510	A880-A775	A880-A975	A880	I510	I775	I975	I880	
0.035000	-0.003879	-0.002344	0.008330	-0.000303	4068.349105	13771.091363	3237.602655	8066.646101
0.535500	-0.003543	-0.000368	0.006692	0.004181	4058.581153	13709.591159	3234.167888	8014.845123
1.035500	-0.002972	-0.001012	0.008565	0.002442	4064.007535	13736.396253	3236.188354	8034.870398
1.539000	0.003610	0.001658	0.016598	0.001862	4081.022670	13816.374018	3241.074672	8041.568212
2.036500	0.002248	-0.001219	0.002113	-0.000416	4083.218480	13801.591185	3234.178182	8067.958819
2.537000	-0.002313	0.002492	0.013852	0.005819	4057.624259	13739.521519	3237.263802	7996.057755
3.034000	0.006006	-0.000195	0.008722	-0.003082	4098.753486	13893.019607	3239.400495	8099.022482
3.537500	0.000935	-0.000660	0.000359	0.000583	4077.682856	13790.735168	3232.648635	8056.364451
4.034500	0.001878	0.002759	-0.004348	0.002224	4076.019718	13834.652635	3229.160678	8037.389740
4.535500	0.001581	0.001333	0.014240	0.001761	4076.414096	13810.845841	3239.784724	8042.731339
5.035500	-0.004314	0.001420	0.009885	0.001352	4063.414189	13823.101947	3237.545694	8047.461638
5.535000	0.006669	-0.000253	0.017394	0.000411	4091.881017	13805.027147	3242.365602	8058.358523
6.036000	0.002895	0.001043	0.003197	0.001044	4081.269366	13821.410041	3233.968415	8051.030283
6.538500	0.006951	0.002318	0.004957	0.001633	4089.608475	13838.365528	3234.621316	8044.215064
7.037000	-0.000966	0.000157	0.004324	0.000209	4074.044566	13820.141861	3235.063090	8060.706048
7.537000	-0.000878	0.000013	0.012072	-0.000516	4075.979895	13834.508566	3239.846935	8069.119480
8.035000	0.003146	0.000501	0.029418	0.000461	4083.269321	13822.399531	3249.357749	8057.778391
8.538000	-0.002310	-0.000461	-0.016426	-0.000819	4073.294792	13830.276987	3224.282623	8072.644507
9.035000	0.004953	0.001903	0.000000	0.001519	4085.068431	13830.917861	3231.933145	8045.532265
9.535000	0.000000	0.001853	0.021066	0.001063	4074.311816	13840.959602	3244.111164	8050.810663
10.035500	0.001861	-0.000039	0.013799	0.000000	4081.292044	13820.457757	3240.538377	8063.127177
10.536000	0.002031	-0.000998	0.008565	-0.001026	4084.164355	13822.121429	3238.144355	8075.052072
11.035500	-0.003604	0.000000	-0.001212	-0.000738	4070.029141	13839.666556	3232.510615	8071.694110
11.537000	-0.000199	0.001171	-0.012095	0.001951	4071.728446	13802.160574	3225.118093	8040.542852
12.037000	0.000434	0.000850	-0.004389	-0.000626	4079.376330	13857.954712	3230.697816	8070.393605
12.537000	-0.002037	0.001140	-0.012491	-0.000313	4072.739837	13857.395816	3226.122017	8066.765852
13.037500	0.001414	0.000119	0.023856	-0.000780	4082.092412	13843.661397	3246.813003	8072.191885
13.537000	0.001552	0.000493	0.004671	0.002187	4075.330322	13779.634393	3234.153016	8037.816103
14.035000	0.001825	-0.000500	-0.003692	0.001623	4077.326374	13769.078470	3229.846939	8044.328108
14.535500	0.001393	0.000544	0.011858	0.002133	4075.079870	13782.211822	3238.220164	8038.438623
15.043500	0.000464	0.000020	-0.003684	-0.000012	4077.979208	13822.223291	3230.747925	8063.266450
15.536500	-0.000614	-0.000077	0.003122	0.001701	4071.337971	13777.581088	3233.561344	8043.433512
16.036000	-0.000859	-0.000779	-0.000214	-0.001005	4077.193465	13827.016679	3233.211749	8074.802008
16.536500	-0.000633	0.000769	0.021280	-0.000255	4075.943728	13846.746545	3245.001098	8066.087141
17.037000	0.004270	0.000500	0.016469	-0.003658	4095.930237	13924.683805	3244.182687	8105.750915
17.537500	0.001933	0.001069	0.014804	0.000510	4080.242461	13835.229531	3240.821630	8057.207340
18.037500	-0.003192	-0.001696	-0.004526	-0.001970	4073.932705	13828.197516	3231.361458	8086.042631
18.535500	0.002979	0.001325	-0.007233	0.000823	4081.999771	13833.839512	3228.352250	8053.584521
19.035500	-0.001285	0.001864	0.009450	0.001118	4071.128182	13839.886065	3237.432256	8050.173196
19.535500	-0.001197	-0.000646	0.010392	-0.000468	4075.105760	13817.011596	3238.863598	8068.559107
20.035500	-0.002117	-0.000302	-0.004158	-0.000329	4072.585139	13822.076934	3230.661151	8066.940410
20.536000	0.000840	0.000055	0.010084	-0.000378	4079.753020	13832.133433	3238.637977	8067.512843
21.036500	-0.000686	0.002214	0.006200	0.001862	4070.782768	13830.121767	3235.187666	8041.566135
21.536500	-0.001661	0.001134	0.013392	0.000163	4072.500650	13845.452877	3240.212899	8061.236550
22.036500	-0.002741	0.001426	0.004434	0.001518	4066.733152	13819.151437	3234.393509	8045.541109
22.540500	-0.004978	0.000967	0.010825	-0.000099	4065.269130	13847.783442	3238.900263	8064.274724
23.035000	-0.003464	-0.001057	0.004927	-0.001183	4071.415542	13824.528166	3236.181142	8076.870233
23.535500	0.002430	0.001822	0.003135	0.000555	4081.325889	13852.774823	3234.206206	8056.690525
24.035500	-0.002054	0.000801	0.014726	-0.000611	4073.407295	13856.371590	3241.419688	8070.223469
24.535500	-0.000047	0.000076	0.001758	0.001216	4073.835321	13793.293335	3233.073282	8049.038014
25.036500	0.002805	0.001488	0.000544	0.001316	4080.402593	13825.665864	3232.346069	8047.880692
25.536500	0.003085	0.002308	0.007016	0.001386	4080.905819	13844.229339	3235.911264	8047.069537
26.036000	-0.002101	0.001726	-0.010215	0.000770	4070.016196	13845.069158	3226.764625	8054.196418
26.537000	-0.002838	0.001971	0.015903	0.001796	4065.848889	13825.745039	3240.715094	8042.334847
27.039500	-0.003667	0.000193	0.020535	0.000205	4067.647752	13821.133623	3244.301170	8060.753363
27.534500	0.001789	0.001765	-0.023126	-0.002595	4087.355400	13929.713016	3221.666130	8093.329964
28.035000	-0.001818	0.002006	0.002325	-0.000302	4073.235552	13878.625894	3234.232578	8066.637166
28.535500	-0.004711	-0.001825	0.000555	0.003446	4057.566550	13691.955559	3231.177460	8023.303525
29.035500	-0.006394	0.000668	-0.002282	-0.000495	4062.867929	13850.221802	3231.785657	8068.878864
29.536000	-0.002801	-0.000977	-0.006748	-0.002027	4074.999038	13847.416588	3230.172262	8086.706418
30.036000	-0.000841	0.000198	-0.000374	-0.001439	4078.270520	13861.947631	3233.363144	8079.848398
30.539000	0.001275	0.001511	0.001027	0.005389	4067.075948	13726.023235	3230.369635	8000.987067
31.036500	0.002193	-0.001483	-0.005418	-0.000098	4082.322804	13787.229772	3229.844013	8064.260946
31.537000	0.000349	0.001190	0.005230	0.001985	4072.948241	13801.777130	3234.576836	8040.144855
32.035000	-0.000007	0.001995	0.016688	0.000643	4075.294105	13854.882986	3241.826225	8055.673589
32.535000	0.000135	0.001278	0.008768	0.005341	4064.498952	13721.477390	3234.678638	8001.535197
33.035000	-0.005302	0.001131	0.003336	-0.001308	4067.358317	13881.858388	3235.358737	8078.322406
33.535500	-0.005600	-0.000618	-0.005931	-0.000397	4064.506610	13815.957048	3229.727476	8067.738298
34.036000	-0.002067	0.000701	0.006822	-0.000835	4073.909829	13859.447600	3237.051556	8072.828994
34.535500	-0.002380	-0.000452	0.003460	0.000428	4070.166644	13799.681491	3234.457906	8058.159211
35.035500	-0.000002	0.001069	0.004219	0.001283	4073.782750	13816.131109	3234.404629	8048.257059
35.537000	-0.001607	0.001119	-0.017721	0.001517	4069.418008	13811.607254	3222.350584	8045.558676
36.037000	0.000066	0.000556	0.003789	0.000695	4075.342822	13817.986200	3234.492764	8055.065779
36.540000	0.003634	0.002056	0.016104	0.002237	4080.181886	13816.930590	3240.577298	8037.230854
37.034000	0.003868	0.000489	0.016837	0.000721	4084.378393	13815.680483	3241.866798	8054.764100
37.535000	-0.000478	-0.000180	0.005371	0.000452	4074.626696	13805.814012	3235.513058	8057.882408
38.035000	0.000572	-0.000242	0.012905	-0.000120	4078.496020	13818.397696	3240.096672	8064.520602
38.535500	-0.000902	0.001914	0.009431	0.001748	4070.542742	13825.521557	3237.066274	8042.888148
39.035500	-0.001228	-0.001794	-0.015021	-0.000546	4075.218461	13790.604357	3224.887738	8069.462127
39.536000	-0.003963	0.001304	0.020407	0.001053	4064.946938	13827.616830	3243.734596	8050.919706
40.036500	0.000116	0.000419	0.002667	0.001014	4074.704712	13806.721563	3233.690344	8051.374076
40.536000	-0.002539	-0.001544	-0.011620	-0.000029	4070.873334	13784.049885	3226.438028	8063.462607
41.036500	0.000981	-0.001512	-0.004114	-0.000939	4081.435131	13807.272165	3231.020884	8074.038925
41.537000	-0.000978	0.001647	0.008561	0.001315	4071.389504	13829.641002	3236.819997	8047.894859
42.035000	-0.004325	0.000916	0.003176	0.001037	4064.131699	13818.430399	3233.960600	8051.109455
42.535000	0.001650	0.001539	0.006963	0.001803	4076.479859	13814.890396	3235.647928	8042.247671
43.035500	0.000583	0.000163	0.006200	0.000133	4077.919028	13822.162701	3236.157181	8061.588492
43.535500	0.005902	0.000338	0.001905	0.000285	4090.329740	13822.722257	3233.671564	8059.815721
44.036000	0.000172	0.000852	-0.000439	-0.004161	4087.231089	13946.025011	3234.843029	8111.636673
44.536000	0.003229	-0.000320	0.015956	-0.001969	4089.319238	13862.254719	3242.909041	8086.030358
45.036500	-0.003337	-0.000523	-0.000904	-0.001547	4072.582915	13846.760113	3233.129261	8081.108805
45.537000	0.003347	0.001471	-0.006181	0.001252	4081.853868	13826.847763	3228.691327	8048.621908
46.037000	0.004939	0.001459	-0.007822	-0.000735	4090.469565	13875.776862	3228.879835	8071.666646
46.537000	-0.002227	0.000131	0.009426	0.002317	4066.059666	13767.538194	3236.742982	8036.311291
47.035000	-0.002168	-0.000355	-0.004883	-0.001951	4076.325951	13860.927616	3231.154394	8085.811219
47.535000	-0.001314	0.003357	-0.018247	0.002876	4066.896052	13833.324213	3221.353424	8029.866184
48.035000	-0.002325	0.000091	-0.000045	-0.000074	4071.487777	13825.477611	3232.788979	8063.980324
48.535500	0.001428	-0.000202	0.009217	0.000634	4078.740592	13800.769695	3237.573873	8055.776224
49.036000	-0.003678	0.000933	-0.007439	-0.001802	4072.376684	13889.207250	3229.670980	8084.077102
49.536500	-0.006559	-0.000477	-0.004950	0.000516	4060.101402	13796.890724	3229.764296	8057.139839
50.036000	-0.000007	-0.000213	-0.000128	-0.005260	4089.451949	13946.880486	3235.632453	8124.532478
50.537000	0.001313	0.000368	0.000009	-0.002951	4087.066608	13903.757538	3234.417781	8097.485874
51.037500	-0.008497	-0.002423	0.015163	0.002969	4049.849691	13689.006605	3239.622587	8028.799137
51.537500	-0.077675	-0.032642	0.026384	0.264866	3511.590408	8498.532684	3131.133854	5762.235650
52.035500	-0.013778	-0.008682	-0.026398	-0.017615	4086.038912	14044.490226	3227.957125	8271.728963
52.535000	-0.008947	-0.003543	-0.020928	-0.107082	4339.517068	16711.090218	3285.552867	9472.255091
53.035500	-0.017086	-0.007385	-0.012093	-0.078592	4234.474452	15733.737817	3272.573788	9062.807841
53.536000	-0.037931	-0.015523	-0.022981	-0.030834	4060.052240	14206.579739	3237.162447	8433.924007
54.036000	-0.044926	-0.017871	-0.014480	-0.061569	4117.318069	14957.559438	3260.320183	8830.669501
54.536500	-0.023847	-0.009100	-0.002848	-0.077402	4212.820012	15649.425291	3277.822026	9046.286177
55.036000	-0.038183	-0.012108	-0.033186	-0.134332	4333.592401	17309.960548	3295.855343	9889.831929
55.539000	-0.034785	-0.011745	-0.002395	-0.091098	4220.284048	15973.146495	3287.279632	9239.231237
56.037000	-0.028615	-0.005396	-0.022940	-0.117006	4310.703343	16966.617566	3290.945803	9621.310407
56.535000	-0.021107	-0.006689	-0.006485	-0.091986	4260.515374	16150.723637	3285.112436	9251.957266
57.035000	-0.024949	-0.012639	-0.001758	-0.072740	4197.367568	15414.472883	3275.482915	8981.982700
57.535500	-0.012105	-0.006353	0.010280	-0.054674	4183.541008	15084.596362	3271.578505	8739.210554
58.036000	-0.014298	-0.007847	0.001536	-0.043285	4148.357595	14733.978163	3258.923923	8591.274028
58.535500	-0.015300	-0.008215	-0.013380	-0.040292	4138.213447	14644.180197	3248.149910	8553.035743
59.036500	-0.015351	-0.006496	-0.010856	-0.039077	4135.021315	14657.613973	3248.922654	8537.593222
59.536500	-0.015742	-0.009711	0.008969	-0.033848	4120.952011	14434.821009	3257.696254	8471.597406
60.040000	-0.023058	-0.012912	-0.017074	-0.039855	4117.701231	14508.399394	3245.727485	8547.480152
60.536000	-0.021658	-0.008950	-0.016726	-0.046949	4138.969890	14802.839442	3250.108768	8638.439369
61.036000	-0.022184	-0.009731	0.002126	-0.061275	4174.428063	15173.952198	3270.581191	8826.744942
61.535500	-0.025993	-0.009848	-0.013472	-0.044959	4123.091002	14725.185265	3250.860322	8612.768051
62.035000	-0.017431	-0.009334	0.004292	-0.069253	4208.149826	15409.266480	3277.158744	8934.322532
62.535000	-0.016925	-0.011980	-0.002695	-0.071342	4215.144531	15393.471762	3273.963507	8962.822753
63.036000	-0.018062	-0.008982	-0.009166	-0.075103	4222.263845	15586.509965	3272.211197	9014.483375
63.536500	-0.011623	-0.008494	-0.019946	-0.078412	4249.082851	15696.243169	3267.436149	9060.299238
64.036000	-0.017922	-0.006743	-0.014789	-0.080300	4236.871552	15802.328135	3271.936810	9086.604747
64.539500	-0.014512	-0.007000	-0.006201	-0.080577	4247.067381	15802.900509	3277.704507	9090.466136
65.037500	-0.014229	-0.005863	-0.005187	-0.079478	4244.806698	15804.027018	3277.649285	9075.139967
65.537500	-0.011984	-0.005526	-0.024134	-0.077483	4245.497378	15755.587510	3264.212354	9047.401447
66.034500	-0.011552	-0.004910	-0.023996	-0.076002	4242.590828	15730.353564	3263.372821	9026.892114
66.535000	-0.009197	-0.004725	-0.020508	-0.074695	4245.495007	15697.731241	3264.737908	9008.852340
67.035500	-0.014950	-0.003655	-0.020232	-0.073135	4225.380480	15683.531841	3263.933388	8987.401363
67.535500	-0.020171	-0.006594	-0.029140	-0.075895	4218.684746	15678.354881	3260.114324	9025.418012
68.036000	-0.018695	-0.006536	-0.007963	-0.075606	4221.908203	15671.646343	3273.313240	9021.422584
68.535500	-0.019469	-0.006108	-0.008113	-0.075461	4219.413125	15679.865659	3273.122701	9019.422372
69.036500	-0.017625	-0.005788	-0.023423	-0.075235	4223.812799	15682.581260	3263.251860	9016.300604
69.539500	-0.020728	-0.006144	-0.001454	-0.075120	4215.078966	15668.906352	3277.238616	9014.712466
70.034500	-0.016115	-0.007111	-0.017115	-0.076013	4230.062672	15666.800660	3267.710382	9027.053947
70.534000	-0.012878	-0.006541	-0.019288	-0.074125	4233.760401	15628.672554	3265.146029	9001.009118
71.034500	-0.012074	-0.004168	-0.004869	-0.074133	4235.994453	15697.605648	3274.364416	9001.118520
71.535500	-0.012349	-0.004560	-0.001984	-0.074598	4236.516849	15699.719268	3276.548826	9007.521994
72.035500	-0.015196	-0.004910	-0.016296	-0.075961	4232.437835	15729.162839	3268.196705	9026.324974
72.535500	-0.016773	-0.006546	-0.009721	-0.076138	4228.604975	15686.786454	3272.521114	9028.783252
73.035500	-0.015180	-0.003428	-0.010082	-0.075490	4231.189383	15758.642409	3271.870691	9019.826235
73.536500	-0.012226	-0.003627	-0.007721	-0.073755	4234.535817	15702.365125	3272.273924	8995.919836
74.036500	-0.013025	-0.005148	-0.007577	-0.076330	4239.428588	15732.989441	3274.032930	9031.433266
74.536500	-0.019700	-0.002252	-0.015374	-0.073024	4212.193908	15721.045972	3266.919529	8985.867941
75.036500	-0.016779	-0.002878	-0.009936	-0.073470	4221.312830	15715.826128	3270.666468	8991.999729
75.535000	-0.007034	-0.002996	-0.019150	-0.073932	4249.385033	15725.831980	3265.111085	8998.346892
76.035000	-0.015126	-0.004177	-0.017683	-0.074419	4228.407044	15705.649786	3266.342145	9005.058239
76.535500	-0.016930	-0.004345	0.001222	-0.073198	4220.160774	15665.374570	3277.733512	8988.261460
77.035000	-0.015205	-0.005041	-0.005797	-0.074062	4227.214917	15670.227339	3273.716249	9000.142224
77.536000	-0.015461	-0.005259	-0.015715	-0.072935	4223.441692	15631.340914	3266.647775	8984.656925
78.036500	-0.012526	-0.002101	-0.031227	-0.070211	4224.015621	15643.874318	3255.363237	8947.376742
78.536500	-0.018256	-0.003135	-0.000669	-0.070672	4209.746361	15627.303556	3274.844818	8953.666179
79.039500	-0.017098	-0.003732	-0.006238	-0.071102	4214.030371	15622.507513	3271.520581	8959.550341
79.537500	-0.012634	-0.002923	-0.010130	-0.071060	4226.037366	15644.662299	3269.002275	8958.972462
80.034500	-0.015100	-0.003417	-0.024067	-0.070652	4218.218577	15618.603640	3260.009509	8953.397289
80.534500	-0.014641	-0.003407	-0.007952	-0.069625	4216.682271	15589.302142	3269.476222	8939.399961
81.035000	-0.016086	-0.002840	0.003511	-0.070835	4216.044259	15640.538643	3277.684900	8955.892687
81.534500	-0.017925	-0.003583	-0.010351	-0.070276	4209.573531	15602.993055	3268.362370	8948.273415
82.035500	-0.019176	-0.001913	-0.005022	-0.068667	4201.901979	15604.731928	3270.737767	8926.357872
82.536000	-0.016007	-0.004501	-0.002938	-0.069528	4212.725345	15555.060789	3272.632539	8938.071089
83.036000	-0.015781	-0.001959	0.000253	-0.067696	4208.398153	15575.449107	3273.511439	8913.170645
83.537000	-0.016823	-0.002969	-0.015134	-0.069037	4209.204153	15584.955626	3264.559849	8931.386993
84.037000	-0.017511	-0.003432	-0.022377	-0.068158	4204.996332	15546.414651	3259.514011	8919.442065
84.537000	-0.018101	-0.003063	-0.009468	-0.066778	4199.726179	15517.432216	3266.704650	8900.737901
85.037500	-0.017872	-0.001032	-0.010214	-0.065518	4196.977043	15539.512880	3265.439421	8883.711122
85.535000	-0.016054	-0.001732	-0.008029	-0.065089	4200.683023	15507.202480	3266.546421	8877.927609
86.035000	-0.019593	-0.003723	-0.010311	-0.065008	4191.056577	15448.107878	3265.058497	8876.842180
86.535500	-0.016072	-0.003552	-0.006040	-0.064764	4199.768374	15446.010134	3267.600007	8873.549466
87.035000	-0.017669	-0.003019	-0.015980	-0.063320	4191.677641	15420.102483	3260.475107	8854.125952
87.536000	-0.017317	-0.003844	-0.008979	-0.060501	4185.159283	15317.078952	3263.070565	8816.406109
88.036500	-0.018385	-0.001633	0.002997	-0.060866	4183.309529	15389.838886	3270.877440	8821.277757
88.539500	-0.015023	-0.003257	0.000039	-0.060460	4191.113446	15332.466239	3268.727147	8815.857650
89.034000	-0.017418	-0.003064	-0.003054	-0.059830	4183.128249	15320.154743	3266.367536	8807.464672
89.537500	-0.013606	-0.001649	-0.012849	-0.057838	4187.926057	15303.920075	3259.027154	8781.003225
90.037500	-0.017940	-0.001959	-0.006785	-0.057567	4175.827360	15287.587188	3262.609477	8777.406756
90.535000	-0.018378	-0.003243	-0.027278	-0.057751	4175.163212	15256.735782	3250.257685	8779.850928
91.035500	-0.016407	-0.003037	-0.011688	-0.057406	4179.415896	15252.818725	3259.475400	8775.271304
91.535500	-0.020575	-0.003671	-0.002416	-0.057603	4169.054450	15240.589719	3265.366245	8777.884857
92.036000	-0.015809	-0.001099	-0.011060	-0.055244	4175.326359	15246.556015	3258.533531	8746.716154
92.536000	-0.021353	-0.002493	-0.009091	-0.055311	4161.105766	15209.446880	3259.784491	8747.590716
93.039000	-0.015615	-0.001150	-0.014456	-0.053460	4171.178371	15195.294282	3255.375786	8723.257686
93.537000	-0.018914	-0.001984	-0.018980	-0.053024	4161.498860	15159.945993	3252.387390	8717.537009
94.034500	-0.018481	-0.001437	0.003620	-0.051572	4158.872455	15134.812079	3265.369619	8698.530838
94.535000	-0.016181	-0.003588	-0.018154	-0.052766	4167.904122	15108.292980	3252.727964	8714.149421
95.038000	-0.013596	-0.000808	-0.017003	-0.050346	4168.332049	15118.241849	3251.967924	8682.525958
95.535000	-0.016506	-0.002541	-0.010831	-0.052088	4165.302421	15118.509661	3256.744178	8705.273591
96.038500	-0.016778	-0.000312	0.003250	-0.048002	4154.076475	15067.181863	3262.902645	8652.069923
96.536000	-0.011914	-0.002031	-0.005817	-0.049136	4169.559009	15051.075094	3258.003399	8666.794422
