sample name	sample
index	771
start time	 03-31-2021  01:13:11 PM
880	0.180831
Peak Time (s)	90.035
Peak Height 	0.1808
calc peak height	90,93
Baseline Time (s)	11.037
Baseline Value 	0.002873
subtract baseline	10,4
Abs	0.143909
Peak Time (s)	92.037
Peak Height 	0.1439
calc peak height	90,93
Baseline Time (s)	10.037
Baseline Value 	0.003049
subtract baseline	10,3
PK_550	0.085395
Peak Time (s)	92.037
Peak Height 	0.0854
calc peak height	90,93
Baseline Time (s)	11.037
Baseline Value 	0.001018
subtract baseline	10,2
PK_880	0.135596
Peak Time (s)	92.037
Peak Height 	0.1356
calc peak height	90,93
Baseline Time (s)	10.037
Baseline Value 	0.002427
subtract baseline	10,1


Time (s)	A880-A510	A880-A775	A880-A975	A880	I510	I775	I975	I880	
0.036000	-0.000969	-0.000813	-0.000372	-0.003867	6680.970269	39976.867869	4039.512329	21910.574813
0.536500	-0.005888	-0.001040	-0.002212	-0.000504	6612.534375	39673.183912	4027.486755	21765.108657
1.036500	-0.004203	-0.000453	-0.006411	0.001321	6611.388840	39569.021274	4013.738100	21686.626252
1.539500	-0.004240	-0.001217	-0.000634	0.004200	6587.616260	39264.250231	4020.329787	21563.508136
2.034000	-0.001187	-0.000385	-0.001228	-0.000171	6648.466276	39700.324897	4028.983631	21750.760258
2.534500	-0.001079	0.000009	-0.004240	0.000941	6640.170350	39639.797503	4019.535474	21702.929198
3.035500	-0.000753	-0.000867	-0.004173	-0.001537	6663.378390	39774.957904	4025.357429	21809.694342
3.535500	-0.001577	-0.000931	0.001244	0.000017	6643.688973	39638.536153	4034.253419	21742.684150
4.035500	-0.000764	-0.000427	-0.003038	0.000496	6646.440876	39640.525774	4023.298714	21722.044747
4.536500	-0.000291	0.000242	-0.000183	0.000772	6648.079655	39673.703075	4029.216911	21710.209465
5.036000	-0.001414	0.000009	0.002434	0.000115	6644.228464	39709.415380	4036.780969	21738.452886
5.539500	-0.000198	-0.000252	-0.000673	-0.000256	6657.353276	39718.695726	4030.456974	21754.421883
6.037000	-0.000060	-0.000020	-0.000924	0.000312	6653.796065	39690.408181	4028.572652	21729.995026
6.537500	-0.000154	0.001021	0.002085	0.001482	6643.346770	39679.494065	4032.810802	21679.735291
7.035000	-0.001723	-0.000544	0.002104	0.000229	6640.740771	39653.271177	4035.753152	21733.560998
7.535000	-0.002591	0.000046	0.005759	0.000938	6627.751338	39643.213616	4042.602907	21703.092147
8.035000	-0.000188	-0.000771	-0.002201	0.000288	6652.931269	39629.101503	4025.693046	21731.000261
8.536000	-0.001713	-0.001601	0.001812	-0.000233	6644.635540	39603.103416	4036.146693	21753.434216
9.035500	-0.001514	-0.000168	-0.000028	-0.000078	6644.997408	39710.802157	4031.534298	21746.770481
9.536000	0.001269	0.000194	-0.001064	0.000407	6664.023812	39700.435969	4028.029815	21725.901537
10.037000	0.000000	0.000007	0.000000	0.000421	6653.386469	39683.466640	4030.446904	21725.282264
10.536500	-0.000064	0.000101	0.002037	0.000245	6654.309715	39706.207770	4035.560495	21732.851424
11.037000	0.001586	0.000000	0.000321	0.000000	6670.041663	39718.347109	4032.159709	21743.401422
11.534500	0.000655	-0.000345	-0.000089	-0.000231	6664.218037	39708.685333	4031.743549	21753.329144
12.035000	-0.001789	0.000543	0.003127	0.000818	6635.333806	39695.161798	4036.758195	21708.232052
12.535500	0.001055	0.000200	-0.003124	0.000697	6659.842721	39676.473499	4022.642887	21713.441505
13.035500	-0.001870	-0.000718	-0.000129	0.000052	6640.986677	39653.453607	4031.000637	21741.165017
13.537500	-0.001133	-0.000383	0.001756	0.000477	6643.552803	39645.821167	4034.371901	21722.862943
14.036000	-0.000860	-0.000437	-0.001900	0.002567	6628.590442	39465.891853	4021.166909	21633.247484
14.536500	-0.001642	-0.000543	-0.007057	0.001814	6628.346265	39520.055224	4011.161801	21665.481705
15.039500	-0.001670	-0.001129	-0.001881	-0.000451	6646.786735	39661.178388	4028.124784	21762.827190
15.536500	0.000614	-0.000153	0.001932	0.000811	6655.246055	39637.166698	4034.008639	21708.535235
16.037000	0.000821	-0.000095	0.001666	0.000745	6657.506986	39647.548614	4033.545830	21711.366124
16.537500	-0.001964	0.000156	-0.000228	0.001122	6631.396545	39636.973374	4028.308713	21695.181546
17.034500	0.000913	-0.000884	-0.003963	-0.002785	6687.644857	39879.026992	4028.703459	21863.648309
17.535500	0.000761	0.000083	-0.000725	0.001665	6649.390412	39585.158969	4025.920698	21671.885180
18.035500	-0.001945	-0.000447	-0.002384	0.001439	6628.935412	39559.534896	4022.637550	21681.549244
18.535500	-0.001457	-0.000613	-0.004781	0.001394	6633.330442	39549.435605	4017.274136	21683.507043
19.036000	-0.001935	-0.000041	-0.001891	0.002432	6620.865678	39510.297097	4021.495761	21639.010153
19.539500	-0.001452	0.000942	0.000759	0.002491	6624.351987	39587.926647	4027.431086	21636.508646
20.037000	-0.001889	-0.000466	-0.000889	0.001499	6628.915698	39553.031987	4025.924451	21679.008875
20.537000	-0.000494	-0.000744	-0.002572	0.001631	6639.313756	39518.630837	4021.770596	21673.352331
21.037500	-0.001684	-0.000592	-0.004369	0.001395	6631.450055	39551.111178	4018.209842	21683.459454
21.537500	-0.003078	-0.000975	-0.000663	0.001428	6619.727307	39516.152889	4026.604705	21682.021990
22.035000	-0.000683	0.000257	-0.002952	0.001945	6635.167300	39576.295155	4020.186206	21659.890378
22.535000	-0.001396	0.000199	-0.005171	0.002542	6624.385783	39521.196840	4013.781599	21634.303165
23.035000	-0.004621	-0.000682	-0.003402	0.001018	6610.450870	39575.281219	4021.273824	21699.641236
23.535500	-0.002266	-0.001204	0.000872	0.001017	6629.774516	39531.476748	4031.082901	21699.686450
24.036000	-0.001306	-0.000800	-0.000794	0.001165	6636.453056	39552.953745	4026.908769	21693.311189
24.536500	-0.001965	-0.000115	-0.002691	0.001814	6625.695354	39555.995607	4021.078998	21665.472831
25.036500	-0.001686	0.000271	0.004067	0.002366	6623.450975	39542.052153	4035.348404	21641.838782
25.537000	-0.001391	-0.000577	-0.002005	0.001326	6634.423554	39558.152495	4023.762591	21686.395535
26.035000	-0.003615	-0.000270	-0.004753	0.001420	6615.397891	39576.091796	4017.279472	21682.391773
26.537500	-0.002096	-0.000175	-0.000178	0.001817	6624.592952	39550.659839	4026.825592	21665.343968
27.035000	0.000108	-0.000635	-0.002569	-0.001006	6666.120806	39749.670033	4027.818396	21786.746642
27.535500	-0.000689	-0.001080	0.004420	-0.000378	6654.302304	39659.238628	4042.548735	21759.693630
28.036000	-0.002580	-0.000249	0.000871	0.000679	6629.976102	39640.166976	4031.862099	21714.215121
28.535500	-0.000550	-0.000218	-0.002453	0.000428	6648.776364	39663.918453	4024.793179	21724.991384
29.039000	-0.001219	-0.000853	-0.002359	-0.000043	6647.139116	39650.075561	4026.088395	21745.242328
29.537000	0.001011	-0.000633	-0.002047	0.000234	6663.315295	39645.231160	4026.170057	21733.317403
30.037000	0.000892	0.000135	0.002579	0.000597	6659.325958	39679.421646	4036.000703	21717.733984
30.537000	-0.001629	-0.001267	0.000166	0.001979	6627.093514	39445.551766	4027.243559	21658.395403
31.037500	-0.001288	-0.000415	-0.006518	0.001072	6637.375364	39593.172711	4014.062373	21697.332578
31.535000	-0.000161	-0.001079	-0.007803	0.001149	6646.042644	39530.966100	4010.980127	21694.028943
32.035500	-0.000382	0.000037	-0.000603	0.000497	6649.598570	39679.596934	4028.883773	21722.017581
32.535500	-0.001183	0.000219	0.003972	0.000647	6641.740748	39682.226384	4039.117428	21715.566523
33.035500	0.000775	-0.000005	-0.004731	-0.000870	6670.532141	39791.441158	4022.551981	21780.905045
33.536000	-0.003984	-0.000760	0.000372	0.001427	6612.318065	39534.378148	4028.987986	21682.082694
34.036000	-0.002651	-0.000291	-0.004518	0.002103	6617.694544	39516.968941	4016.260520	21653.089808
34.536500	-0.002552	-0.000467	-0.000852	0.002030	6619.107873	39508.335749	4024.791148	21656.239911
35.037000	-0.002164	-0.001510	-0.003709	0.001329	6628.045862	39479.670107	4019.863431	21686.288326
35.534500	-0.002627	-0.000705	0.002525	0.002335	6615.995882	39462.814688	4031.855937	21643.181431
36.034500	-0.001745	-0.000386	-0.003721	0.001948	6626.402389	39521.981599	4018.425771	21659.743583
36.535000	-0.002101	-0.000544	-0.003744	0.002088	6622.322090	39497.001421	4018.054092	21653.727428
37.035500	-0.001954	-0.000061	-0.002478	0.002415	6620.845470	39510.084895	4020.193643	21639.725648
37.536000	-0.002470	-0.000704	-0.001820	0.001644	6622.946268	39520.860748	4023.458750	21672.784801
38.036000	-0.002085	-0.000559	-0.003443	0.001963	6623.487339	39506.304857	4019.024501	21659.120046
38.539000	-0.001067	-0.000243	-0.001793	0.002227	6629.681381	39510.552550	4022.185327	21647.775314
39.036500	-0.003032	-0.000959	-0.000980	0.001624	6618.499013	39501.125297	4025.429847	21673.644416
39.536500	-0.001775	-0.000840	-0.001622	0.001761	6627.699953	39499.633929	4023.645985	21667.778692
40.037000	-0.003814	-0.000367	-0.003528	0.001535	6612.823612	39558.232897	4019.805799	21677.453135
40.535000	-0.000480	-0.001191	-0.001598	0.001682	6638.997987	39476.754242	4023.880247	21671.128894
41.035000	-0.001626	-0.000261	-0.008428	0.002561	6622.342793	39481.044379	4006.386598	21633.495830
41.535000	-0.000428	-0.000938	-0.004566	0.001882	6637.787430	39481.309499	4016.653613	21662.589395
42.035500	-0.000948	-0.000467	-0.001277	0.002074	6631.911728	39504.571751	4023.717508	21654.326004
42.536000	-0.003018	-0.000769	-0.002765	0.001946	6615.968164	39490.031443	4020.608977	21659.813917
43.036000	-0.002487	-0.000036	-0.000393	0.002165	6618.528164	39533.126302	4025.534060	21650.449692
43.536500	0.000276	-0.000527	-0.000272	-0.002253	6677.889454	39864.211786	4035.998448	21840.622612
44.037000	-0.000433	-0.000569	0.000678	0.000266	6651.089519	39648.000229	4032.367513	21731.947502
44.534500	-0.000241	-0.000393	-0.004875	0.000588	6650.016417	39635.747364	4018.895948	21718.116522
45.037500	-0.002072	-0.000263	-0.002298	0.000683	6634.112973	39638.639425	4024.563203	21714.007744
45.535000	0.000792	0.000288	0.001045	0.001163	6653.795917	39644.540701	4031.144285	21693.391354
46.035000	-0.000727	-0.000264	-0.005923	0.000211	6649.110612	39678.308888	4017.367004	21734.321164
46.538000	-0.000704	0.000085	-0.006638	0.000480	6647.076417	39685.022004	4015.131211	21722.751068
47.036000	-0.002504	-0.000381	0.001088	0.002354	6616.843830	39488.349149	4028.503228	21642.361646
47.536000	-0.001389	0.000159	-0.000185	0.001467	6633.283602	39608.190690	4027.614189	21680.370955
48.038500	-0.001007	-0.000101	0.001617	0.000983	6640.424260	39627.046843	4032.882791	21701.150081
48.537000	-0.002777	0.000087	-0.002741	0.000880	6626.699136	39651.509764	4023.100738	21705.564716
49.037000	-0.000590	-0.000343	-0.003378	-0.001751	6666.516221	39837.338741	4027.673990	21818.938749
49.537000	0.002093	-0.000660	-0.004203	-0.006387	6727.837595	40204.695391	4036.469693	22020.359595
50.037000	-0.000041	-0.000279	-0.000461	-0.002689	6678.881428	39922.207069	4036.570737	21859.500883
50.535000	-0.016292	0.002614	0.022882	0.271945	4911.244154	22788.974470	3594.166907	13044.431979
51.034500	-0.053138	-0.012450	0.005590	0.190371	5112.286602	26049.768885	3684.238921	15109.448760
51.535500	-0.046295	-0.017301	-0.011676	-0.118581	7308.620559	49339.548960	4311.033880	27612.080321
52.035500	-0.042025	-0.101311	-0.017258	-0.332745	10086.856976	65502.511162	5101.087037	43268.322669
52.538500	-0.027639	-0.078484	0.004543	-0.307282	9909.855644	65124.841994	5083.693091	40978.117800
53.036000	-0.016782	-0.078283	0.002320	-0.308251	10098.998807	65292.156275	5077.770917	41062.874237
53.536500	-0.010165	-0.026756	0.009082	-0.223545	8940.280585	60716.823260	4741.277043	34327.114591
54.037000	-0.004642	-0.011327	0.007644	-0.173797	8370.774309	56337.922845	4550.968404	30942.022667
54.537500	0.005200	-0.004195	0.011746	-0.161642	8342.551115	55725.561665	4523.018183	30172.217588
55.037500	0.023221	0.002341	0.017757	-0.157220	8510.629429	55982.353054	4528.490475	29897.422752
55.535000	0.032870	0.009500	0.028895	-0.140465	8422.139781	54826.457458	4509.229024	28881.419017
56.035500	0.045682	0.017721	0.039528	-0.117475	8297.894570	53096.468443	4467.720687	27549.589743
56.535500	0.052137	0.022783	0.045979	-0.088704	8035.450114	50439.432521	4395.675604	25979.200515
57.036000	0.057688	0.027794	0.051463	-0.056160	7735.495009	47530.546969	4313.154341	24323.848076
57.536000	0.059877	0.032896	0.057086	-0.023005	7413.608480	44750.505843	4234.309010	22760.276175
58.036500	0.064576	0.035544	0.063795	-0.000712	7240.670548	42907.713857	4191.842726	21774.053310
58.536500	0.071153	0.039381	0.067462	-0.005054	7347.167007	43664.911313	4213.478886	21962.204571
59.037000	0.073758	0.041546	0.076932	0.036305	6981.013124	40163.135735	4129.663010	20244.318295
59.537500	0.079078	0.047901	0.075591	0.064606	6778.818471	38336.035250	4057.081408	19159.615817
60.035000	0.081793	0.049044	0.079941	0.054295	6892.109186	39278.131794	4092.362389	19546.652368
60.535500	0.081864	0.049945	0.088497	0.064786	6801.213543	38487.681066	4087.636624	19152.948477
61.035500	0.082519	0.052080	0.090397	0.074735	6721.959916	37856.405229	4068.206134	18788.245171
61.536000	0.091327	0.057260	0.090898	0.083428	6722.924962	37576.302900	4048.799692	18476.376591
62.038500	0.093508	0.058326	0.090672	0.083842	6737.877639	37628.152790	4047.298324	18461.696672
62.536000	0.095960	0.059904	0.090607	0.087937	6723.972816	37428.487348	4037.596746	18317.055839
63.040500	0.099194	0.061399	0.100053	0.092328	6714.226060	37200.195834	4049.396768	18163.478679
63.537000	0.098696	0.061737	0.094158	0.100032	6645.821096	36626.482179	4017.959123	17897.758029
64.037000	0.100154	0.063954	0.095330	0.103663	6627.913299	36517.437584	4012.377232	17774.126977
64.534500	0.103212	0.065223	0.098003	0.109943	6601.527950	36133.919747	4004.247805	17562.761385
65.035000	0.102775	0.065364	0.094654	0.115681	6551.507921	35710.839455	3984.068172	17372.309500
65.535000	0.103997	0.066895	0.102527	0.121626	6513.711641	35380.828424	3988.314585	17177.580419
66.035500	0.106591	0.067358	0.100222	0.126104	6498.756888	35083.736879	3973.456743	17032.688804
66.536000	0.108137	0.067987	0.110739	0.131343	6469.627691	34745.841178	3984.999213	16865.030003
67.036500	0.106583	0.067434	0.111171	0.137425	6410.159727	34265.797263	3972.648694	16672.903980
67.536500	0.108248	0.069236	0.107482	0.139843	6404.355815	34221.627640	3959.479834	16597.276919
68.036500	0.109005	0.069891	0.107513	0.143771	6380.012617	33987.825912	3951.173845	16475.309298
68.537000	0.111899	0.069767	0.115271	0.147145	6376.342656	33739.940104	3960.522971	16371.417942
69.037000	0.109547	0.072094	0.116275	0.154912	6299.921269	33358.366678	3946.138766	16135.317948
69.537500	0.113197	0.070969	0.111291	0.154841	6327.814563	33284.952301	3935.828097	16137.430302
70.035000	0.115767	0.073101	0.116646	0.159801	6309.865708	33088.979080	3936.652981	15988.826828
70.535500	0.115393	0.072542	0.121408	0.162144	6289.583637	32889.128169	3941.719165	15919.211470
71.036000	0.115139	0.073415	0.120384	0.166481	6255.604506	32652.377414	3930.528993	15791.343984
71.538500	0.114779	0.073225	0.119869	0.168766	6236.191184	32484.344145	3924.738074	15724.482359
72.036500	0.118547	0.075558	0.122876	0.173192	6231.379246	32343.060507	3921.818498	15595.987121
72.536500	0.119943	0.073959	0.120697	0.174305	6233.442592	32160.878705	3915.079256	15563.865975
73.039500	0.119287	0.075896	0.131882	0.177435	6205.888486	32081.141065	3931.659059	15474.026029
73.537000	0.119705	0.077037	0.128400	0.179919	6190.948803	31991.659655	3919.350766	15403.178690
74.035000	0.121469	0.076754	0.129576	0.181598	6191.558059	31861.273781	3918.319955	15355.492593
74.535000	0.119742	0.076700	0.128522	0.183336	6166.662968	31742.806036	3912.625346	15306.357781
75.035000	0.119493	0.076796	0.130431	0.184891	6153.776009	31646.754571	3913.345123	15262.563248
75.535500	0.124882	0.079621	0.129614	0.187910	6170.712831	31634.000652	3905.573640	15177.960938
76.036000	0.122563	0.078694	0.127657	0.188478	6150.087272	31535.865560	3900.495423	15162.106643
76.536000	0.121997	0.079499	0.136041	0.189846	6136.348264	31499.006530	3914.679328	15124.009890
77.036000	0.123186	0.080893	0.135513	0.191290	6134.547030	31495.742469	3910.669725	15083.943307
77.537000	0.124786	0.079606	0.133989	0.191019	6147.829059	31429.408008	3908.130694	15091.464756
78.037000	0.127741	0.080091	0.127358	0.191341	6166.618105	31440.000058	3894.177074	15082.526206
78.534000	0.125744	0.081011	0.132245	0.191588	6150.594845	31483.985274	3903.463834	15075.686233
79.034500	0.129733	0.082661	0.135939	0.192954	6169.327516	31502.545491	3908.161420	15037.920999
79.535500	0.129055	0.082444	0.127489	0.192525	6167.550344	31516.448166	3892.083656	15049.775773
80.035500	0.128676	0.082759	0.133279	0.192746	6163.256156	31522.612145	3903.215905	15043.677077
80.536000	0.125671	0.082174	0.134496	0.192072	6146.633276	31528.379056	3907.027222	15062.299541
81.041500	0.128162	0.082696	0.132070	0.191982	6165.038122	31568.496782	3902.318740	15064.772768
81.536500	0.128808	0.082141	0.137358	0.190941	6177.135929	31600.380947	3915.131930	15093.608814
82.036500	0.130505	0.083903	0.141186	0.191739	6183.603051	31663.796832	3921.333517	15071.520906
82.536500	0.128512	0.082510	0.136959	0.189820	6183.063560	31698.348240	3916.603397	15124.730171
83.037000	0.128366	0.082952	0.138218	0.189861	6181.718119	31724.778459	3919.095245	15123.592821
83.537500	0.129892	0.083839	0.139292	0.189243	6197.185978	31824.301812	3922.569673	15140.809709
84.035000	0.130061	0.083783	0.140254	0.188693	6202.382314	31856.965847	3925.684590	15156.121954
84.535000	0.131602	0.083564	0.134836	0.187750	6220.419413	31904.948027	3916.497464	15182.436996
85.035500	0.130319	0.084103	0.137255	0.187229	6214.877218	31975.407005	3922.523024	15197.001104
85.538500	0.128494	0.083133	0.130560	0.190085	6181.031539	31721.953048	3903.097043	15117.374613
86.036000	0.129296	0.083902	0.137633	0.186332	6213.958319	32021.688252	3925.146574	15222.102213
86.536000	0.129341	0.084108	0.139663	0.185996	6216.729837	32057.869823	3930.039588	15231.530388
87.036500	0.132006	0.083646	0.144085	0.184786	6245.034358	32107.761349	3941.793322	15265.505493
87.537000	0.132948	0.085368	0.138804	0.185395	6247.485067	32182.288722	3929.505617	15248.405529
88.037000	0.131168	0.084471	0.139224	0.184212	6243.101994	32201.413530	3932.832712	15281.657947
88.537500	0.132921	0.083615	0.135478	0.183642	6260.182693	32182.224598	3926.249598	15297.720070
89.035000	0.130770	0.083917	0.139488	0.181977	6256.599246	32314.338816	3938.043905	15344.764278
89.535500	0.133781	0.083993	0.143751	0.181260	6284.173165	32367.732718	3948.521668	15365.081907
90.035000	0.130872	0.084087	0.136612	0.180831	6265.809674	32403.030524	3934.433558	15377.258996
90.536000	0.134132	0.083961	0.141162	0.179936	6296.640350	32455.010658	3945.848903	15402.669367
91.036000	0.132120	0.084683	0.131747	0.179484	6285.029808	32534.551439	3927.133611	15415.551425
91.536000	0.131945	0.084426	0.139109	0.179072	6286.796902	32545.030971	3943.343904	15427.287678
92.037000	0.135596	0.085395	0.143909	0.178826	6315.888598	32627.541854	3954.021898	15434.280373
92.537000	0.132807	0.083714	0.138500	0.177014	6308.574023	32636.457268	3946.396318	15486.060325
93.034500	0.134919	0.085226	0.141196	0.177937	6317.491507	32676.582044	3950.149867	15459.681900
93.538000	0.133908	0.084909	0.136738	0.177087	6316.276899	32712.901951	3942.530519	15483.967706
94.035500	0.134377	0.086049	0.142542	0.177184	6319.073615	32784.197654	3954.608681	15481.210276
94.535500	0.136208	0.085872	0.141902	0.177102	6333.458787	32777.591546	3953.420087	15483.536500
95.041500	0.133849	0.083684	0.138947	0.175156	6330.353713	32761.114737	3951.275579	15539.376824
95.536000	0.134136	0.085243	0.140825	0.175544	6329.595540	32841.288043	3954.446028	15528.244495
