sample name	sample
index	1232
start time	 04-29-2021  11:12:31 AM


Wavelength (nm)	Absorbance
494.344910	0.119959
494.563924	0.119959
494.782919	0.119959
495.001897	-0.132350
495.220856	-0.090711
495.439797	-0.116334
495.658719	-0.131842
495.877624	-0.134950
496.096510	-0.127782
496.315378	-0.072790
496.534227	-0.101869
496.753059	-0.085914
496.971872	-0.026018
497.190667	0.097880
497.409444	0.118409
497.628203	0.127982
497.846943	0.130737
498.065665	0.129860
498.284369	0.131776
498.503055	0.133010
498.721723	0.133612
498.940372	0.132646
499.159003	0.133390
499.377616	0.134517
499.596210	0.134086
499.814787	0.133001
500.033345	0.134178
500.251885	0.134591
500.470406	0.134953
500.688910	0.135073
500.907395	0.135339
501.125862	0.134925
501.344311	0.133978
501.562742	0.133988
501.781154	0.134574
501.999548	0.135617
502.217924	0.134396
502.436282	0.134432
502.654621	0.133188
502.872942	0.134120
503.091245	0.133606
503.309530	0.134414
503.527797	0.134147
503.746045	0.133836
503.964275	0.133250
504.182487	0.133132
504.400681	0.133177
504.618856	0.135188
504.837013	0.133942
505.055152	0.133709
505.273273	0.134159
505.491376	0.134030
505.709460	0.134477
505.927526	0.134637
506.145574	0.135267
506.363604	0.134944
506.581615	0.133821
506.799608	0.134661
507.017583	0.136989
507.235540	0.137167
507.453478	0.138190
507.671399	0.138000
507.889301	0.136941
508.107185	0.137466
508.325050	0.138339
508.542898	0.138712
508.760727	0.139496
508.978538	0.138413
509.196330	0.137476
509.414105	0.137094
509.631861	0.138390
509.849599	0.139734
510.067319	0.139592
510.285021	0.139393
510.502704	0.140029
510.720369	0.139361
510.938016	0.139473
511.155645	0.140157
511.373255	0.140420
511.590848	0.140474
511.808422	0.140034
512.025977	0.140569
512.243515	0.140636
512.461034	0.140371
512.678536	0.140444
512.896018	0.141519
513.113483	0.141739
513.330930	0.142668
513.548358	0.141778
513.765768	0.142293
513.983160	0.141579
514.200533	0.142312
514.417889	0.141524
514.635226	0.141146
514.852545	0.140430
515.069845	0.141407
515.287128	0.141806
515.504392	0.142339
515.721638	0.142427
515.938866	0.143012
516.156075	0.141927
516.373267	0.142525
516.590440	0.143667
516.807594	0.144207
517.024731	0.143988
517.241850	0.143000
517.458950	0.142822
517.676032	0.143539
517.893095	0.143949
518.110141	0.144966
518.327168	0.145308
518.544177	0.145404
518.761168	0.145404
518.978141	0.144959
519.195095	0.144775
519.412031	0.145359
519.628949	0.145063
519.845849	0.145518
520.062731	0.145457
520.279594	0.145803
520.496439	0.145888
520.713266	0.146347
520.930074	0.146385
521.146865	0.146569
521.363637	0.146897
521.580391	0.146489
521.797127	0.146501
522.013844	0.147317
522.230543	0.148342
522.447224	0.148846
522.663887	0.148933
522.880532	0.149511
523.097158	0.150882
523.313766	0.150808
523.530356	0.151924
523.746928	0.152026
523.963481	0.151879
524.180017	0.151430
524.396534	0.151904
524.613032	0.152421
524.829513	0.152782
525.045975	0.152510
525.262420	0.152958
525.478845	0.153298
525.695253	0.153644
525.911643	0.153690
526.128014	0.154326
526.344367	0.154309
526.560702	0.153775
526.777018	0.154309
526.993316	0.154759
527.209597	0.154896
527.425858	0.155166
527.642102	0.155218
527.858328	0.155576
528.074535	0.154286
528.290724	0.154296
528.506894	0.155385
528.723047	0.155175
528.939181	0.154850
529.155297	0.154951
529.371395	0.154814
529.587475	0.155380
529.803536	0.155587
530.019579	0.157009
530.235604	0.157225
530.451611	0.156481
530.667600	0.156538
530.883570	0.157400
531.099522	0.157831
531.315456	0.158078
531.531372	0.158623
531.747269	0.158253
531.963148	0.158295
532.179009	0.158474
532.394852	0.159409
532.610676	0.159641
532.826482	0.159847
533.042271	0.160145
533.258040	0.160156
533.473792	0.159208
533.689525	0.160004
533.905240	0.160265
534.120937	0.160360
534.336616	0.160845
534.552277	0.161758
534.767919	0.162423
534.983543	0.162999
535.199149	0.162653
535.414736	0.163099
535.630306	0.163301
535.845857	0.163687
536.061390	0.163919
536.276904	0.163785
536.492401	0.163578
536.707879	0.163119
536.923339	0.163248
537.138781	0.163806
537.354204	0.164367
537.569610	0.164308
537.784997	0.164502
538.000366	0.165445
538.215716	0.166021
538.431049	0.166308
538.646363	0.167003
538.861659	0.167101
539.076937	0.167919
539.292196	0.168274
539.507438	0.169065
539.722661	0.168876
539.937866	0.168782
540.153052	0.168845
540.368221	0.168969
540.583371	0.168835
540.798503	0.168573
541.013617	0.169325
541.228712	0.169480
541.443789	0.169907
541.658848	0.170326
541.873889	0.170264
542.088912	0.170012
542.303916	0.170067
542.518902	0.170656
542.733870	0.171333
542.948820	0.170894
543.163752	0.171429
543.378665	0.171201
543.593560	0.171732
543.808437	0.171797
544.023295	0.172522
544.238136	0.173272
544.452958	0.172652
544.667762	0.172525
544.882548	0.172652
545.097315	0.172533
545.312064	0.172848
545.526795	0.172699
545.741508	0.172950
545.956203	0.172769
546.170879	0.172675
546.385537	0.173375
546.600177	0.174128
546.814799	0.174996
547.029402	0.175113
547.243988	0.175267
547.458555	0.175708
547.673103	0.176144
547.887634	0.176632
548.102146	0.177122
548.316640	0.177226
548.531116	0.177048
548.745574	0.177089
548.960013	0.176888
549.174435	0.177419
549.388838	0.177544
549.603222	0.177642
549.817589	0.178202
550.031937	0.178124
550.246267	0.178523
550.460579	0.178594
550.674873	0.178717
550.889148	0.178986
551.103405	0.178859
551.317644	0.178570
551.531865	0.178685
551.746068	0.178349
551.960252	0.178453
552.174418	0.178198
552.388566	0.178301
552.602696	0.177850
552.816807	0.178115
553.030900	0.178391
553.244975	0.178828
553.459032	0.179316
553.673070	0.179678
553.887091	0.179591
554.101093	0.179952
554.315077	0.180269
554.529042	0.180181
554.742990	0.180238
554.956919	0.180413
555.170830	0.180907
555.384722	0.181023
555.598597	0.180908
555.812453	0.181255
556.026291	0.181765
556.240111	0.181850
556.453913	0.182892
556.667696	0.183285
556.881461	0.183160
557.095208	0.183085
557.308937	0.183201
557.522647	0.183519
557.736339	0.183833
557.950013	0.183875
558.163669	0.184644
558.377307	0.184732
558.590926	0.185048
558.804527	0.185758
559.018110	0.185950
559.231675	0.186133
559.445221	0.186303
559.658749	0.186339
559.872259	0.186581
560.085751	0.186442
560.299225	0.186421
560.512680	0.186714
560.726117	0.186423
560.939536	0.186864
561.152937	0.186973
561.366319	0.186984
561.579683	0.187234
561.793029	0.187450
562.006357	0.187400
562.219667	0.187857
562.432958	0.188089
562.646231	0.188240
562.859486	0.188303
563.072723	0.188354
563.285941	0.188805
563.499141	0.189189
563.712323	0.188976
563.925487	0.189292
564.138632	0.189530
564.351760	0.189627
564.564869	0.190249
564.777960	0.190066
564.991032	0.190321
565.204087	0.189922
565.417123	0.189829
565.630141	0.190231
565.843140	0.190279
566.056122	0.190240
566.269085	0.190406
566.482030	0.190452
566.694957	0.190861
566.907866	0.191161
567.120756	0.191788
567.333628	0.191793
567.546482	0.191889
567.759318	0.192408
567.972135	0.192475
568.184935	0.192299
568.397716	0.192371
568.610478	0.192246
568.823223	0.192362
569.035949	0.192557
569.248657	0.192829
569.461347	0.193156
569.674019	0.192877
569.886672	0.193077
570.099308	0.193711
570.311925	0.193399
570.524523	0.193780
570.737104	0.193866
570.949666	0.193776
571.162210	0.193965
571.374736	0.194156
571.587244	0.194634
571.799733	0.194731
572.012205	0.194855
572.224658	0.195165
572.437092	0.195167
572.649509	0.194847
572.861907	0.195182
573.074287	0.195790
573.286649	0.195622
573.498993	0.195059
573.711318	0.195446
573.923625	0.195346
574.135914	0.195820
574.348185	0.196052
574.560438	0.196719
574.772672	0.196958
574.984888	0.196937
575.197086	0.197311
575.409266	0.198057
575.621427	0.197672
575.833570	0.197957
576.045695	0.197753
576.257802	0.197889
576.469890	0.197711
576.681961	0.197622
576.894013	0.197857
577.106046	0.198285
577.318062	0.198220
577.530059	0.198306
577.742039	0.198312
577.954000	0.198052
578.165942	0.198320
578.377867	0.198845
578.589773	0.198948
578.801661	0.198716
579.013531	0.198296
579.225382	0.198425
579.437216	0.198651
579.649031	0.198899
579.860828	0.199908
580.072606	0.200351
580.284367	0.200634
580.496109	0.201158
580.707833	0.201485
580.919539	0.201632
581.131227	0.202222
581.342896	0.202893
581.554547	0.202835
581.766180	0.203014
581.977795	0.202487
582.189391	0.202351
582.400969	0.202545
582.612529	0.202746
582.824071	0.203019
583.035595	0.203149
583.247100	0.203141
583.458587	0.203381
583.670056	0.203287
583.881506	0.203734
584.092939	0.204251
584.304353	0.204473
584.515749	0.204786
584.727127	0.205180
584.938486	0.205203
585.149828	0.205572
585.361151	0.205742
585.572456	0.205968
585.783742	0.206365
585.995011	0.206346
586.206261	0.206487
586.417493	0.206452
586.628706	0.206380
586.839902	0.206288
587.051079	0.206149
587.262238	0.206290
587.473379	0.206419
587.684502	0.206577
587.895606	0.206423
588.106692	0.206171
588.317760	0.206723
588.528810	0.207182
588.739841	0.207810
588.950855	0.207813
589.161850	0.208048
589.372827	0.208313
589.583785	0.208344
589.794726	0.208691
590.005648	0.208971
590.216552	0.208764
590.427437	0.208972
590.638305	0.209118
590.849154	0.209369
591.059985	0.209575
591.270798	0.209686
591.481592	0.209843
591.692369	0.210202
591.903127	0.210542
592.113867	0.210313
592.324588	0.210247
592.535292	0.210245
592.745977	0.210562
592.956644	0.210864
593.167293	0.210716
593.377923	0.211222
593.588536	0.211013
593.799130	0.211066
594.009706	0.211227
594.220263	0.211245
594.430803	0.211387
594.641324	0.211299
594.851827	0.211666
595.062312	0.212005
595.272778	0.212144
595.483227	0.212674
595.693657	0.213000
595.904069	0.213141
596.114462	0.213368
596.324838	0.213525
596.535195	0.213704
596.745534	0.213778
596.955855	0.213960
597.166157	0.214121
597.376441	0.214097
597.586707	0.213821
597.796955	0.213960
598.007185	0.214134
598.217396	0.214570
598.427589	0.214734
598.637764	0.214785
598.847921	0.214972
599.058060	0.214680
599.268180	0.214667
599.478282	0.214856
599.688366	0.215260
599.898431	0.215069
600.108479	0.214772
600.318508	0.215018
600.528519	0.214724
600.738511	0.215225
600.948486	0.215437
601.158442	0.215445
601.368380	0.215911
601.578300	0.215969
601.788202	0.216318
601.998085	0.216678
602.207950	0.216693
602.417797	0.217159
602.627626	0.217257
602.837436	0.217596
603.047228	0.217875
603.257002	0.217884
603.466758	0.218198
603.676496	0.218558
603.886215	0.218335
604.095916	0.218294
604.305599	0.218131
604.515264	0.217767
604.724910	0.217744
604.934538	0.218072
605.144148	0.218294
605.353740	0.218214
605.563314	0.218410
605.772869	0.219127
605.982406	0.219370
606.191925	0.219703
606.401425	0.220009
606.610908	0.220277
606.820372	0.220369
607.029818	0.220232
607.239246	0.220529
607.448655	0.220510
607.658047	0.220357
607.867420	0.220595
608.076775	0.220662
608.286111	0.220765
608.495430	0.220692
608.704730	0.220638
608.914012	0.220952
609.123275	0.221255
609.332521	0.221201
609.541748	0.221284
609.750957	0.221543
609.960148	0.221421
610.169321	0.221454
610.378475	0.221698
610.587611	0.221856
610.796729	0.221876
611.005829	0.221917
611.214910	0.222149
611.423974	0.222245
611.633019	0.222150
611.842045	0.222666
612.051054	0.223074
612.260044	0.223238
612.469017	0.223714
612.677970	0.224078
612.886906	0.223994
613.095824	0.224076
613.304723	0.224276
613.513604	0.224472
613.722467	0.224478
613.931311	0.224362
614.140138	0.224339
614.348946	0.224033
614.557736	0.223649
614.766507	0.223688
614.975261	0.223672
615.183996	0.223831
615.392713	0.223704
615.601412	0.223852
615.810092	0.223854
616.018754	0.223690
616.227399	0.223935
616.436024	0.224044
616.644632	0.224441
616.853222	0.224521
617.061793	0.224342
617.270346	0.224499
617.478880	0.224240
617.687397	0.224459
617.895895	0.224690
618.104375	0.224766
618.312837	0.224760
618.521281	0.224730
618.729706	0.224981
618.938113	0.225153
619.146502	0.225428
619.354873	0.225744
619.563226	0.225674
619.771560	0.225684
619.979876	0.225874
620.188174	0.226164
620.396453	0.226170
620.604715	0.226480
620.812958	0.226406
621.021183	0.226579
621.229390	0.226863
621.437578	0.227028
621.645748	0.227639
621.853900	0.227510
622.062034	0.227863
622.270150	0.228103
622.478247	0.228265
622.686326	0.228786
622.894387	0.228918
623.102430	0.229002
623.310454	0.229458
623.518461	0.229261
623.726449	0.229363
623.934418	0.229603
624.142370	0.229616
624.350303	0.229436
624.558218	0.229546
624.766115	0.229565
624.973994	0.229537
625.181855	0.229466
625.389697	0.230049
625.597521	0.230175
625.805327	0.230135
626.013114	0.230134
626.220883	0.230410
626.428634	0.230683
626.636367	0.231048
626.844082	0.231247
627.051778	0.231491
627.259457	0.231469
627.467117	0.231765
627.674758	0.231900
627.882382	0.232200
628.089987	0.232334
628.297574	0.232141
628.505143	0.231886
628.712694	0.231763
628.920226	0.231853
629.127740	0.231765
629.335236	0.231901
629.542714	0.232100
629.750174	0.232322
629.957615	0.232247
630.165038	0.232361
630.372443	0.232737
630.579829	0.233268
630.787198	0.233303
630.994548	0.233288
631.201880	0.233070
631.409194	0.232966
631.616489	0.232890
631.823766	0.232962
632.031025	0.233320
632.238266	0.233381
632.445489	0.233352
632.652693	0.233496
632.859879	0.233755
633.067047	0.234085
633.274197	0.234223
633.481329	0.234288
633.688442	0.234420
633.895537	0.234235
634.102614	0.234318
634.309672	0.234367
634.516713	0.234425
634.723735	0.234579
634.930739	0.234945
635.137724	0.235367
635.344692	0.235775
635.551641	0.235985
635.758572	0.236043
635.965485	0.236046
636.172379	0.236199
636.379256	0.236336
636.586114	0.236576
636.792954	0.236383
636.999775	0.236263
637.206579	0.236360
637.413364	0.236524
637.620131	0.236830
637.826880	0.237205
638.033610	0.237185
638.240323	0.237578
638.447017	0.237684
638.653692	0.237862
638.860350	0.238336
639.066990	0.238319
639.273611	0.238728
639.480214	0.238617
639.686798	0.239018
639.893365	0.239375
640.099913	0.239311
640.306443	0.239371
640.512955	0.239715
640.719449	0.239805
640.925924	0.240002
641.132381	0.240041
641.338820	0.240488
641.545241	0.240322
641.751644	0.240528
641.958028	0.240661
642.164394	0.240771
642.370742	0.240837
642.577071	0.240723
642.783383	0.240779
642.989676	0.240857
643.195951	0.241134
643.402207	0.241372
643.608446	0.241567
643.814666	0.241858
644.020868	0.242101
644.227052	0.242457
644.433218	0.242712
644.639365	0.243184
644.845494	0.243287
645.051605	0.243438
645.257698	0.243410
645.463772	0.243559
645.669828	0.243440
645.875866	0.243723
646.081886	0.243745
646.287888	0.243713
646.493871	0.243769
646.699836	0.244142
646.905783	0.243910
647.111712	0.244204
647.317622	0.244108
647.523514	0.244215
647.729388	0.244052
647.935244	0.244088
648.141082	0.244421
648.346901	0.244571
648.552702	0.244821
648.758485	0.245186
648.964250	0.245137
649.169996	0.245564
649.375724	0.245787
649.581434	0.246131
649.787126	0.246352
649.992800	0.246465
650.198455	0.246815
650.404092	0.246830
650.609711	0.247144
650.815311	0.247558
651.020894	0.247814
651.226458	0.248119
651.432004	0.248291
651.637532	0.248728
651.843041	0.248984
652.048532	0.248890
652.254006	0.249255
652.459460	0.249445
652.664897	0.249615
652.870315	0.249637
653.075716	0.249940
653.281097	0.250168
653.486461	0.249990
653.691807	0.250170
653.897134	0.250225
654.102443	0.250066
654.307734	0.250367
654.513006	0.250325
654.718261	0.250384
654.923497	0.250662
655.128715	0.250770
655.333915	0.251233
655.539096	0.251352
655.744259	0.251418
655.949404	0.251805
656.154531	0.251721
656.359640	0.252207
656.564730	0.252763
656.769802	0.252626
656.974856	0.252808
657.179892	0.252979
657.384909	0.253429
657.589908	0.253800
657.794889	0.254056
657.999852	0.254363
658.204797	0.254460
658.409723	0.254374
658.614631	0.254767
658.819521	0.254983
659.024393	0.255112
659.229246	0.255228
659.434081	0.255753
659.638898	0.255799
659.843697	0.256005
660.048478	0.256267
660.253240	0.256477
660.457984	0.256538
660.662710	0.256589
660.867417	0.256826
661.072107	0.256825
661.276778	0.256812
661.481431	0.256952
661.686066	0.257269
661.890682	0.257218
662.095281	0.257635
662.299861	0.257895
662.504422	0.258163
662.708966	0.258475
662.913491	0.258636
663.117999	0.258666
663.322488	0.258918
663.526958	0.258850
663.731411	0.259229
663.935845	0.259167
664.140261	0.259345
664.344659	0.259578
664.549038	0.259390
664.753400	0.259541
664.957743	0.259726
665.162068	0.259721
665.366375	0.260014
665.570663	0.260129
665.774933	0.260151
665.979185	0.260447
666.183419	0.260800
666.387635	0.261096
666.591832	0.261420
666.796011	0.261670
667.000172	0.261952
667.204315	0.262006
667.408439	0.262257
667.612545	0.262606
667.816634	0.262808
668.020703	0.263053
668.224755	0.263378
668.428788	0.263645
668.632803	0.264135
668.836800	0.264364
669.040779	0.264486
669.244739	0.264549
669.448681	0.264983
669.652605	0.265260
669.856511	0.265255
670.060399	0.265435
670.264268	0.265812
670.468119	0.265894
670.671952	0.266401
670.875767	0.266763
671.079563	0.267131
671.283341	0.267228
671.487101	0.267220
671.690843	0.267564
671.894567	0.267830
672.098272	0.267797
672.301959	0.267945
672.505628	0.267792
672.709278	0.268146
672.912911	0.268347
673.116525	0.268702
673.320121	0.268843
673.523699	0.269088
673.727258	0.269238
673.930799	0.269545
674.134322	0.269642
674.337827	0.269953
674.541314	0.270053
674.744782	0.270273
674.948232	0.270336
675.151664	0.270569
675.355078	0.270476
675.558474	0.270405
675.761851	0.270499
675.965210	0.270581
676.168551	0.270795
676.371873	0.270850
676.575178	0.270908
676.778464	0.270830
676.981732	0.270827
677.184981	0.271269
677.388213	0.271576
677.591426	0.271464
677.794621	0.271773
677.997798	0.271636
678.200956	0.271765
678.404097	0.271958
678.607219	0.272146
678.810323	0.272570
679.013408	0.272664
679.216476	0.272876
679.419525	0.273071
679.622556	0.273047
679.825569	0.273383
680.028563	0.273442
680.231540	0.273392
680.434498	0.273804
680.637438	0.273963
680.840359	0.273901
681.043263	0.273907
681.246148	0.274177
681.449015	0.274361
681.651864	0.274393
681.854694	0.274683
682.057506	0.274992
682.260301	0.275067
682.463076	0.275225
682.665834	0.275369
682.868573	0.275755
683.071295	0.276141
683.273998	0.276449
683.476682	0.276794
683.679349	0.277000
683.881997	0.277472
684.084627	0.277653
684.287239	0.277779
684.489833	0.278127
684.692408	0.278271
684.894965	0.278200
685.097504	0.278495
685.300025	0.278704
685.502527	0.278709
685.705012	0.278518
685.907478	0.278626
686.109925	0.278713
686.312355	0.278703
686.514766	0.278884
686.717159	0.279225
686.919534	0.279197
687.121891	0.279493
687.324230	0.279763
687.526550	0.279925
687.728852	0.280050
687.931136	0.280116
688.133401	0.280293
688.335649	0.280445
688.537878	0.280580
688.740089	0.280817
688.942281	0.280679
689.144456	0.280738
689.346612	0.281051
689.548750	0.281528
689.750870	0.281979
689.952971	0.282068
690.155055	0.282251
690.357120	0.282385
690.559167	0.282745
690.761195	0.283079
690.963206	0.283462
691.165198	0.283813
691.367172	0.283612
691.569128	0.283548
691.771065	0.283780
691.972984	0.283840
692.174885	0.284115
692.376768	0.284095
692.578633	0.284236
692.780479	0.284534
692.982308	0.284466
693.184118	0.284834
693.385909	0.284949
