sample name	sample
index	236
start time	 02-22-2021  11:17:29 AM


Wavelength (nm)	Absorbance
494.344910	0.104266
494.563924	0.104266
494.782919	0.104266
495.001897	0.186609
495.220856	0.016164
495.439797	0.025606
495.658719	-0.005937
495.877624	-0.026419
496.096510	-0.055487
496.315378	-0.060959
496.534227	-0.026049
496.753059	-0.015285
496.971872	-0.011890
497.190667	0.119424
497.409444	0.135332
497.628203	0.141109
497.846943	0.143104
498.065665	0.145242
498.284369	0.142714
498.503055	0.141728
498.721723	0.142790
498.940372	0.141900
499.159003	0.141722
499.377616	0.140166
499.596210	0.139462
499.814787	0.138180
500.033345	0.137993
500.251885	0.138488
500.470406	0.139243
500.688910	0.138177
500.907395	0.139854
501.125862	0.138975
501.344311	0.139982
501.562742	0.140282
501.781154	0.142523
501.999548	0.141943
502.217924	0.142813
502.436282	0.142895
502.654621	0.143827
502.872942	0.143595
503.091245	0.144716
503.309530	0.145494
503.527797	0.146572
503.746045	0.146744
503.964275	0.147200
504.182487	0.147298
504.400681	0.147067
504.618856	0.146454
504.837013	0.146839
505.055152	0.147120
505.273273	0.146724
505.491376	0.146881
505.709460	0.146002
505.927526	0.145999
506.145574	0.146576
506.363604	0.147189
506.581615	0.148243
506.799608	0.147342
507.017583	0.147194
507.235540	0.147730
507.453478	0.147181
507.671399	0.147681
507.889301	0.148279
508.107185	0.148436
508.325050	0.148542
508.542898	0.148688
508.760727	0.149622
508.978538	0.149870
509.196330	0.149241
509.414105	0.149057
509.631861	0.148907
509.849599	0.149499
510.067319	0.150106
510.285021	0.150587
510.502704	0.150508
510.720369	0.151296
510.938016	0.150672
511.155645	0.151182
511.373255	0.151908
511.590848	0.151914
511.808422	0.152170
512.025977	0.151448
512.243515	0.151749
512.461034	0.151890
512.678536	0.151389
512.896018	0.151993
513.113483	0.152389
513.330930	0.152606
513.548358	0.152691
513.765768	0.152115
513.983160	0.152916
514.200533	0.153371
514.417889	0.153521
514.635226	0.154938
514.852545	0.155523
515.069845	0.154979
515.287128	0.155674
515.504392	0.155953
515.721638	0.156016
515.938866	0.156120
516.156075	0.155748
516.373267	0.156045
516.590440	0.155282
516.807594	0.155881
517.024731	0.156846
517.241850	0.156400
517.458950	0.157035
517.676032	0.157154
517.893095	0.157152
518.110141	0.157446
518.327168	0.158311
518.544177	0.158333
518.761168	0.158876
518.978141	0.159144
519.195095	0.159464
519.412031	0.159489
519.628949	0.160486
519.845849	0.160853
520.062731	0.161152
520.279594	0.160858
520.496439	0.161406
520.713266	0.161515
520.930074	0.162712
521.146865	0.163086
521.363637	0.163983
521.580391	0.163889
521.797127	0.164168
522.013844	0.164709
522.230543	0.165478
522.447224	0.165698
522.663887	0.165235
522.880532	0.165153
523.097158	0.164754
523.313766	0.164613
523.530356	0.165386
523.746928	0.165439
523.963481	0.165779
524.180017	0.165904
524.396534	0.166110
524.613032	0.167323
524.829513	0.167474
525.045975	0.168586
525.262420	0.168739
525.478845	0.169207
525.695253	0.170289
525.911643	0.170699
526.128014	0.171023
526.344367	0.171785
526.560702	0.172375
526.777018	0.172440
526.993316	0.172685
527.209597	0.173258
527.425858	0.173313
527.642102	0.173855
527.858328	0.173669
528.074535	0.173517
528.290724	0.173986
528.506894	0.173323
528.723047	0.174103
528.939181	0.175231
529.155297	0.175908
529.371395	0.176159
529.587475	0.175668
529.803536	0.176491
530.019579	0.177272
530.235604	0.177378
530.451611	0.178742
530.667600	0.178768
530.883570	0.178037
531.099522	0.178242
531.315456	0.178361
531.531372	0.179436
531.747269	0.178998
531.963148	0.179517
532.179009	0.179874
532.394852	0.179952
532.610676	0.179860
532.826482	0.180902
533.042271	0.181652
533.258040	0.182400
533.473792	0.182373
533.689525	0.183100
533.905240	0.183756
534.120937	0.184209
534.336616	0.183523
534.552277	0.184204
534.767919	0.185011
534.983543	0.185304
535.199149	0.185682
535.414736	0.186495
535.630306	0.187044
535.845857	0.187133
536.061390	0.187116
536.276904	0.187825
536.492401	0.188660
536.707879	0.188952
536.923339	0.189307
537.138781	0.190148
537.354204	0.190540
537.569610	0.190950
537.784997	0.191022
538.000366	0.191811
538.215716	0.192580
538.431049	0.192295
538.646363	0.192173
538.861659	0.192310
539.076937	0.191942
539.292196	0.191868
539.507438	0.191833
539.722661	0.192796
539.937866	0.193234
540.153052	0.193727
540.368221	0.194433
540.583371	0.194767
540.798503	0.195137
541.013617	0.195818
541.228712	0.196218
541.443789	0.196713
541.658848	0.197222
541.873889	0.197428
542.088912	0.197465
542.303916	0.198158
542.518902	0.198406
542.733870	0.198811
542.948820	0.198714
543.163752	0.199150
543.378665	0.199770
543.593560	0.199536
543.808437	0.199613
544.023295	0.200188
544.238136	0.199969
544.452958	0.199989
544.667762	0.200308
544.882548	0.200935
545.097315	0.201346
545.312064	0.201511
545.526795	0.201618
545.741508	0.201759
545.956203	0.202044
546.170879	0.202499
546.385537	0.203104
546.600177	0.203277
546.814799	0.203463
547.029402	0.203453
547.243988	0.203883
547.458555	0.204498
547.673103	0.204871
547.887634	0.205480
548.102146	0.205812
548.316640	0.206089
548.531116	0.206266
548.745574	0.206449
548.960013	0.206904
549.174435	0.207019
549.388838	0.207129
549.603222	0.207844
549.817589	0.207934
550.031937	0.208166
550.246267	0.208509
550.460579	0.208645
550.674873	0.209417
550.889148	0.209286
551.103405	0.209788
551.317644	0.210247
551.531865	0.210338
551.746068	0.210582
551.960252	0.210743
552.174418	0.210971
552.388566	0.211674
552.602696	0.211691
552.816807	0.212430
553.030900	0.212180
553.244975	0.212227
553.459032	0.212770
553.673070	0.212830
553.887091	0.213934
554.101093	0.214373
554.315077	0.214745
554.529042	0.215055
554.742990	0.215701
554.956919	0.216123
555.170830	0.216396
555.384722	0.215945
555.598597	0.216201
555.812453	0.215847
556.026291	0.216024
556.240111	0.216407
556.453913	0.216342
556.667696	0.215787
556.881461	0.216079
557.095208	0.216230
557.308937	0.216545
557.522647	0.216770
557.736339	0.216944
557.950013	0.216841
558.163669	0.216489
558.377307	0.216607
558.590926	0.216914
558.804527	0.217179
559.018110	0.217600
559.231675	0.217887
559.445221	0.218222
559.658749	0.218384
559.872259	0.218800
560.085751	0.219548
560.299225	0.220170
560.512680	0.220658
560.726117	0.220888
560.939536	0.220787
561.152937	0.221553
561.366319	0.221863
561.579683	0.221887
561.793029	0.222106
562.006357	0.221945
562.219667	0.222194
562.432958	0.221981
562.646231	0.222185
562.859486	0.222490
563.072723	0.222235
563.285941	0.222207
563.499141	0.222631
563.712323	0.222982
563.925487	0.223244
564.138632	0.223330
564.351760	0.224120
564.564869	0.224326
564.777960	0.224500
564.991032	0.224819
565.204087	0.225096
565.417123	0.225589
565.630141	0.225503
565.843140	0.225856
566.056122	0.225836
566.269085	0.225883
566.482030	0.226058
566.694957	0.226367
566.907866	0.226673
567.120756	0.226860
567.333628	0.226459
567.546482	0.226659
567.759318	0.226582
567.972135	0.226947
568.184935	0.226972
568.397716	0.227142
568.610478	0.227164
568.823223	0.227227
569.035949	0.227068
569.248657	0.227319
569.461347	0.227722
569.674019	0.228073
569.886672	0.227789
570.099308	0.228286
570.311925	0.229016
570.524523	0.229502
570.737104	0.229392
570.949666	0.229831
571.162210	0.230520
571.374736	0.230803
571.587244	0.230559
571.799733	0.230979
572.012205	0.231061
572.224658	0.230858
572.437092	0.230773
572.649509	0.231282
572.861907	0.231891
573.074287	0.231712
573.286649	0.231746
573.498993	0.232112
573.711318	0.232526
573.923625	0.232101
574.135914	0.232593
574.348185	0.233312
574.560438	0.233303
574.772672	0.233034
574.984888	0.233306
575.197086	0.233549
575.409266	0.233943
575.621427	0.233890
575.833570	0.234202
576.045695	0.234004
576.257802	0.233876
576.469890	0.233720
576.681961	0.233905
576.894013	0.234200
577.106046	0.234007
577.318062	0.233939
577.530059	0.234296
577.742039	0.234685
577.954000	0.235057
578.165942	0.235122
578.377867	0.236179
578.589773	0.236435
578.801661	0.236239
579.013531	0.236798
579.225382	0.237025
579.437216	0.237223
579.649031	0.237423
579.860828	0.237480
580.072606	0.237709
580.284367	0.237462
580.496109	0.237270
580.707833	0.237234
580.919539	0.237233
581.131227	0.237456
581.342896	0.237416
581.554547	0.237725
581.766180	0.237920
581.977795	0.237849
582.189391	0.238045
582.400969	0.238667
582.612529	0.239587
582.824071	0.239608
583.035595	0.240130
583.247100	0.240393
583.458587	0.240483
583.670056	0.240391
583.881506	0.241110
584.092939	0.241211
584.304353	0.241842
584.515749	0.241511
584.727127	0.242105
584.938486	0.242575
585.149828	0.243311
585.361151	0.243775
585.572456	0.244458
585.783742	0.244364
585.995011	0.244931
586.206261	0.244449
586.417493	0.244718
586.628706	0.244938
586.839902	0.244482
587.051079	0.244218
587.262238	0.244004
587.473379	0.243852
587.684502	0.244299
587.895606	0.244211
588.106692	0.244809
588.317760	0.245365
588.528810	0.245074
588.739841	0.245439
588.950855	0.245700
589.161850	0.246154
589.372827	0.246373
589.583785	0.246229
589.794726	0.246560
590.005648	0.246597
590.216552	0.246405
590.427437	0.247113
590.638305	0.247460
590.849154	0.247277
591.059985	0.247770
591.270798	0.247905
591.481592	0.248342
591.692369	0.248848
591.903127	0.249043
592.113867	0.249774
592.324588	0.249601
592.535292	0.249648
592.745977	0.250355
592.956644	0.250394
593.167293	0.250691
593.377923	0.250960
593.588536	0.250369
593.799130	0.250255
594.009706	0.249827
594.220263	0.249907
594.430803	0.249945
594.641324	0.250073
594.851827	0.249872
595.062312	0.249923
595.272778	0.249942
595.483227	0.250165
595.693657	0.250681
595.904069	0.251107
596.114462	0.251859
596.324838	0.251888
596.535195	0.252122
596.745534	0.252233
596.955855	0.252585
597.166157	0.252746
597.376441	0.253528
597.586707	0.253805
597.796955	0.254241
598.007185	0.254011
598.217396	0.254497
598.427589	0.254584
598.637764	0.255421
598.847921	0.255990
599.058060	0.256203
599.268180	0.256249
599.478282	0.256538
599.688366	0.256719
599.898431	0.256885
600.108479	0.257398
600.318508	0.257886
600.528519	0.257574
600.738511	0.257397
600.948486	0.257430
601.158442	0.257444
601.368380	0.257364
601.578300	0.257583
601.788202	0.257529
601.998085	0.257631
602.207950	0.257378
602.417797	0.258074
602.627626	0.258148
602.837436	0.257989
603.047228	0.258641
603.257002	0.258949
603.466758	0.258948
603.676496	0.259342
603.886215	0.259191
604.095916	0.259592
604.305599	0.259407
604.515264	0.259578
604.724910	0.260109
604.934538	0.260056
605.144148	0.260089
605.353740	0.260167
605.563314	0.260658
605.772869	0.261134
605.982406	0.261469
606.191925	0.261544
606.401425	0.261920
606.610908	0.262212
606.820372	0.262025
607.029818	0.262157
607.239246	0.262477
607.448655	0.262391
607.658047	0.262174
607.867420	0.262181
608.076775	0.262525
608.286111	0.262452
608.495430	0.262571
608.704730	0.263033
608.914012	0.263336
609.123275	0.263323
609.332521	0.263296
609.541748	0.263619
609.750957	0.263694
609.960148	0.263604
610.169321	0.263742
610.378475	0.263796
610.587611	0.264049
610.796729	0.264133
611.005829	0.264334
611.214910	0.264830
611.423974	0.264741
611.633019	0.264784
611.842045	0.264986
612.051054	0.265243
612.260044	0.265237
612.469017	0.265276
612.677970	0.265616
612.886906	0.265911
613.095824	0.266263
613.304723	0.266668
613.513604	0.266799
613.722467	0.267146
613.931311	0.267379
614.140138	0.267724
614.348946	0.267832
614.557736	0.267803
614.766507	0.267934
614.975261	0.267802
615.183996	0.267817
615.392713	0.268090
615.601412	0.268229
615.810092	0.268214
616.018754	0.268775
616.227399	0.268995
616.436024	0.269224
616.644632	0.269013
616.853222	0.269034
617.061793	0.269428
617.270346	0.269403
617.478880	0.269730
617.687397	0.269794
617.895895	0.269656
618.104375	0.269638
618.312837	0.269660
618.521281	0.269925
618.729706	0.270095
618.938113	0.270275
619.146502	0.270397
619.354873	0.270264
619.563226	0.270670
619.771560	0.270775
619.979876	0.271046
620.188174	0.271114
620.396453	0.271304
620.604715	0.271693
620.812958	0.271623
621.021183	0.271797
621.229390	0.271990
621.437578	0.271697
621.645748	0.271494
621.853900	0.271424
622.062034	0.271780
622.270150	0.271894
622.478247	0.271897
622.686326	0.272130
622.894387	0.272376
623.102430	0.272413
623.310454	0.272768
623.518461	0.273419
623.726449	0.273539
623.934418	0.273631
624.142370	0.274058
624.350303	0.274229
624.558218	0.274293
624.766115	0.274532
624.973994	0.274676
625.181855	0.275012
625.389697	0.274868
625.597521	0.275260
625.805327	0.275501
626.013114	0.275454
626.220883	0.275739
626.428634	0.275917
626.636367	0.275986
626.844082	0.276272
627.051778	0.276250
627.259457	0.276602
627.467117	0.276553
627.674758	0.276596
627.882382	0.276685
628.089987	0.276960
628.297574	0.277015
628.505143	0.277261
628.712694	0.277457
628.920226	0.277802
629.127740	0.277809
629.335236	0.278345
629.542714	0.278326
629.750174	0.278711
629.957615	0.278605
630.165038	0.279004
630.372443	0.279218
630.579829	0.279381
630.787198	0.279429
630.994548	0.279989
631.201880	0.280069
631.409194	0.280583
631.616489	0.280730
631.823766	0.280937
632.031025	0.280867
632.238266	0.281245
632.445489	0.281726
632.652693	0.282167
632.859879	0.282265
633.067047	0.282326
633.274197	0.282233
633.481329	0.282293
633.688442	0.282515
633.895537	0.282835
634.102614	0.282718
634.309672	0.282514
634.516713	0.282797
634.723735	0.282653
634.930739	0.282728
635.137724	0.282948
635.344692	0.283156
635.551641	0.283384
635.758572	0.283724
635.965485	0.283874
636.172379	0.283952
636.379256	0.283724
636.586114	0.283969
636.792954	0.283948
636.999775	0.284229
637.206579	0.284395
637.413364	0.284543
637.620131	0.284551
637.826880	0.284896
638.033610	0.285259
638.240323	0.285667
638.447017	0.286089
638.653692	0.286654
638.860350	0.286787
639.066990	0.287026
639.273611	0.287262
639.480214	0.287610
639.686798	0.287715
639.893365	0.287942
640.099913	0.288067
640.306443	0.288203
640.512955	0.288503
640.719449	0.288760
640.925924	0.289006
641.132381	0.288994
641.338820	0.288801
641.545241	0.289008
641.751644	0.289111
641.958028	0.289252
642.164394	0.289333
642.370742	0.289365
642.577071	0.289527
642.783383	0.289954
642.989676	0.290273
643.195951	0.290816
643.402207	0.290982
643.608446	0.291054
643.814666	0.291193
644.020868	0.291473
644.227052	0.291496
644.433218	0.291741
644.639365	0.291626
644.845494	0.291931
645.051605	0.292071
645.257698	0.292216
645.463772	0.292323
645.669828	0.292462
645.875866	0.292513
646.081886	0.292774
646.287888	0.292828
646.493871	0.293224
646.699836	0.293366
646.905783	0.293544
647.111712	0.293709
647.317622	0.294221
647.523514	0.294494
647.729388	0.294458
647.935244	0.294684
648.141082	0.294907
648.346901	0.294979
648.552702	0.295396
648.758485	0.295515
648.964250	0.295772
649.169996	0.295925
649.375724	0.296308
649.581434	0.296853
649.787126	0.297277
649.992800	0.297325
650.198455	0.297498
650.404092	0.297366
650.609711	0.297516
650.815311	0.297578
651.020894	0.297467
651.226458	0.297530
651.432004	0.297650
651.637532	0.297448
651.843041	0.297721
652.048532	0.297838
652.254006	0.298021
652.459460	0.298191
652.664897	0.298491
652.870315	0.298722
653.075716	0.298759
653.281097	0.298943
653.486461	0.299258
653.691807	0.299454
653.897134	0.299567
654.102443	0.299652
654.307734	0.299924
654.513006	0.300134
654.718261	0.300555
654.923497	0.300808
655.128715	0.301136
655.333915	0.301515
655.539096	0.301604
655.744259	0.301697
655.949404	0.302293
656.154531	0.302723
656.359640	0.303028
656.564730	0.303370
656.769802	0.303580
656.974856	0.303706
657.179892	0.303990
657.384909	0.304514
657.589908	0.304877
657.794889	0.304972
657.999852	0.304833
658.204797	0.304951
658.409723	0.305136
658.614631	0.305518
658.819521	0.305735
659.024393	0.305902
659.229246	0.306208
659.434081	0.306666
659.638898	0.306945
659.843697	0.307299
660.048478	0.307696
660.253240	0.307962
660.457984	0.308004
660.662710	0.307831
660.867417	0.307840
661.072107	0.307808
661.276778	0.307899
661.481431	0.307918
661.686066	0.308181
661.890682	0.308107
662.095281	0.307842
662.299861	0.308167
662.504422	0.308824
662.708966	0.309292
662.913491	0.309467
663.117999	0.309562
663.322488	0.309741
663.526958	0.309871
663.731411	0.310028
663.935845	0.310437
664.140261	0.310740
664.344659	0.310857
664.549038	0.310918
664.753400	0.311143
664.957743	0.311486
665.162068	0.311831
665.366375	0.312296
665.570663	0.312592
665.774933	0.312866
665.979185	0.313029
666.183419	0.313246
666.387635	0.313668
666.591832	0.314025
666.796011	0.314345
667.000172	0.314571
667.204315	0.314594
667.408439	0.314899
667.612545	0.315051
667.816634	0.315039
668.020703	0.315261
668.224755	0.315372
668.428788	0.315544
668.632803	0.315485
668.836800	0.315688
669.040779	0.315956
669.244739	0.316163
669.448681	0.316566
669.652605	0.317107
669.856511	0.317300
670.060399	0.317359
670.264268	0.317536
670.468119	0.317937
670.671952	0.318060
670.875767	0.318275
671.079563	0.318661
671.283341	0.318901
671.487101	0.318955
671.690843	0.319306
671.894567	0.319516
672.098272	0.319608
672.301959	0.319826
672.505628	0.319889
672.709278	0.320070
672.912911	0.320015
673.116525	0.320016
673.320121	0.320293
673.523699	0.320440
673.727258	0.320596
673.930799	0.320893
674.134322	0.321074
674.337827	0.321476
674.541314	0.321735
674.744782	0.321958
674.948232	0.322155
675.151664	0.322322
675.355078	0.322576
675.558474	0.322868
675.761851	0.323062
675.965210	0.323246
676.168551	0.323357
676.371873	0.323697
676.575178	0.324191
676.778464	0.324521
676.981732	0.324883
677.184981	0.325028
677.388213	0.325461
677.591426	0.325799
677.794621	0.325969
677.997798	0.326445
678.200956	0.326369
678.404097	0.326576
678.607219	0.326726
678.810323	0.326777
679.013408	0.327165
679.216476	0.327469
679.419525	0.327764
679.622556	0.328190
679.825569	0.328331
680.028563	0.328770
680.231540	0.328854
680.434498	0.329094
680.637438	0.329165
680.840359	0.329109
681.043263	0.329052
681.246148	0.329048
681.449015	0.329085
681.651864	0.329046
681.854694	0.329164
682.057506	0.329391
682.260301	0.329617
682.463076	0.329872
682.665834	0.330259
682.868573	0.330686
683.071295	0.330878
683.273998	0.331281
683.476682	0.331720
683.679349	0.332025
683.881997	0.332121
684.084627	0.332713
684.287239	0.333103
684.489833	0.333170
684.692408	0.333144
684.894965	0.333630
685.097504	0.333787
685.300025	0.334045
685.502527	0.334130
685.705012	0.334645
685.907478	0.334587
686.109925	0.334621
686.312355	0.334915
686.514766	0.335255
686.717159	0.335239
686.919534	0.335348
687.121891	0.335611
687.324230	0.335848
687.526550	0.335751
687.728852	0.335961
687.931136	0.336179
688.133401	0.336280
688.335649	0.336303
688.537878	0.336672
688.740089	0.336949
688.942281	0.337063
689.144456	0.337181
689.346612	0.337466
689.548750	0.337294
689.750870	0.337368
689.952971	0.337473
690.155055	0.337907
690.357120	0.337965
690.559167	0.338063
690.761195	0.337853
690.963206	0.338192
691.165198	0.338398
691.367172	0.338857
691.569128	0.339308
691.771065	0.339799
691.972984	0.339780
692.174885	0.340231
692.376768	0.340373
692.578633	0.340681
692.780479	0.340683
692.982308	0.340973
693.184118	0.341381
693.385909	0.341562
