sample name	sample
index	1493
start time	 05-18-2021  01:08:00 PM
880	0.444069
Peak Time (s)	90.535
Peak Height 	0.4441
calc peak height	90,93
Baseline Time (s)	11.536
Baseline Value 	-0.00452
subtract baseline	10,4
Abs	0.312843
Peak Time (s)	91.035
Peak Height 	0.3128
calc peak height	90,93
Baseline Time (s)	11.036
Baseline Value 	0.004657
subtract baseline	10,3
PK_550	0.183236
Peak Time (s)	92.036
Peak Height 	0.1832
calc peak height	90,93
Baseline Time (s)	10.035
Baseline Value 	3.0168E-4
subtract baseline	10,2
PK_880	0.302008
Peak Time (s)	90.535
Peak Height 	0.302
calc peak height	90,93
Baseline Time (s)	9.537
Baseline Value 	0.001104
subtract baseline	10,1


Time (s)	A880-A510	A880-A775	A880-A975	A880	I510	I775	I975	I880	
0.034500	0.000837	0.000220	0.000048	0.002754	6598.608356	44633.625193	3998.749675	23319.206725
0.535000	-0.001747	-0.000756	-0.002743	0.003824	6568.087075	44437.839363	3989.320833	23269.110297
1.035500	-0.001406	-0.000369	-0.005356	0.004493	6565.356566	44410.970548	3981.369035	23237.830627
1.535000	0.000386	-0.000596	-0.001458	0.000759	6611.581582	44746.832300	3999.949767	23412.974659
2.036500	0.000387	0.000298	-0.004255	0.001074	6608.945345	44802.538693	3992.335842	23398.161364
2.536500	-0.001870	-0.000376	-0.004963	0.000443	6595.293691	44798.453178	3992.147403	23427.906772
3.036500	-0.000683	0.000145	-0.002909	-0.000055	6609.441455	44896.698336	3998.389116	23451.378207
3.537000	0.000242	0.000366	-0.000487	0.000742	6610.522858	44841.136340	4002.382107	23413.808375
4.037500	0.002024	0.001074	-0.002345	0.001000	6623.372317	44884.480865	3997.185047	23401.646446
4.540500	0.002071	0.000112	-0.000610	0.000401	6628.834915	44849.506774	4002.918781	23429.887133
5.035500	0.000848	0.000096	0.002306	0.000803	6615.117004	44809.225479	4009.130215	23410.942712
5.535500	0.000306	0.000548	-0.001968	0.000745	6611.039572	44858.365260	3998.734269	23413.672440
6.035500	0.001842	0.000060	-0.004561	-0.000205	6632.020278	44902.998509	3994.710327	23458.462676
6.536000	0.001971	0.000334	-0.003509	0.000337	6628.527595	44877.074947	3995.958049	23432.884124
7.037000	0.001509	0.000438	-0.004633	0.000638	6622.077766	44858.068389	3992.476031	23418.704899
7.537000	0.000417	0.000048	-0.006426	0.000287	6615.829128	44854.348630	3988.965093	23435.246475
8.037000	-0.000209	0.000612	-0.003570	0.000796	6606.270866	44859.636918	3994.687260	23411.251639
8.537000	0.002317	0.001231	0.003187	0.000986	6625.964729	44901.061130	4010.858787	23402.324767
9.034500	0.001498	-0.000245	-0.006586	-0.000479	6631.433602	44899.958314	3990.440760	23471.412235
9.537500	0.000000	-0.000063	-0.004186	-0.000610	6619.876372	44930.240478	3996.618318	23477.600061
10.035000	-0.000396	0.000000	0.004781	0.000796	6604.705556	44800.692043	4015.295826	23411.268999
10.535500	-0.000171	0.000437	-0.002986	-0.000132	6614.399495	44932.224311	3998.387687	23454.992846
11.036000	-0.000022	0.000014	0.000000	0.000132	6613.435042	44865.969502	4005.085238	23442.551709
11.536000	0.000248	-0.000046	0.001670	0.000000	6616.823572	44872.913277	4009.541194	23448.782520
12.036000	-0.000496	-0.000025	-0.001732	0.000238	6608.545137	44852.004899	4000.556983	23437.533808
12.537000	0.002782	-0.000251	-0.001721	0.000476	6634.216385	44807.337464	4000.002889	23426.348297
13.037000	-0.001091	-0.000376	-0.006272	-0.000088	6606.284601	44849.609661	3990.251358	23452.924079
13.540500	0.000864	0.000356	-0.001279	0.000469	6618.063576	44866.506371	4001.105311	23426.662876
14.037500	-0.001168	-0.000102	-0.001153	0.002392	6584.854525	44637.463222	3996.694799	23336.197798
14.535000	-0.000034	-0.000239	-0.000538	0.001445	6602.295214	44715.273662	4000.528288	23380.715744
15.035500	0.001390	-0.000318	0.000258	-0.000413	6629.949965	44886.468178	4007.067610	23468.267578
15.535500	0.000633	0.000347	-0.002046	0.000016	6619.936700	44909.343178	4000.332722	23448.036430
16.035500	0.000045	0.000933	-0.001612	0.002198	6596.638984	44755.597694	3996.047836	23345.330848
16.535500	-0.000559	0.000522	-0.001823	0.000216	6608.203477	44906.865303	4000.388994	23438.590238
17.036000	0.000663	0.000606	-0.000206	-0.002175	6638.726882	45146.551461	4010.284932	23551.698908
17.542500	0.001300	-0.000182	-0.000935	0.000823	6618.757518	44780.534788	4001.079989	23409.992797
18.037000	0.000667	0.000060	0.002437	0.001057	6611.450996	44781.336576	4008.824206	23398.974115
18.534500	0.000113	0.000358	-0.005224	0.001058	6606.779328	44809.940089	3990.013257	23398.926555
19.038000	0.000394	-0.000025	-0.002001	0.001061	6609.116397	44772.736929	3997.877763	23398.760391
19.535500	0.001337	0.000966	-0.005253	0.001550	6612.941748	44821.101217	3988.746977	23375.787961
20.035500	0.000481	-0.000037	-0.000598	0.000815	6611.922402	44795.291162	4001.928163	23410.373319
20.536000	-0.001584	-0.000525	-0.004462	0.000677	6595.730313	44761.656387	3992.800751	23416.881712
21.036000	-0.000341	-0.000053	-0.002987	0.001033	6603.173647	44772.738431	3995.531527	23400.082313
21.536500	0.000564	0.000152	-0.003601	0.000784	6612.874997	44816.424999	3994.640301	23411.812798
22.037000	0.000554	-0.000548	-0.004274	0.000775	6612.874700	44749.980216	3993.019159	23412.257867
22.537000	-0.000265	0.000002	-0.002962	0.000794	6605.813689	44801.006419	3996.177507	23411.333010
23.037500	0.001487	0.000012	-0.003242	0.001026	6618.616753	44779.667685	3994.927306	23400.428931
23.540000	-0.001495	-0.000425	-0.002767	0.000662	6596.601384	44772.584474	3996.978499	23417.546017
24.035000	-0.000643	-0.000607	0.004658	0.000797	6602.619581	44742.199259	4014.986804	23411.228481
24.535500	0.000950	0.000775	0.000691	0.001764	6607.881235	44782.090152	4002.767162	23365.721904
25.036000	0.001279	0.000379	-0.000557	0.001402	6613.696017	44778.799009	4000.586143	23382.744621
25.536000	0.001232	0.000341	-0.002929	0.001054	6616.234525	44808.615238	3995.622588	23399.107613
26.036500	-0.000987	-0.000287	-0.002687	0.000779	6599.880031	44774.693589	3996.887885	23412.055125
26.536500	0.001362	0.000617	0.001243	0.001518	6613.416859	44790.546316	4004.732407	23377.277016
27.037000	0.000667	-0.000301	-0.002251	0.001043	6611.570268	44747.986806	3997.310587	23399.637390
27.537000	0.001351	0.000304	-0.002828	-0.000028	6626.370668	44909.494991	3998.521868	23450.122885
28.040000	-0.003335	0.000360	-0.005631	0.001368	6575.312863	44780.184596	3988.270638	23384.308303
28.537500	-0.001544	0.000383	-0.001149	0.001245	6591.305441	44794.308501	3999.518356	23390.131792
29.035500	0.001616	0.000460	0.000505	0.000534	6623.852962	44870.221058	4005.339175	23423.582924
29.538000	0.001802	0.000580	-0.000651	0.000546	6625.329385	44880.662137	4002.459725	23423.025469
30.036000	-0.001206	-0.000141	-0.005731	-0.000208	6606.331836	44883.827375	3991.862721	23458.590369
30.536000	0.002326	0.000413	-0.002890	0.001729	6619.762930	44750.616036	3994.068390	23367.337233
31.036000	0.001288	-0.000123	0.000095	0.003054	6599.879833	44571.980225	3998.128774	23305.144423
31.563500	-0.000605	0.000742	0.000399	0.000643	6604.230296	44886.938653	4004.809645	23418.457455
32.037000	0.000742	0.000362	-0.001145	0.000293	6618.514725	44884.096121	4001.867227	23434.966907
32.537000	-0.001279	0.000489	-0.003056	0.001904	6588.010440	44741.042390	3993.235020	23359.123449
33.037500	0.000358	-0.000236	-0.000940	0.000222	6615.876313	44833.205253	4002.547257	23438.312594
33.536000	0.000526	0.000246	-0.000223	-0.000194	6620.809846	44919.917869	4005.341206	23457.959998
34.035000	0.000166	0.000560	0.002874	-0.000151	6617.399823	44946.004763	4012.903525	23455.890451
34.535500	-0.000630	0.000324	-0.002764	0.002337	6589.814491	44683.540341	3992.889110	23338.768609
35.036000	0.000155	-0.000736	-0.001699	0.000954	6607.999420	44714.665528	3998.879433	23403.795828
35.536000	-0.000430	0.000418	-0.004442	0.001875	6595.362270	44737.060073	3989.927308	23360.478579
36.036500	0.000380	0.000494	-0.004225	0.001917	6601.799055	44740.249592	3990.352781	23358.497377
36.536500	-0.000371	-0.000459	-0.004565	0.001214	6601.403293	44716.334162	3991.239273	23391.584988
37.037000	-0.002102	-0.000465	-0.004405	0.001192	6587.072964	44717.818627	3991.682028	23392.586312
37.540000	-0.000456	-0.000056	-0.002047	0.001601	6597.439549	44717.882147	3996.444080	23373.376614
38.035000	0.000065	0.000204	0.000330	0.001494	6602.716422	44753.187112	4002.542591	23378.414755
38.535500	-0.000092	0.000094	0.001046	0.001723	6599.469002	44720.541003	4003.741634	23367.624172
39.035500	0.000489	0.000756	0.004303	0.002368	6598.931932	44722.170123	4010.198295	23337.337913
39.535500	-0.001677	0.000034	-0.002493	0.001829	6585.313085	44704.624813	3994.795070	23362.656839
40.035500	0.001102	0.000370	0.004812	0.002143	6605.966114	44706.714225	4012.020717	23347.893838
40.536500	-0.002190	-0.000274	-0.000725	0.001554	6583.320936	44701.385727	3999.799130	23375.567896
41.036500	0.000539	0.000185	-0.003163	0.001865	6603.574350	44715.686476	3993.070405	23360.972535
41.536500	0.000679	0.000103	-0.001526	0.001600	6606.978740	44733.245685	3997.722392	23373.426816
42.037000	-0.000609	0.000800	-0.000820	0.002580	6587.957820	44705.986376	3997.050624	23327.388866
42.537500	-0.000470	0.000351	-0.005973	0.002260	6591.802144	44693.628792	3985.276079	23342.410080
43.035000	-0.000573	-0.000350	-0.004331	0.001270	6599.233669	44721.400525	3991.671958	23388.931423
43.535000	0.000335	0.001562	-0.005205	0.002187	6599.159062	44817.193553	3987.317425	23345.854400
44.035500	0.000193	0.000290	-0.001846	0.001925	6600.166599	44719.906557	3996.140395	23358.124080
44.536000	0.001711	0.001228	0.003988	0.000404	6625.764624	44956.983681	4014.296859	23429.733601
45.036000	0.000662	0.000808	-0.001023	0.000494	6616.146825	44907.616664	4001.671953	23425.466273
45.536500	0.001300	-0.000555	-0.000661	-0.000363	6628.773056	44858.879882	4004.677185	23465.928866
46.036500	0.000492	-0.000672	-0.002427	0.000360	6615.843654	44777.930149	3998.550426	23431.778150
46.536500	-0.000543	-0.000135	-0.007723	0.004048	6576.246337	44475.792621	3976.740941	23258.630687
47.040000	0.000235	0.000331	0.004504	0.000184	6615.169081	44891.596193	4016.130694	23440.124202
47.537500	0.001376	0.000106	-0.002860	0.000249	6624.237014	44863.547970	3997.763033	23437.014044
48.036000	0.001022	-0.000453	0.002349	0.002207	6604.766181	44621.613425	4005.761876	23344.912909
48.535000	-0.001583	0.000159	-0.006928	0.004520	6563.670355	44458.847204	3977.519090	23236.603397
49.040500	0.000323	0.000587	-0.002737	0.000276	6615.125404	44907.407226	3997.998277	23435.766062
49.536000	0.000861	0.000393	-0.003741	0.000239	6619.976968	44892.279713	3995.629421	23437.509650
50.036500	0.001347	0.000483	-0.003967	0.001024	6617.446860	44825.135114	3993.159056	23400.491712
50.536000	0.000713	0.001006	0.001320	0.003749	6589.233448	44613.522083	3999.430153	23272.599320
51.037000	0.002035	0.000424	0.003936	0.002804	6608.261038	44648.446900	4008.209020	23316.892140
51.537500	0.000049	-0.007156	0.007706	0.078412	6010.578061	37384.966509	3844.319026	20063.184184
52.037500	0.008825	-0.016622	0.007298	0.162921	5521.661122	30690.835973	3682.507267	17037.729473
52.535000	-0.004858	-0.025061	-0.000057	-0.090483	7412.262346	51688.817351	4253.599604	28196.277188
53.035000	-0.004018	-0.022933	-0.001478	-0.105665	7579.752799	53669.359545	4296.104653	29094.277538
53.535500	0.023837	-0.010326	0.018773	-0.086455	7672.719298	52904.479185	4299.374426	27963.194195
54.036000	0.024183	-0.006831	0.039321	0.016335	6681.457980	42701.139869	4063.688707	22692.217940
54.536500	0.039465	-0.000456	0.049776	-0.006339	7021.771589	45448.826539	4153.298806	23750.139183
55.036500	0.049671	0.007699	0.060246	0.029593	6787.875979	42817.601368	4083.820641	22098.728596
55.537000	0.071825	0.023854	0.081008	0.061960	6698.804299	41357.963954	4053.484436	20723.774295
56.037000	0.099318	0.041372	0.111441	0.097204	6632.589908	39823.202403	4041.142697	19338.651833
56.540000	0.120363	0.052858	0.131002	0.135745	6487.389041	37598.034232	3993.765376	17947.204204
57.034500	0.141614	0.066335	0.152159	0.167536	6402.698853	36168.608394	3968.112108	16888.852083
57.535000	0.161260	0.078569	0.163247	0.192302	6362.295438	35224.689222	3936.028396	16116.434926
58.035500	0.175036	0.089139	0.178225	0.233159	6156.342827	33052.671879	3878.016581	14934.577407
58.535500	0.191667	0.097396	0.198099	0.270724	6005.699817	31090.267986	3840.303484	13941.811344
59.036000	0.205721	0.105063	0.212136	0.295314	5932.590772	30016.012161	3818.527583	13336.930891
59.536000	0.217321	0.114256	0.223816	0.324165	5816.638029	28819.580037	3784.206580	12669.544815
60.036000	0.226954	0.121554	0.231820	0.349234	5716.729742	27783.685614	3751.418411	12124.597182
60.537000	0.235368	0.126309	0.247262	0.347674	5780.886962	28146.911740	3784.083588	12157.598367
61.040000	0.241322	0.131265	0.252063	0.347853	5818.703994	28425.247272	3793.186418	12153.792236
61.537500	0.246303	0.132819	0.258958	0.384122	5619.675929	26470.599563	3736.946072	11416.676619
62.035000	0.247788	0.135711	0.263932	0.409045	5479.696448	25308.720550	3700.862465	10944.667501
62.535500	0.252620	0.142594	0.267554	0.439189	5336.774546	24144.313509	3655.386508	10408.827079
63.036000	0.259506	0.146977	0.279556	0.446685	5333.429643	23993.160379	3662.916448	10281.244668
63.536000	0.265767	0.152010	0.275144	0.440422	5403.006576	24546.877125	3666.034155	10387.691797
64.037000	0.263508	0.153841	0.273254	0.432518	5435.032245	25035.710166	3676.252626	10524.228942
64.582500	0.265557	0.155528	0.278947	0.428563	5469.551164	25324.129370	3692.944389	10593.486339
65.037000	0.265979	0.157227	0.280199	0.425154	5491.822221	25588.435664	3701.140966	10653.686308
65.537000	0.267663	0.159290	0.275767	0.425398	5500.248536	25683.318065	3692.918018	10649.364623
66.037000	0.268699	0.160460	0.281694	0.423564	5517.123647	25840.891689	3706.616632	10681.939085
66.537500	0.265571	0.159568	0.281299	0.426971	5478.864212	25615.768105	3699.876563	10621.547985
67.035000	0.273263	0.162195	0.282046	0.421667	5555.518906	26032.851210	3710.632243	10715.764660
67.535500	0.272584	0.162974	0.286786	0.421179	5554.376483	26100.233847	3720.046281	10724.489127
68.035500	0.277779	0.165931	0.290061	0.422833	5575.658038	26169.694271	3722.988855	10694.956237
68.535000	0.271442	0.164014	0.279076	0.426792	5514.266010	25858.070456	3696.275304	10624.704435
69.035500	0.276354	0.165242	0.286350	0.422035	5571.873449	26175.528840	3717.708083	10709.186689
69.536500	0.279648	0.167829	0.293924	0.423696	5581.733400	26225.025186	3728.463384	10679.585969
70.037000	0.279478	0.169426	0.292196	0.425387	5570.501525	26220.027762	3722.227610	10649.564477
70.539500	0.278888	0.168658	0.286001	0.430621	5535.666442	25901.047523	3701.735048	10557.372438
71.037000	0.281420	0.169996	0.293166	0.426180	5577.431060	26208.086654	3722.549250	10635.527807
71.535000	0.279914	0.170467	0.290832	0.426438	5566.801375	26219.428691	3717.851285	10630.954920
72.035000	0.282750	0.171526	0.301576	0.428535	5571.250656	26164.028453	3733.631905	10593.986819
72.535500	0.280258	0.169906	0.288492	0.433412	5527.237557	25819.758694	3701.203934	10508.659239
73.036000	0.286732	0.173391	0.293533	0.432261	5572.794670	26064.888855	3712.231747	10528.710956
73.536000	0.288297	0.173540	0.296867	0.433459	5575.005253	26009.160250	3716.072069	10507.840142
74.036500	0.284096	0.172573	0.295148	0.433341	5550.490509	25964.199899	3713.191706	10509.896184
74.536500	0.287610	0.175080	0.301293	0.436786	5550.903909	25914.585468	3718.055268	10450.188935
75.036500	0.287385	0.175058	0.297764	0.437636	5544.483281	25868.608563	3710.182430	10435.524781
75.537000	0.288553	0.174665	0.299144	0.438321	5547.367845	25811.891383	3711.427450	10423.748484
76.035000	0.289767	0.175807	0.295203	0.440507	5541.573815	25757.077268	3700.525867	10386.236377
76.535000	0.286984	0.176709	0.300510	0.447250	5485.464885	25452.810684	3697.993222	10271.726254
77.035000	0.291424	0.177540	0.304243	0.441890	5543.202614	25775.366651	3714.172719	10362.594988
77.535500	0.291722	0.176651	0.299017	0.441228	5548.930931	25763.502632	3706.009485	10373.902930
78.036000	0.288746	0.176647	0.298250	0.442155	5525.726350	25714.707567	3703.001861	10358.085272
78.535500	0.292692	0.176380	0.295749	0.439971	5562.268940	25815.290046	3702.439108	10395.417223
79.036500	0.291416	0.175892	0.300170	0.438783	5561.739430	25852.109762	3712.437829	10415.800612
79.536500	0.292740	0.175924	0.294724	0.438621	5570.669612	25862.334793	3703.014478	10418.579518
80.040000	0.292046	0.176899	0.300086	0.439536	5560.999440	25865.469636	3710.937512	10402.869459
80.537000	0.292450	0.177345	0.300253	0.438128	5571.894151	25963.364895	3713.763548	10427.056931
81.035000	0.292054	0.176972	0.302121	0.437901	5570.878857	25955.708340	3717.539561	10430.976800
81.535000	0.290024	0.177593	0.298695	0.437640	5560.245763	26002.387423	3711.842250	10435.464375
82.035500	0.291317	0.178838	0.306334	0.438792	5561.092080	26007.312629	3723.561058	10415.646477
82.536000	0.291600	0.178639	0.298750	0.437682	5569.457574	26055.644800	3711.866074	10434.736096
83.036000	0.292267	0.179322	0.303888	0.437557	5574.232110	26098.636405	3721.359227	10436.893116
83.535500	0.293295	0.180028	0.304676	0.437579	5580.307126	26135.074326	3722.751201	10436.512357
84.036000	0.294638	0.179620	0.308018	0.437163	5590.958995	26135.503656	3729.613212	10443.690617
84.537500	0.293121	0.179844	0.301363	0.442280	5551.004752	25876.079704	3708.314254	10355.950569
85.037000	0.295845	0.179905	0.310100	0.436392	5602.991436	26191.874911	3734.861071	10457.000512
85.537000	0.294705	0.180788	0.311057	0.436968	5592.547032	26208.293712	3735.563789	10447.046653
86.035000	0.298040	0.181213	0.302451	0.436460	5615.991936	26258.271683	3720.743663	10455.825744
86.535500	0.295280	0.181164	0.304495	0.439081	5583.224003	26115.562229	3719.696016	10410.677128
87.035500	0.295627	0.180593	0.304842	0.436643	5600.133058	26215.241204	3724.757019	10452.661351
87.536000	0.297844	0.180981	0.303111	0.437128	5610.700982	26210.065782	3720.729014	10444.288681
88.036000	0.298702	0.181525	0.309792	0.437903	5611.209148	26197.696590	3731.510307	10430.936489
88.536500	0.297731	0.181525	0.306256	0.441834	5581.404488	25988.519006	3717.902978	10363.564578
89.037000	0.299016	0.180802	0.300604	0.437463	5615.826516	26182.580447	3715.590996	10438.514043
89.539500	0.299866	0.181570	0.316399	0.438684	5613.552641	26158.406286	3742.292582	10417.505430
90.037500	0.299495	0.182819	0.310862	0.439898	5603.868139	26160.252534	3729.811946	10396.657689
90.535000	0.302008	0.182454	0.305054	0.444069	5593.782145	25919.452281	3711.718518	10325.530240
91.035500	0.301481	0.182519	0.312843	0.440420	5612.812156	26116.398038	3732.493042	10387.721667
91.535500	0.299521	0.182168	0.307844	0.440270	5601.759140	26105.739703	3723.618690	10390.294915
92.036000	0.301438	0.183236	0.307272	0.442043	5602.641229	26068.213653	3719.361896	10359.998430
92.536000	0.299595	0.182682	0.307333	0.441702	5593.497305	26056.897415	3720.091364	10365.819451
93.036000	0.302744	0.184496	0.310686	0.443196	5603.568526	26073.859750	3723.464816	10340.351057
93.536500	0.299567	0.183312	0.309314	0.442201	5590.300282	26063.846006	3722.781257	10357.304859
94.039500	0.304672	0.183891	0.306825	0.444008	5610.386745	25998.664331	3715.008190	10326.560503
94.534000	0.299654	0.184306	0.311241	0.446724	5563.519320	25876.997307	3718.074272	10280.586686
95.037500	0.301742	0.183522	0.303917	0.444006	5592.543821	25979.248383	3709.794741	10326.596720
95.537500	0.299932	0.184538	0.309689	0.444133	5580.810450	26026.334934	3719.954773	10324.438403
96.038000	0.301866	0.183727	0.302988	0.444220	5591.996672	25978.732700	3707.752792	10322.960543
96.535500	0.299902	0.183007	0.309881	0.444552	5578.094863	25923.079480	3719.542520	10317.326232
97.036000	0.299791	0.182867	0.306738	0.444480	5577.854985	25919.491393	3714.002613	10318.542631
