sample name	sample
index	209
start time	 02-22-2021  09:48:13 AM


Wavelength (nm)	Absorbance
494.344910	-0.163620
494.563924	-0.163620
494.782919	-0.163620
495.001897	0.051243
495.220856	-0.050772
495.439797	-0.024291
495.658719	-0.009870
495.877624	0.007991
496.096510	-0.008584
496.315378	-0.029586
496.534227	-0.006905
496.753059	-0.017117
496.971872	-0.000972
497.190667	0.056033
497.409444	0.066141
497.628203	0.067857
497.846943	0.072382
498.065665	0.074473
498.284369	0.077253
498.503055	0.077502
498.721723	0.078898
498.940372	0.077984
499.159003	0.076945
499.377616	0.077380
499.596210	0.077651
499.814787	0.076686
500.033345	0.076849
500.251885	0.075384
500.470406	0.074959
500.688910	0.074178
500.907395	0.074199
501.125862	0.074154
501.344311	0.072927
501.562742	0.074059
501.781154	0.074215
501.999548	0.073916
502.217924	0.074342
502.436282	0.074814
502.654621	0.075189
502.872942	0.075528
503.091245	0.076357
503.309530	0.076671
503.527797	0.076341
503.746045	0.076309
503.964275	0.076557
504.182487	0.076073
504.400681	0.076026
504.618856	0.075052
504.837013	0.074662
505.055152	0.074046
505.273273	0.075592
505.491376	0.075201
505.709460	0.074783
505.927526	0.074334
506.145574	0.074932
506.363604	0.074990
506.581615	0.076270
506.799608	0.077465
507.017583	0.078127
507.235540	0.076473
507.453478	0.076531
507.671399	0.077549
507.889301	0.077681
508.107185	0.077903
508.325050	0.077970
508.542898	0.076929
508.760727	0.076135
508.978538	0.077155
509.196330	0.077639
509.414105	0.077575
509.631861	0.077206
509.849599	0.078349
510.067319	0.078504
510.285021	0.078921
510.502704	0.079612
510.720369	0.080518
510.938016	0.079380
511.155645	0.079385
511.373255	0.079751
511.590848	0.079687
511.808422	0.079099
512.025977	0.078355
512.243515	0.077784
512.461034	0.077232
512.678536	0.076656
512.896018	0.076763
513.113483	0.077142
513.330930	0.077924
513.548358	0.077979
513.765768	0.077635
513.983160	0.078378
514.200533	0.079501
514.417889	0.080207
514.635226	0.080118
514.852545	0.080684
515.069845	0.080932
515.287128	0.080400
515.504392	0.080720
515.721638	0.081102
515.938866	0.081257
516.156075	0.080497
516.373267	0.080905
516.590440	0.080645
516.807594	0.080304
517.024731	0.080003
517.241850	0.080531
517.458950	0.081015
517.676032	0.081168
517.893095	0.081161
518.110141	0.081978
518.327168	0.081720
518.544177	0.083070
518.761168	0.083752
518.978141	0.083974
519.195095	0.084045
519.412031	0.084679
519.628949	0.085165
519.845849	0.085561
520.062731	0.084885
520.279594	0.084893
520.496439	0.084582
520.713266	0.084339
520.930074	0.084129
521.146865	0.083495
521.363637	0.082096
521.580391	0.081331
521.797127	0.080674
522.013844	0.081425
522.230543	0.081651
522.447224	0.080954
522.663887	0.081107
522.880532	0.081665
523.097158	0.082422
523.313766	0.083359
523.530356	0.084038
523.746928	0.084670
523.963481	0.084666
524.180017	0.084977
524.396534	0.085622
524.613032	0.085709
524.829513	0.085925
525.045975	0.086019
525.262420	0.086034
525.478845	0.086061
525.695253	0.086181
525.911643	0.086074
526.128014	0.085710
526.344367	0.085521
526.560702	0.085977
526.777018	0.086262
526.993316	0.086610
527.209597	0.086945
527.425858	0.087189
527.642102	0.087425
527.858328	0.087341
528.074535	0.087760
528.290724	0.088018
528.506894	0.087591
528.723047	0.087584
528.939181	0.087605
529.155297	0.087954
529.371395	0.088131
529.587475	0.088503
529.803536	0.088687
530.019579	0.088427
530.235604	0.088348
530.451611	0.088863
530.667600	0.088805
530.883570	0.088797
531.099522	0.088672
531.315456	0.088707
531.531372	0.088588
531.747269	0.088703
531.963148	0.089126
532.179009	0.090324
532.394852	0.090334
532.610676	0.090570
532.826482	0.090543
533.042271	0.090813
533.258040	0.090862
533.473792	0.090385
533.689525	0.091189
533.905240	0.091666
534.120937	0.091423
534.336616	0.091444
534.552277	0.091358
534.767919	0.091628
534.983543	0.092029
535.199149	0.092255
535.414736	0.092829
535.630306	0.092393
535.845857	0.091818
536.061390	0.091902
536.276904	0.092842
536.492401	0.093275
536.707879	0.093611
536.923339	0.093371
537.138781	0.093567
537.354204	0.093946
537.569610	0.094416
537.784997	0.094748
538.000366	0.095046
538.215716	0.094577
538.431049	0.094522
538.646363	0.094897
538.861659	0.094995
539.076937	0.095245
539.292196	0.095598
539.507438	0.095815
539.722661	0.096503
539.937866	0.096093
540.153052	0.096080
540.368221	0.096385
540.583371	0.096196
540.798503	0.096380
541.013617	0.096197
541.228712	0.096119
541.443789	0.096188
541.658848	0.096146
541.873889	0.096511
542.088912	0.097078
542.303916	0.097158
542.518902	0.097331
542.733870	0.097451
542.948820	0.098009
543.163752	0.098299
543.378665	0.098231
543.593560	0.098520
543.808437	0.098392
544.023295	0.098121
544.238136	0.098094
544.452958	0.097998
544.667762	0.098108
544.882548	0.098240
545.097315	0.098267
545.312064	0.098302
545.526795	0.098300
545.741508	0.098566
545.956203	0.098624
546.170879	0.098905
546.385537	0.098956
546.600177	0.098579
546.814799	0.098635
547.029402	0.098812
547.243988	0.099102
547.458555	0.099428
547.673103	0.100092
547.887634	0.100496
548.102146	0.100934
548.316640	0.101203
548.531116	0.101811
548.745574	0.101668
548.960013	0.101730
549.174435	0.102040
549.388838	0.102158
549.603222	0.101843
549.817589	0.102169
550.031937	0.101677
550.246267	0.101935
550.460579	0.102116
550.674873	0.102728
550.889148	0.102761
551.103405	0.102723
551.317644	0.102410
551.531865	0.102440
551.746068	0.102577
551.960252	0.103235
552.174418	0.103203
552.388566	0.103061
552.602696	0.102526
552.816807	0.102673
553.030900	0.102666
553.244975	0.102920
553.459032	0.103161
553.673070	0.102961
553.887091	0.103091
554.101093	0.103209
554.315077	0.103576
554.529042	0.103547
554.742990	0.103478
554.956919	0.103457
555.170830	0.103814
555.384722	0.103863
555.598597	0.104293
555.812453	0.104466
556.026291	0.104509
556.240111	0.104504
556.453913	0.105152
556.667696	0.105400
556.881461	0.105718
557.095208	0.105620
557.308937	0.105859
557.522647	0.105543
557.736339	0.105413
557.950013	0.105567
558.163669	0.105554
558.377307	0.105509
558.590926	0.105635
558.804527	0.105270
559.018110	0.105309
559.231675	0.105430
559.445221	0.105369
559.658749	0.105528
559.872259	0.105769
560.085751	0.105731
560.299225	0.105939
560.512680	0.106071
560.726117	0.106521
560.939536	0.106661
561.152937	0.106429
561.366319	0.106859
561.579683	0.106563
561.793029	0.106522
562.006357	0.106802
562.219667	0.106821
562.432958	0.106693
562.646231	0.106827
562.859486	0.106892
563.072723	0.106964
563.285941	0.106829
563.499141	0.107386
563.712323	0.107521
563.925487	0.107365
564.138632	0.107127
564.351760	0.107724
564.564869	0.107814
564.777960	0.107953
564.991032	0.108110
565.204087	0.108336
565.417123	0.108228
565.630141	0.108262
565.843140	0.108738
566.056122	0.109113
566.269085	0.108942
566.482030	0.109111
566.694957	0.109102
566.907866	0.109351
567.120756	0.109436
567.333628	0.109745
567.546482	0.109948
567.759318	0.109864
567.972135	0.109716
568.184935	0.109733
568.397716	0.109757
568.610478	0.110011
568.823223	0.110089
569.035949	0.110603
569.248657	0.110716
569.461347	0.110836
569.674019	0.110823
569.886672	0.111090
570.099308	0.111171
570.311925	0.111279
570.524523	0.111070
570.737104	0.110948
570.949666	0.110904
571.162210	0.110779
571.374736	0.110556
571.587244	0.110724
571.799733	0.110632
572.012205	0.110770
572.224658	0.110794
572.437092	0.110955
572.649509	0.111216
572.861907	0.111401
573.074287	0.111469
573.286649	0.111805
573.498993	0.111879
573.711318	0.112253
573.923625	0.112139
574.135914	0.112353
574.348185	0.112598
574.560438	0.112665
574.772672	0.112288
574.984888	0.112275
575.197086	0.112096
575.409266	0.112341
575.621427	0.112381
575.833570	0.112393
576.045695	0.112525
576.257802	0.112555
576.469890	0.112556
576.681961	0.112762
576.894013	0.113112
577.106046	0.113545
577.318062	0.113593
577.530059	0.113654
577.742039	0.113837
577.954000	0.113978
578.165942	0.114145
578.377867	0.114547
578.589773	0.114712
578.801661	0.114728
579.013531	0.114729
579.225382	0.114910
579.437216	0.115220
579.649031	0.115000
579.860828	0.114760
580.072606	0.114721
580.284367	0.114743
580.496109	0.114536
580.707833	0.114496
580.919539	0.114643
581.131227	0.114608
581.342896	0.114537
581.554547	0.115382
581.766180	0.115499
581.977795	0.115612
582.189391	0.115441
582.400969	0.115390
582.612529	0.115652
582.824071	0.115645
583.035595	0.115795
583.247100	0.115711
583.458587	0.115432
583.670056	0.115699
583.881506	0.115811
584.092939	0.116206
584.304353	0.116775
584.515749	0.116793
584.727127	0.116848
584.938486	0.116770
585.149828	0.116822
585.361151	0.117126
585.572456	0.117248
585.783742	0.117265
585.995011	0.117097
586.206261	0.116922
586.417493	0.117026
586.628706	0.116987
586.839902	0.117323
587.051079	0.117417
587.262238	0.117541
587.473379	0.117528
587.684502	0.117724
587.895606	0.117804
588.106692	0.118039
588.317760	0.118201
588.528810	0.118278
588.739841	0.118358
588.950855	0.118384
589.161850	0.118490
589.372827	0.118689
589.583785	0.118684
589.794726	0.118857
590.005648	0.119117
590.216552	0.119285
590.427437	0.119690
590.638305	0.119387
590.849154	0.119402
591.059985	0.119149
591.270798	0.119183
591.481592	0.119326
591.692369	0.119513
591.903127	0.119137
592.113867	0.118860
592.324588	0.118790
592.535292	0.119063
592.745977	0.119115
592.956644	0.118937
593.167293	0.118806
593.377923	0.118950
593.588536	0.118808
593.799130	0.119045
594.009706	0.119112
594.220263	0.119386
594.430803	0.119692
594.641324	0.120276
594.851827	0.120514
595.062312	0.120862
595.272778	0.120910
595.483227	0.121177
595.693657	0.121261
595.904069	0.121591
596.114462	0.121567
596.324838	0.121598
596.535195	0.121487
596.745534	0.121937
596.955855	0.121836
597.166157	0.121728
597.376441	0.121844
597.586707	0.121959
597.796955	0.122150
598.007185	0.122408
598.217396	0.122334
598.427589	0.122686
598.637764	0.122723
598.847921	0.122937
599.058060	0.123181
599.268180	0.123391
599.478282	0.123438
599.688366	0.123393
599.898431	0.123243
600.108479	0.123603
600.318508	0.123455
600.528519	0.123420
600.738511	0.123381
600.948486	0.123641
601.158442	0.123523
601.368380	0.123830
601.578300	0.123616
601.788202	0.123462
601.998085	0.123240
602.207950	0.123375
602.417797	0.123295
602.627626	0.123530
602.837436	0.123392
603.047228	0.123672
603.257002	0.123397
603.466758	0.123710
603.676496	0.124279
603.886215	0.124335
604.095916	0.124281
604.305599	0.124325
604.515264	0.124151
604.724910	0.124348
604.934538	0.124117
605.144148	0.124690
605.353740	0.124872
605.563314	0.124776
605.772869	0.125146
605.982406	0.125417
606.191925	0.125790
606.401425	0.125972
606.610908	0.126183
606.820372	0.126330
607.029818	0.126048
607.239246	0.125876
607.448655	0.125777
607.658047	0.125736
607.867420	0.126029
608.076775	0.125931
608.286111	0.126015
608.495430	0.125805
608.704730	0.125859
608.914012	0.125848
609.123275	0.126156
609.332521	0.126217
609.541748	0.126294
609.750957	0.125931
609.960148	0.125927
610.169321	0.125998
610.378475	0.126146
610.587611	0.126219
610.796729	0.126600
611.005829	0.126504
611.214910	0.126656
611.423974	0.126548
611.633019	0.126749
611.842045	0.126627
612.051054	0.126470
612.260044	0.126430
612.469017	0.126297
612.677970	0.126178
612.886906	0.126208
613.095824	0.126282
613.304723	0.126473
613.513604	0.126437
613.722467	0.126757
613.931311	0.126899
614.140138	0.127112
614.348946	0.127399
614.557736	0.127519
614.766507	0.127615
614.975261	0.127639
615.183996	0.127402
615.392713	0.127624
615.601412	0.127809
615.810092	0.128073
616.018754	0.128141
616.227399	0.128250
616.436024	0.128027
616.644632	0.128104
616.853222	0.128272
617.061793	0.128517
617.270346	0.128510
617.478880	0.128459
617.687397	0.128506
617.895895	0.128483
618.104375	0.128455
618.312837	0.128838
618.521281	0.128986
618.729706	0.128840
618.938113	0.128940
619.146502	0.129044
619.354873	0.129166
619.563226	0.129218
619.771560	0.129340
619.979876	0.129625
620.188174	0.129463
620.396453	0.129511
620.604715	0.129746
620.812958	0.129679
621.021183	0.129842
621.229390	0.129948
621.437578	0.130174
621.645748	0.130138
621.853900	0.130080
622.062034	0.130294
622.270150	0.130244
622.478247	0.130387
622.686326	0.130518
622.894387	0.130333
623.102430	0.130092
623.310454	0.130047
623.518461	0.130105
623.726449	0.130164
623.934418	0.130137
624.142370	0.130188
624.350303	0.130168
624.558218	0.130421
624.766115	0.130564
624.973994	0.130863
625.181855	0.130974
625.389697	0.131091
625.597521	0.131181
625.805327	0.131275
626.013114	0.131368
626.220883	0.131429
626.428634	0.131347
626.636367	0.131425
626.844082	0.131293
627.051778	0.131240
627.259457	0.131298
627.467117	0.131292
627.674758	0.131369
627.882382	0.131441
628.089987	0.131585
628.297574	0.131712
628.505143	0.131712
628.712694	0.131737
628.920226	0.131688
629.127740	0.131965
629.335236	0.132029
629.542714	0.132093
629.750174	0.132246
629.957615	0.132190
630.165038	0.132303
630.372443	0.132597
630.579829	0.132864
630.787198	0.133228
630.994548	0.133028
631.201880	0.133099
631.409194	0.133055
631.616489	0.132911
631.823766	0.132806
632.031025	0.132944
632.238266	0.132847
632.445489	0.132774
632.652693	0.132729
632.859879	0.132675
633.067047	0.132648
633.274197	0.132871
633.481329	0.133035
633.688442	0.133121
633.895537	0.132867
634.102614	0.132919
634.309672	0.133036
634.516713	0.133249
634.723735	0.133501
634.930739	0.133507
635.137724	0.133399
635.344692	0.133359
635.551641	0.133425
635.758572	0.133782
635.965485	0.133726
636.172379	0.133869
636.379256	0.133732
636.586114	0.133867
636.792954	0.134028
636.999775	0.134267
637.206579	0.134677
637.413364	0.134892
637.620131	0.134909
637.826880	0.135052
638.033610	0.135090
638.240323	0.135130
638.447017	0.135038
638.653692	0.134996
638.860350	0.134858
639.066990	0.134769
639.273611	0.134749
639.480214	0.134938
639.686798	0.134852
639.893365	0.134857
640.099913	0.135039
640.306443	0.135331
640.512955	0.135451
640.719449	0.135779
640.925924	0.135770
641.132381	0.135961
641.338820	0.135901
641.545241	0.135959
641.751644	0.136132
641.958028	0.136179
642.164394	0.136189
642.370742	0.136287
642.577071	0.136230
642.783383	0.136364
642.989676	0.136354
643.195951	0.136255
643.402207	0.136574
643.608446	0.136438
643.814666	0.136511
644.020868	0.136474
644.227052	0.136631
644.433218	0.136830
644.639365	0.137054
644.845494	0.137154
645.051605	0.137389
645.257698	0.137201
645.463772	0.137398
645.669828	0.137492
645.875866	0.137489
646.081886	0.137564
646.287888	0.137528
646.493871	0.137323
646.699836	0.137505
646.905783	0.137639
647.111712	0.137899
647.317622	0.137869
647.523514	0.137755
647.729388	0.137946
647.935244	0.137952
648.141082	0.138206
648.346901	0.138308
648.552702	0.138541
648.758485	0.138569
648.964250	0.138787
649.169996	0.139110
649.375724	0.139399
649.581434	0.139539
649.787126	0.139687
649.992800	0.139554
650.198455	0.139858
650.404092	0.139608
650.609711	0.139876
650.815311	0.139670
651.020894	0.139580
651.226458	0.139566
651.432004	0.139609
651.637532	0.139693
651.843041	0.139758
652.048532	0.139596
652.254006	0.139666
652.459460	0.139649
652.664897	0.139807
652.870315	0.139930
653.075716	0.140013
653.281097	0.140148
653.486461	0.140207
653.691807	0.140457
653.897134	0.140545
654.102443	0.140674
654.307734	0.140550
654.513006	0.140805
654.718261	0.140992
654.923497	0.141219
655.128715	0.141307
655.333915	0.141537
655.539096	0.141450
655.744259	0.141602
655.949404	0.141657
656.154531	0.141948
656.359640	0.141803
656.564730	0.141787
656.769802	0.141938
656.974856	0.141833
657.179892	0.141919
657.384909	0.141961
657.589908	0.142135
657.794889	0.142265
657.999852	0.142240
658.204797	0.142567
658.409723	0.142707
658.614631	0.142606
658.819521	0.142698
659.024393	0.142498
659.229246	0.142734
659.434081	0.142598
659.638898	0.142539
659.843697	0.142577
660.048478	0.142544
660.253240	0.142590
660.457984	0.142524
660.662710	0.142978
660.867417	0.143173
661.072107	0.143203
661.276778	0.143540
661.481431	0.143872
661.686066	0.143942
661.890682	0.143997
662.095281	0.144282
662.299861	0.144537
662.504422	0.144387
662.708966	0.144462
662.913491	0.144610
663.117999	0.144510
663.322488	0.144513
663.526958	0.144578
663.731411	0.144749
663.935845	0.144591
664.140261	0.144555
664.344659	0.144722
664.549038	0.144893
664.753400	0.144853
664.957743	0.145262
665.162068	0.145515
665.366375	0.145558
665.570663	0.145580
665.774933	0.145852
665.979185	0.146063
666.183419	0.146158
666.387635	0.146126
666.591832	0.146338
666.796011	0.146200
667.000172	0.146170
667.204315	0.146475
667.408439	0.146613
667.612545	0.146534
667.816634	0.146640
668.020703	0.146482
668.224755	0.146620
668.428788	0.146744
668.632803	0.146775
668.836800	0.146770
669.040779	0.146826
669.244739	0.147038
669.448681	0.147138
669.652605	0.147120
669.856511	0.147140
670.060399	0.147136
670.264268	0.147204
670.468119	0.147193
670.671952	0.147046
670.875767	0.147039
671.079563	0.146967
671.283341	0.147074
671.487101	0.147092
671.690843	0.147316
671.894567	0.147409
672.098272	0.147472
672.301959	0.147762
672.505628	0.148199
672.709278	0.148302
672.912911	0.148459
673.116525	0.148552
673.320121	0.148510
673.523699	0.148772
673.727258	0.148879
673.930799	0.148761
674.134322	0.148834
674.337827	0.148723
674.541314	0.149030
674.744782	0.149058
674.948232	0.149009
675.151664	0.149190
675.355078	0.149257
675.558474	0.149369
675.761851	0.149541
675.965210	0.149608
676.168551	0.149859
676.371873	0.149851
676.575178	0.149967
676.778464	0.150187
676.981732	0.150278
677.184981	0.150206
677.388213	0.150304
677.591426	0.150616
677.794621	0.150751
677.997798	0.150789
678.200956	0.150592
678.404097	0.150570
678.607219	0.150591
678.810323	0.150833
679.013408	0.150865
679.216476	0.151002
679.419525	0.150821
679.622556	0.150862
679.825569	0.151014
680.028563	0.151229
680.231540	0.151341
680.434498	0.151480
680.637438	0.151559
680.840359	0.151797
681.043263	0.151887
681.246148	0.152114
681.449015	0.152275
681.651864	0.152347
681.854694	0.152414
682.057506	0.152417
682.260301	0.152707
682.463076	0.152800
682.665834	0.152781
682.868573	0.152803
683.071295	0.152806
683.273998	0.152942
683.476682	0.152969
683.679349	0.153069
683.881997	0.153288
684.084627	0.153185
684.287239	0.153283
684.489833	0.153317
684.692408	0.153558
684.894965	0.153691
685.097504	0.153693
685.300025	0.153768
685.502527	0.153900
685.705012	0.153851
685.907478	0.153782
686.109925	0.153475
686.312355	0.153600
686.514766	0.153549
686.717159	0.153606
686.919534	0.153396
687.121891	0.153283
687.324230	0.153301
687.526550	0.153446
687.728852	0.153611
687.931136	0.153925
688.133401	0.154057
688.335649	0.154014
688.537878	0.154102
688.740089	0.154501
688.942281	0.154914
689.144456	0.155016
689.346612	0.155225
689.548750	0.155489
689.750870	0.155649
689.952971	0.155669
690.155055	0.155946
690.357120	0.155849
690.559167	0.155738
690.761195	0.155634
690.963206	0.155786
691.165198	0.155804
691.367172	0.155896
691.569128	0.155910
691.771065	0.156105
691.972984	0.156244
692.174885	0.156432
692.376768	0.156584
692.578633	0.156712
692.780479	0.156567
692.982308	0.156564
693.184118	0.156480
693.385909	0.156617
