sample name	sample
index	1261
start time	 04-29-2021  01:18:34 PM


Wavelength (nm)	Absorbance
494.344910	-0.062549
494.563924	-0.062549
494.782919	-0.062549
495.001897	0.064093
495.220856	-0.010836
495.439797	0.004006
495.658719	0.003735
495.877624	0.047501
496.096510	0.064475
496.315378	0.024918
496.534227	0.045260
496.753059	-0.040500
496.971872	-0.050731
497.190667	0.072488
497.409444	0.083383
497.628203	0.092125
497.846943	0.090264
498.065665	0.089271
498.284369	0.090743
498.503055	0.092552
498.721723	0.094031
498.940372	0.094177
499.159003	0.093570
499.377616	0.094733
499.596210	0.092868
499.814787	0.093490
500.033345	0.094379
500.251885	0.093580
500.470406	0.093197
500.688910	0.093520
500.907395	0.093669
501.125862	0.094136
501.344311	0.092264
501.562742	0.093027
501.781154	0.093659
501.999548	0.093964
502.217924	0.093979
502.436282	0.094142
502.654621	0.093791
502.872942	0.094114
503.091245	0.093371
503.309530	0.094366
503.527797	0.094615
503.746045	0.094474
503.964275	0.093959
504.182487	0.094420
504.400681	0.093453
504.618856	0.094121
504.837013	0.093066
505.055152	0.093689
505.273273	0.093592
505.491376	0.093732
505.709460	0.092916
505.927526	0.092782
506.145574	0.092921
506.363604	0.093378
506.581615	0.093553
506.799608	0.094680
507.017583	0.094677
507.235540	0.094965
507.453478	0.094664
507.671399	0.094927
507.889301	0.094622
508.107185	0.094981
508.325050	0.095466
508.542898	0.095281
508.760727	0.094400
508.978538	0.093808
509.196330	0.093897
509.414105	0.092489
509.631861	0.091784
509.849599	0.092326
510.067319	0.092271
510.285021	0.092045
510.502704	0.091112
510.720369	0.090801
510.938016	0.089649
511.155645	0.089065
511.373255	0.090101
511.590848	0.091165
511.808422	0.090696
512.025977	0.089963
512.243515	0.089266
512.461034	0.088992
512.678536	0.089617
512.896018	0.090663
513.113483	0.090869
513.330930	0.091064
513.548358	0.090235
513.765768	0.091395
513.983160	0.091726
514.200533	0.093003
514.417889	0.093637
514.635226	0.093206
514.852545	0.093155
515.069845	0.093467
515.287128	0.093532
515.504392	0.094089
515.721638	0.093514
515.938866	0.093592
516.156075	0.092016
516.373267	0.092348
516.590440	0.092009
516.807594	0.092924
517.024731	0.092389
517.241850	0.092552
517.458950	0.092476
517.676032	0.092246
517.893095	0.091613
518.110141	0.092959
518.327168	0.092795
518.544177	0.093429
518.761168	0.092476
518.978141	0.093310
519.195095	0.093385
519.412031	0.093583
519.628949	0.093889
519.845849	0.094005
520.062731	0.094099
520.279594	0.093584
520.496439	0.093874
520.713266	0.094024
520.930074	0.093297
521.146865	0.092657
521.363637	0.093384
521.580391	0.093786
521.797127	0.094184
522.013844	0.093696
522.230543	0.094254
522.447224	0.094023
522.663887	0.094524
522.880532	0.095082
523.097158	0.095471
523.313766	0.094851
523.530356	0.094194
523.746928	0.094171
523.963481	0.094456
524.180017	0.094351
524.396534	0.094203
524.613032	0.093752
524.829513	0.093719
525.045975	0.093473
525.262420	0.093118
525.478845	0.093583
525.695253	0.093807
525.911643	0.093381
526.128014	0.093606
526.344367	0.093724
526.560702	0.094188
526.777018	0.094619
526.993316	0.094897
527.209597	0.096156
527.425858	0.095960
527.642102	0.095982
527.858328	0.096217
528.074535	0.096137
528.290724	0.095872
528.506894	0.095050
528.723047	0.094694
528.939181	0.095051
529.155297	0.093942
529.371395	0.093834
529.587475	0.094014
529.803536	0.093768
530.019579	0.093684
530.235604	0.094359
530.451611	0.095172
530.667600	0.095375
530.883570	0.095830
531.099522	0.096377
531.315456	0.096133
531.531372	0.096321
531.747269	0.096124
531.963148	0.096744
532.179009	0.096841
532.394852	0.097103
532.610676	0.097221
532.826482	0.096538
533.042271	0.096775
533.258040	0.097288
533.473792	0.096915
533.689525	0.097468
533.905240	0.097265
534.120937	0.097398
534.336616	0.097973
534.552277	0.098038
534.767919	0.098839
534.983543	0.099150
535.199149	0.099350
535.414736	0.099755
535.630306	0.099727
535.845857	0.099706
536.061390	0.099150
536.276904	0.098510
536.492401	0.098267
536.707879	0.097715
536.923339	0.097337
537.138781	0.097509
537.354204	0.097906
537.569610	0.097835
537.784997	0.098474
538.000366	0.099031
538.215716	0.099415
538.431049	0.099786
538.646363	0.100026
538.861659	0.100192
539.076937	0.099752
539.292196	0.099545
539.507438	0.100042
539.722661	0.099079
539.937866	0.099290
540.153052	0.099261
540.368221	0.099001
540.583371	0.099004
540.798503	0.099148
541.013617	0.099876
541.228712	0.099937
541.443789	0.099879
541.658848	0.100496
541.873889	0.100196
542.088912	0.099497
542.303916	0.099633
542.518902	0.099430
542.733870	0.099201
542.948820	0.098837
543.163752	0.099046
543.378665	0.099185
543.593560	0.099134
543.808437	0.099212
544.023295	0.099888
544.238136	0.100144
544.452958	0.099980
544.667762	0.099700
544.882548	0.099529
545.097315	0.099212
545.312064	0.098978
545.526795	0.099181
545.741508	0.098801
545.956203	0.098630
546.170879	0.098143
546.385537	0.098436
546.600177	0.098676
546.814799	0.098762
547.029402	0.098809
547.243988	0.099063
547.458555	0.098844
547.673103	0.099163
547.887634	0.099747
548.102146	0.100183
548.316640	0.100332
548.531116	0.100036
548.745574	0.100108
548.960013	0.100366
549.174435	0.100444
549.388838	0.101021
549.603222	0.101164
549.817589	0.100955
550.031937	0.101401
550.246267	0.101661
550.460579	0.102077
550.674873	0.102288
550.889148	0.102189
551.103405	0.102153
551.317644	0.101768
551.531865	0.101783
551.746068	0.101627
551.960252	0.101501
552.174418	0.101733
552.388566	0.102477
552.602696	0.102641
552.816807	0.102605
553.030900	0.102485
553.244975	0.102381
553.459032	0.102324
553.673070	0.102257
553.887091	0.101793
554.101093	0.101779
554.315077	0.101370
554.529042	0.101516
554.742990	0.101779
554.956919	0.102317
555.170830	0.102414
555.384722	0.102698
555.598597	0.103405
555.812453	0.103799
556.026291	0.103966
556.240111	0.103834
556.453913	0.103963
556.667696	0.104540
556.881461	0.104637
557.095208	0.105001
557.308937	0.105042
557.522647	0.105138
557.736339	0.105225
557.950013	0.105163
558.163669	0.105871
558.377307	0.106090
558.590926	0.105879
558.804527	0.106017
559.018110	0.105951
559.231675	0.106085
559.445221	0.106337
559.658749	0.106510
559.872259	0.106455
560.085751	0.106541
560.299225	0.106436
560.512680	0.106617
560.726117	0.106432
560.939536	0.106524
561.152937	0.106635
561.366319	0.106180
561.579683	0.106014
561.793029	0.106217
562.006357	0.105793
562.219667	0.105826
562.432958	0.105817
562.646231	0.105782
562.859486	0.106400
563.072723	0.106429
563.285941	0.106576
563.499141	0.106779
563.712323	0.106880
563.925487	0.107009
564.138632	0.107151
564.351760	0.107113
564.564869	0.107627
564.777960	0.107236
564.991032	0.107368
565.204087	0.107542
565.417123	0.107682
565.630141	0.107810
565.843140	0.108099
566.056122	0.108226
566.269085	0.108426
566.482030	0.108381
566.694957	0.108752
566.907866	0.109178
567.120756	0.109157
567.333628	0.109269
567.546482	0.109280
567.759318	0.109294
567.972135	0.109310
568.184935	0.109069
568.397716	0.109080
568.610478	0.108913
568.823223	0.108673
569.035949	0.108764
569.248657	0.108835
569.461347	0.108826
569.674019	0.108522
569.886672	0.108140
570.099308	0.108175
570.311925	0.108054
570.524523	0.108072
570.737104	0.108229
570.949666	0.108207
571.162210	0.107967
571.374736	0.107865
571.587244	0.108061
571.799733	0.108474
572.012205	0.108586
572.224658	0.108482
572.437092	0.108551
572.649509	0.108727
572.861907	0.109002
573.074287	0.109547
573.286649	0.109703
573.498993	0.109574
573.711318	0.109209
573.923625	0.109285
574.135914	0.109588
574.348185	0.109652
574.560438	0.109384
574.772672	0.109412
574.984888	0.109166
575.197086	0.109107
575.409266	0.109632
575.621427	0.110008
575.833570	0.109967
576.045695	0.110227
576.257802	0.110149
576.469890	0.110139
576.681961	0.110306
576.894013	0.110405
577.106046	0.110602
577.318062	0.110363
577.530059	0.110690
577.742039	0.110666
577.954000	0.110466
578.165942	0.110382
578.377867	0.110315
578.589773	0.110163
578.801661	0.110526
579.013531	0.110554
579.225382	0.110688
579.437216	0.110819
579.649031	0.111382
579.860828	0.111340
580.072606	0.111570
580.284367	0.112057
580.496109	0.112098
580.707833	0.112007
580.919539	0.111917
581.131227	0.112070
581.342896	0.111876
581.554547	0.111783
581.766180	0.111951
581.977795	0.111722
582.189391	0.111335
582.400969	0.111454
582.612529	0.111206
582.824071	0.111313
583.035595	0.110841
583.247100	0.110948
583.458587	0.110717
583.670056	0.110834
583.881506	0.111351
584.092939	0.111745
584.304353	0.111810
584.515749	0.111735
584.727127	0.111536
584.938486	0.111862
585.149828	0.111847
585.361151	0.111837
585.572456	0.111723
585.783742	0.111594
585.995011	0.111420
586.206261	0.110795
586.417493	0.111139
586.628706	0.111671
586.839902	0.111555
587.051079	0.111841
587.262238	0.112132
587.473379	0.112236
587.684502	0.112166
587.895606	0.112154
588.106692	0.112553
588.317760	0.112422
588.528810	0.112275
588.739841	0.112619
588.950855	0.112735
589.161850	0.112739
589.372827	0.113005
589.583785	0.113089
589.794726	0.113685
590.005648	0.114161
590.216552	0.114330
590.427437	0.114725
590.638305	0.114702
590.849154	0.114536
591.059985	0.114623
591.270798	0.114632
591.481592	0.114880
591.692369	0.114518
591.903127	0.114461
592.113867	0.114655
592.324588	0.114396
592.535292	0.114364
592.745977	0.114619
592.956644	0.114596
593.167293	0.114412
593.377923	0.114331
593.588536	0.114451
593.799130	0.114476
594.009706	0.114546
594.220263	0.114621
594.430803	0.114912
594.641324	0.114697
594.851827	0.114740
595.062312	0.115017
595.272778	0.115181
595.483227	0.115315
595.693657	0.115473
595.904069	0.115265
596.114462	0.115239
596.324838	0.115369
596.535195	0.115557
596.745534	0.115665
596.955855	0.115695
597.166157	0.115715
597.376441	0.116038
597.586707	0.116032
597.796955	0.116096
598.007185	0.116285
598.217396	0.116463
598.427589	0.116484
598.637764	0.116430
598.847921	0.116585
599.058060	0.116647
599.268180	0.116496
599.478282	0.116455
599.688366	0.116452
599.898431	0.116654
600.108479	0.116279
600.318508	0.116379
600.528519	0.116693
600.738511	0.116651
600.948486	0.116824
601.158442	0.116762
601.368380	0.117167
601.578300	0.117369
601.788202	0.117131
601.998085	0.117451
602.207950	0.117077
602.417797	0.117192
602.627626	0.117012
602.837436	0.117051
603.047228	0.117129
603.257002	0.116894
603.466758	0.116922
603.676496	0.117165
603.886215	0.117369
604.095916	0.117451
604.305599	0.117076
604.515264	0.117352
604.724910	0.117208
604.934538	0.116885
605.144148	0.116612
605.353740	0.116737
605.563314	0.116762
605.772869	0.116429
605.982406	0.116830
606.191925	0.117242
606.401425	0.117035
606.610908	0.117242
606.820372	0.117545
607.029818	0.117540
607.239246	0.117362
607.448655	0.117484
607.658047	0.117425
607.867420	0.117301
608.076775	0.117179
608.286111	0.117283
608.495430	0.117435
608.704730	0.117604
608.914012	0.117920
609.123275	0.118171
609.332521	0.118166
609.541748	0.118211
609.750957	0.118259
609.960148	0.118473
610.169321	0.118688
610.378475	0.118764
610.587611	0.118785
610.796729	0.118719
611.005829	0.119025
611.214910	0.118988
611.423974	0.119446
611.633019	0.119522
611.842045	0.119394
612.051054	0.119350
612.260044	0.118977
612.469017	0.119112
612.677970	0.119326
612.886906	0.118990
613.095824	0.119183
613.304723	0.118963
613.513604	0.118897
613.722467	0.118818
613.931311	0.118878
614.140138	0.119423
614.348946	0.119375
614.557736	0.119395
614.766507	0.119622
614.975261	0.119654
615.183996	0.119689
615.392713	0.120147
615.601412	0.120395
615.810092	0.120326
616.018754	0.120269
616.227399	0.120346
616.436024	0.120306
616.644632	0.120471
616.853222	0.120530
617.061793	0.120662
617.270346	0.120484
617.478880	0.120436
617.687397	0.120462
617.895895	0.120364
618.104375	0.120429
618.312837	0.120377
618.521281	0.120101
618.729706	0.120160
618.938113	0.120128
619.146502	0.120083
619.354873	0.120330
619.563226	0.120573
619.771560	0.120852
619.979876	0.120886
620.188174	0.121313
620.396453	0.121697
620.604715	0.121737
620.812958	0.122020
621.021183	0.121992
621.229390	0.121870
621.437578	0.121798
621.645748	0.121588
621.853900	0.121531
622.062034	0.120971
622.270150	0.120828
622.478247	0.120783
622.686326	0.120585
622.894387	0.120535
623.102430	0.120748
623.310454	0.120752
623.518461	0.120745
623.726449	0.120925
623.934418	0.121222
624.142370	0.121262
624.350303	0.121183
624.558218	0.121273
624.766115	0.121424
624.973994	0.121327
625.181855	0.121376
625.389697	0.121491
625.597521	0.121368
625.805327	0.121358
626.013114	0.121344
626.220883	0.121452
626.428634	0.121366
626.636367	0.121480
626.844082	0.121272
627.051778	0.121350
627.259457	0.121368
627.467117	0.121485
627.674758	0.121699
627.882382	0.121873
628.089987	0.122133
628.297574	0.122349
628.505143	0.122565
628.712694	0.122747
628.920226	0.122918
629.127740	0.123045
629.335236	0.122852
629.542714	0.122829
629.750174	0.122736
629.957615	0.122514
630.165038	0.122594
630.372443	0.122257
630.579829	0.122206
630.787198	0.122014
630.994548	0.121939
631.201880	0.122204
631.409194	0.122244
631.616489	0.122211
631.823766	0.122311
632.031025	0.122299
632.238266	0.122359
632.445489	0.122575
632.652693	0.122718
632.859879	0.122829
633.067047	0.122812
633.274197	0.122796
633.481329	0.122960
633.688442	0.122809
633.895537	0.122612
634.102614	0.122721
634.309672	0.122600
634.516713	0.122519
634.723735	0.122441
634.930739	0.122259
635.137724	0.122436
635.344692	0.122415
635.551641	0.122416
635.758572	0.122516
635.965485	0.122644
636.172379	0.122476
636.379256	0.122587
636.586114	0.122514
636.792954	0.122950
636.999775	0.122964
637.206579	0.123003
637.413364	0.123030
637.620131	0.123142
637.826880	0.123069
638.033610	0.123366
638.240323	0.123427
638.447017	0.123509
638.653692	0.123327
638.860350	0.123270
639.066990	0.123315
639.273611	0.123814
639.480214	0.124069
639.686798	0.124425
639.893365	0.124544
640.099913	0.124578
640.306443	0.124864
640.512955	0.125138
640.719449	0.125302
640.925924	0.125291
641.132381	0.125038
641.338820	0.124852
641.545241	0.124611
641.751644	0.124571
641.958028	0.124643
642.164394	0.124588
642.370742	0.124320
642.577071	0.124379
642.783383	0.124480
642.989676	0.124753
643.195951	0.125171
643.402207	0.125205
643.608446	0.125349
643.814666	0.125413
644.020868	0.125767
644.227052	0.125951
644.433218	0.126064
644.639365	0.126264
644.845494	0.126126
645.051605	0.125850
645.257698	0.126190
645.463772	0.126300
645.669828	0.126365
645.875866	0.126165
646.081886	0.126276
646.287888	0.126348
646.493871	0.126287
646.699836	0.126389
646.905783	0.126489
647.111712	0.126457
647.317622	0.126398
647.523514	0.126563
647.729388	0.126581
647.935244	0.126568
648.141082	0.126514
648.346901	0.126621
648.552702	0.126694
648.758485	0.126725
648.964250	0.126728
649.169996	0.126760
649.375724	0.126806
649.581434	0.127063
649.787126	0.127126
649.992800	0.127008
650.198455	0.127371
650.404092	0.127433
650.609711	0.127481
650.815311	0.127425
651.020894	0.127461
651.226458	0.127329
651.432004	0.126962
651.637532	0.126980
651.843041	0.127213
652.048532	0.126975
652.254006	0.127045
652.459460	0.127145
652.664897	0.127245
652.870315	0.127433
653.075716	0.127489
653.281097	0.127760
653.486461	0.127765
653.691807	0.127860
653.897134	0.127836
654.102443	0.127812
654.307734	0.127661
654.513006	0.127739
654.718261	0.127704
654.923497	0.127730
655.128715	0.127682
655.333915	0.127687
655.539096	0.127409
655.744259	0.127616
655.949404	0.127725
656.154531	0.128111
656.359640	0.128095
656.564730	0.128140
656.769802	0.128251
656.974856	0.128266
657.179892	0.128462
657.384909	0.128776
657.589908	0.128685
657.794889	0.128552
657.999852	0.128572
658.204797	0.129023
658.409723	0.129146
658.614631	0.129582
658.819521	0.129740
659.024393	0.129794
659.229246	0.129814
659.434081	0.130087
659.638898	0.130484
659.843697	0.130578
660.048478	0.130482
660.253240	0.130694
660.457984	0.130500
660.662710	0.130654
660.867417	0.130733
661.072107	0.130707
661.276778	0.130489
661.481431	0.130393
661.686066	0.130327
661.890682	0.130275
662.095281	0.130362
662.299861	0.130413
662.504422	0.130450
662.708966	0.130652
662.913491	0.130952
663.117999	0.131086
663.322488	0.131240
663.526958	0.131334
663.731411	0.131265
663.935845	0.131087
664.140261	0.131298
664.344659	0.131575
664.549038	0.131669
664.753400	0.131823
664.957743	0.131787
665.162068	0.131936
665.366375	0.132076
665.570663	0.132324
665.774933	0.132718
665.979185	0.132641
666.183419	0.132625
666.387635	0.132633
666.591832	0.132748
666.796011	0.133086
667.000172	0.133091
667.204315	0.133287
667.408439	0.133391
667.612545	0.133393
667.816634	0.133655
668.020703	0.133776
668.224755	0.133821
668.428788	0.133746
668.632803	0.133944
668.836800	0.134101
669.040779	0.134056
669.244739	0.134202
669.448681	0.134264
669.652605	0.134399
669.856511	0.134459
670.060399	0.134814
670.264268	0.134899
670.468119	0.134892
670.671952	0.134968
670.875767	0.135147
671.079563	0.135221
671.283341	0.135385
671.487101	0.135338
671.690843	0.135263
671.894567	0.135245
672.098272	0.135478
672.301959	0.135557
672.505628	0.135822
672.709278	0.135853
672.912911	0.136038
673.116525	0.135894
673.320121	0.135956
673.523699	0.136231
673.727258	0.136062
673.930799	0.135971
674.134322	0.136025
674.337827	0.135739
674.541314	0.135684
674.744782	0.135631
674.948232	0.135812
675.151664	0.135964
675.355078	0.135725
675.558474	0.135641
675.761851	0.135624
675.965210	0.135610
676.168551	0.135487
676.371873	0.135471
676.575178	0.135193
676.778464	0.135103
676.981732	0.135067
677.184981	0.135190
677.388213	0.135285
677.591426	0.135498
677.794621	0.135460
677.997798	0.135791
678.200956	0.135751
678.404097	0.135901
678.607219	0.135952
678.810323	0.135897
679.013408	0.136100
679.216476	0.136259
679.419525	0.136347
679.622556	0.136363
679.825569	0.136433
680.028563	0.136583
680.231540	0.136987
680.434498	0.137047
680.637438	0.137221
680.840359	0.137166
681.043263	0.137220
681.246148	0.137023
681.449015	0.137310
681.651864	0.137355
681.854694	0.137458
682.057506	0.137436
682.260301	0.137704
682.463076	0.137674
682.665834	0.137867
682.868573	0.138401
683.071295	0.138949
683.273998	0.139117
683.476682	0.139173
683.679349	0.139433
683.881997	0.139353
684.084627	0.139245
684.287239	0.139323
684.489833	0.139306
684.692408	0.138800
684.894965	0.138421
685.097504	0.138233
685.300025	0.138243
685.502527	0.138123
685.705012	0.138207
685.907478	0.138348
686.109925	0.138434
686.312355	0.138284
686.514766	0.138475
686.717159	0.138575
686.919534	0.138638
687.121891	0.138598
687.324230	0.138697
687.526550	0.138820
687.728852	0.138665
687.931136	0.138582
688.133401	0.138920
688.335649	0.138802
688.537878	0.138927
688.740089	0.138989
688.942281	0.138976
689.144456	0.139139
689.346612	0.139083
689.548750	0.139172
689.750870	0.139452
689.952971	0.139497
690.155055	0.139801
690.357120	0.139635
690.559167	0.139714
690.761195	0.139857
690.963206	0.139904
691.165198	0.139955
691.367172	0.140272
691.569128	0.140124
691.771065	0.140186
691.972984	0.140284
692.174885	0.140593
692.376768	0.140712
692.578633	0.140874
692.780479	0.141205
692.982308	0.141308
693.184118	0.141203
693.385909	0.141188
