sample name	sample
index	1187
start time	 04-26-2021  12:00:19 PM
880	0.431914
Peak Time (s)	90.037
Peak Height 	0.4319
calc peak height	90,93
Baseline Time (s)	11.535
Baseline Value 	-0.00272
subtract baseline	10,4
Abs	0.300588
Peak Time (s)	90.54
Peak Height 	0.3006
calc peak height	90,93
Baseline Time (s)	9.537
Baseline Value 	-2.4496E-4
subtract baseline	10,3
PK_550	0.168330
Peak Time (s)	90.54
Peak Height 	0.1683
calc peak height	90,93
Baseline Time (s)	11.535
Baseline Value 	-3.7145E-5
subtract baseline	10,2
PK_880	0.288498
Peak Time (s)	90.54
Peak Height 	0.2885
calc peak height	90,93
Baseline Time (s)	10.537
Baseline Value 	4.4576E-4
subtract baseline	10,1


Time (s)	A880-A510	A880-A775	A880-A975	A880	I510	I775	I975	I880	
0.034500	-0.000528	-0.000203	-0.001491	0.007548	6115.501801	43172.307225	3844.785519	22326.602532
0.537000	-0.003456	0.000528	0.002125	0.004812	6114.077009	43494.962985	3859.123969	22449.407024
1.040500	-0.000514	0.000273	-0.000051	0.004110	6141.154175	43536.681577	3855.778697	22481.052171
1.535500	0.000372	-0.000255	0.000986	0.001192	6169.659739	43760.863699	3864.784081	22613.117108
2.035000	-0.002350	0.000030	-0.001073	0.006234	6111.743893	43316.049181	3848.676038	22385.511016
2.536000	-0.000793	0.000590	0.002206	0.001070	6161.818716	43851.887986	3867.857530	22618.656461
3.035500	0.002358	0.000260	-0.002182	-0.001296	6203.510804	44044.233661	3863.230039	22726.420577
3.536500	-0.000567	-0.000236	-0.003155	0.000575	6167.230671	43820.694793	3856.756766	22641.136853
4.036500	-0.004062	-0.000380	-0.008592	0.003919	6116.197768	43493.554729	3837.034021	22489.655955
4.537000	-0.001702	0.000357	-0.003468	0.000510	6159.203725	43882.720989	3856.193652	22644.117180
5.037000	0.000124	0.000984	0.001356	0.001224	6167.548318	43874.530037	3865.556669	22611.650317
5.538000	0.001726	0.000662	0.000325	0.000731	6183.344842	43890.599323	3864.326074	22634.045228
6.035000	-0.001974	0.000927	0.001198	0.002169	6144.742612	43780.152662	3863.037313	22568.814542
6.535000	-0.000108	0.000385	0.000328	0.000366	6172.261390	43898.952344	3865.168085	22650.644437
7.035500	-0.001116	0.000473	-0.001382	0.000868	6160.911380	43859.914856	3860.119029	22627.837398
7.535500	0.000086	0.000372	-0.006699	0.000515	6172.599048	43883.638574	3848.883326	22643.873921
8.036000	0.000453	0.000548	0.004722	0.000528	6175.270316	43899.036298	3874.898203	22643.299800
8.536500	0.001424	0.000605	-0.000645	0.000485	6182.926847	43908.425519	3862.672106	22645.233053
9.037000	-0.001408	0.000101	-0.003139	0.000115	6164.371009	43895.828871	3857.837171	22662.062292
9.537000	-0.001983	-0.000082	0.000000	-0.000407	6163.977767	43927.923371	3866.188001	22685.879110
10.037000	-0.002194	-0.000511	-0.001512	-0.000165	6160.568238	43864.541379	3862.177055	22674.816748
10.537500	0.000000	-0.000495	0.003355	-0.000418	6178.991217	43889.947481	3873.925539	22686.361663
11.035500	0.000384	0.000280	0.000837	0.000499	6174.966009	43876.542197	3866.028051	22644.605873
11.535000	0.000611	0.000000	0.000091	0.000000	6180.447778	43897.164013	3865.464558	22667.317678
12.035000	-0.000981	0.000083	-0.001060	-0.000333	6170.951424	43936.353790	3863.592406	22682.464057
12.536000	0.000813	0.000119	0.005959	-0.000293	6184.193828	43936.063950	3879.665815	22680.679433
13.035500	0.000089	0.001103	0.000716	-0.000211	6178.098455	44021.368512	3867.380141	22676.935718
13.537500	-0.000658	-0.000028	0.003295	-0.000860	6177.363159	43975.817056	3874.810000	22706.532412
14.036500	0.000116	0.000356	0.003050	0.002519	6157.769644	43693.629506	3866.472838	22552.972429
14.537000	-0.001318	-0.000888	-0.003232	0.000634	6161.153827	43753.851716	3856.447900	22638.486633
15.037500	0.000123	-0.000121	0.000274	-0.001307	6186.642214	44009.214964	3868.879564	22726.933994
15.538000	0.000428	0.000091	0.000069	-0.000797	6185.085008	43981.066105	3867.237990	22703.636428
16.035000	-0.000472	0.000607	-0.003974	0.000120	6171.374262	43943.157599	3855.931435	22661.858016
16.536000	0.000844	0.000802	0.005858	-0.000012	6182.293233	43973.997652	3878.776552	22667.842223
17.036000	0.001034	0.000454	0.004725	-0.002298	6201.058069	44157.600674	3881.454945	22772.224648
17.535000	-0.002336	0.000081	-0.002169	0.000531	6154.282742	43854.731231	3859.094895	22643.138089
18.036000	-0.000539	-0.000034	0.002269	0.001547	6160.142485	43748.182913	3866.908225	22596.983336
18.536000	-0.000497	-0.000433	0.000413	0.000364	6169.346983	43822.037808	3865.366440	22650.743436
19.037000	0.001208	0.000895	-0.001111	0.001336	6174.876975	43855.612725	3859.671763	22606.587116
19.537000	0.000061	0.000613	0.001980	0.001086	6168.121012	43852.601205	3867.302232	22617.938646
20.037500	-0.001530	0.000858	0.001389	0.001738	6151.286317	43814.218269	3864.457105	22588.357234
20.535000	0.000953	0.000274	-0.002537	0.001269	6173.457717	43803.389096	3856.584938	22609.632240
21.035000	-0.001982	0.000558	0.004104	0.001530	6149.464924	43805.606721	3871.162540	22597.791390
21.535000	-0.000284	0.000421	-0.001368	0.001207	6164.612419	43823.096550	3859.380024	22612.429286
22.036000	-0.000890	0.000542	0.002293	0.001779	6155.774679	43780.624620	3866.432643	22586.480744
22.536000	-0.000903	0.000068	-0.000044	0.000903	6162.247779	43818.480244	3863.092019	22626.262344
23.036500	0.000279	0.000839	0.002376	0.001651	6165.506810	43820.603843	3866.915524	22592.283505
23.537000	-0.000596	-0.000226	-0.003726	0.000450	6167.961472	43833.488885	3855.746542	22646.848382
24.037000	-0.002918	0.000325	-0.002303	0.001074	6145.876388	43826.599181	3857.558963	22618.485088
24.540000	-0.000013	0.000609	0.004707	0.001184	6166.823990	43843.017377	3873.349945	22613.500310
25.035000	-0.000312	0.000398	-0.002102	0.000815	6167.350092	43857.896781	3858.603976	22630.262798
25.535000	0.000856	0.001121	-0.002758	0.001751	6169.098706	43837.839722	3854.991752	22587.770030
26.035000	-0.003729	0.000942	-0.004596	0.001345	6137.797760	43859.172962	3851.754290	22606.184910
26.535500	-0.000550	0.000646	-0.002268	0.000759	6165.976635	43886.450691	3858.351760	22632.766108
27.035500	-0.000240	0.000642	-0.003953	0.001750	6160.871359	43792.842310	3852.292014	22587.815000
27.536000	0.000171	0.000458	0.002373	-0.001576	6189.038277	44089.522908	3874.333058	22739.214382
28.036500	0.002407	0.001041	0.002796	-0.000268	6196.070484	44020.839462	3872.291488	22679.537149
28.536500	0.000989	0.000526	0.001017	-0.000495	6187.048500	43993.609835	3868.721558	22689.883292
29.037000	-0.000744	0.000699	0.003585	-0.000957	6177.446560	44053.693085	3875.703326	22710.951341
29.537500	-0.001040	-0.000158	0.001976	-0.001351	6178.181511	44009.826559	3872.898256	22728.923406
30.035000	0.000841	-0.000696	-0.001754	-0.000281	6184.302082	43857.951860	3861.888398	22680.094635
30.535000	0.001423	0.000426	0.005019	-0.000674	6191.693438	44001.131532	3878.369257	22698.047117
31.035000	-0.002477	0.000029	-0.005335	0.002096	6141.535015	43702.614117	3848.394506	22572.102085
31.538000	0.000153	0.000419	0.007305	-0.000350	6179.633971	43969.867257	3882.928891	22683.282070
32.037000	0.000089	0.000670	0.001475	0.000553	6172.336145	43908.158550	3867.367213	22642.146090
32.539500	-0.000292	0.000899	0.004043	-0.000489	6177.316764	44028.263380	3875.679209	22689.579718
33.036500	0.000657	0.000079	0.007099	-0.001196	6189.844772	44017.667045	3884.419156	22721.866432
33.537000	0.000474	0.000338	-0.001725	-0.000314	6181.790058	43958.724678	3862.032425	22681.640720
34.040000	-0.000779	0.000398	0.004187	0.002140	6153.899283	43733.158763	3869.950725	22570.119860
34.537500	-0.000915	0.000997	0.005896	0.002354	6151.279498	43769.327719	3873.392015	22560.417922
35.038000	-0.000434	0.001315	0.003996	0.002507	6153.733814	43784.832670	3868.666784	22553.484371
35.534500	-0.002189	-0.000118	-0.000592	0.001332	6149.388143	43760.504462	3860.860736	22606.743267
36.035500	-0.001032	0.001013	-0.000160	0.002639	6148.270968	43744.103239	3858.871598	22547.535504
36.536000	-0.000747	0.000346	0.000682	0.001877	6156.106408	43752.959565	3862.523947	22582.021474
37.036000	0.000193	0.000554	0.001289	0.001948	6162.630991	43765.820747	3863.748225	22578.820589
37.536500	-0.002012	0.000776	0.000330	0.002067	6145.221479	43775.462034	3861.288463	22573.409120
38.037000	0.001469	0.000765	0.007385	0.002132	6170.843516	43768.461074	3877.348050	22570.493974
38.537500	0.000376	0.000025	0.001888	0.001812	6165.029821	43728.926635	3865.429322	22585.003847
39.037500	0.000533	-0.000171	0.002344	0.001658	6167.359281	43724.904712	3866.824240	22591.947539
39.535000	-0.001173	-0.000207	-0.000767	0.001519	6155.597550	43734.695048	3860.038485	22598.282398
40.035000	0.001271	0.000519	-0.003582	0.002188	6168.933879	43740.034112	3852.140773	22567.956042
40.535000	-0.001916	0.000706	0.003299	0.002082	6145.824262	43767.485774	3868.043336	22572.727218
41.036000	0.000264	0.000836	0.000928	0.002028	6162.558114	43784.837522	3862.739653	22575.170787
41.536000	-0.000433	-0.000108	-0.002846	0.001738	6159.504326	43723.352956	3854.819477	22588.318519
42.036500	-0.001789	-0.000043	-0.000817	0.001378	6152.040487	43763.267250	3860.244724	22604.664182
42.536500	-0.002499	-0.000268	0.003519	0.001273	6147.521442	43752.055273	3870.407526	22609.451091
43.036500	-0.001776	0.000814	-0.000054	0.002323	6145.071919	43755.093510	3859.831645	22561.846364
43.540000	-0.000756	-0.000641	0.002292	-0.001984	6185.114406	44024.094697	3875.087693	22757.863226
44.034500	-0.001198	-0.000114	-0.003124	0.002133	6150.820889	43685.751685	3853.298572	22570.450538
44.537000	0.000663	0.000658	0.001674	-0.000632	6185.614864	44019.069240	3870.544497	22696.099606
45.035500	0.001488	0.000795	-0.001264	-0.000204	6188.618503	43991.565356	3862.833571	22676.606459
45.535500	0.000380	0.000723	0.001984	-0.000574	6183.037522	44019.787440	3871.127458	22693.481296
46.035500	0.000148	0.000899	0.000349	0.003355	6151.738009	43666.023284	3858.400148	22515.128711
46.536500	0.001106	0.000326	0.001065	-0.000714	6189.591948	43995.386044	3869.334265	22699.852585
47.036500	-0.001775	0.000206	0.003378	0.001733	6149.496199	43753.389555	3869.027499	22588.585729
47.536500	0.001015	0.000877	0.004569	0.003046	6160.558010	43693.108219	3868.747999	22529.127421
48.039500	-0.001514	-0.000070	0.002863	0.002128	6148.495134	43690.338308	3866.939262	22570.681439
48.536500	0.001575	0.000524	0.001244	-0.000541	6191.830497	43997.777181	3869.347864	22691.962194
49.037500	0.001128	-0.000008	-0.001405	-0.000713	6189.754700	43963.722432	3863.673397	22699.825212
49.535500	0.001796	0.000217	0.009439	-0.002959	6211.885833	44197.857817	3894.031997	22802.489765
50.035500	-0.001288	-0.000169	0.004459	0.001588	6154.227256	43731.789656	3871.847217	22595.161983
50.536000	0.013773	-0.008072	0.002352	0.024512	6095.849441	40935.439702	3815.820563	21582.151511
51.035500	0.017112	-0.025944	-0.008188	0.363177	4377.064428	19648.139296	3294.073270	11461.782098
51.536000	-0.000731	-0.027289	-0.018640	-0.109899	7111.772394	52482.042734	4097.640751	28361.402929
52.036500	0.014474	-0.038363	0.004352	-0.175815	7976.567789	59152.713098	4376.198533	32535.732954
52.536500	-0.021501	-0.022533	-0.021632	-0.090334	6738.286939	50820.440953	4035.578690	27239.461328
53.037000	-0.002666	-0.018952	-0.009271	-0.127829	7269.749101	55572.033676	4177.188042	29434.885810
53.534500	0.016045	-0.015573	0.014127	-0.101214	7190.951909	52829.136676	4167.552221	27857.134531
54.036000	0.018125	-0.016819	0.023287	-0.060082	6822.022753	48189.196757	4075.566122	25601.274758
54.535500	0.020325	-0.011986	0.025766	-0.023654	6524.845934	45012.917201	3985.024603	23774.207715
55.035500	0.027054	-0.006138	0.027421	-0.020851	6557.756114	45309.028904	3982.084818	23639.853313
55.536000	0.047092	-0.000535	0.041300	-0.019346	6717.193335	45710.993156	4014.187242	23568.123560
56.036000	0.067923	0.010910	0.067322	0.014254	6606.613069	43582.824560	3994.417675	22028.813789
56.539500	0.093002	0.022686	0.093112	0.057259	6456.767016	40761.673140	3950.775949	20224.716916
57.037000	0.117742	0.037487	0.118943	0.102253	6294.747759	38220.390461	3904.189463	18518.998763
57.540000	0.143557	0.053576	0.145715	0.155909	6083.999960	35295.286519	3842.200958	16702.897916
58.037500	0.168043	0.069890	0.169694	0.200916	5937.098454	33225.573298	3796.318997	15343.400182
58.534000	0.188681	0.082257	0.190106	0.243200	5789.470051	31208.262694	3750.894217	14188.304552
59.035000	0.205236	0.095801	0.212294	0.296524	5554.979958	28732.427854	3690.053887	12883.174003
59.535000	0.215188	0.101433	0.225139	0.306471	5555.010789	28477.323593	3695.534803	12656.965398
60.035500	0.230425	0.109734	0.231003	0.297862	5704.823589	29492.013151	3723.460753	12852.453079
60.536000	0.234370	0.117270	0.238011	0.364269	5329.202404	26123.689735	3614.550678	11440.259320
61.036000	0.241551	0.122705	0.244515	0.410334	5121.234670	24051.461396	3549.853345	10580.064210
61.535500	0.240712	0.125580	0.252119	0.403571	5151.726652	24525.616395	3572.670575	10700.713369
62.038500	0.245968	0.131779	0.254504	0.404601	5173.738117	24784.284830	3574.860769	10682.216759
62.537000	0.245140	0.135423	0.254333	0.406162	5161.273550	24889.426577	3572.062378	10654.275376
63.038000	0.249342	0.139012	0.256939	0.400424	5213.600510	25366.268119	3585.651462	10757.490884
63.534500	0.251451	0.141794	0.256910	0.399186	5231.491212	25574.990096	3587.642767	10779.944300
64.035500	0.250537	0.144003	0.255940	0.396161	5242.851648	25849.697422	3591.040490	10835.077487
64.535500	0.252497	0.146536	0.260382	0.392780	5271.829211	26164.058702	3604.119048	10897.154006
65.035500	0.255079	0.148904	0.261555	0.390804	5296.846489	26397.719273	3609.451357	10933.656548
65.536500	0.249702	0.148938	0.263298	0.390575	5268.615240	26411.944912	3612.809626	10937.896594
66.036000	0.254117	0.151344	0.264069	0.389534	5298.549055	26599.137267	3615.909155	10957.207210
66.537000	0.255060	0.150883	0.260952	0.388172	5311.304143	26648.231949	3612.906470	10982.523218
67.039500	0.254741	0.152951	0.263635	0.390523	5296.526470	26632.807931	3613.472752	10938.847892
67.537000	0.255748	0.152261	0.267924	0.394721	5278.990027	26367.396075	3613.628571	10861.445472
68.035000	0.257218	0.153003	0.260245	0.394374	5288.962876	26426.302480	3601.204653	10867.826507
68.534500	0.259605	0.153266	0.271512	0.396665	5289.494511	26316.791622	3616.443711	10825.867220
69.035500	0.257974	0.155281	0.270042	0.400170	5261.405312	26236.636371	3607.957495	10762.092046
69.535500	0.258080	0.154520	0.266416	0.405008	5235.830806	25938.033481	3593.744516	10674.925967
70.035500	0.259458	0.155132	0.267067	0.406132	5237.191267	25910.881162	3592.957347	10654.801517
70.536000	0.261940	0.157033	0.271235	0.409040	5234.903162	25857.660700	3595.052573	10602.999789
71.036500	0.261568	0.157060	0.274289	0.410680	5224.115024	25772.634259	3597.414061	10573.945061
71.537000	0.263246	0.158209	0.271514	0.418035	5193.948842	25448.444759	3580.677078	10444.963207
72.037000	0.262916	0.157142	0.273980	0.415219	5207.110759	25539.332943	3589.354591	10494.081986
72.537000	0.264510	0.159321	0.270426	0.417620	5202.824675	25527.770061	3579.577514	10452.170496
73.034500	0.266077	0.160704	0.275354	0.420222	5197.348736	25464.392921	3583.381706	10407.017396
73.535500	0.265314	0.160469	0.278567	0.420512	5191.785295	25437.123615	3588.188530	10401.996913
74.035500	0.264806	0.159702	0.277167	0.422471	5178.809351	25296.253633	3582.666594	10368.206501
74.536000	0.268659	0.161426	0.280091	0.423311	5194.665363	25341.844897	3586.086918	10353.758714
75.036000	0.269069	0.163597	0.278653	0.425951	5182.921666	25317.694961	3579.408612	10308.547438
75.536500	0.268208	0.162850	0.276559	0.425477	5180.891571	25303.608721	3576.774097	10316.650920
76.036500	0.271250	0.164355	0.281383	0.426959	5189.091596	25304.784395	3582.220981	10291.349080
76.539500	0.271270	0.163650	0.282049	0.427329	5187.248759	25249.428870	3582.705738	10285.054861
77.037000	0.270609	0.162138	0.280463	0.426243	5189.485925	25227.552865	3581.887241	10303.558720
77.537500	0.272795	0.164283	0.277384	0.428134	5191.045898	25240.607939	3573.805909	10271.373831
78.035000	0.274259	0.164910	0.278539	0.429045	5193.963072	25226.011874	3574.200122	10255.906702
78.535000	0.275169	0.164578	0.280144	0.429653	5195.559310	25177.789073	3575.814498	10245.608959
79.035500	0.275816	0.164581	0.284891	0.430297	5195.572008	25144.969728	3582.499947	10234.703711
79.535500	0.272214	0.164765	0.289014	0.435523	5149.398179	24888.455964	3580.697666	10146.897758
80.036000	0.278303	0.165089	0.285636	0.431367	5203.075719	25116.269607	3581.968163	10216.648326
80.536500	0.277097	0.166133	0.290938	0.432594	5190.211636	25106.894118	3588.667280	10195.985912
81.039500	0.276650	0.165030	0.282494	0.430898	5196.800846	25137.191955	3577.608741	10224.549303
81.537000	0.274979	0.164434	0.288993	0.436676	5157.758781	24813.526508	3578.781859	10127.653194
82.037500	0.280382	0.165641	0.288042	0.432961	5205.645898	25063.036876	3583.297702	10189.813727
82.534500	0.278000	0.164087	0.285724	0.431296	5201.840854	25068.742025	3582.228796	10217.844784
83.035000	0.280143	0.166738	0.294209	0.432866	5204.877843	25123.883846	3593.634519	10191.400300
83.535500	0.278728	0.165049	0.286302	0.437335	5173.876263	24811.300882	3573.346095	10116.685646
84.035500	0.278648	0.166484	0.288670	0.433670	5192.717633	25069.892760	3583.165845	10177.910493
84.536000	0.282721	0.165599	0.290332	0.432575	5220.150984	25080.596816	3587.697542	10196.306180
85.036500	0.280804	0.165837	0.293132	0.432244	5211.698384	25109.666794	3592.879593	10201.875068
85.536500	0.281239	0.165435	0.291167	0.431164	5219.773405	25144.330465	3591.410896	10220.069665
86.036500	0.286458	0.166744	0.292516	0.433288	5236.354239	25102.612038	3590.127179	10184.314418
86.537500	0.285207	0.167355	0.290808	0.431878	5237.212414	25206.092054	3589.633936	10208.029411
87.037500	0.285953	0.166534	0.297138	0.431155	5245.129427	25201.099574	3601.392938	10220.219377
87.534500	0.282515	0.167517	0.293466	0.437227	5194.348359	24941.530949	3585.198705	10118.480077
88.035500	0.283051	0.167462	0.296277	0.431835	5225.871742	25213.785359	3598.806121	10208.749724
88.535500	0.287500	0.166987	0.291494	0.430310	5258.074837	25267.776207	3593.371252	10234.494531
89.035000	0.286112	0.167149	0.291744	0.431218	5245.643868	25229.397226	3592.278453	10219.157051
89.535500	0.281831	0.166706	0.289122	0.435898	5197.763570	24967.839091	3580.261297	10140.631991
90.036500	0.287726	0.168001	0.295522	0.431914	5250.604625	25237.416846	3597.411737	10207.420943
90.539500	0.288498	0.168330	0.300588	0.430231	5263.929392	25341.060485	3608.781174	10235.830621
91.037000	0.287268	0.167793	0.295559	0.429288	5262.365664	25361.990506	3601.877316	10251.783312
91.534500	0.285693	0.167472	0.294263	0.428884	5256.007192	25366.323802	3600.378272	10258.636399
92.035000	0.284195	0.167520	0.295573	0.429467	5244.746215	25338.658344	3601.598350	10248.749018
92.535000	0.287385	0.167967	0.294256	0.428391	5267.886861	25417.417626	3601.194962	10267.000713
93.035500	0.286910	0.168868	0.291156	0.428527	5264.558708	25457.086630	3595.776704	10264.686427
93.535500	0.285906	0.167472	0.300890	0.427653	5263.850388	25430.005430	3613.686203	10279.540842
94.036000	0.285837	0.166860	0.296624	0.427300	5265.397466	25416.614776	3607.029604	10285.553720
94.536500	0.286327	0.167544	0.292080	0.426854	5270.497110	25475.207207	3600.121012	10293.146940
95.036500	0.285276	0.168550	0.293607	0.427730	5260.008585	25481.977947	3601.214345	10278.237358
95.536500	0.283760	0.167611	0.292253	0.433524	5220.633507	25134.872798	3589.301624	10180.357583
96.034000	0.284860	0.168636	0.292778	0.429380	5248.813222	25400.879146	3597.060869	10250.231361
