sample name	sample
index	221
start time	 02-22-2021  10:28:40 AM
880	0.209260
Peak Time (s)	91.035
Peak Height 	0.2093
calc peak height	90,93
Baseline Time (s)	9.036
Baseline Value 	-0.003561
subtract baseline	10,4
Abs	0.147863
Peak Time (s)	90.035
Peak Height 	0.1479
calc peak height	90,93
Baseline Time (s)	9.536
Baseline Value 	0.002536
subtract baseline	10,3
PK_550	0.073520
Peak Time (s)	92.037
Peak Height 	0.07352
calc peak height	90,93
Baseline Time (s)	11.036
Baseline Value 	-1.3416E-4
subtract baseline	10,2
PK_880	0.141334
Peak Time (s)	92.037
Peak Height 	0.1413
calc peak height	90,93
Baseline Time (s)	11.536
Baseline Value 	5.1616E-4
subtract baseline	10,1


Time (s)	A880-A510	A880-A775	A880-A975	A880	I510	I775	I975	I880	
0.038500	-0.000020	0.000102	-0.002290	0.002418	6883.827539	47109.269657	3942.856376	24677.413400
0.536500	-0.002394	0.000061	0.000164	0.004972	6837.834841	46845.379107	3942.586275	24549.055662
1.036500	-0.003704	0.000450	-0.005397	0.004340	6831.546035	46948.970599	3929.432286	24580.726319
1.536000	-0.001945	0.000007	-0.002621	0.006583	6827.062119	46676.805527	3930.848463	24468.486206
2.037000	0.001896	0.000102	-0.000560	0.001338	6912.043619	47219.532131	3950.422379	24731.893538
2.540500	-0.000058	0.000156	-0.001513	0.000801	6898.673642	47280.018765	3949.298698	24759.050537
3.034500	0.002494	0.000693	0.003518	-0.000267	6932.908808	47444.519483	3965.876763	24813.113309
3.538000	-0.002120	-0.000409	-0.003179	0.003351	6855.455377	46962.175015	3937.974550	24630.428873
4.035500	0.001592	-0.000407	0.000038	0.001249	6910.009374	47176.488304	3952.279795	24736.369504
4.535500	-0.001765	0.000517	0.000429	0.001507	6876.004995	47244.715137	3952.642007	24723.375998
5.036000	-0.002158	-0.001087	-0.001968	-0.000072	6887.129950	47242.123296	3950.428231	24803.259526
5.536500	0.001471	-0.000318	-0.004434	0.000570	6915.279082	47255.072590	3942.059739	24770.709581
6.036500	0.002420	0.000294	0.000223	0.000968	6920.496219	47277.003546	3953.542030	24750.584229
6.536500	-0.000449	-0.000244	0.002543	0.000331	6899.422378	47287.138855	3961.579036	24782.844946
7.037000	-0.001254	-0.000960	-0.003951	-0.000391	6898.637475	47287.741550	3945.942667	24819.448289
7.537500	0.001464	0.000600	-0.002266	0.000624	6914.708216	47343.587398	3947.744793	24767.999436
8.035000	0.000327	-0.000081	-0.000428	0.000136	6908.574503	47323.766235	3954.031744	24792.691961
8.535000	-0.000587	0.000188	0.002624	0.000817	6893.537535	47281.568435	3960.473533	24758.212223
9.035500	0.000269	-0.000086	0.000919	0.000000	6909.313851	47337.268530	3958.057270	24799.602353
9.535500	-0.001530	-0.000287	0.000000	-0.000379	6895.924408	47355.494613	3956.591500	24818.833200
10.036000	0.000576	0.000787	-0.001434	0.000283	6909.539499	47397.691699	3950.911112	24785.256269
10.535500	-0.001677	-0.000830	-0.002030	-0.000503	6895.704293	47312.499712	3951.427043	24825.120293
11.036000	0.000156	0.000000	-0.004270	-0.000046	6908.679891	47350.795324	3944.154965	24801.951230
11.536000	0.000000	0.000409	0.002808	0.000914	6898.153420	47294.294796	3960.712236	24753.320992
12.037500	-0.000537	0.000346	-0.006728	0.004902	6855.750346	46881.266591	3924.419740	24552.534696
12.535000	-0.001170	0.000413	-0.003200	0.000509	6890.951842	47336.175913	3945.539434	24773.803975
13.035000	0.001531	-0.000206	-0.001584	-0.002314	6943.230728	47562.739303	3957.544489	24917.201638
13.535500	-0.000018	-0.000061	-0.000764	-0.000350	6909.907642	47375.655054	3954.438884	24817.344962
14.035000	-0.002673	-0.000291	-0.004684	0.005217	6832.977150	46784.883263	3928.998775	24536.788992
14.536000	-0.001943	-0.000334	0.000199	0.002987	6860.500030	47006.790521	3948.018734	24648.715938
15.036500	-0.001956	-0.000053	0.003133	0.000148	6886.957169	47325.448694	3963.688600	24792.088397
15.567500	0.000175	0.000265	0.001285	-0.000039	6908.793679	47377.277454	3959.161344	24801.586984
16.036500	-0.002135	-0.000449	-0.001634	0.004254	6846.908950	46866.396013	3939.690815	24585.033537
16.540500	0.001482	0.000568	-0.002494	0.000564	6915.446725	47346.428044	3947.291005	24771.024313
17.034500	0.002383	0.000249	0.000425	0.000373	6925.787667	47333.335964	3955.700964	24780.690423
17.537500	0.002649	0.001027	0.001350	-0.002115	6951.990204	47669.375091	3965.003130	24907.072344
18.034500	-0.001429	0.000613	0.000492	0.003540	6860.139546	47046.939851	3947.318495	24620.906250
18.536000	-0.000131	0.000748	-0.000906	0.002277	6884.107833	47189.517157	3946.953804	24684.484396
19.035500	-0.000568	-0.000115	-0.001621	0.002355	6879.279787	47093.572590	3944.823341	24680.592771
19.535000	-0.001303	0.000018	-0.001496	0.001842	6877.198653	47159.378202	3946.538849	24706.441084
20.036000	-0.001775	0.000189	-0.002070	0.002178	6869.624783	47142.542302	3944.090276	24689.473267
20.536500	-0.000089	0.000130	0.000334	0.001830	6888.693481	47172.027639	3951.507654	24707.033581
21.040000	0.000028	-0.000253	0.000514	0.001574	6892.208497	47159.154189	3952.689880	24719.975686
21.537000	-0.001588	-0.000467	-0.005155	0.001168	6880.846134	47178.768386	3938.528283	24740.492358
22.037500	0.000843	0.000456	-0.000465	0.001879	6897.001462	47200.306376	3949.217845	24704.556987
22.535000	-0.000664	0.000451	0.001950	0.002418	6877.791852	47144.834817	3954.295080	24677.418755
23.035000	-0.000413	0.000585	-0.000035	0.002276	6881.469767	47172.985379	3949.307029	24684.531108
23.535000	0.000709	-0.000056	-0.000814	0.001692	6897.512494	47167.198582	3948.781252	24714.038008
24.035000	-0.000655	-0.000012	0.000088	0.001411	6887.322495	47200.361528	3951.977918	24728.213628
24.536500	0.000311	0.000031	-0.001273	0.001780	6892.923980	47166.989401	3947.305877	24709.553770
25.036500	-0.000967	0.000066	-0.003308	0.001623	6882.397806	47186.666221	3942.255684	24717.496167
25.537000	0.000703	-0.000008	-0.000849	0.002175	6892.897843	47122.720919	3947.382960	24689.635131
26.037000	0.001142	-0.000134	-0.004184	0.001533	6903.090115	47175.496488	3940.151903	24722.057804
26.537500	0.001500	0.000680	0.002228	0.002240	6899.795362	47186.410293	3955.530478	24686.366386
27.035000	-0.001125	-0.000410	-0.004050	0.001590	6881.228605	47141.481381	3940.356334	24719.173795
27.535500	0.001511	0.000279	-0.004781	0.001150	6910.179438	47256.774385	3939.576017	24741.396036
28.035500	0.004297	0.000723	0.005128	-0.001681	6963.590370	47593.247291	3974.185454	24884.987390
28.536000	0.000738	0.000063	0.001632	0.000207	6911.794057	47331.349036	3959.436782	24789.132130
29.052500	0.000421	0.000100	-0.001235	-0.000116	6911.848505	47368.209603	3952.529464	24805.499361
29.536000	0.001161	0.000052	-0.001598	0.001080	6907.535937	47240.772994	3948.316704	24744.940287
30.036500	-0.003532	0.000178	-0.006700	0.005769	6819.915285	46776.462896	3922.208287	24509.176447
30.536500	0.000637	0.000249	0.004009	0.000137	6911.487675	47357.460264	3966.114864	24792.642148
31.055500	-0.000160	0.000384	0.006181	0.000119	6904.134363	47373.244710	3972.126446	24793.560963
31.537500	-0.000438	0.000554	-0.001886	0.003895	6866.085260	47004.780118	3939.980678	24603.101135
32.034500	-0.000228	0.000171	-0.002190	0.003065	6875.809535	47050.361531	3941.388058	24644.825282
32.592500	0.002360	0.000931	-0.001336	0.000642	6923.024153	47375.694404	3950.205915	24767.086731
33.035500	0.001651	-0.000266	0.002761	0.000375	6918.828387	47280.382379	3962.054549	24780.592150
33.536000	0.000509	0.000560	-0.002707	0.001922	6893.453688	47206.563941	3943.065472	24702.392596
34.036000	-0.000963	0.000535	-0.002570	0.005689	6844.459131	46820.649254	3933.361570	24513.141951
34.536500	0.001661	0.000860	0.001226	0.000292	6919.718876	47404.356731	3958.098514	24784.815500
35.040000	0.001055	0.000010	0.003570	-0.000901	6925.283750	47439.583785	3967.757780	24845.331736
35.536500	-0.000915	-0.000024	0.000547	0.002992	6870.061405	47037.901829	3948.946693	24648.484800
36.034500	-0.000480	-0.000039	-0.000130	0.002627	6877.550294	47073.589139	3948.104527	24666.875974
36.535000	-0.001369	0.000354	-0.000729	0.002913	6866.554986	47084.435177	3945.720575	24652.484139
37.035000	-0.000711	0.000148	0.002038	0.002999	6871.907255	47054.755618	3952.957571	24648.151777
37.535500	-0.002058	0.000389	0.000173	0.003120	6858.191420	47066.884611	3947.592727	24642.052868
38.035500	-0.001468	-0.000054	-0.000619	0.002699	6867.627841	47064.589624	3946.589939	24663.213148
38.536000	-0.002016	-0.000297	-0.005228	0.002431	6865.010873	47067.235554	3934.962571	24676.755960
39.036500	-0.002343	0.000350	-0.002846	0.002888	6857.695853	47086.498387	3940.103068	24653.703426
39.539500	-0.002277	-0.000329	0.001562	0.002624	6860.774395	47044.308332	3952.682736	24667.020272
40.036500	-0.001535	-0.000080	-0.006274	0.002993	6864.258185	47032.037595	3930.682419	24648.437156
40.536500	0.000677	0.001104	0.001190	0.003742	6877.942943	47076.311864	3948.656004	24610.761588
41.037500	-0.000883	-0.000462	-0.000256	0.002420	6875.718129	47051.599736	3948.322798	24677.315218
41.535000	-0.000057	0.000108	-0.000067	0.003255	6875.624945	47024.457579	3946.580093	24635.234494
42.035500	-0.000753	0.000672	-0.005393	0.003903	6863.055830	47015.932475	3930.603839	24602.677811
42.535500	-0.000828	0.000135	-0.002262	0.003171	6869.200413	47035.799122	3940.909911	24639.459526
43.036000	-0.000572	0.000436	-0.003586	0.003025	6872.958766	47081.397380	3937.756900	24646.822966
43.536500	-0.001973	0.000465	-0.002570	0.003185	6858.378085	47067.987079	3940.048896	24638.775827
44.039500	-0.001441	-0.000284	-0.000936	0.002662	6868.230921	47045.037647	3945.838988	24665.105280
44.536500	0.000495	0.000482	-0.002393	0.002582	6887.125059	47131.281601	3942.140283	24669.153829
45.037000	0.001288	-0.000396	-0.004279	-0.000202	6920.864213	47326.165905	3944.550985	24809.865627
45.537500	-0.000376	-0.000133	-0.004473	0.000479	6898.710550	47283.346182	3942.198965	24775.323497
46.037500	-0.001876	-0.000087	0.003011	0.003655	6854.899187	46964.021867	3953.816933	24615.153418
46.535500	0.001574	0.000097	0.005206	0.000315	6918.673047	47323.708301	3968.907918	24783.630445
47.035500	0.002472	0.000984	-0.000456	0.000841	6922.196809	47360.732638	3952.046738	24757.021393
47.535000	-0.001013	0.000442	0.001073	0.000795	6889.744151	47309.817234	3956.314944	24759.332877
48.035500	-0.003175	0.000003	0.000365	0.006548	6816.013845	46679.950661	3938.900789	24470.214938
48.563500	0.001654	0.000310	0.000443	0.000298	6919.593773	47347.287254	3955.956640	24784.506000
49.036000	-0.001466	0.000434	-0.001590	0.003421	6860.900732	47040.782300	3942.041562	24626.903602
49.537000	-0.001526	0.000010	0.001986	0.003006	6864.218065	47039.936456	3952.798292	24647.802027
50.040000	-0.002917	-0.000384	-0.002557	0.006278	6820.896784	46668.158840	3931.829235	24483.730194
50.537500	0.001299	0.000570	-0.000399	0.000208	6917.087233	47383.190723	3953.916636	24789.075008
51.035000	0.001168	0.000130	0.001530	0.000212	6915.805479	47337.623244	3959.145335	24788.869105
51.535500	0.001845	0.000710	0.003454	-0.000555	6929.488162	47475.997389	3966.491277	24827.763295
52.035500	-0.002378	-0.000081	-0.002715	0.007004	6819.173664	46625.480714	3929.482619	24447.491730
52.539000	0.001609	0.000203	-0.000695	0.000032	6921.681231	47363.589892	3953.589213	24797.967953
53.036000	0.007843	0.002920	0.000827	0.003531	6947.672597	47283.365884	3948.246231	24621.347171
53.536500	-0.008234	-0.013338	0.011100	0.125264	5821.968756	35178.841353	3683.142593	19284.568699
54.036500	-0.016062	-0.017995	0.003537	0.004363	6718.449693	45111.614614	3953.322572	24579.608704
54.537000	-0.004065	-0.028137	0.012421	-0.116809	8121.848550	57432.989030	4363.998807	31592.276558
55.037000	-0.016882	-0.021808	0.007868	-0.065510	7392.441355	52060.281177	4172.488046	28383.231510
55.537000	-0.016879	-0.019291	-0.002168	-0.101958	7793.878061	56682.943927	4259.987978	30623.978114
56.035000	-0.000446	-0.017488	0.001356	-0.126150	8282.824399	60005.632079	4357.709085	32218.465560
56.535000	0.013275	-0.007000	0.009750	-0.100938	8139.854620	58099.298725	4297.669746	30558.677948
57.035500	0.020990	-0.003939	0.015560	-0.086606	8059.224325	56683.000928	4268.122276	29657.211252
57.536000	0.028746	0.001152	0.020310	-0.073715	7997.504670	55724.090640	4240.432464	28871.409565
58.039000	0.034772	0.005537	0.031166	-0.053820	7834.372586	53867.946177	4210.290551	27703.508405
58.536500	0.041592	0.007893	0.033446	-0.025822	7595.124855	50940.797683	4127.881608	26148.003555
59.037000	0.049066	0.013202	0.043311	0.006502	7328.878172	48038.423903	4059.801580	24472.537130
59.537000	0.058493	0.019190	0.059999	0.037253	7112.240045	45531.962018	4018.930514	22990.287725
60.037500	0.070050	0.025986	0.067985	0.061374	6989.487266	43861.408678	3973.639691	21898.866231
60.535000	0.077248	0.032223	0.077580	0.084575	6838.194930	42288.974499	3936.732611	20904.748497
61.035000	0.083000	0.038237	0.089245	0.115755	6608.970692	40066.551686	3885.776204	19649.719157
61.534500	0.091859	0.044035	0.098232	0.121037	6640.418233	40110.838625	3895.275365	19445.915081
62.038000	0.101680	0.050894	0.107896	0.133288	6619.031883	39650.653263	3888.634085	18982.591355
62.538000	0.107706	0.055736	0.116594	0.143116	6585.808750	39230.125663	3885.745994	18620.242006
63.036500	0.112456	0.057813	0.113993	0.144956	6611.200890	39250.031660	3874.466344	18553.295404
63.536500	0.116355	0.061671	0.117342	0.142674	6665.731714	39768.851768	3888.789164	18636.378580
64.037000	0.115565	0.063616	0.123155	0.148600	6606.523985	39431.621843	3888.499904	18421.599318
64.534500	0.118613	0.063919	0.120466	0.151850	6604.764600	39184.049331	3873.404340	18305.054782
65.038000	0.117256	0.065334	0.129194	0.155801	6558.628272	38972.186817	3885.528791	18164.514028
65.563000	0.119490	0.065978	0.121157	0.156460	6572.259619	38970.957127	3863.555517	18141.209543
66.035000	0.122693	0.067689	0.127104	0.158117	6585.678510	38975.487683	3874.340047	18082.729584
66.535500	0.123755	0.068315	0.130205	0.160083	6577.831904	38864.138689	3877.213111	18013.680855
67.036000	0.122678	0.068752	0.131605	0.162988	6543.420251	38659.792910	3873.404719	17912.170707
67.536000	0.125915	0.069443	0.129616	0.162354	6576.868044	38769.394442	3869.992279	17934.273411
68.036500	0.126938	0.070488	0.135204	0.162603	6583.585420	38835.294409	3883.508324	17925.575117
68.535500	0.127970	0.071261	0.126704	0.163656	6583.403942	38812.110233	3859.437277	17888.934807
69.036500	0.125073	0.070772	0.128721	0.166358	6535.033858	38548.511794	3857.731169	17795.263734
69.535500	0.128330	0.071675	0.130518	0.164277	6581.140788	38794.921981	3867.425069	17867.358153
70.035000	0.130306	0.072668	0.131768	0.164891	6592.993826	38826.392032	3869.021113	17846.053338
70.535000	0.130030	0.072916	0.135142	0.166116	6579.932801	38745.410969	3874.440575	17803.649793
71.035500	0.126965	0.072791	0.133084	0.169894	6520.958922	38423.972521	3859.791003	17673.592796
71.536000	0.129954	0.072800	0.135186	0.167843	6564.301400	38593.262964	3870.195281	17744.056337
72.036000	0.128609	0.073864	0.133247	0.172670	6511.295518	38284.622216	3853.296609	17578.761903
72.536500	0.130283	0.072598	0.135153	0.169505	6552.787204	38440.004582	3865.935872	17686.926727
73.036500	0.132140	0.073852	0.138751	0.171705	6549.833024	38362.543912	3869.446206	17611.653533
73.542500	0.131872	0.073742	0.133665	0.173290	6533.893709	38223.994497	3852.793451	17557.634082
74.037000	0.129042	0.074202	0.133147	0.178675	6464.078232	37824.790488	3838.273102	17375.665895
74.537000	0.130513	0.074520	0.134957	0.176396	6495.784278	38034.711851	3848.312397	17452.399893
75.037000	0.129671	0.073783	0.131381	0.181987	6441.555883	37525.310572	3825.937388	17264.835117
75.535000	0.133483	0.073426	0.134303	0.178891	6499.825543	37744.903324	3840.574343	17368.418271
76.036000	0.131859	0.073392	0.137783	0.182909	6452.156121	37420.521983	3839.255010	17234.130225
76.538500	0.135823	0.074485	0.139369	0.181826	6494.758065	37594.323226	3845.802216	17270.196598
77.036500	0.131021	0.073196	0.134638	0.187030	6410.780297	37078.259387	3821.633343	17097.719933
77.536500	0.133886	0.072744	0.139627	0.183309	6465.836086	37337.079105	3842.792406	17220.827731
78.037000	0.131281	0.073204	0.139576	0.188963	6396.934468	36926.673648	3828.885814	17034.177042
78.539000	0.134026	0.072367	0.141565	0.184778	6454.663402	37190.656666	3843.944936	17172.093353
79.037000	0.131739	0.073383	0.140226	0.192298	6373.230071	36679.738036	3822.404124	16925.204042
79.534500	0.135917	0.073471	0.144233	0.188171	6442.070769	37009.961746	3842.165118	17060.158250
80.035500	0.132541	0.073650	0.142920	0.193817	6367.353727	36582.206207	3825.234447	16875.853613
80.535500	0.134690	0.073036	0.142350	0.189088	6424.180561	36903.696896	3835.322800	17030.084424
81.037500	0.132950	0.072846	0.139515	0.195635	6355.816112	36378.897416	3812.703838	16816.988144
81.536000	0.134609	0.071861	0.143205	0.190490	6411.839911	36702.006805	3833.988819	16984.160840
82.036000	0.134973	0.073546	0.142279	0.196835	6362.549249	36340.393209	3816.442204	16778.302889
82.537000	0.135465	0.072627	0.141941	0.192369	6403.364385	36615.232995	3826.367439	16922.884134
83.037000	0.138119	0.073558	0.141717	0.194102	6411.002388	36552.948215	3821.649800	16866.609596
83.537000	0.138425	0.073187	0.145488	0.194348	6411.492668	36505.013569	3830.162387	16858.619731
84.037500	0.135224	0.072550	0.145441	0.194561	6383.275501	36439.101132	3829.532105	16851.722483
84.535000	0.137205	0.072404	0.143487	0.195803	6389.366229	36331.851076	3821.815912	16811.570711
85.035500	0.138003	0.073246	0.143664	0.196571	6389.613716	36337.537183	3820.395157	16786.783067
85.538000	0.135608	0.072580	0.149202	0.196501	6370.491707	36291.636212	3833.955235	16789.061739
86.035500	0.137948	0.072648	0.148683	0.197690	6379.941963	36205.228176	3829.805735	16750.758510
86.536000	0.136974	0.074438	0.144423	0.199415	6357.813399	36210.307429	3815.399445	16695.441739
87.036500	0.139962	0.073253	0.146648	0.199546	6381.248371	36109.250136	3820.416416	16691.243209
87.536500	0.140456	0.074002	0.142164	0.200728	6375.586262	36076.029933	3806.893829	16653.450236
88.037000	0.139392	0.073719	0.146550	0.201204	6362.959191	36018.010736	3816.207494	16638.269595
88.537500	0.139240	0.072852	0.149659	0.201052	6362.957906	35963.385697	3824.038709	16643.119797
89.034500	0.134914	0.072847	0.137456	0.207641	6274.705814	35463.790043	3779.699826	16434.487995
89.535000	0.139353	0.072183	0.146002	0.201966	6356.405851	35842.756815	3813.077170	16613.993626
90.035000	0.138762	0.073216	0.147863	0.207342	6307.981862	35514.110112	3804.724756	16443.904012
90.536000	0.140932	0.073297	0.145841	0.204062	6352.185282	35768.171270	3807.707214	16547.418068
91.035500	0.134743	0.071765	0.144793	0.209260	6260.448857	35261.415664	3792.988598	16383.712315
91.536000	0.137755	0.072456	0.145977	0.204381	6323.765442	35680.247933	3807.271447	16537.319431
92.036500	0.141334	0.073520	0.147478	0.206081	6339.006319	35632.169035	3806.798637	16483.594799
92.536500	0.140000	0.072279	0.146148	0.205603	6332.056279	35574.517553	3804.782233	16498.683995
93.037000	0.138409	0.072280	0.144252	0.211709	6270.145907	35117.302550	3786.019293	16307.283754
93.537500	0.143074	0.073449	0.148778	0.207762	6339.492449	35500.061775	3805.898770	16430.705863
94.035000	0.136415	0.071696	0.147580	0.211608	6255.080579	35081.384360	3794.018067	16310.434369
94.535000	0.142170	0.071970	0.149262	0.207659	6332.983132	35396.696018	3807.290004	16433.948465
95.035000	0.138852	0.072686	0.145366	0.214362	6252.568604	34950.532645	3782.450947	16224.946880
95.535500	0.142449	0.072737	0.149016	0.208819	6325.840152	35367.180688	3803.960362	16397.551269
96.035500	0.140176	0.072342	0.145762	0.213246	6271.974366	35007.725701	3785.956256	16259.516590
96.558500	0.143458	0.072991	0.148619	0.210487	6320.505670	35261.388015	3799.087333	16345.370883
97.036500	0.142362	0.072433	0.146891	0.210733	6309.665752	35201.341038	3794.453076	16337.697736
97.536500	0.144011	0.072343	0.150231	0.211254	6318.776671	35155.859474	3801.078794	16321.461627
