sample name	sample
index	1408
start time	 05-10-2021  11:30:05 AM
880	0.373168
Peak Time (s)	92.037
Peak Height 	0.3732
calc peak height	90,93
Baseline Time (s)	10.54
Baseline Value 	-0.003575
subtract baseline	10,4
Abs	0.244575
Peak Time (s)	92.037
Peak Height 	0.2446
calc peak height	90,93
Baseline Time (s)	10.037
Baseline Value 	4.6314E-4
subtract baseline	10,3
PK_550	0.134817
Peak Time (s)	92.037
Peak Height 	0.1348
calc peak height	90,93
Baseline Time (s)	10.037
Baseline Value 	6.5552E-4
subtract baseline	10,2
PK_880	0.226017
Peak Time (s)	92.535
Peak Height 	0.226
calc peak height	90,93
Baseline Time (s)	9.537
Baseline Value 	8.2346E-4
subtract baseline	10,1


Time (s)	A880-A510	A880-A775	A880-A975	A880	I510	I775	I975	I880	
0.036000	-0.000137	-0.000965	-0.000436	0.002610	6476.387113	43908.220715	3905.206160	22518.962008
0.537000	-0.003218	-0.001124	-0.001702	0.005720	6425.067591	43600.989394	3894.277155	22378.667315
1.039500	0.000132	-0.001189	-0.002649	0.004428	6463.482317	43716.006217	3895.136295	22436.827486
1.537500	0.000497	-0.000527	-0.000231	0.002082	6486.102148	43999.445357	3907.047207	22542.880047
2.035000	-0.000163	-0.000339	-0.000347	0.001626	6484.402102	44060.381775	3907.903576	22563.577235
2.535000	-0.000581	0.000015	0.003021	0.002315	6475.148789	44028.578489	3914.661822	22532.313505
3.035000	0.001485	-0.000456	0.001516	-0.001412	6523.818090	44337.781192	3920.301724	22701.872678
3.535500	-0.000423	-0.000747	-0.001784	0.000424	6492.283788	44135.543063	3907.311009	22618.164009
4.036000	0.001596	-0.000115	-0.001846	0.001118	6503.416006	44129.686777	3905.411572	22586.627929
4.536500	0.000871	-0.000258	0.001702	0.000547	6502.122938	44170.347433	3915.801132	22612.582994
5.036500	0.001373	-0.000182	-0.000338	0.000308	6508.363324	44200.223117	3911.246593	22623.455552
5.539500	0.000365	-0.000726	0.001133	0.000136	6501.324942	44164.916010	3915.398055	22631.274830
6.037500	0.001262	-0.001474	0.003119	-0.000382	6513.237122	44143.082046	3921.760798	22654.886829
6.535000	0.000623	-0.001143	0.001478	-0.000085	6505.349409	44146.311482	3916.832770	22641.338846
7.035000	0.001330	-0.000150	0.002202	0.000720	6504.528487	44164.140497	3916.629166	22604.726543
7.536500	0.000438	-0.000281	-0.002198	0.000528	6498.648437	44170.003815	3906.009786	22613.457892
8.036000	-0.001232	-0.000200	0.002362	0.001097	6479.880834	44123.652914	3916.080030	22587.585184
8.536000	-0.000023	-0.000092	-0.001763	-0.000028	6499.435760	44240.674519	3908.499826	22638.739485
9.036000	0.000306	0.000213	0.005045	0.000350	6499.026411	44233.765021	3924.807944	22621.537972
9.536500	0.000000	-0.000351	-0.003503	-0.000248	6501.484185	44236.991015	3904.679936	22648.775166
10.037000	0.001158	0.000000	0.000000	0.000094	6508.351516	44237.891241	3912.639703	22633.204080
10.540000	0.002519	0.000273	-0.002004	0.000000	6520.629615	44272.793536	3907.824237	22637.480704
11.037000	-0.000374	-0.000200	0.001303	-0.000342	6499.135505	44260.410775	3917.043829	22653.078291
11.535000	-0.000234	0.001012	0.002667	0.000267	6495.192810	44317.782471	3918.959102	22625.332011
12.035000	-0.001073	-0.000496	-0.004880	0.002985	6465.464880	43917.057027	3893.177729	22501.994397
12.535500	0.000720	0.000457	0.000411	0.000077	6504.803840	44283.016169	3913.722587	22633.972671
13.035000	0.001661	0.000416	0.003320	-0.000929	6521.227309	44374.941487	3923.667137	22679.825233
13.535500	0.000792	0.000290	-0.002900	-0.000143	6507.269816	44288.095789	3905.931118	22644.013942
14.036000	-0.001629	-0.000159	0.001297	0.001959	6469.374966	44045.800506	3911.203317	22548.443611
14.536500	-0.001281	-0.000236	0.000049	0.001564	6475.571330	44075.956161	3909.053025	22566.361557
15.036500	-0.001338	-0.000811	-0.000409	-0.001126	6497.619851	44276.840910	3914.690517	22688.849453
15.537000	-0.001057	0.000103	0.004466	-0.000411	6493.977263	44295.721418	3925.272871	22656.210194
16.035000	-0.000460	-0.000544	-0.005364	0.001799	6480.475662	44024.624224	3894.923291	22555.731905
16.535500	-0.001650	-0.000595	0.005256	-0.001461	6497.812742	44329.243106	3929.986690	22704.139978
17.034500	0.001631	0.000429	0.001849	-0.003334	6541.356806	44606.310532	3926.053275	22789.898976
17.536000	0.000590	0.000033	0.002737	0.000244	6502.309702	44226.773089	3919.195240	22626.373883
18.035500	-0.000888	0.000025	0.001116	0.000928	6484.177294	44161.107206	3913.353386	22595.284139
18.536500	0.000389	-0.000316	0.000222	0.000738	6496.473575	44146.737095	3911.573792	22603.918214
19.036500	-0.000611	-0.000626	-0.000588	0.000038	6493.954189	44183.729335	3911.296633	22635.765085
19.537000	-0.000769	-0.000459	0.000509	0.000795	6486.286936	44127.771242	3912.155772	22601.320060
20.040000	-0.001305	-0.000089	0.003085	0.000669	6482.846774	44174.777793	3918.998401	22607.023256
20.534500	-0.000860	0.000266	0.001999	0.000853	6485.035420	44191.034947	3915.776190	22598.651365
21.035000	0.001077	-0.000371	0.000407	0.000414	6504.973558	44172.264048	3912.860143	22618.645448
21.535000	-0.000208	0.000236	0.001481	0.001165	6487.881940	44158.534501	3913.675404	22584.474186
22.035500	-0.002100	-0.000125	0.002739	0.000833	6474.833118	44155.750874	3917.704614	22599.564100
22.535500	-0.002150	-0.000294	0.000653	0.000634	6476.088290	44158.683952	3912.925279	22608.634735
23.036000	0.000053	0.000288	0.001033	0.001131	6490.352856	44166.708241	3912.628738	22586.023457
23.539000	0.000142	-0.000457	0.001353	0.000660	6495.048290	44140.700211	3914.628840	22607.436444
24.036500	0.000176	0.001007	0.001207	0.001816	6485.643935	44169.972229	3911.339169	22554.946589
24.537000	-0.000067	-0.000559	0.003471	0.000916	6491.148876	44106.751261	3919.353245	22595.817139
25.037000	-0.001028	-0.000162	0.001888	0.001312	6479.789873	44106.831352	3914.333933	22577.821763
25.535000	0.001036	0.000627	-0.000364	0.001413	6496.237156	44172.175516	3908.395906	22573.231370
26.035000	-0.000965	-0.000610	0.002315	0.002900	6467.076584	43914.385169	3911.400467	22505.859184
26.535500	-0.001278	0.000071	0.002564	0.001013	6480.206238	44157.377650	3916.803181	22591.407712
27.036000	0.002083	0.000460	0.005762	-0.000833	6523.980644	44369.999362	3929.672935	22675.450488
27.536000	0.001598	0.000683	0.001479	-0.001815	6528.188663	44485.108563	3921.234418	22720.305667
28.036500	-0.003523	-0.000845	-0.005031	0.004673	6431.178824	43725.267868	3888.623499	22425.781247
28.536000	-0.000006	-0.000378	-0.000878	-0.001070	6508.348403	44312.677399	3913.362475	22686.258127
29.036500	0.001441	0.000986	-0.002285	0.000024	6511.329659	44338.408534	3907.056675	22636.391455
29.540500	0.000323	0.000386	0.001899	-0.000622	6507.350648	44342.827139	3919.268949	22665.846946
30.037500	-0.000718	-0.000117	-0.001147	0.004428	6456.421305	43816.788338	3898.876089	22436.835428
30.535000	-0.000793	0.000014	0.003759	0.002012	6475.908987	44057.266268	3917.301450	22546.072203
31.034500	-0.002760	0.000009	0.000766	0.001387	6464.720641	44115.982058	3911.307374	22574.403037
31.535500	0.002877	0.000070	-0.000320	-0.000370	6526.787884	44288.745268	3913.004928	22654.350973
32.036000	-0.003508	-0.000549	-0.003835	0.003889	6437.781819	43826.903157	3893.528752	22461.172521
32.536000	0.002124	0.000740	-0.000532	0.000171	6515.847865	44301.039259	3911.101515	22629.709612
33.036000	0.000356	0.000088	0.001443	-0.001049	6511.226840	44355.140576	3919.194948	22685.322258
33.536500	-0.000321	-0.000272	0.002044	0.000657	6491.187217	44158.558158	3916.386418	22607.572165
34.039500	-0.002280	-0.000840	-0.000783	0.001902	6464.430317	43986.826168	3906.112706	22551.051090
34.537000	0.001386	0.000220	-0.001442	0.001399	6499.293513	44134.859599	3905.720749	22573.863514
35.037500	-0.001344	-0.000061	0.000199	0.001032	6479.487542	44143.017482	3910.773111	22590.529385
35.538000	-0.000707	0.000174	0.002975	0.001320	6482.415833	44138.018466	3917.070045	22577.473493
36.035000	0.000402	0.000510	-0.000883	0.003221	6475.789369	43989.827747	3902.553002	22491.338846
36.535500	-0.000852	-0.000351	0.000135	0.000806	6485.503318	44136.948042	3911.184761	22600.825867
37.035500	0.000957	0.000318	-0.000740	0.001049	6498.628574	44177.368571	3908.363527	22589.754027
37.536000	-0.002505	0.000422	0.000551	0.001456	6466.264803	44148.567632	3910.591815	22571.264038
38.036500	-0.001013	-0.000377	0.004640	0.001200	6480.853686	44097.098622	3921.605874	22582.921363
38.537000	-0.001597	-0.000177	-0.001741	0.000865	6478.778679	44147.884479	3906.311750	22598.143004
39.037500	-0.001600	0.000005	0.000642	0.000856	6478.818404	44165.942360	3912.334520	22598.523763
39.534500	0.000736	-0.000672	0.002679	0.000908	6497.952222	44096.790746	3917.361113	22596.149589
40.035000	-0.000744	-0.000042	-0.002333	0.000545	6488.583391	44190.991166	3905.626383	22612.671254
40.535000	0.000854	-0.000205	0.003520	0.000951	6498.582328	44136.947913	3919.388637	22594.197059
41.035500	0.001199	0.000136	0.001189	0.000786	6502.870784	44185.047868	3913.895551	22601.718928
41.535500	-0.001160	-0.000820	0.000397	0.000264	6487.459645	44143.882662	3913.214471	22625.482808
42.036000	-0.001025	0.000709	0.002595	0.001177	6480.943610	44202.307275	3916.465601	22583.950840
42.536500	-0.001554	-0.000338	0.002478	0.000801	6479.669712	44138.660346	3917.124441	22601.033091
43.036500	-0.001366	0.000327	-0.000316	0.001642	6474.218032	44121.923214	3907.939191	22562.846031
43.539500	0.002673	-0.000471	0.002231	-0.003760	6553.854921	44560.830030	3928.124900	22809.485645
44.037500	-0.004474	-0.001068	-0.004889	0.004784	6422.441779	43694.038475	3888.700806	22420.819689
44.537500	0.001505	0.000458	0.004925	-0.000334	6514.887562	44322.185511	3926.249288	22652.696295
45.037500	0.001102	0.000264	0.000603	-0.000407	6512.103050	44310.690379	3915.431776	22656.021529
45.535500	0.001108	-0.000234	0.003521	-0.000959	6516.808958	44315.874553	3924.259032	22681.219322
46.035500	-0.003301	0.000385	0.000005	0.006302	6419.598076	43687.870780	3897.077491	22352.537655
46.536000	0.001656	-0.000277	0.000786	-0.000913	6521.045535	44307.287266	3917.177408	22679.084741
47.036000	-0.001297	0.000213	0.002805	0.001564	6475.444548	44118.517153	3916.017888	22566.390495
47.536500	-0.001058	0.000187	0.002146	0.001896	6474.666266	44084.565549	3913.510341	22551.323319
48.036000	-0.003016	0.000264	0.002243	0.005273	6430.416056	43773.139507	3905.244857	22398.779942
48.537000	0.001620	0.000595	0.003945	0.000052	6512.600296	44298.491878	3922.760057	22635.103643
49.037500	0.000160	0.000182	0.001450	-0.000318	6503.417983	44294.316622	3917.353522	22651.947471
49.535000	0.003563	0.001475	0.007900	-0.001971	6546.194931	44575.891588	3938.109713	22727.461999
50.035000	-0.004591	-0.001162	-0.000551	0.004933	6420.245919	43671.120098	3899.103741	22414.088216
50.535500	0.006467	-0.005413	0.009145	0.051341	6141.189304	39186.681839	3811.250927	20432.178373
51.035500	-0.001541	-0.020186	0.009576	0.109882	5673.661876	33556.402414	3686.515510	18216.024303
51.535000	-0.011494	-0.048269	-0.026629	-0.197906	8455.539252	61238.630536	4443.533034	34055.375105
52.036500	-0.022574	-0.101112	-0.033770	-0.281541	9474.727018	65522.186480	4757.132801	40680.671467
52.536000	-0.008360	-0.062110	-0.013420	-0.229311	8919.518412	63644.768928	4619.694208	36394.911844
53.039500	0.001615	-0.035336	-0.002161	-0.171931	8291.926276	59513.946345	4437.893734	32244.198155
53.537000	-0.005024	-0.024289	0.000547	-0.117588	7579.051347	54145.940563	4255.998360	28787.890103
54.037500	-0.013345	-0.023187	-0.003116	-0.124511	7563.855383	55100.984332	4266.852761	29204.546262
54.535000	-0.002898	-0.030473	0.004547	-0.170235	8214.676853	59928.123728	4456.729384	32129.689537
55.035000	0.011655	-0.019983	0.025155	-0.133009	7941.805880	56525.551854	4395.102575	29725.147842
55.535500	0.023771	-0.006544	0.039660	-0.057392	7249.230809	49377.554000	4187.726140	25431.848930
56.035500	0.031333	0.002978	0.051073	0.019825	6597.382680	42675.184555	3994.761641	21754.894325
56.535500	0.049865	0.012391	0.071458	0.087073	6199.787975	37720.799201	3874.111792	19044.135806
57.036500	0.060837	0.020570	0.077021	0.089978	6262.587205	38145.758352	3880.614294	18936.233167
57.542500	0.080446	0.032551	0.097250	0.116323	6210.069331	37000.396870	3865.716929	17989.933134
58.036500	0.090563	0.039341	0.095987	0.103862	6389.353828	38544.173665	3893.152786	18430.378738
58.539500	0.112574	0.051978	0.123250	0.146259	6227.074040	36186.144732	3856.239183	16982.035554
59.037000	0.124966	0.062267	0.135557	0.177266	6085.400541	34637.366046	3812.368066	16008.823945
59.535000	0.134565	0.068288	0.147753	0.217341	5866.168817	32246.831428	3750.371142	14849.649506
60.035000	0.145756	0.074383	0.158499	0.234295	5826.415715	31523.179226	3737.100101	14390.560649
60.541000	0.155503	0.080328	0.164386	0.256593	5741.634121	30466.882386	3702.914553	13813.391672
61.035500	0.163086	0.085622	0.177884	0.274977	5670.617130	29649.610322	3692.986683	13359.346012
61.541500	0.170961	0.091956	0.190736	0.304098	5535.971143	28284.307399	3660.713034	12678.288803
62.036500	0.169270	0.097772	0.185315	0.300532	5547.589788	28837.762596	3657.110209	12759.257822
62.542000	0.176654	0.103643	0.187718	0.298743	5605.166593	29298.646418	3665.275905	12800.137996
63.051500	0.179877	0.104399	0.194072	0.293238	5661.085251	29681.324985	3688.803754	12926.941109
63.542000	0.183466	0.107735	0.197632	0.293072	5685.498017	29897.875711	3696.333315	12930.807882
64.037500	0.188811	0.112214	0.194458	0.298896	5682.364928	29814.453102	3678.263557	12796.615466
64.538000	0.189278	0.111949	0.197400	0.296566	5700.664682	29942.563800	3688.804581	12850.083870
65.035500	0.189927	0.113705	0.201097	0.298103	5694.845602	29956.206464	3693.160542	12814.785668
65.535500	0.193714	0.117088	0.204764	0.302378	5691.647837	29900.754882	3691.933183	12717.261624
66.036000	0.193621	0.116535	0.206762	0.306061	5667.052162	29639.043944	3688.537871	12634.009998
66.541500	0.195535	0.118925	0.208895	0.306229	5678.399702	29776.042682	3692.498776	12630.227331
67.039500	0.202417	0.121488	0.211927	0.309351	5702.987720	29741.469118	3692.315157	12560.222759
67.542000	0.202365	0.123176	0.209686	0.311751	5686.932146	29697.599186	3682.994503	12506.764880
68.037500	0.201126	0.123670	0.207680	0.318264	5636.746648	29329.274598	3666.137609	12363.145465
68.535000	0.206647	0.124659	0.211107	0.315591	5689.817798	29552.769337	3678.173391	12421.829341
69.035000	0.207563	0.126456	0.221781	0.318534	5676.600148	29482.615251	3693.672944	12357.245120
69.535000	0.210796	0.126857	0.219542	0.321199	5680.296295	29344.600874	3683.807509	12299.124145
70.035500	0.210390	0.127373	0.213652	0.328105	5633.049957	28958.931258	3658.591815	12150.188397
70.541000	0.212772	0.128535	0.218464	0.326884	5656.229537	29102.141179	3670.388309	12176.359866
71.036500	0.213572	0.130014	0.225476	0.331480	5631.818105	28915.048783	3675.159225	12078.274279
71.542000	0.215711	0.130442	0.225674	0.334293	5627.501684	28772.780268	3669.997694	12018.745651
72.036500	0.211687	0.130075	0.220956	0.340819	5560.847459	28366.029367	3648.152146	11882.118053
72.542000	0.216823	0.132007	0.223103	0.340089	5597.704336	28522.344552	3653.687010	11897.295746
73.037500	0.212708	0.132113	0.230856	0.341803	5561.084718	28427.781067	3665.428126	11861.701578
73.540500	0.218145	0.131469	0.224055	0.343358	5585.423124	28299.087376	3649.227370	11829.528603
74.035500	0.214369	0.131096	0.224544	0.349060	5526.376763	27946.810504	3639.276658	11712.504164
74.535500	0.217669	0.132030	0.229532	0.347429	5556.934013	28094.933547	3651.930861	11745.814306
75.036000	0.219109	0.132594	0.231861	0.348909	5556.687465	28041.958648	3653.568528	11715.584902
75.541500	0.219842	0.132981	0.236666	0.350010	5554.397630	28000.718643	3660.748270	11693.163854
76.036000	0.220021	0.133670	0.230578	0.352594	5539.456613	27891.599249	3644.032099	11640.742432
76.545000	0.220987	0.132659	0.235146	0.352156	5548.164556	27858.717775	3653.642237	11649.608578
77.036500	0.223008	0.134570	0.234896	0.353756	5550.782809	27876.539705	3650.077868	11617.279062
77.542500	0.221165	0.134584	0.233512	0.354153	5536.889449	27854.538509	3646.660539	11609.269943
78.037000	0.220142	0.134465	0.233902	0.354879	5526.094591	27806.148788	3646.018671	11594.662491
78.535000	0.220570	0.136071	0.236632	0.355877	5522.585504	27841.020889	3649.339087	11574.616609
79.035500	0.222074	0.135360	0.238778	0.354922	5537.755777	27854.960918	3655.314227	11593.789311
79.535500	0.222703	0.135098	0.234198	0.355583	5537.559180	27802.055985	3645.236925	11580.505162
80.036000	0.220870	0.138212	0.234142	0.358975	5505.424911	27786.172717	3638.674400	11512.655479
80.541000	0.220900	0.137112	0.236423	0.356554	5520.452591	27861.884241	3647.638918	11561.034967
81.037000	0.222694	0.137129	0.240633	0.357518	5525.559992	27807.538971	3653.882575	11541.735656
81.542000	0.225452	0.138352	0.244721	0.358806	5534.629358	27803.848601	3659.306703	11516.024843
82.037500	0.221297	0.135620	0.230565	0.358178	5512.919531	27683.678951	3633.421273	11528.558236
82.540000	0.223229	0.138336	0.231700	0.360028	5513.419594	27733.059847	3632.073625	11491.686154
83.035000	0.221801	0.136114	0.237957	0.358730	5512.623031	27680.336904	3646.408546	11517.530618
83.535000	0.222034	0.136978	0.240298	0.359656	5508.378499	27676.792304	3649.119250	11499.083491
84.035500	0.223037	0.136611	0.232622	0.362390	5497.802521	27500.843842	3629.370357	11444.864575
84.538000	0.225133	0.136361	0.233708	0.360762	5520.602743	27578.898236	3634.474859	11477.108389
85.036000	0.222932	0.136663	0.235279	0.361165	5504.643912	27573.135938	3636.680976	11469.118043
85.542000	0.223388	0.136713	0.239110	0.362214	5501.020049	27516.545194	3641.959045	11448.341172
86.038500	0.224046	0.135734	0.236893	0.363155	5499.291247	27408.126220	3635.969840	11429.751167
86.539500	0.224232	0.136621	0.236207	0.363964	5495.496481	27412.548982	3633.150948	11413.811858
87.037000	0.223825	0.135954	0.238068	0.363867	5493.610066	27380.464278	3636.846951	11415.722549
87.534000	0.222896	0.135034	0.234627	0.363607	5489.536537	27343.348771	3630.848366	11420.833492
88.035000	0.225278	0.135227	0.234497	0.364978	5495.690952	27277.229113	3628.035773	11393.857757
88.535000	0.227512	0.135593	0.242180	0.366290	5501.317439	27224.286423	3640.047972	11368.113102
89.035500	0.227399	0.135395	0.243615	0.367996	5490.231763	27118.014505	3639.531955	11334.738041
89.541000	0.225876	0.136034	0.238192	0.368843	5475.868133	27106.502032	3627.717731	11318.235539
90.037000	0.224022	0.133992	0.239009	0.368577	5466.289662	27007.853874	3629.746547	11323.419062
90.537000	0.225534	0.134676	0.234438	0.369889	5467.488707	26973.059026	3618.786953	11297.868968
91.037000	0.223232	0.132706	0.237787	0.369134	5458.181884	26905.920928	3626.417490	11312.560198
91.539500	0.225249	0.134043	0.242560	0.370875	5459.837660	26883.652360	3632.099170	11278.735974
92.037000	0.224258	0.134817	0.244575	0.373168	5440.184707	26800.046882	3631.576319	11234.400559
92.535000	0.226017	0.133396	0.237890	0.372147	5456.818556	26778.102670	3620.999834	11254.118321
93.048000	0.225181	0.133155	0.241811	0.373492	5443.754023	26691.170197	3625.792612	11228.143788
93.535000	0.225644	0.132509	0.240043	0.373761	5444.913688	26641.188014	3622.000522	11222.965619
94.035500	0.222235	0.132062	0.242183	0.374584	5419.760142	26572.003679	3624.451126	11207.135687
94.541500	0.228158	0.133389	0.245170	0.376383	5444.273404	26546.302774	3626.667313	11172.617142
95.035500	0.227925	0.134335	0.246117	0.378335	5431.256303	26491.691451	3624.792527	11135.336898
95.541500	0.225441	0.131863	0.245478	0.376982	5424.538977	26431.094952	3626.124098	11161.158380
96.036500	0.225375	0.131869	0.243538	0.378652	5414.269875	26341.228175	3619.411227	11129.284227
