sample name	sample
index	1502
start time	 05-18-2021  02:33:46 PM


Wavelength (nm)	Absorbance
494.344910	0.341514
494.563924	0.341514
494.782919	0.341514
495.001897	0.018808
495.220856	0.096714
495.439797	0.122492
495.658719	0.054056
495.877624	0.029670
496.096510	0.053936
496.315378	-0.003687
496.534227	0.016936
496.753059	0.053265
496.971872	0.034061
497.190667	0.042838
497.409444	0.047748
497.628203	0.054396
497.846943	0.056411
498.065665	0.054435
498.284369	0.055911
498.503055	0.055613
498.721723	0.055358
498.940372	0.055371
499.159003	0.057354
499.377616	0.056270
499.596210	0.055881
499.814787	0.055752
500.033345	0.056345
500.251885	0.055354
500.470406	0.054683
500.688910	0.053986
500.907395	0.054022
501.125862	0.054013
501.344311	0.054967
501.562742	0.054501
501.781154	0.053934
501.999548	0.054077
502.217924	0.055199
502.436282	0.055088
502.654621	0.055408
502.872942	0.054772
503.091245	0.053546
503.309530	0.053777
503.527797	0.053428
503.746045	0.052950
503.964275	0.052474
504.182487	0.051997
504.400681	0.052636
504.618856	0.053348
504.837013	0.053526
505.055152	0.053530
505.273273	0.053211
505.491376	0.053954
505.709460	0.053587
505.927526	0.053754
506.145574	0.053948
506.363604	0.054001
506.581615	0.054319
506.799608	0.054641
507.017583	0.055002
507.235540	0.054474
507.453478	0.053771
507.671399	0.054280
507.889301	0.054848
508.107185	0.054608
508.325050	0.054474
508.542898	0.053801
508.760727	0.054269
508.978538	0.053704
509.196330	0.053988
509.414105	0.054617
509.631861	0.055171
509.849599	0.054068
510.067319	0.053951
510.285021	0.053400
510.502704	0.053652
510.720369	0.052340
510.938016	0.052975
511.155645	0.053658
511.373255	0.053327
511.590848	0.052575
511.808422	0.053550
512.025977	0.054285
512.243515	0.055090
512.461034	0.054933
512.678536	0.056064
512.896018	0.056216
513.113483	0.055767
513.330930	0.056000
513.548358	0.056271
513.765768	0.055961
513.983160	0.055895
514.200533	0.056561
514.417889	0.056387
514.635226	0.055764
514.852545	0.055177
515.069845	0.054944
515.287128	0.054810
515.504392	0.055323
515.721638	0.056001
515.938866	0.055743
516.156075	0.054731
516.373267	0.054929
516.590440	0.055421
516.807594	0.055670
517.024731	0.055953
517.241850	0.055687
517.458950	0.056321
517.676032	0.055629
517.893095	0.055224
518.110141	0.055497
518.327168	0.055376
518.544177	0.055570
518.761168	0.056005
518.978141	0.056456
519.195095	0.057035
519.412031	0.056307
519.628949	0.056567
519.845849	0.057277
520.062731	0.057814
520.279594	0.058493
520.496439	0.058624
520.713266	0.058413
520.930074	0.058356
521.146865	0.058593
521.363637	0.059090
521.580391	0.059152
521.797127	0.058598
522.013844	0.058602
522.230543	0.058234
522.447224	0.058642
522.663887	0.058801
522.880532	0.059360
523.097158	0.059001
523.313766	0.058682
523.530356	0.059020
523.746928	0.059108
523.963481	0.058892
524.180017	0.059743
524.396534	0.059382
524.613032	0.059691
524.829513	0.059714
525.045975	0.060701
525.262420	0.061284
525.478845	0.061598
525.695253	0.062227
525.911643	0.062577
526.128014	0.062569
526.344367	0.062620
526.560702	0.063171
526.777018	0.063113
526.993316	0.063036
527.209597	0.063027
527.425858	0.062932
527.642102	0.063452
527.858328	0.064154
528.074535	0.063895
528.290724	0.064606
528.506894	0.064693
528.723047	0.064782
528.939181	0.065026
529.155297	0.065590
529.371395	0.066157
529.587475	0.066324
529.803536	0.065566
530.019579	0.066293
530.235604	0.066297
530.451611	0.066244
530.667600	0.066901
530.883570	0.066887
531.099522	0.066918
531.315456	0.067529
531.531372	0.067484
531.747269	0.068720
531.963148	0.068849
532.179009	0.068948
532.394852	0.068990
532.610676	0.069022
532.826482	0.069630
533.042271	0.070026
533.258040	0.069611
533.473792	0.069722
533.689525	0.069909
533.905240	0.070558
534.120937	0.070965
534.336616	0.071513
534.552277	0.071975
534.767919	0.072199
534.983543	0.071818
535.199149	0.072234
535.414736	0.072659
535.630306	0.072786
535.845857	0.072489
536.061390	0.072975
536.276904	0.073236
536.492401	0.073481
536.707879	0.073685
536.923339	0.074227
537.138781	0.074227
537.354204	0.074058
537.569610	0.073547
537.784997	0.073856
538.000366	0.073566
538.215716	0.073588
538.431049	0.073584
538.646363	0.073166
538.861659	0.073067
539.076937	0.073279
539.292196	0.073562
539.507438	0.073868
539.722661	0.073898
539.937866	0.074223
540.153052	0.074461
540.368221	0.074586
540.583371	0.075105
540.798503	0.075386
541.013617	0.075681
541.228712	0.075960
541.443789	0.076699
541.658848	0.076913
541.873889	0.077092
542.088912	0.077252
542.303916	0.076748
542.518902	0.076865
542.733870	0.076824
542.948820	0.076611
543.163752	0.076561
543.378665	0.076246
543.593560	0.076311
543.808437	0.076347
544.023295	0.076566
544.238136	0.077243
544.452958	0.077277
544.667762	0.077677
544.882548	0.078256
545.097315	0.078727
545.312064	0.078685
545.526795	0.078699
545.741508	0.078859
545.956203	0.079002
546.170879	0.078932
546.385537	0.078884
546.600177	0.079272
546.814799	0.078963
547.029402	0.078929
547.243988	0.079353
547.458555	0.079422
547.673103	0.079660
547.887634	0.079796
548.102146	0.080137
548.316640	0.080575
548.531116	0.080528
548.745574	0.080805
548.960013	0.080609
549.174435	0.080516
549.388838	0.081227
549.603222	0.081395
549.817589	0.081367
550.031937	0.081405
550.246267	0.081177
550.460579	0.081146
550.674873	0.081603
550.889148	0.082103
551.103405	0.082110
551.317644	0.081593
551.531865	0.081543
551.746068	0.081702
551.960252	0.081712
552.174418	0.082123
552.388566	0.082131
552.602696	0.081953
552.816807	0.081948
553.030900	0.082157
553.244975	0.082406
553.459032	0.082393
553.673070	0.082385
553.887091	0.082761
554.101093	0.083041
554.315077	0.083514
554.529042	0.083237
554.742990	0.083213
554.956919	0.083238
555.170830	0.083326
555.384722	0.083508
555.598597	0.083480
555.812453	0.083045
556.026291	0.082860
556.240111	0.082546
556.453913	0.083021
556.667696	0.083306
556.881461	0.083611
557.095208	0.083627
557.308937	0.084009
557.522647	0.084279
557.736339	0.084965
557.950013	0.084975
558.163669	0.085025
558.377307	0.084776
558.590926	0.085086
558.804527	0.085070
559.018110	0.085289
559.231675	0.085195
559.445221	0.085498
559.658749	0.085676
559.872259	0.085855
560.085751	0.086011
560.299225	0.086660
560.512680	0.086959
560.726117	0.086898
560.939536	0.086995
561.152937	0.087061
561.366319	0.087129
561.579683	0.086860
561.793029	0.087101
562.006357	0.087497
562.219667	0.087142
562.432958	0.086543
562.646231	0.086991
562.859486	0.086817
563.072723	0.086848
563.285941	0.086538
563.499141	0.086562
563.712323	0.086500
563.925487	0.086423
564.138632	0.087017
564.351760	0.087411
564.564869	0.087478
564.777960	0.087768
564.991032	0.088142
565.204087	0.088719
565.417123	0.088869
565.630141	0.088811
565.843140	0.088688
566.056122	0.088259
566.269085	0.088369
566.482030	0.088329
566.694957	0.088533
566.907866	0.088302
567.120756	0.088111
567.333628	0.087765
567.546482	0.087924
567.759318	0.088032
567.972135	0.088338
568.184935	0.088237
568.397716	0.088388
568.610478	0.088467
568.823223	0.088447
569.035949	0.088662
569.248657	0.089174
569.461347	0.089526
569.674019	0.089626
569.886672	0.089685
570.099308	0.090280
570.311925	0.090212
570.524523	0.090034
570.737104	0.090014
570.949666	0.089907
571.162210	0.089900
571.374736	0.089509
571.587244	0.089781
571.799733	0.089649
572.012205	0.089338
572.224658	0.089351
572.437092	0.089462
572.649509	0.089760
572.861907	0.089572
573.074287	0.089588
573.286649	0.089722
573.498993	0.089537
573.711318	0.089787
573.923625	0.089708
574.135914	0.089645
574.348185	0.089797
574.560438	0.089838
574.772672	0.090208
574.984888	0.090482
575.197086	0.090611
575.409266	0.091079
575.621427	0.090943
575.833570	0.091078
576.045695	0.091263
576.257802	0.091242
576.469890	0.091365
576.681961	0.091497
576.894013	0.091507
577.106046	0.091988
577.318062	0.092119
577.530059	0.092621
577.742039	0.092798
577.954000	0.093196
578.165942	0.093192
578.377867	0.093399
578.589773	0.093577
578.801661	0.093877
579.013531	0.093975
579.225382	0.093782
579.437216	0.093779
579.649031	0.093927
579.860828	0.094114
580.072606	0.094642
580.284367	0.094790
580.496109	0.094509
580.707833	0.094332
580.919539	0.094232
581.131227	0.094560
581.342896	0.094523
581.554547	0.094649
581.766180	0.094508
581.977795	0.094291
582.189391	0.094121
582.400969	0.094463
582.612529	0.094498
582.824071	0.094749
583.035595	0.094712
583.247100	0.094894
583.458587	0.094780
583.670056	0.094701
583.881506	0.094670
584.092939	0.094612
584.304353	0.094636
584.515749	0.094979
584.727127	0.094822
584.938486	0.094669
585.149828	0.095068
585.361151	0.094998
585.572456	0.095040
585.783742	0.095709
585.995011	0.096017
586.206261	0.095871
586.417493	0.095919
586.628706	0.096060
586.839902	0.096384
587.051079	0.096286
587.262238	0.096375
587.473379	0.096764
587.684502	0.096560
587.895606	0.096469
588.106692	0.096795
588.317760	0.096671
588.528810	0.096946
588.739841	0.097144
588.950855	0.097154
589.161850	0.097466
589.372827	0.097755
589.583785	0.097788
589.794726	0.097912
590.005648	0.098165
590.216552	0.098451
590.427437	0.098406
590.638305	0.098469
590.849154	0.098603
591.059985	0.098721
591.270798	0.098644
591.481592	0.098794
591.692369	0.099094
591.903127	0.099331
592.113867	0.099324
592.324588	0.099099
592.535292	0.099342
592.745977	0.099370
592.956644	0.099668
593.167293	0.099781
593.377923	0.100097
593.588536	0.100057
593.799130	0.100070
594.009706	0.100115
594.220263	0.100529
594.430803	0.100318
594.641324	0.100307
594.851827	0.100340
595.062312	0.100558
595.272778	0.100382
595.483227	0.100606
595.693657	0.100490
595.904069	0.100762
596.114462	0.100865
596.324838	0.101315
596.535195	0.101564
596.745534	0.101622
596.955855	0.101705
597.166157	0.102105
597.376441	0.102538
597.586707	0.103013
597.796955	0.103246
598.007185	0.103510
598.217396	0.103679
598.427589	0.103823
598.637764	0.104134
598.847921	0.104142
599.058060	0.104069
599.268180	0.103920
599.478282	0.103670
599.688366	0.103781
599.898431	0.103799
600.108479	0.103830
600.318508	0.103873
600.528519	0.103890
600.738511	0.103994
600.948486	0.104207
601.158442	0.104130
601.368380	0.104572
601.578300	0.104559
601.788202	0.104755
601.998085	0.104834
602.207950	0.105109
602.417797	0.105275
602.627626	0.105585
602.837436	0.105666
603.047228	0.105963
603.257002	0.105844
603.466758	0.106230
603.676496	0.106337
603.886215	0.106052
604.095916	0.106024
604.305599	0.105782
604.515264	0.105647
604.724910	0.105708
604.934538	0.105924
605.144148	0.106078
605.353740	0.105905
605.563314	0.105968
605.772869	0.106183
605.982406	0.106386
606.191925	0.106782
606.401425	0.106987
606.610908	0.107417
606.820372	0.107457
607.029818	0.107434
607.239246	0.107584
607.448655	0.107690
607.658047	0.108083
607.867420	0.108220
608.076775	0.108353
608.286111	0.108566
608.495430	0.108486
608.704730	0.108442
608.914012	0.108733
609.123275	0.108679
609.332521	0.108796
609.541748	0.108904
609.750957	0.108838
609.960148	0.108671
610.169321	0.108830
610.378475	0.108778
610.587611	0.109018
610.796729	0.109076
611.005829	0.109154
611.214910	0.109010
611.423974	0.108967
611.633019	0.109211
611.842045	0.109363
612.051054	0.109345
612.260044	0.109540
612.469017	0.109936
612.677970	0.110052
612.886906	0.110190
613.095824	0.110305
613.304723	0.110320
613.513604	0.110018
613.722467	0.110180
613.931311	0.110180
614.140138	0.109950
614.348946	0.109644
614.557736	0.109704
614.766507	0.110136
614.975261	0.110484
615.183996	0.110800
615.392713	0.111368
615.601412	0.111430
615.810092	0.111504
616.018754	0.111788
616.227399	0.111942
616.436024	0.111921
616.644632	0.111583
616.853222	0.111480
617.061793	0.111403
617.270346	0.111459
617.478880	0.111669
617.687397	0.111872
617.895895	0.112275
618.104375	0.112407
618.312837	0.112769
618.521281	0.113169
618.729706	0.113450
618.938113	0.113720
619.146502	0.113664
619.354873	0.113778
619.563226	0.113997
619.771560	0.113862
619.979876	0.113966
620.188174	0.113993
620.396453	0.114333
620.604715	0.114390
620.812958	0.114407
621.021183	0.114666
621.229390	0.114849
621.437578	0.114848
621.645748	0.115175
621.853900	0.115395
622.062034	0.115543
622.270150	0.115524
622.478247	0.115899
622.686326	0.116186
622.894387	0.116327
623.102430	0.116362
623.310454	0.116432
623.518461	0.116284
623.726449	0.116527
623.934418	0.116548
624.142370	0.116491
624.350303	0.116177
624.558218	0.116198
624.766115	0.116160
624.973994	0.116354
625.181855	0.116450
625.389697	0.116460
625.597521	0.116401
625.805327	0.116609
626.013114	0.116865
626.220883	0.117159
626.428634	0.116978
626.636367	0.117164
626.844082	0.117015
627.051778	0.117189
627.259457	0.117543
627.467117	0.117821
627.674758	0.117795
627.882382	0.117920
628.089987	0.117998
628.297574	0.118439
628.505143	0.118717
628.712694	0.119180
628.920226	0.119346
629.127740	0.119547
629.335236	0.119431
629.542714	0.119616
629.750174	0.119460
629.957615	0.119704
630.165038	0.119464
630.372443	0.119365
630.579829	0.119512
630.787198	0.119574
630.994548	0.119603
631.201880	0.119690
631.409194	0.119911
631.616489	0.120083
631.823766	0.120201
632.031025	0.120582
632.238266	0.120947
632.445489	0.120810
632.652693	0.120973
632.859879	0.120962
633.067047	0.121177
633.274197	0.121288
633.481329	0.121426
633.688442	0.121623
633.895537	0.121738
634.102614	0.121643
634.309672	0.121755
634.516713	0.121865
634.723735	0.121849
634.930739	0.121702
635.137724	0.121467
635.344692	0.121686
635.551641	0.121629
635.758572	0.121798
635.965485	0.121684
636.172379	0.121724
636.379256	0.121676
636.586114	0.121968
636.792954	0.122186
636.999775	0.122340
637.206579	0.122352
637.413364	0.122505
637.620131	0.122351
637.826880	0.122530
638.033610	0.122550
638.240323	0.122649
638.447017	0.122688
638.653692	0.122720
638.860350	0.122994
639.066990	0.123082
639.273611	0.123159
639.480214	0.123572
639.686798	0.123856
639.893365	0.124222
640.099913	0.124519
640.306443	0.124776
640.512955	0.125068
640.719449	0.125035
640.925924	0.125173
641.132381	0.125341
641.338820	0.125232
641.545241	0.125163
641.751644	0.125340
641.958028	0.125573
642.164394	0.125691
642.370742	0.125704
642.577071	0.125950
642.783383	0.126187
642.989676	0.126228
643.195951	0.126489
643.402207	0.126736
643.608446	0.126741
643.814666	0.126679
644.020868	0.126714
644.227052	0.126972
644.433218	0.127062
644.639365	0.127142
644.845494	0.127303
645.051605	0.127233
645.257698	0.127323
645.463772	0.127490
645.669828	0.127578
645.875866	0.127802
646.081886	0.127814
646.287888	0.128007
646.493871	0.127858
646.699836	0.127858
646.905783	0.128080
647.111712	0.128374
647.317622	0.128425
647.523514	0.128689
647.729388	0.128665
647.935244	0.129002
648.141082	0.129274
648.346901	0.129769
648.552702	0.130009
648.758485	0.130254
648.964250	0.130260
649.169996	0.130441
649.375724	0.130556
649.581434	0.130855
649.787126	0.130849
649.992800	0.130849
650.198455	0.130723
650.404092	0.130807
650.609711	0.130832
650.815311	0.130966
651.020894	0.130965
651.226458	0.130735
651.432004	0.130624
651.637532	0.130776
651.843041	0.130831
652.048532	0.131144
652.254006	0.131358
652.459460	0.131634
652.664897	0.131665
652.870315	0.131979
653.075716	0.132295
653.281097	0.132399
653.486461	0.132366
653.691807	0.132332
653.897134	0.132202
654.102443	0.132050
654.307734	0.132028
654.513006	0.132098
654.718261	0.132052
654.923497	0.132171
655.128715	0.132377
655.333915	0.132459
655.539096	0.132847
655.744259	0.133003
655.949404	0.133198
656.154531	0.133270
656.359640	0.133433
656.564730	0.133774
656.769802	0.133876
656.974856	0.134016
657.179892	0.134418
657.384909	0.134210
657.589908	0.134420
657.794889	0.134660
657.999852	0.134685
658.204797	0.135001
658.409723	0.135064
658.614631	0.135190
658.819521	0.135339
659.024393	0.135152
659.229246	0.135464
659.434081	0.135668
659.638898	0.135972
659.843697	0.136178
660.048478	0.136281
660.253240	0.136313
660.457984	0.136251
660.662710	0.136325
660.867417	0.136728
661.072107	0.137102
661.276778	0.137231
661.481431	0.137270
661.686066	0.137280
661.890682	0.137306
662.095281	0.137326
662.299861	0.137573
662.504422	0.137555
662.708966	0.137532
662.913491	0.137644
663.117999	0.137564
663.322488	0.137634
663.526958	0.138011
663.731411	0.138150
663.935845	0.138349
664.140261	0.138570
664.344659	0.139067
664.549038	0.139297
664.753400	0.139281
664.957743	0.139564
665.162068	0.139731
665.366375	0.139890
665.570663	0.140113
665.774933	0.140172
665.979185	0.140252
666.183419	0.140216
666.387635	0.140339
666.591832	0.140490
666.796011	0.140704
667.000172	0.140640
667.204315	0.140609
667.408439	0.140442
667.612545	0.140656
667.816634	0.140934
668.020703	0.140927
668.224755	0.140993
668.428788	0.141164
668.632803	0.141108
668.836800	0.141344
669.040779	0.141504
669.244739	0.141931
669.448681	0.142025
669.652605	0.142370
669.856511	0.142846
670.060399	0.143269
670.264268	0.143593
670.468119	0.144161
670.671952	0.144535
670.875767	0.144726
671.079563	0.144878
671.283341	0.145012
671.487101	0.145277
671.690843	0.145453
671.894567	0.145487
672.098272	0.145404
672.301959	0.145304
672.505628	0.145421
672.709278	0.145667
672.912911	0.145774
673.116525	0.146179
673.320121	0.146012
673.523699	0.145958
673.727258	0.146081
673.930799	0.146332
674.134322	0.146489
674.337827	0.146454
674.541314	0.146425
674.744782	0.146564
674.948232	0.146423
675.151664	0.146488
675.355078	0.146537
675.558474	0.146491
675.761851	0.146509
675.965210	0.146497
676.168551	0.146875
676.371873	0.147072
676.575178	0.147204
676.778464	0.147436
676.981732	0.147506
677.184981	0.147708
677.388213	0.147921
677.591426	0.148110
677.794621	0.148467
677.997798	0.148427
678.200956	0.148790
678.404097	0.149045
678.607219	0.149490
678.810323	0.149794
679.013408	0.150067
679.216476	0.150355
679.419525	0.150547
679.622556	0.150627
679.825569	0.150758
680.028563	0.150722
680.231540	0.150813
680.434498	0.150595
680.637438	0.150640
680.840359	0.150440
681.043263	0.150244
681.246148	0.150341
681.449015	0.150477
681.651864	0.150343
681.854694	0.150371
682.057506	0.150198
682.260301	0.150432
682.463076	0.150484
682.665834	0.150691
682.868573	0.150856
683.071295	0.150902
683.273998	0.150921
683.476682	0.151366
683.679349	0.151534
683.881997	0.151820
684.084627	0.151919
684.287239	0.152055
684.489833	0.152288
684.692408	0.152549
684.894965	0.152668
685.097504	0.152812
685.300025	0.152814
685.502527	0.152865
685.705012	0.152751
685.907478	0.152616
686.109925	0.152846
686.312355	0.152793
686.514766	0.152880
686.717159	0.152929
686.919534	0.152803
687.121891	0.152819
687.324230	0.153052
687.526550	0.153429
687.728852	0.153624
687.931136	0.153240
688.133401	0.153343
688.335649	0.153379
688.537878	0.153461
688.740089	0.153839
688.942281	0.154160
689.144456	0.154014
689.346612	0.154073
689.548750	0.154290
689.750870	0.155035
689.952971	0.155424
690.155055	0.155809
690.357120	0.156085
690.559167	0.156244
690.761195	0.156250
690.963206	0.156737
691.165198	0.156910
691.367172	0.157040
691.569128	0.157006
691.771065	0.157047
691.972984	0.156957
692.174885	0.156767
692.376768	0.156625
692.578633	0.156694
692.780479	0.156702
692.982308	0.156709
693.184118	0.156704
693.385909	0.156609
