sample name	sample
index	360
start time	 03-04-2021  10:46:01 AM


Wavelength (nm)	Absorbance
494.344910	0.082657
494.563924	0.082657
494.782919	0.082657
495.001897	0.164129
495.220856	0.069463
495.439797	0.084223
495.658719	0.064837
495.877624	0.074470
496.096510	0.071989
496.315378	0.085822
496.534227	0.087640
496.753059	0.103326
496.971872	0.068235
497.190667	0.618800
497.409444	0.912278
497.628203	1.065718
497.846943	1.141446
498.065665	1.207691
498.284369	1.262453
498.503055	1.310929
498.721723	1.338594
498.940372	1.373863
499.159003	1.385305
499.377616	1.382047
499.596210	1.391529
499.814787	1.413615
500.033345	1.410072
500.251885	1.410995
500.470406	1.411797
500.688910	1.419599
500.907395	1.418208
501.125862	1.417547
501.344311	1.428020
501.562742	1.433427
501.781154	1.427978
501.999548	1.443872
502.217924	1.442323
502.436282	1.457647
502.654621	1.458837
502.872942	1.470908
503.091245	1.482053
503.309530	1.488568
503.527797	1.488185
503.746045	1.494426
503.964275	1.493522
504.182487	1.491948
504.400681	1.484938
504.618856	1.497962
504.837013	1.491622
505.055152	1.502760
505.273273	1.493850
505.491376	1.489756
505.709460	1.477704
505.927526	1.475381
506.145574	1.482516
506.363604	1.481318
506.581615	1.470093
506.799608	1.476605
507.017583	1.475489
507.235540	1.488174
507.453478	1.488409
507.671399	1.500468
507.889301	1.504494
508.107185	1.511423
508.325050	1.509451
508.542898	1.516307
508.760727	1.522987
508.978538	1.529494
509.196330	1.519579
509.414105	1.512069
509.631861	1.515390
509.849599	1.516932
510.067319	1.504514
510.285021	1.520588
510.502704	1.543102
510.720369	1.537122
510.938016	1.534526
511.155645	1.535049
511.373255	1.542319
511.590848	1.540323
511.808422	1.542401
512.025977	1.548994
512.243515	1.538228
512.461034	1.523903
512.678536	1.522235
512.896018	1.509174
513.113483	1.518435
513.330930	1.527112
513.548358	1.531095
513.765768	1.525858
513.983160	1.530508
514.200533	1.544587
514.417889	1.552195
514.635226	1.567044
514.852545	1.579187
515.069845	1.584500
515.287128	1.587870
515.504392	1.599042
515.721638	1.610731
515.938866	1.627963
516.156075	1.621911
516.373267	1.615761
516.590440	1.610702
516.807594	1.617430
517.024731	1.628306
517.241850	1.629654
517.458950	1.620250
517.676032	1.622708
517.893095	1.613462
518.110141	1.620448
518.327168	1.628164
518.544177	1.640042
518.761168	1.642871
518.978141	1.643497
519.195095	1.641844
519.412031	1.653619
519.628949	1.667017
519.845849	1.656626
520.062731	1.654603
520.279594	1.663107
520.496439	1.659730
520.713266	1.650845
520.930074	1.651259
521.146865	1.665297
521.363637	1.663920
521.580391	1.659073
521.797127	1.669351
522.013844	1.678184
522.230543	1.669638
522.447224	1.669550
522.663887	1.676022
522.880532	1.667461
523.097158	1.656801
523.313766	1.640790
523.530356	1.642376
523.746928	1.646915
523.963481	1.646709
524.180017	1.650052
524.396534	1.654579
524.613032	1.654034
524.829513	1.655752
525.045975	1.656268
525.262420	1.681131
525.478845	1.685876
525.695253	1.691228
525.911643	1.706413
526.128014	1.712275
526.344367	1.706262
526.560702	1.720527
526.777018	1.737323
526.993316	1.763533
527.209597	1.765259
527.425858	1.760102
527.642102	1.758365
527.858328	1.734489
528.074535	1.737270
528.290724	1.740334
528.506894	1.737310
528.723047	1.723122
528.939181	1.711718
529.155297	1.717188
529.371395	1.730702
529.587475	1.737516
529.803536	1.759050
530.019579	1.769117
530.235604	1.776715
530.451611	1.782714
530.667600	1.793210
530.883570	1.805786
531.099522	1.806482
531.315456	1.809033
531.531372	1.822194
531.747269	1.820273
531.963148	1.818742
532.179009	1.831024
532.394852	1.835556
532.610676	1.846454
532.826482	1.843686
533.042271	1.842370
533.258040	1.840202
533.473792	1.820421
533.689525	1.825514
533.905240	1.819756
534.120937	1.815818
534.336616	1.820408
534.552277	1.817890
534.767919	1.823202
534.983543	1.829404
535.199149	1.831782
535.414736	1.845995
535.630306	1.851195
535.845857	1.850870
536.061390	1.870454
536.276904	1.870506
536.492401	1.884351
536.707879	1.887601
536.923339	1.888055
537.138781	1.893746
537.354204	1.893753
537.569610	1.890131
537.784997	1.915110
538.000366	1.906498
538.215716	1.906154
538.431049	1.909225
538.646363	1.908162
538.861659	1.905860
539.076937	1.918794
539.292196	1.929281
539.507438	1.945170
539.722661	1.935381
539.937866	1.929827
540.153052	1.936456
540.368221	1.944865
540.583371	1.944919
540.798503	1.955291
541.013617	1.945852
541.228712	1.941214
541.443789	1.938941
541.658848	1.958403
541.873889	1.969972
542.088912	1.971448
542.303916	1.969869
542.518902	1.984795
542.733870	1.991641
542.948820	1.988956
543.163752	2.015662
543.378665	2.011310
543.593560	2.002109
543.808437	2.000490
544.023295	2.003344
544.238136	2.006561
544.452958	2.015961
544.667762	2.017541
544.882548	2.018780
545.097315	2.008725
545.312064	2.022381
545.526795	2.020198
545.741508	2.030557
545.956203	2.047731
546.170879	2.031022
546.385537	2.009775
546.600177	2.022703
546.814799	2.036822
547.029402	2.031430
547.243988	2.027729
547.458555	2.024426
547.673103	2.018047
547.887634	2.016364
548.102146	2.023109
548.316640	2.039534
548.531116	2.037371
548.745574	2.031180
548.960013	2.040979
549.174435	2.044872
549.388838	2.056478
549.603222	2.061540
549.817589	2.052040
550.031937	2.065770
550.246267	2.067493
550.460579	2.066011
550.674873	2.064562
550.889148	2.063131
551.103405	2.058011
551.317644	2.052832
551.531865	2.053778
551.746068	2.063461
551.960252	2.061519
552.174418	2.059616
552.388566	2.052815
552.602696	2.072093
552.816807	2.078795
553.030900	2.079099
553.244975	2.085662
553.459032	2.094377
553.673070	2.080080
553.887091	2.060653
554.101093	2.070842
554.315077	2.082151
554.529042	2.067539
554.742990	2.054500
554.956919	2.054120
555.170830	2.053724
555.384722	2.050592
555.598597	2.069358
555.812453	2.088772
556.026291	2.085451
556.240111	2.080984
556.453913	2.083643
556.667696	2.090846
556.881461	2.093382
557.095208	2.087436
557.308937	2.090116
557.522647	2.074129
557.736339	2.073004
557.950013	2.075049
558.163669	2.078323
558.377307	2.086981
558.590926	2.094992
558.804527	2.096030
559.018110	2.113230
559.231675	2.110359
559.445221	2.116489
559.658749	2.125790
559.872259	2.126527
560.085751	2.129497
560.299225	2.123642
560.512680	2.131559
560.726117	2.138568
560.939536	2.140785
561.152937	2.151789
561.366319	2.157542
561.579683	2.163178
561.793029	2.168504
562.006357	2.163036
562.219667	2.171145
562.432958	2.176513
562.646231	2.169336
562.859486	2.151993
563.072723	2.153231
563.285941	2.162622
563.499141	2.156789
563.712323	2.141716
563.925487	2.133555
564.138632	2.139675
564.351760	2.126550
564.564869	2.130230
564.777960	2.144779
564.991032	2.141529
565.204087	2.142310
565.417123	2.141482
565.630141	2.158782
565.843140	2.163094
566.056122	2.150816
566.269085	2.154346
566.482030	2.153327
566.694957	2.144824
566.907866	2.149963
567.120756	2.155195
567.333628	2.145838
567.546482	2.140064
567.759318	2.152892
567.972135	2.159289
568.184935	2.172881
568.397716	2.187318
568.610478	2.204225
568.823223	2.204849
569.035949	2.200989
569.248657	2.209981
569.461347	2.220070
569.674019	2.233701
569.886672	2.247819
570.099308	2.241078
570.311925	2.231257
570.524523	2.220313
570.737104	2.218406
570.949666	2.208783
571.162210	2.222539
571.374736	2.216527
571.587244	2.205651
571.799733	2.196626
572.012205	2.193855
572.224658	2.204026
572.437092	2.216015
572.649509	2.213649
572.861907	2.218235
573.074287	2.211800
573.286649	2.219007
573.498993	2.219474
573.711318	2.229428
573.923625	2.230295
574.135914	2.226328
574.348185	2.223091
574.560438	2.221856
574.772672	2.225992
574.984888	2.236572
575.197086	2.241430
575.409266	2.241961
575.621427	2.233599
575.833570	2.235554
576.045695	2.238647
576.257802	2.246694
576.469890	2.245716
576.681961	2.256556
576.894013	2.251347
577.106046	2.252885
577.318062	2.263839
577.530059	2.255395
577.742039	2.250603
577.954000	2.245164
578.165942	2.236779
578.377867	2.252165
578.589773	2.259710
578.801661	2.247713
579.013531	2.244348
579.225382	2.222927
579.437216	2.248142
579.649031	2.254692
579.860828	2.254781
580.072606	2.260543
580.284367	2.255867
580.496109	2.237538
580.707833	2.264816
580.919539	2.248485
581.131227	2.273805
581.342896	2.262406
581.554547	2.275561
581.766180	2.288655
581.977795	2.289806
582.189391	2.306124
582.400969	2.320740
582.612529	2.299331
582.824071	2.333723
583.035595	2.324132
583.247100	2.327069
583.458587	2.312670
583.670056	2.299627
583.881506	2.307067
584.092939	2.294835
584.304353	2.303756
584.515749	2.311928
584.727127	2.305045
584.938486	2.292958
585.149828	2.291598
585.361151	2.291960
585.572456	2.312718
585.783742	2.298168
585.995011	2.308221
586.206261	2.290981
586.417493	2.289533
586.628706	2.278490
586.839902	2.281859
587.051079	2.286523
587.262238	2.293594
587.473379	2.285246
587.684502	2.310021
587.895606	2.302114
588.106692	2.308855
588.317760	2.299398
588.528810	2.326396
588.739841	2.346965
588.950855	2.344445
589.161850	2.351852
589.372827	2.356353
589.583785	2.342016
589.794726	2.355252
590.005648	2.361947
590.216552	2.388868
590.427437	2.363667
590.638305	2.355184
590.849154	2.345539
591.059985	2.332690
591.270798	2.333690
591.481592	2.338894
591.692369	2.330320
591.903127	2.321532
592.113867	2.318739
592.324588	2.321857
592.535292	2.316020
592.745977	2.323594
592.956644	2.339367
593.167293	2.346003
593.377923	2.344218
593.588536	2.346053
593.799130	2.363723
594.009706	2.366817
594.220263	2.380976
594.430803	2.405555
594.641324	2.410089
594.851827	2.410247
595.062312	2.397449
595.272778	2.405568
595.483227	2.409996
595.693657	2.399407
595.904069	2.390443
596.114462	2.370353
596.324838	2.362801
596.535195	2.373047
596.745534	2.360212
596.955855	2.368537
597.166157	2.365258
597.376441	2.368887
597.586707	2.388292
597.796955	2.381059
598.007185	2.396031
598.217396	2.377536
598.427589	2.382857
598.637764	2.405245
598.847921	2.413608
599.058060	2.418738
599.268180	2.419705
599.478282	2.401621
599.688366	2.426685
599.898431	2.428423
600.108479	2.438908
600.318508	2.442023
600.528519	2.415083
600.738511	2.413486
600.948486	2.422276
601.158442	2.423605
601.368380	2.410588
601.578300	2.405507
601.788202	2.411549
601.998085	2.436277
602.207950	2.427213
602.417797	2.457540
602.627626	2.445345
602.837436	2.427618
603.047228	2.422559
603.257002	2.453332
603.466758	2.449801
603.676496	2.438432
603.886215	2.437161
604.095916	2.455037
604.305599	2.453532
604.515264	2.480980
604.724910	2.490434
604.934538	2.482812
605.144148	2.469090
605.353740	2.486319
605.563314	2.484376
605.772869	2.473351
605.982406	2.473360
606.191925	2.477271
606.401425	2.469305
606.610908	2.476876
606.820372	2.487350
607.029818	2.502507
607.239246	2.494584
607.448655	2.506372
607.658047	2.529153
607.867420	2.518346
608.076775	2.508296
608.286111	2.500680
608.495430	2.491211
608.704730	2.505384
608.914012	2.499439
609.123275	2.504591
609.332521	2.502135
609.541748	2.497073
609.750957	2.511712
609.960148	2.507476
610.169321	2.533579
610.378475	2.543420
610.587611	2.533450
610.796729	2.528210
611.005829	2.519684
611.214910	2.537687
611.423974	2.536676
611.633019	2.524540
611.842045	2.531602
612.051054	2.536882
612.260044	2.537603
612.469017	2.550078
612.677970	2.560367
612.886906	2.564629
613.095824	2.558044
613.304723	2.558010
613.513604	2.564521
613.722467	2.557100
613.931311	2.524488
614.140138	2.529232
614.348946	2.523914
614.557736	2.524048
614.766507	2.522312
614.975261	2.519651
615.183996	2.517811
615.392713	2.532733
615.601412	2.553210
615.810092	2.579637
616.018754	2.578284
616.227399	2.594542
616.436024	2.599847
616.644632	2.634972
616.853222	2.646913
617.061793	2.644795
617.270346	2.634396
617.478880	2.619563
617.687397	2.621385
617.895895	2.619683
618.104375	2.614874
618.312837	2.615819
618.521281	2.607354
618.729706	2.612958
618.938113	2.620515
619.146502	2.622365
619.354873	2.641772
619.563226	2.621272
619.771560	2.618193
619.979876	2.617164
620.188174	2.621616
620.396453	2.614008
620.604715	2.622614
620.812958	2.617387
621.021183	2.615585
621.229390	2.605394
621.437578	2.603880
621.645748	2.627211
621.853900	2.634976
622.062034	2.630753
622.270150	2.618819
622.478247	2.609663
622.686326	2.610519
622.894387	2.637109
623.102430	2.648806
623.310454	2.668761
623.518461	2.651336
623.726449	2.628301
623.934418	2.603857
624.142370	2.630300
624.350303	2.628166
624.558218	2.643692
624.766115	2.619504
624.973994	2.609211
625.181855	2.595465
625.389697	2.602899
625.597521	2.609163
625.805327	2.617386
626.013114	2.604374
626.220883	2.597221
626.428634	2.590361
626.636367	2.602370
626.844082	2.589176
627.051778	2.600394
627.259457	2.599561
627.467117	2.605031
627.674758	2.630242
627.882382	2.632194
628.089987	2.649332
628.297574	2.655598
628.505143	2.628161
628.712694	2.649023
628.920226	2.635384
629.127740	2.633081
629.335236	2.642190
629.542714	2.634445
629.750174	2.638348
629.957615	2.629221
630.165038	2.630278
630.372443	2.656858
630.579829	2.666541
630.787198	2.666074
630.994548	2.666793
631.201880	2.643122
631.409194	2.640026
631.616489	2.636181
631.823766	2.628016
632.031025	2.630696
632.238266	2.611724
632.445489	2.605117
632.652693	2.619839
632.859879	2.622075
633.067047	2.639911
633.274197	2.645223
633.481329	2.658528
633.688442	2.672865
633.895537	2.684167
634.102614	2.690471
634.309672	2.706534
634.516713	2.703441
634.723735	2.687471
634.930739	2.682636
635.137724	2.673628
635.344692	2.667404
635.551641	2.673406
635.758572	2.637313
635.965485	2.637389
636.172379	2.625483
636.379256	2.627763
636.586114	2.642163
636.792954	2.650854
636.999775	2.664638
637.206579	2.654748
637.413364	2.641599
637.620131	2.668465
637.826880	2.670942
638.033610	2.673036
638.240323	2.662563
638.447017	2.659656
638.653692	2.646600
638.860350	2.647080
639.066990	2.642276
639.273611	2.640933
639.480214	2.635930
639.686798	2.643943
639.893365	2.634931
640.099913	2.664302
640.306443	2.648146
640.512955	2.654459
640.719449	2.661196
640.925924	2.659850
641.132381	2.666274
641.338820	2.669941
641.545241	2.654322
641.751644	2.667239
641.958028	2.662644
642.164394	2.692085
642.370742	2.694982
642.577071	2.684031
642.783383	2.676580
642.989676	2.683277
643.195951	2.690150
643.402207	2.689578
643.608446	2.668180
643.814666	2.659015
644.020868	2.649888
644.227052	2.640233
644.433218	2.646620
644.639365	2.658678
644.845494	2.645291
645.051605	2.633708
645.257698	2.656672
645.463772	2.680855
645.669828	2.678323
645.875866	2.676787
646.081886	2.696794
646.287888	2.683691
646.493871	2.695719
646.699836	2.701382
646.905783	2.703551
647.111712	2.679340
647.317622	2.669379
647.523514	2.680310
647.729388	2.686966
647.935244	2.679540
648.141082	2.688461
648.346901	2.673806
648.552702	2.704699
648.758485	2.716006
648.964250	2.746861
649.169996	2.757086
649.375724	2.743855
649.581434	2.756745
649.787126	2.773478
649.992800	2.776850
650.198455	2.785114
650.404092	2.760700
650.609711	2.761313
650.815311	2.743643
651.020894	2.734636
651.226458	2.720291
651.432004	2.717238
651.637532	2.711214
651.843041	2.711278
652.048532	2.724234
652.254006	2.724179
652.459460	2.730966
652.664897	2.735665
652.870315	2.740386
653.075716	2.754603
653.281097	2.736872
653.486461	2.742868
653.691807	2.732400
653.897134	2.744383
654.102443	2.733666
654.307734	2.727353
654.513006	2.725105
654.718261	2.724484
654.923497	2.736893
655.128715	2.760935
655.333915	2.751058
655.539096	2.773962
655.744259	2.765838
655.949404	2.775463
656.154531	2.777882
656.359640	2.776516
656.564730	2.790394
656.769802	2.800180
656.974856	2.787668
657.179892	2.794882
657.384909	2.792098
657.589908	2.782115
657.794889	2.781530
657.999852	2.778783
658.204797	2.796386
658.409723	2.798913
658.614631	2.792750
658.819521	2.780708
659.024393	2.787080
659.229246	2.781931
659.434081	2.788211
659.638898	2.788594
659.843697	2.784497
660.048478	2.769528
660.253240	2.756494
660.457984	2.755171
660.662710	2.767486
660.867417	2.745615
661.072107	2.734680
661.276778	2.723924
661.481431	2.726920
661.686066	2.738497
661.890682	2.763439
662.095281	2.770407
662.299861	2.760609
662.504422	2.758797
662.708966	2.781889
662.913491	2.811629
663.117999	2.819940
663.322488	2.832757
663.526958	2.808221
663.731411	2.801533
663.935845	2.793940
664.140261	2.793788
664.344659	2.802799
664.549038	2.795330
664.753400	2.790962
664.957743	2.791624
665.162068	2.783098
665.366375	2.792631
665.570663	2.799220
665.774933	2.797188
665.979185	2.802473
666.183419	2.789604
666.387635	2.777569
666.591832	2.788890
666.796011	2.794363
667.000172	2.773673
667.204315	2.765881
667.408439	2.766191
667.612545	2.762014
667.816634	2.765081
668.020703	2.781811
668.224755	2.805146
668.428788	2.789556
668.632803	2.770444
668.836800	2.805011
669.040779	2.821918
669.244739	2.799115
669.448681	2.802148
669.652605	2.809060
669.856511	2.798501
670.060399	2.761710
670.264268	2.755183
670.468119	2.765114
670.671952	2.746364
670.875767	2.722906
671.079563	2.716701
671.283341	2.732996
671.487101	2.727000
671.690843	2.718962
671.894567	2.740006
672.098272	2.753171
672.301959	2.767928
672.505628	2.785895
672.709278	2.800160
672.912911	2.821243
673.116525	2.808889
673.320121	2.805564
673.523699	2.818004
673.727258	2.817602
673.930799	2.817782
674.134322	2.818694
674.337827	2.821087
674.541314	2.851236
674.744782	2.829975
674.948232	2.833891
675.151664	2.851408
675.355078	2.845509
675.558474	2.844881
675.761851	2.807973
675.965210	2.796525
676.168551	2.788314
676.371873	2.779439
676.575178	2.791193
676.778464	2.801631
676.981732	2.777237
677.184981	2.779127
677.388213	2.780440
677.591426	2.804192
677.794621	2.806847
677.997798	2.804433
678.200956	2.787523
678.404097	2.785857
678.607219	2.767896
678.810323	2.785502
679.013408	2.787959
679.216476	2.799391
679.419525	2.811403
679.622556	2.817084
679.825569	2.820262
680.028563	2.821560
680.231540	2.806694
680.434498	2.827187
680.637438	2.837772
680.840359	2.842797
681.043263	2.835311
681.246148	2.827486
681.449015	2.819972
681.651864	2.805100
681.854694	2.807600
682.057506	2.821281
682.260301	2.785611
682.463076	2.760600
682.665834	2.750914
682.868573	2.745689
683.071295	2.751182
683.273998	2.761160
683.476682	2.788803
683.679349	2.796605
683.881997	2.792070
684.084627	2.818799
684.287239	2.829990
684.489833	2.834565
684.692408	2.868433
684.894965	2.868710
685.097504	2.867196
685.300025	2.852239
685.502527	2.853539
685.705012	2.857513
685.907478	2.843568
686.109925	2.843393
686.312355	2.872994
686.514766	2.847492
686.717159	2.826403
686.919534	2.821854
687.121891	2.817791
687.324230	2.812721
687.526550	2.797764
687.728852	2.823771
687.931136	2.813483
688.133401	2.796617
688.335649	2.803581
688.537878	2.820057
688.740089	2.812119
688.942281	2.816709
689.144456	2.836251
689.346612	2.850280
689.548750	2.826736
689.750870	2.856666
689.952971	2.838837
690.155055	2.848098
690.357120	2.834648
690.559167	2.830633
690.761195	2.822319
690.963206	2.822933
691.165198	2.822751
691.367172	2.843011
691.569128	2.847065
691.771065	2.860774
691.972984	2.854165
692.174885	2.860656
692.376768	2.875938
692.578633	2.870546
692.780479	2.828042
692.982308	2.827673
693.184118	2.821686
693.385909	2.812994
