sample name	sample
index	77
start time	 02-11-2021  04:06:46 PM
880	0.458912
Peak Time (s)	91.037
Peak Height 	0.4589
calc peak height	90,93
Baseline Time (s)	10.534
Baseline Value 	-0.004801
subtract baseline	10,4
Abs	0.309442
Peak Time (s)	92.035
Peak Height 	0.3094
calc peak height	90,93
Baseline Time (s)	10.534
Baseline Value 	0.00452
subtract baseline	10,3
PK_550	0.149218
Peak Time (s)	92.035
Peak Height 	0.1492
calc peak height	90,93
Baseline Time (s)	9.039
Baseline Value 	5.9242E-4
subtract baseline	10,2
PK_880	0.301265
Peak Time (s)	92.035
Peak Height 	0.3013
calc peak height	90,93
Baseline Time (s)	11.536
Baseline Value 	0.002827
subtract baseline	10,1


Time (s)	A880-A510	A880-A775	A880-A975	A880	I510	I775	I975	I880	
0.034000	-0.001574	-0.000677	-0.007139	0.001862	4639.603204	20606.245306	3318.243124	11100.821033
0.537000	-0.002524	0.001451	-0.008862	0.005957	4619.939134	20526.447077	3312.985643	11024.148068
1.037500	-0.005641	0.000117	-0.000001	0.004068	4615.183324	20548.900272	3322.756867	11059.422808
1.535500	-0.004155	-0.001994	-0.006114	0.005689	4614.662164	20398.235249	3315.701838	11029.129423
2.038500	-0.003834	-0.000622	-0.004474	0.001245	4633.172250	20633.613490	3321.241212	11112.441057
2.536000	-0.000453	-0.000902	-0.003373	0.000529	4649.251390	20651.370838	3322.909828	11125.932521
3.036000	0.002021	0.000444	0.009437	-0.000743	4664.086377	20758.517713	3336.086504	11149.984119
3.536000	-0.000060	0.000241	0.006670	0.002298	4643.832123	20625.863788	3330.599495	11092.614795
4.036500	-0.002860	-0.001349	0.003281	-0.000359	4643.274549	20669.409639	3329.914438	11142.719227
4.536500	-0.001715	-0.001002	-0.011206	0.000753	4643.399552	20638.195280	3315.561115	11121.709621
5.037000	-0.003337	-0.001354	0.003125	0.000072	4639.706764	20651.616329	3329.364097	11134.569392
5.534500	-0.001981	-0.000568	-0.002184	0.000217	4644.461636	20677.747388	3324.294521	11131.825527
6.035000	-0.002784	-0.001373	0.000298	-0.001401	4647.670369	20711.014906	3328.100210	11162.450553
6.535500	0.001949	0.001667	0.000233	0.001522	4654.815474	20715.808203	3325.323543	11107.226128
7.035500	-0.000013	0.000567	0.006197	0.000957	4649.296204	20693.898157	3331.415513	11117.860506
7.538500	-0.001165	0.000957	0.007127	0.000287	4647.396251	20737.254987	3332.921925	11130.499634
8.036000	0.001250	-0.000925	-0.006733	-0.000201	4658.870771	20680.239142	3320.496045	11139.727948
8.536500	-0.001495	-0.001561	0.001882	-0.001149	4651.757437	20692.999103	3329.343062	11157.658290
9.039000	-0.000453	0.000000	-0.008225	0.003621	4637.099579	20562.288399	3315.662917	11067.788382
9.536500	0.002262	0.000020	0.002605	0.000449	4660.306285	20692.285261	3328.526440	11127.446239
10.037000	0.001034	-0.000660	-0.001986	-0.000829	4660.505845	20716.765467	3325.445778	11151.610278
10.534500	-0.001667	0.000248	0.000000	0.000000	4646.550576	20719.995123	3326.518523	11135.928043
11.035000	0.001131	-0.000957	0.004431	0.003715	4642.947020	20519.717591	3327.183818	11066.034774
11.535500	0.000000	0.000223	-0.006039	-0.000347	4654.501038	20733.216549	3321.265776	11142.496238
12.038500	0.002179	-0.001090	-0.001679	-0.001910	4669.362063	20743.465457	3326.733403	11172.101021
12.535500	0.004116	0.000290	0.004932	-0.000820	4672.744566	20755.345260	3331.897413	11151.436774
13.036500	-0.001314	-0.001421	0.000709	0.002314	4638.846069	20557.651000	3325.029773	11092.313841
13.536500	0.001204	-0.001235	0.002944	-0.001228	4662.763614	20709.549521	3330.412570	11159.155250
14.036500	0.003003	-0.001202	0.001202	-0.001042	4669.186713	20703.316969	3328.608412	11155.643849
14.537000	0.000316	0.000771	0.004414	0.002477	4644.608874	20640.175268	3328.321544	11089.257498
15.034500	-0.004003	-0.000235	-0.004317	0.005825	4614.725110	20463.635242	3317.207044	11026.609867
15.568500	0.002976	0.000192	-0.000899	0.000180	4664.212665	20710.369931	3325.518059	11132.536063
16.035000	-0.000859	-0.000346	0.001080	-0.000600	4652.106458	20720.258430	3328.082033	11147.274937
16.535500	0.003151	-0.000156	0.006554	-0.000882	4669.138589	20739.550707	3333.485263	11152.603269
17.036000	-0.001359	-0.001246	-0.003239	0.003201	4635.198095	20528.822430	3320.580272	11075.663430
17.536000	-0.000596	-0.000479	0.007572	-0.002942	4662.425413	20810.920898	3336.404546	11191.709259
18.036000	0.003993	-0.000911	0.010077	-0.003775	4684.104359	20827.421639	3339.593242	11207.570773
18.536500	0.000744	-0.001913	-0.001744	-0.001356	4661.446385	20687.057435	3326.158032	11161.589890
19.037000	0.000199	0.000533	-0.004726	0.003111	4641.657805	20604.655060	3319.304146	11077.353752
19.536500	-0.000445	0.000559	0.000217	0.000601	4648.997283	20708.129601	3326.161940	11124.579584
20.037500	-0.000299	-0.000590	0.005926	0.000431	4650.244401	20668.135454	3331.655112	11127.788015
20.535500	0.005850	-0.000097	0.002960	0.000332	4675.070815	20692.300038	3328.967096	11129.650306
21.035000	-0.001917	-0.000623	-0.007443	0.000451	4643.797488	20665.960878	3319.252832	11127.419797
21.538500	0.001154	-0.001155	-0.000600	-0.000028	4657.802067	20663.796922	3325.987341	11136.453130
22.036000	-0.000784	0.000230	0.005474	0.001124	4645.602181	20673.289489	3330.579441	11114.714161
22.536500	-0.001881	-0.002236	-0.003567	-0.000620	4648.151460	20643.831709	3323.790003	11147.650555
23.036500	0.001034	-0.001122	-0.008013	0.001809	4650.068804	20590.345027	3317.497578	11101.820670
23.537000	-0.000532	-0.001504	0.001666	-0.000186	4651.758029	20655.983554	3328.242740	11139.438482
24.037000	-0.001243	-0.000676	0.004378	0.000529	4646.139399	20660.641681	3330.109935	11125.944856
24.534500	-0.003010	-0.001150	-0.003009	-0.000132	4641.794272	20668.254840	3323.854847	11138.428917
25.038000	0.002297	0.000410	-0.004439	0.001107	4657.835220	20681.324508	3321.399596	11115.031993
25.535000	-0.002862	-0.000000	-0.002586	0.000674	4639.211494	20682.300412	3323.501879	11123.209774
26.035000	0.001202	-0.000188	0.004702	0.000704	4655.092853	20673.391516	3330.248781	11122.629307
26.536000	-0.000804	-0.001404	0.010498	0.000150	4649.362955	20646.374769	3336.246093	11133.098239
27.036000	0.004116	0.000859	-0.002455	0.001332	4664.162219	20690.494935	3323.015917	11110.790686
27.538500	0.002280	-0.001112	0.003999	0.000314	4660.917072	20651.599282	3329.956527	11130.002310
28.037000	0.001157	-0.002347	0.002520	-0.003750	4672.631025	20767.347818	3332.385320	11207.092221
28.539500	0.001723	-0.000414	0.002897	-0.001298	4665.108242	20746.044406	3330.434053	11160.487131
29.062000	0.002013	0.000463	0.005275	0.002204	4652.371831	20638.750716	3329.380846	11094.380982
29.537000	-0.001552	-0.000518	0.002279	-0.000978	4650.860179	20728.693574	3329.554860	11154.426426
30.035000	0.001069	-0.001074	0.006839	-0.001473	4663.202311	20726.197627	3334.314657	11163.812274
30.538000	0.001427	-0.000984	0.006964	-0.001878	4666.240388	20746.475330	3334.816765	11171.492821
31.038000	0.002326	-0.000884	0.005265	-0.001011	4666.364749	20715.051477	3332.390966	11155.053819
31.536000	-0.000206	-0.000499	0.004265	0.000404	4650.715363	20672.919632	3330.120229	11128.290242
32.038000	-0.001643	-0.000307	0.004256	0.001223	4641.839925	20647.364626	3329.346367	11112.857674
32.555500	-0.001756	0.000135	0.002122	-0.000150	4646.791344	20721.504911	3328.634629	11138.760856
33.036500	0.004943	0.001122	0.003309	0.001541	4666.621673	20692.703038	3328.163402	11106.854664
33.537000	0.001916	-0.000555	0.004851	-0.000619	4663.174099	20712.447204	3331.631443	11147.628323
34.036500	-0.001234	-0.000761	0.007860	-0.001260	4653.231241	20730.272339	3335.080480	11159.775212
34.537000	-0.000622	-0.001116	0.005177	-0.004097	4666.916888	20832.253607	3335.226091	11213.708847
35.035000	-0.002025	-0.000996	0.001105	0.000745	4642.214935	20638.749177	3326.852487	11121.854851
35.538500	-0.001153	-0.000563	-0.002379	0.000945	4644.856163	20648.253610	3323.442750	11118.091614
36.035500	0.001730	-0.000628	-0.001463	0.000531	4657.869460	20662.475422	3324.669885	11125.896846
36.536000	-0.003405	-0.001801	-0.001752	-0.000207	4640.538655	20644.771395	3325.086268	11139.847339
37.036000	-0.002518	0.000192	-0.002253	0.000859	4639.836561	20682.609899	3323.638762	11119.721683
37.536000	0.001673	-0.001629	0.004040	0.000284	4658.628522	20631.743622	3330.023006	11130.570083
38.037000	-0.001898	-0.001309	0.008675	0.000699	4642.898353	20627.899148	3333.995944	11122.740304
38.537000	-0.002858	-0.000287	-0.005425	0.000480	4639.986515	20678.514771	3321.070813	11126.867428
39.037500	-0.001916	-0.000932	-0.004818	0.000091	4645.213386	20668.047636	3321.983900	11134.206406
39.535000	-0.005600	-0.000734	0.000011	0.000747	4628.224734	20649.345677	3325.835119	11121.816922
40.035500	0.000076	-0.000224	0.004487	0.001501	4647.506877	20639.395819	3329.302110	11107.617930
40.537500	-0.001520	0.000306	0.003865	0.001668	4640.574525	20654.229977	3328.564603	11104.475648
41.035500	-0.004115	-0.001341	0.002741	0.000439	4635.223985	20637.182315	3328.662877	11127.640922
41.535500	0.001832	0.000210	-0.007161	0.001145	4655.844998	20671.632665	3318.876040	11114.324436
42.036500	0.000653	-0.001278	0.004943	-0.000464	4657.547761	20676.581987	3331.572314	11144.695403
42.536500	0.000825	0.001161	0.001582	0.002016	4648.428344	20674.885265	3326.115514	11097.924928
43.037000	0.001744	-0.001573	-0.003620	0.000520	4657.972328	20624.406478	3322.691041	11126.105093
43.537000	-0.003186	-0.002170	-0.000517	-0.000378	4642.066018	20636.657897	3326.389368	11143.071138
44.034500	-0.000279	-0.000135	-0.007498	0.001489	4646.151504	20643.503435	3318.255965	11107.833037
44.535000	0.000829	0.000024	-0.001620	0.000416	4654.756776	20693.786060	3324.630964	11128.062771
45.038000	-0.001543	-0.001078	0.003131	0.001926	4639.473606	20587.373369	3327.640104	11099.623132
45.537500	0.001283	-0.000278	0.005434	-0.000025	4658.303562	20699.481541	3331.621373	11136.399919
46.049000	0.003230	0.000150	0.008672	-0.000669	4668.604385	20743.411349	3335.289197	11148.581728
46.536500	-0.001242	-0.000091	-0.008432	-0.001272	4653.246360	20758.238457	3319.922034	11160.004036
47.036500	-0.003529	-0.001990	0.002131	0.003038	4627.373476	20505.313533	3325.677338	11078.734812
47.537000	0.000723	-0.000731	-0.003507	-0.000467	4657.837789	20699.057448	3323.704433	11144.760736
48.037000	0.000673	-0.000857	0.008356	-0.001538	4661.885774	20737.731139	3335.814079	11165.034600
48.534500	-0.003618	0.000450	0.008638	0.001850	4631.653533	20652.655991	3332.873537	11101.040921
49.035000	-0.000889	-0.001611	0.003290	0.003137	4637.290494	20516.657932	3326.661277	11076.878447
49.535500	0.003176	-0.000636	-0.002235	-0.000941	4669.475060	20722.355607	3325.318431	11153.727323
50.035500	-0.000150	0.000019	0.000689	-0.000231	4653.447453	20720.114801	3327.374134	11140.299931
50.535500	-0.000868	-0.000559	-0.008396	-0.000955	4653.474775	20726.069617	3319.665377	11154.001147
51.036000	-0.003944	-0.001556	0.011578	0.002869	4626.414211	20529.705608	3334.690468	11081.897761
51.536500	-0.001485	-0.001081	0.010410	-0.004404	4664.703884	20846.361234	3340.516847	11219.565964
52.036500	-0.002478	-0.002744	-0.003490	-0.001430	4648.993034	20656.189842	3324.609327	11162.996819
52.536000	-0.044856	-0.027959	-0.012596	0.318800	3679.744021	10936.596750	3111.186607	6868.517547
53.034500	-0.046021	-0.025845	-0.016455	0.073164	4241.223202	17087.190234	3251.298412	9863.690629
53.537500	0.000590	-0.015361	0.003354	-0.130138	5255.934611	26085.415894	3471.690436	14002.983101
54.034500	-0.002265	-0.017991	0.002458	-0.159088	5399.546304	27531.485517	3508.296757	14766.242783
54.538000	0.000082	-0.015681	-0.003711	-0.085022	5024.665357	23786.188097	3409.582398	12910.415741
55.036000	-0.009394	-0.015695	0.001069	-0.103817	5069.953193	24707.515974	3436.720577	13351.831148
55.535500	-0.007562	-0.012631	0.008755	-0.122199	5171.579116	25809.433394	3468.493478	13802.404510
56.036500	-0.010809	-0.015777	0.007783	-0.112345	5105.175886	25134.996651	3455.066152	13558.495617
56.535500	-0.008246	-0.017132	0.003108	-0.084018	4980.282139	23668.694827	3416.139811	12887.381773
57.036500	-0.008769	-0.013712	0.018522	-0.044797	4801.577747	22028.411877	3389.839805	12027.546067
57.537000	-0.001743	-0.011593	0.011393	-0.039429	4808.713167	21886.138656	3376.600247	11915.789494
58.037000	0.010776	-0.008117	0.010839	-0.025476	4802.541162	21434.552703	3361.702436	11631.689547
58.538000	0.016690	-0.010360	0.029649	-0.007407	4751.050589	20589.449928	3362.451734	11277.084909
59.035000	0.013272	-0.012965	0.046160	0.017614	4636.055332	19501.655242	3353.926735	10809.782627
59.535500	0.029159	-0.009838	0.048994	0.043935	4595.717234	18640.332996	3331.245338	10346.401353
60.036000	0.026993	-0.009539	0.043597	0.063765	4513.791350	17949.883621	3308.212695	10015.390635
60.536000	0.042788	-0.004937	0.066403	0.092632	4467.029017	17134.174281	3302.875204	9559.738729
61.036500	0.057634	-0.000127	0.069129	0.115023	4440.679144	16571.042166	3286.062567	9226.603658
61.536500	0.071532	0.004383	0.092329	0.131829	4430.639544	16190.505124	3291.445433	8987.594481
62.036500	0.084880	0.009766	0.097296	0.164251	4366.455396	15390.673396	3268.880643	8551.853514
62.537000	0.109268	0.020454	0.138409	0.199623	4330.750674	14702.702444	3273.482210	8112.122564
63.035000	0.128340	0.030918	0.142537	0.245964	4245.921056	13769.999552	3241.027868	7587.660862
63.534500	0.143752	0.039076	0.162655	0.257872	4256.524258	13676.860052	3247.095498	7461.685118
64.035000	0.155100	0.044290	0.175829	0.270736	4251.925962	13489.391445	3247.326902	7329.429079
64.535500	0.163048	0.055596	0.175925	0.288330	4223.039360	13337.732866	3234.522664	7154.765134
65.040000	0.173093	0.061589	0.188408	0.304680	4204.500419	13092.682320	3231.762522	6998.673414
65.536500	0.187123	0.068285	0.189755	0.308990	4233.193192	13148.629115	3229.663768	6958.499263
66.037000	0.192691	0.075820	0.199957	0.319669	4218.025044	13074.984665	3229.326877	6860.651252
66.537000	0.200499	0.083756	0.223990	0.330954	4207.806783	12997.109624	3238.449177	6759.827002
67.037000	0.211730	0.089249	0.222543	0.344533	4200.954819	12811.592514	3227.725118	6641.937204
67.537000	0.218349	0.096550	0.238444	0.349951	4204.456791	12854.473559	3235.167302	6595.917332
68.035000	0.224018	0.099263	0.242413	0.355637	4204.407679	12786.850320	3233.936260	6548.240919
68.535000	0.232205	0.103220	0.249113	0.362607	4207.961234	12718.755360	3233.742708	6490.630200
69.035500	0.234583	0.108585	0.245762	0.375577	4177.335306	12548.988253	3222.285292	6385.869391
69.535000	0.243299	0.113294	0.262700	0.377596	4196.614188	12608.697581	3232.741796	6369.842103
70.036000	0.247705	0.118107	0.261081	0.384396	4189.689494	12564.577507	3226.797159	6316.408771
70.536000	0.249294	0.121600	0.265919	0.390894	4175.607394	12498.211955	3225.638689	6266.116156
71.036500	0.247067	0.121531	0.263277	0.399398	4145.374708	12311.369810	3217.972537	6201.428789
71.537000	0.257971	0.125195	0.260832	0.397627	4181.164115	12429.384898	3217.515425	6214.792438
72.034000	0.260600	0.129327	0.259377	0.404086	4170.238078	12378.662451	3212.198522	6166.303640
72.537500	0.261815	0.128876	0.289466	0.405901	4168.537242	12329.552461	3231.646587	6152.810282
73.035000	0.260851	0.131195	0.273256	0.412881	4146.213811	12229.323085	3215.603079	6101.429021
73.535000	0.264421	0.131904	0.288390	0.411001	4161.484630	12284.847708	3227.289954	6115.184381
74.035500	0.267838	0.137747	0.281472	0.417217	4153.615198	12276.831952	3218.227610	6069.919352
74.536000	0.266050	0.134669	0.292067	0.415653	4152.986772	12244.327166	3226.606998	6081.246364
75.035500	0.265102	0.135364	0.290379	0.423486	4128.646933	12092.648335	3220.025985	6024.923968
75.536500	0.266897	0.135195	0.288697	0.419845	4143.657468	12166.118871	3221.368228	6050.979177
76.036500	0.267131	0.136085	0.282964	0.421380	4140.048921	12152.444200	3216.418874	6039.970058
76.536500	0.270156	0.139115	0.295368	0.424179	4140.673741	12157.331961	3222.977716	6019.990203
77.037000	0.274019	0.139704	0.292797	0.432070	4129.559804	12003.628043	3215.839975	5964.351421
77.537500	0.273340	0.138160	0.278019	0.426208	4143.882079	12094.225764	3209.891429	6005.589342
78.037500	0.279979	0.142327	0.292919	0.430282	4151.029258	12096.162539	3217.130302	5976.870073
78.535500	0.277032	0.141733	0.296148	0.431030	4140.743160	12067.919801	3218.814772	5971.628404
79.035500	0.274854	0.141202	0.302769	0.437225	4117.757063	11927.647278	3219.105461	5928.552404
79.536000	0.282675	0.143918	0.294930	0.434516	4146.735911	12040.602008	3215.629003	5947.309871
80.036000	0.285240	0.144890	0.299939	0.435586	4150.910727	12038.563517	3218.294555	5939.890003
80.536500	0.284475	0.146183	0.304063	0.437998	4142.061624	12015.142512	3219.460082	5923.216342
81.036500	0.282638	0.143881	0.303520	0.436046	4142.381247	12007.847647	3220.423588	5936.703713
81.537000	0.277426	0.141954	0.286830	0.436456	4126.876035	11959.180830	3208.944156	5933.867470
82.037500	0.283453	0.144011	0.299782	0.438538	4137.734432	11958.654416	3216.188967	5919.502826
82.534500	0.282468	0.143591	0.291822	0.438480	4135.174283	11951.142058	3210.904666	5919.900915
83.035000	0.283595	0.144262	0.300041	0.443321	4124.967881	11865.017342	3213.151580	5886.756395
83.535500	0.279808	0.145316	0.301888	0.441382	4119.924266	11926.739087	3215.691437	5899.987057
84.036000	0.287689	0.146506	0.294419	0.443540	4135.618713	11906.725021	3209.276915	5885.266049
84.536500	0.287439	0.146108	0.301065	0.443500	4135.038114	11899.340929	3213.716122	5885.536054
85.035500	0.287129	0.146836	0.297649	0.450004	4116.384052	11780.966275	3207.153752	5841.606816
85.536500	0.290013	0.146459	0.302434	0.446470	4133.946731	11845.470290	3212.647061	5865.396291
86.037000	0.289909	0.145324	0.298978	0.445188	4137.198795	11848.493750	3211.201586	5874.073771
86.537000	0.287840	0.147331	0.298828	0.446655	4127.464144	11859.567974	3210.130494	5864.144696
87.035000	0.282324	0.145796	0.300429	0.451337	4099.830935	11732.793645	3208.101541	5832.683938
87.537500	0.290962	0.148045	0.299170	0.448631	4130.610622	11833.694894	3209.052791	5850.825506
88.035500	0.292914	0.147894	0.306004	0.449061	4134.799520	11821.796140	3213.300341	5847.933464
88.535500	0.293791	0.146484	0.299941	0.450646	4132.850406	11760.768205	3208.235207	5837.308715
89.035500	0.286103	0.144155	0.295826	0.451173	4110.441499	11702.951761	3205.203982	5833.784529
89.536000	0.291396	0.147460	0.316976	0.450967	4125.392448	11774.067635	3219.422074	5835.158432
90.036500	0.292977	0.146486	0.306371	0.451009	4129.613016	11753.421173	3212.245860	5834.878230
90.536500	0.293082	0.147268	0.307051	0.452465	4125.906789	11739.751501	3211.729619	5825.155150
91.036500	0.294331	0.148063	0.299345	0.458912	4111.762187	11625.966620	3202.475393	5782.496547
91.537000	0.292866	0.146765	0.291290	0.453686	4121.979411	11704.888372	3200.661389	5817.026159
92.035000	0.301265	0.149218	0.309442	0.456165	4138.245167	11704.378438	3210.861236	5800.597055
92.537500	0.294161	0.145752	0.302131	0.454438	4123.462257	11669.339783	3207.185373	5812.033859
93.035500	0.294105	0.145229	0.301052	0.459150	4110.508300	11564.754626	3203.422288	5780.936025
93.536000	0.293812	0.147408	0.299273	0.455606	4119.326424	11679.159012	3204.563320	5804.292790
94.036000	0.296372	0.145628	0.306896	0.454932	4128.162582	11656.931186	3209.992405	5808.756574
94.536000	0.299666	0.148626	0.307034	0.457768	4129.423337	11660.181734	3208.216048	5790.023593
95.037000	0.297743	0.145807	0.310084	0.460885	4115.660119	11541.794555	3208.171791	5769.567624
95.536500	0.296965	0.148251	0.305312	0.458888	4118.971671	11630.208783	3206.355531	5782.651461
96.048000	0.299092	0.149014	0.312091	0.460935	4119.191884	11604.540032	3209.459192	5769.237938
96.537500	0.298301	0.147942	0.317174	0.458843	4122.737929	11624.918132	3214.229506	5782.948840
97.034500	0.300177	0.147151	0.312587	0.459691	4125.549962	11592.212587	3210.608865	5777.382992
97.535000	0.295669	0.148296	0.306841	0.461467	4108.472622	11579.653751	3205.671904	5765.763083
