sample name	sample
index	840
start time	 04-05-2021  10:58:03 AM
880	0.416208
Peak Time (s)	92.535
Peak Height 	0.4162
calc peak height	90,93
Baseline Time (s)	11.534
Baseline Value 	-0.005812
subtract baseline	10,4
Abs	0.310517
Peak Time (s)	92.535
Peak Height 	0.3105
calc peak height	90,93
Baseline Time (s)	10.543
Baseline Value 	0.003555
subtract baseline	10,3
PK_550	0.161555
Peak Time (s)	92.535
Peak Height 	0.1616
calc peak height	90,93
Baseline Time (s)	11.534
Baseline Value 	6.8866E-4
subtract baseline	10,2
PK_880	0.281263
Peak Time (s)	92.535
Peak Height 	0.2813
calc peak height	90,93
Baseline Time (s)	11.534
Baseline Value 	0.002628
subtract baseline	10,1


Time (s)	A880-A510	A880-A775	A880-A975	A880	I510	I775	I975	I880	
0.036000	-0.001140	-0.000802	-0.005199	0.002160	6547.531726	39778.382715	3816.257982	21545.677153
0.537000	-0.002392	-0.000384	-0.002878	0.004888	6513.088205	39582.215125	3815.242559	21428.029651
1.037500	-0.001469	-0.000506	-0.002384	0.007085	6502.127039	39386.298685	3811.006818	21333.797211
1.535500	0.000667	0.000068	0.000173	0.002097	6563.821149	39857.858585	3829.895746	21548.393102
2.035500	0.002080	-0.000376	-0.003995	0.001145	6584.538113	39901.312333	3821.806134	21589.650910
2.535000	-0.001492	-0.000566	-0.003377	0.001069	6553.965398	39891.577663	3823.546671	21592.962756
3.036000	-0.001302	-0.000677	-0.006717	0.005684	6515.618511	39490.129185	3803.755621	21393.839379
3.539000	0.000038	-0.000476	0.001940	0.000839	6569.324065	39918.876980	3837.563327	21602.914178
4.036000	0.000007	-0.000027	0.002718	0.000925	6568.294393	39949.861010	3839.324055	21599.179789
4.536500	-0.000370	-0.000198	-0.004357	0.000388	6569.704461	39981.305370	3822.797596	21622.520827
5.037000	-0.002282	0.000804	-0.001841	0.005046	6512.668628	39669.567828	3817.436437	21421.228782
5.537500	0.001587	-0.000701	-0.003158	-0.000142	6591.512363	39983.603324	3827.144090	21645.559607
6.035000	0.000288	0.000812	-0.003541	0.000430	6575.087956	40064.148317	3824.737519	21620.658894
6.535000	0.000443	0.000047	0.004026	0.000342	6577.218301	40006.166785	3844.151622	21624.499256
7.035000	0.003049	0.000061	-0.002436	0.000040	6602.784852	40033.165313	3828.502188	21637.615102
7.535500	0.000433	0.000155	0.001731	-0.000053	6580.591465	40049.289294	3839.300764	21641.661008
8.036500	0.000658	-0.000273	-0.000999	-0.000232	6584.139881	40027.947228	3832.823739	21649.469096
8.535500	0.000720	-0.000286	0.001944	0.000146	6581.371624	39994.434035	3839.337275	21633.032408
9.036500	-0.000216	0.000417	0.004713	0.000160	6573.037604	40053.389860	3846.373903	21632.391603
9.537000	-0.001148	-0.000815	-0.003247	-0.000570	6571.267942	40010.384302	3827.996843	21664.161227
10.037500	-0.001442	-0.000674	0.001802	-0.000259	6565.983955	39995.881256	3840.007613	21650.647476
10.543000	0.001909	0.001076	0.000000	-0.000014	6593.214237	40124.964910	3834.801154	21639.962925
11.038000	0.001572	0.000303	-0.002917	0.000483	6585.883357	40015.964207	3826.175782	21618.374991
11.534500	0.000000	0.000000	-0.004417	0.000000	6576.333790	40031.430541	3823.620225	21639.366244
12.035500	0.001485	0.001220	-0.000592	0.001082	6579.872325	40043.255046	3830.528214	21592.388368
12.536000	-0.000918	-0.000536	0.003516	-0.000416	6571.936488	40021.138750	3844.783040	21657.449490
13.042000	-0.003504	-0.000374	-0.002332	0.005344	6499.596733	39544.446366	3815.466906	21408.411545
13.536500	0.000922	0.000727	-0.000022	0.000842	6577.036181	40021.577766	3832.577152	21602.781314
14.036500	-0.002854	0.000065	0.000854	0.002657	6528.355960	39809.879096	3830.203407	21524.194021
14.537000	-0.001552	0.000140	0.001061	0.002292	6542.799780	39847.357282	3831.648279	21539.960599
15.035000	-0.003875	-0.000626	-0.002135	0.005851	6492.070047	39480.285950	3814.696194	21386.674294
15.535000	-0.000541	0.000351	-0.003573	0.000523	6567.025189	40016.691580	3824.425416	21616.627997
16.035000	0.000894	-0.000370	0.002119	0.000065	6583.604936	39994.218481	3839.990107	21636.552624
16.535000	-0.001281	0.000515	0.001278	-0.000038	6565.462745	40078.932304	3838.110363	21641.038366
17.035500	-0.002305	-0.000095	-0.006987	0.004123	6520.430202	39671.590938	3806.942062	21460.926398
17.538500	-0.001590	0.000328	-0.003147	0.001669	6547.887516	39916.674681	3822.618556	21566.950203
18.036500	-0.000551	0.000921	0.000437	0.002487	6549.801896	39897.394288	3829.576586	21531.516608
18.536500	0.001053	0.000577	0.000012	0.001889	6569.016942	39919.193571	3830.015812	21557.427550
19.037000	-0.001251	-0.000291	0.001451	0.003479	6535.121509	39709.631153	3829.635336	21488.703931
19.539500	-0.001028	0.000015	-0.003991	0.001775	6551.854867	39880.861960	3820.237530	21562.333728
20.035000	-0.000558	0.000677	0.001819	0.002240	6551.903781	39897.679751	3833.698956	21542.228983
20.535000	-0.002114	0.000357	0.000607	0.002136	6539.279526	39879.253587	3830.895005	21546.711265
21.035500	-0.000846	-0.000110	-0.004171	0.003141	6541.563136	39753.781916	3816.373762	21503.283560
21.535500	-0.000628	0.000033	-0.002746	0.001561	6557.207729	39900.685339	3823.896403	21571.612458
22.035500	0.001154	0.000172	0.002036	0.001448	6573.764205	39922.267440	3836.258799	21576.523784
22.536000	-0.000657	0.000582	-0.002534	0.001817	6554.721150	39925.722976	3823.784014	21560.515719
23.036000	-0.001866	-0.000719	0.002868	0.003004	6533.906901	39713.640038	3834.421883	21509.198134
23.536500	-0.000055	0.000326	0.000736	0.001862	6559.576716	39899.989020	3831.914628	21558.583216
24.036000	-0.001444	0.000155	0.001391	0.001453	6551.041950	39920.377704	3834.610615	21576.314001
24.537000	-0.002617	0.000676	0.002721	0.001800	6537.828845	39935.168320	3837.103736	21561.243219
25.034500	-0.001394	-0.000363	-0.002729	0.001613	6550.084414	39862.467950	3823.807081	21569.364657
25.534500	-0.000999	-0.000324	-0.002027	0.001397	6555.394291	39884.139114	3826.114776	21578.710316
26.035500	0.000825	0.000321	-0.001009	0.001782	6567.959305	39906.339915	3827.709012	21562.031331
26.536000	-0.000752	-0.000313	-0.000030	0.001473	6556.886920	39878.604748	3830.959471	21575.413868
27.039000	-0.003908	-0.000189	-0.003548	0.005997	6490.533592	39504.873200	3810.818155	21380.381671
27.536500	0.000205	0.000813	-0.004881	0.000299	6575.515290	40075.512492	3821.705848	21626.386485
28.036000	0.002705	0.000670	-0.001275	0.000703	6593.913367	40028.542489	3829.759602	21608.812660
28.540000	-0.000521	0.000346	-0.004456	0.000012	6571.665630	40060.074686	3823.491673	21638.859509
29.037500	-0.003308	0.000037	0.000067	0.006740	6489.315131	39461.238871	3817.970253	21348.565925
29.540000	-0.001210	0.000862	0.000755	0.000600	6560.511376	40053.877730	3835.158632	21613.288870
30.034500	-0.000653	-0.000122	-0.001412	0.000431	6566.850826	39984.042579	3830.102810	21620.641236
30.538000	-0.001382	0.000305	0.001089	0.003531	6533.534658	39755.865469	3828.590168	21486.454022
31.035500	-0.002649	-0.000364	-0.001876	0.005212	6508.081498	39556.456212	3816.933192	21414.098259
31.539000	0.002271	0.000061	0.000969	0.000309	6593.558762	40010.146886	3836.441523	21625.935002
32.035500	-0.000362	-0.000586	-0.004766	-0.000431	6576.936969	40018.115840	3823.826464	21658.119081
32.536000	0.000372	0.000264	-0.000171	0.000231	6577.565691	40034.247108	3833.747121	21629.306290
33.037000	-0.000525	0.000805	0.000304	0.003797	6538.658956	39775.798474	3825.941675	21474.986293
33.536000	0.002022	0.000042	-0.000775	0.001908	6577.332483	39871.763842	3827.980834	21556.581049
34.040000	-0.001110	-0.000199	-0.000279	0.001878	6550.249982	39853.789824	3829.308808	21557.891605
34.537500	0.000312	0.001184	-0.001172	0.002926	6553.501848	39882.386929	3824.420459	21512.557752
35.035000	0.000782	0.000034	0.002526	0.002693	6559.621727	39804.143129	3834.342321	21522.622816
35.535000	-0.000075	0.000499	0.001186	0.002664	6552.412639	39846.282793	3831.024315	21523.888791
36.036000	-0.002218	0.000201	0.000322	0.002293	6537.009999	39852.484401	3829.777109	21539.914819
36.538500	-0.000826	0.000081	0.002429	0.002085	6550.914426	39860.026020	3835.637984	21548.920236
37.036000	0.000137	0.000123	-0.001337	0.002778	6553.266269	39804.495225	3824.377786	21518.960441
37.535500	-0.002052	-0.000065	0.001171	0.002518	6536.508305	39810.664972	3831.355043	21530.215110
38.036500	-0.001559	0.000375	-0.004290	0.002948	6537.045820	39811.516455	3816.559412	21511.604523
38.537000	-0.000640	0.000239	0.001154	0.002507	6548.867484	39837.518241	3831.339568	21530.690263
39.034500	-0.002590	-0.000018	-0.001828	0.003674	6521.848719	39716.215178	3820.897644	21480.279462
39.536500	-0.003113	-0.000580	0.003588	0.002019	6531.632630	39809.280465	3838.752368	21551.778766
40.035500	-0.001386	-0.000725	-0.003595	0.002059	6546.275319	39793.543865	3820.518373	21550.070639
40.535500	0.000908	0.000014	-0.002876	0.002226	6564.805909	39842.346840	3821.902842	21542.841574
41.035500	-0.003041	0.000056	-0.000678	0.004299	6512.564475	39669.484752	3822.214566	21453.371016
41.536000	0.000816	0.000102	0.005656	0.002552	6561.158577	39821.980532	3842.668208	21528.739413
42.036500	0.000733	0.000486	0.001292	0.002757	6558.637214	39837.219136	3831.055421	21519.862712
42.537000	-0.002996	-0.000762	-0.001201	0.001529	6536.896409	39835.562367	3827.863178	21573.006273
43.036500	-0.000260	0.000241	-0.001787	0.004378	6535.914267	39678.512613	3819.240216	21449.973110
43.537500	0.002147	0.000527	0.003067	-0.002433	6616.677471	40286.092234	3848.807516	21745.472894
44.035000	0.001288	0.000513	-0.000187	0.000642	6581.990762	40020.369976	3832.664753	21611.457618
44.538000	0.000389	0.000948	0.000162	0.000829	6572.482451	40041.614776	3833.075732	21603.357810
45.035500	-0.002775	-0.000187	0.000289	0.006151	6498.931399	39492.013922	3819.997777	21373.801951
45.535000	0.001554	0.001006	-0.001717	0.000821	6582.766870	40047.317966	3828.348762	21603.713273
46.038500	0.001147	0.000505	0.002354	0.000284	6583.901535	40050.359443	3840.028804	21627.003651
46.536000	0.002081	0.000909	0.004154	0.000587	6589.445805	40059.059963	3843.851620	21613.870385
47.036500	-0.001825	0.000423	0.001407	0.005650	6511.405847	39586.046085	3824.056887	21395.281203
47.537000	-0.000319	0.000408	0.001989	0.001078	6564.117748	39974.089681	3837.079465	21592.563346
48.037500	0.002512	0.000894	-0.002502	0.000702	6592.223697	40047.885652	3826.667751	21608.848878
48.539500	0.001650	0.000681	0.003009	0.000959	6582.390525	40007.591374	3839.977490	21597.698561
49.037000	-0.001922	0.000404	0.001525	0.006367	6504.398098	39523.722652	3822.553419	21364.537931
49.535000	0.002851	0.001539	0.001824	0.000353	6598.277418	40133.244651	3838.502854	21624.008310
50.035000	0.007090	0.002090	0.002499	0.021735	6450.165652	38384.870525	3787.038469	20717.556988
50.538000	-0.006092	0.000259	0.021015	0.104304	5722.279151	32099.948439	3642.527272	17607.614669
51.035500	-0.047876	-0.015498	0.014052	0.168336	5084.189942	27182.657645	3505.390935	15571.675056
51.536000	-0.043759	-0.014453	-0.012193	-0.071698	6829.153825	45276.939220	3996.529133	25028.965965
52.036500	-0.036553	-0.029222	-0.022112	-0.220609	8584.434885	60648.768731	4473.042478	34138.724919
52.534500	-0.012733	-0.044283	-0.010746	-0.257187	9451.769875	63586.847693	4676.116745	36896.375771
53.037000	-0.013800	-0.028184	-0.012373	-0.222998	8930.899056	61106.984211	4522.312918	34311.832314
53.535000	-0.000690	-0.022326	-0.010729	-0.211456	8953.164777	60348.846648	4481.999715	33484.206160
54.035000	0.004253	-0.013883	-0.002402	-0.186578	8675.827626	58211.637630	4416.603864	31773.424057
54.535000	0.012694	-0.007803	0.001915	-0.169466	8559.106828	56821.845584	4367.733197	30652.321703
55.035500	0.023092	-0.000095	0.011191	-0.148622	8421.559676	55212.371229	4324.768713	29345.020386
55.535500	0.039654	0.009472	0.022187	-0.127567	8363.417638	53844.161924	4288.331138	28086.742036
56.036000	0.057137	0.017852	0.034426	-0.111886	8386.661597	52993.206013	4276.053727	27188.418353
56.536500	0.070600	0.027557	0.045842	-0.072046	8055.762077	49628.541051	4178.307522	25046.818365
57.036500	0.078294	0.033289	0.056807	-0.046274	7840.317806	47516.823720	4129.865788	23762.509329
57.537000	0.090724	0.041982	0.075926	0.007408	7380.998951	43116.538190	4023.022158	21320.002357
58.037000	0.104081	0.050063	0.089724	0.043301	7147.901238	40615.651797	3959.042328	19847.414184
58.534500	0.113357	0.057213	0.100823	0.075324	6924.577011	38510.820069	3901.380486	18632.500100
59.035000	0.123176	0.062908	0.113085	0.105922	6730.537026	36520.690348	3853.084742	17552.384257
59.535500	0.130594	0.068518	0.133098	0.132635	6558.487655	34921.387794	3835.939260	16669.689774
60.038500	0.145077	0.076807	0.147281	0.163092	6421.731038	33322.976110	3795.382620	15727.345944
60.536000	0.152431	0.082361	0.157832	0.186514	6289.144396	32092.697429	3764.367366	15046.322157
61.036000	0.158830	0.087961	0.165623	0.200035	6231.930940	31563.315391	3750.850339	14669.566623
61.536500	0.163158	0.091634	0.172419	0.204099	6234.035642	31537.447676	3757.272900	14558.603912
62.036500	0.168741	0.093985	0.171494	0.197076	6336.015971	32164.447456	3771.752297	14751.023068
62.533500	0.172403	0.098674	0.169425	0.195880	6376.116019	32565.035221	3769.667968	14784.101622
63.034000	0.176456	0.100275	0.178834	0.204195	6340.904493	32108.433992	3772.280106	14555.986022
63.540500	0.184932	0.103613	0.182486	0.205792	6397.890423	32226.106615	3777.208872	14512.667001
64.035000	0.189617	0.105920	0.185315	0.211523	6389.173833	31995.077416	3770.257763	14358.553357
64.536000	0.192369	0.108204	0.191287	0.217597	6361.603966	31741.425228	3770.012828	14197.404607
65.036000	0.190997	0.108233	0.190046	0.229068	6256.988931	30988.892161	3740.104127	13899.162760
65.535500	0.201256	0.111957	0.198075	0.229708	6335.046034	31189.716394	3757.381915	13882.729715
66.036500	0.202640	0.113654	0.199625	0.236164	6293.671198	30880.359185	3745.877540	13718.551842
66.537000	0.205665	0.115881	0.202479	0.243061	6262.415758	30580.045620	3736.494004	13545.842505
67.037000	0.202282	0.116452	0.207314	0.255085	6140.734697	29857.035793	3720.022836	13251.193942
67.537000	0.209524	0.118121	0.209050	0.255437	6194.614416	29939.211774	3723.170822	13242.680763
68.034500	0.212834	0.118918	0.218029	0.261443	6173.428517	29615.640077	3729.971448	13098.651979
68.538000	0.213435	0.120528	0.219781	0.267277	6132.682552	29356.104613	3720.647644	12960.660468
69.035500	0.210557	0.120068	0.211616	0.276604	6039.535070	28764.384658	3681.666684	12743.827813
69.538500	0.216498	0.122780	0.223606	0.277362	6078.778030	28881.492908	3706.516706	12726.418075
70.035500	0.217802	0.123850	0.223951	0.281913	6054.140159	28673.231610	3697.135804	12622.473715
70.539000	0.219234	0.125687	0.231869	0.286927	6027.176534	28484.711292	3703.602019	12509.222739
71.036500	0.219414	0.127165	0.230750	0.297838	5947.713662	27932.804593	3677.089457	12267.227156
71.536500	0.224122	0.127033	0.235539	0.294876	6004.306696	28097.102080	3694.087676	12332.318386
72.037500	0.226732	0.128571	0.236643	0.298709	5995.213564	27963.771063	3688.069707	12248.171410
72.534500	0.227250	0.130486	0.235776	0.302652	5969.890053	27846.567633	3677.550924	12162.369457
73.035000	0.227628	0.131397	0.236756	0.312757	5899.056070	27321.943350	3657.916295	11946.045796
73.535000	0.230504	0.131879	0.242483	0.308509	5950.773033	27590.413821	3679.400233	12036.361406
74.036000	0.231829	0.132974	0.243429	0.311994	5935.005759	27454.422354	3673.885423	11962.195844
74.536000	0.232276	0.133749	0.246146	0.315229	5914.755803	27315.102279	3672.763172	11893.864930
75.036000	0.236706	0.134825	0.246269	0.319834	5913.493269	27116.762036	3663.116971	11797.492823
75.538500	0.237126	0.136156	0.248142	0.323878	5887.380013	26965.322801	3658.478893	11713.681276
76.036500	0.237796	0.136553	0.250991	0.326609	5872.631294	26835.803664	3658.732159	11657.525770
76.536500	0.235672	0.137358	0.247394	0.330539	5829.705972	26663.493314	3642.830354	11577.349132
77.037500	0.235950	0.137809	0.249852	0.340182	5764.457170	26163.721107	3627.904742	11383.633862
77.537500	0.246037	0.141938	0.261531	0.340324	5833.785628	26379.158416	3651.988940	11380.804265
78.034500	0.246458	0.140643	0.258861	0.342787	5819.421652	26176.086821	3641.195167	11332.038665
78.535500	0.245775	0.142303	0.266927	0.348179	5777.079794	25976.038814	3646.802982	11226.209512
79.038000	0.244975	0.142772	0.264686	0.357333	5708.971972	25517.155690	3623.143138	11049.535427
79.536000	0.254188	0.145767	0.272242	0.356467	5777.948494	25720.028064	3640.570668	11066.097219
80.036500	0.254819	0.145651	0.270051	0.359667	5760.220346	25545.703686	3629.376004	11005.091779
80.536500	0.253441	0.145673	0.268019	0.363349	5725.599646	25354.845533	3617.662446	10935.451819
81.036500	0.255152	0.147041	0.272826	0.366352	5716.820110	25270.101480	3621.343266	10879.085897
81.536500	0.256580	0.148171	0.276353	0.369840	5702.884654	25148.451338	3621.423655	10814.112042
82.037500	0.256020	0.148055	0.276366	0.372235	5683.004076	25019.586917	3616.564311	10769.782340
82.534500	0.256702	0.148567	0.284839	0.376954	5656.067230	24805.408157	3624.233458	10683.179161
83.035000	0.260520	0.151059	0.285395	0.380471	5658.064023	24753.499325	3618.180029	10619.238633
83.538000	0.263460	0.150573	0.282036	0.383000	5660.802734	24601.687468	3606.263023	10573.591523
84.035500	0.262987	0.152431	0.287333	0.386453	5634.797731	24521.733103	3609.976687	10511.668474
84.535500	0.263460	0.152615	0.284045	0.389085	5620.601991	24399.638928	3598.107621	10464.817414
85.036500	0.267597	0.153138	0.287511	0.391976	5628.784377	24282.212638	3599.252181	10413.663442
85.536500	0.269195	0.154146	0.287521	0.394578	5622.187064	24203.470422	3594.098310	10367.918929
86.037000	0.269668	0.154890	0.288646	0.396479	5612.822483	24146.537561	3592.561706	10334.667353
86.537000	0.266533	0.155051	0.294852	0.400788	5564.541136	23943.661580	3596.325014	10259.854273
87.037500	0.270541	0.155355	0.297499	0.400466	5592.527467	23974.147907	3602.244864	10265.412903
87.536000	0.269611	0.155259	0.292927	0.401802	5577.838828	23904.415057	3590.500667	10242.341121
88.035000	0.271365	0.156580	0.298798	0.404595	5571.136176	23833.005810	3596.600160	10194.350366
88.536000	0.273697	0.157698	0.295079	0.409043	5557.533683	23672.402136	3580.514718	10118.559669
89.035500	0.271865	0.156624	0.298604	0.412944	5520.997270	23434.669544	3579.782168	10052.722678
89.536500	0.276602	0.158320	0.301265	0.409269	5574.770415	23691.457400	3592.224505	10114.734102
90.036500	0.278856	0.158159	0.295492	0.410430	5581.835280	23627.902518	3578.616194	10095.078671
90.537000	0.271193	0.159138	0.303493	0.414913	5504.327253	23460.571427	3585.493904	10019.714665
91.037000	0.276548	0.159859	0.304483	0.413271	5548.710026	23573.282057	3590.673544	10047.225806
91.537000	0.274708	0.159008	0.299822	0.412488	5541.958904	23570.024624	3583.051339	10060.386293
92.035000	0.280279	0.161000	0.306166	0.414941	5561.923526	23548.007095	3590.698711	10019.240926
92.534500	0.281263	0.161555	0.310517	0.416208	5560.108259	23514.045383	3596.812474	9998.091055
93.038000	0.277500	0.160512	0.304154	0.421429	5503.010468	23217.382583	3574.079384	9911.540096
93.624000	0.279921	0.160716	0.304584	0.416114	5552.103200	23478.523802	3585.277372	9999.651790
94.036000	0.279109	0.162394	0.309277	0.417895	5535.548553	23473.603521	3591.008335	9969.998546
94.536000	0.278797	0.161590	0.303160	0.421683	5509.574085	23256.196130	3571.667408	9907.357354
95.036500	0.278214	0.162873	0.307292	0.425498	5481.987370	23137.289423	3572.279513	9844.813984
95.536500	0.282694	0.164357	0.310713	0.420134	5544.129022	23460.491739	3589.425219	9932.907929
96.037000	0.283765	0.163795	0.310466	0.420216	5550.447672	23429.885806	3588.776449	9931.555083
