sample name	sample
index	136
start time	 02-15-2021  01:37:58 PM


Wavelength (nm)	Absorbance
494.344910	NaN
494.563924	NaN
494.782919	NaN
495.001897	0.417014
495.220856	NaN
495.439797	NaN
495.658719	1.633072
495.877624	0.327260
496.096510	0.284129
496.315378	0.229191
496.534227	0.262548
496.753059	0.587048
496.971872	0.878491
497.190667	0.195052
497.409444	0.153717
497.628203	0.151334
497.846943	0.152337
498.065665	0.153191
498.284369	0.148240
498.503055	0.151805
498.721723	0.149904
498.940372	0.146828
499.159003	0.148033
499.377616	0.147708
499.596210	0.148613
499.814787	0.147692
500.033345	0.146873
500.251885	0.147153
500.470406	0.146172
500.688910	0.147363
500.907395	0.145236
501.125862	0.146802
501.344311	0.149218
501.562742	0.148204
501.781154	0.150777
501.999548	0.150736
502.217924	0.153217
502.436282	0.156775
502.654621	0.156952
502.872942	0.161053
503.091245	0.158838
503.309530	0.159707
503.527797	0.158052
503.746045	0.157176
503.964275	0.158096
504.182487	0.158523
504.400681	0.155895
504.618856	0.156017
504.837013	0.156625
505.055152	0.157228
505.273273	0.153943
505.491376	0.157783
505.709460	0.159604
505.927526	0.160899
506.145574	0.161288
506.363604	0.159923
506.581615	0.159421
506.799608	0.160743
507.017583	0.160288
507.235540	0.161941
507.453478	0.159130
507.671399	0.159305
507.889301	0.159767
508.107185	0.158885
508.325050	0.157284
508.542898	0.157450
508.760727	0.154694
508.978538	0.154935
509.196330	0.155675
509.414105	0.157331
509.631861	0.154836
509.849599	0.154952
510.067319	0.154060
510.285021	0.157258
510.502704	0.156204
510.720369	0.158777
510.938016	0.159266
511.155645	0.158414
511.373255	0.157221
511.590848	0.155919
511.808422	0.153591
512.025977	0.154864
512.243515	0.154822
512.461034	0.154726
512.678536	0.155575
512.896018	0.156283
513.113483	0.158788
513.330930	0.159629
513.548358	0.162728
513.765768	0.164563
513.983160	0.165013
514.200533	0.166345
514.417889	0.167992
514.635226	0.167731
514.852545	0.166040
515.069845	0.165059
515.287128	0.166209
515.504392	0.165458
515.721638	0.166874
515.938866	0.167512
516.156075	0.168015
516.373267	0.168899
516.590440	0.168234
516.807594	0.172191
517.024731	0.172826
517.241850	0.173358
517.458950	0.172859
517.676032	0.173242
517.893095	0.172799
518.110141	0.172359
518.327168	0.172187
518.544177	0.171813
518.761168	0.169744
518.978141	0.169144
519.195095	0.169666
519.412031	0.170794
519.628949	0.169325
519.845849	0.169374
520.062731	0.168641
520.279594	0.169179
520.496439	0.169540
520.713266	0.169237
520.930074	0.170523
521.146865	0.168318
521.363637	0.168913
521.580391	0.169979
521.797127	0.170004
522.013844	0.170728
522.230543	0.170414
522.447224	0.171547
522.663887	0.172283
522.880532	0.172164
523.097158	0.174991
523.313766	0.173713
523.530356	0.174619
523.746928	0.174526
523.963481	0.174203
524.180017	0.175816
524.396534	0.175660
524.613032	0.174711
524.829513	0.175792
525.045975	0.175361
525.262420	0.177801
525.478845	0.178281
525.695253	0.178576
525.911643	0.181563
526.128014	0.180347
526.344367	0.179945
526.560702	0.181258
526.777018	0.179976
526.993316	0.180368
527.209597	0.179454
527.425858	0.178324
527.642102	0.179044
527.858328	0.176733
528.074535	0.178683
528.290724	0.178916
528.506894	0.179609
528.723047	0.179876
528.939181	0.179944
529.155297	0.180203
529.371395	0.180156
529.587475	0.181844
529.803536	0.182676
530.019579	0.181047
530.235604	0.182425
530.451611	0.182772
530.667600	0.183744
530.883570	0.183968
531.099522	0.184784
531.315456	0.184684
531.531372	0.184645
531.747269	0.184307
531.963148	0.185324
532.179009	0.184039
532.394852	0.183360
532.610676	0.183109
532.826482	0.182273
533.042271	0.182612
533.258040	0.182507
533.473792	0.182040
533.689525	0.182934
533.905240	0.183316
534.120937	0.183303
534.336616	0.183897
534.552277	0.183911
534.767919	0.185087
534.983543	0.184655
535.199149	0.185540
535.414736	0.185873
535.630306	0.187075
535.845857	0.186889
536.061390	0.188801
536.276904	0.189616
536.492401	0.191351
536.707879	0.191735
536.923339	0.192667
537.138781	0.193718
537.354204	0.194009
537.569610	0.192910
537.784997	0.194412
538.000366	0.193057
538.215716	0.192380
538.431049	0.191168
538.646363	0.192312
538.861659	0.191645
539.076937	0.190942
539.292196	0.191119
539.507438	0.191339
539.722661	0.191296
539.937866	0.193420
540.153052	0.194534
540.368221	0.195278
540.583371	0.194962
540.798503	0.196298
541.013617	0.197733
541.228712	0.197626
541.443789	0.199217
541.658848	0.199692
541.873889	0.199947
542.088912	0.199721
542.303916	0.201321
542.518902	0.201553
542.733870	0.201467
542.948820	0.201909
543.163752	0.203285
543.378665	0.202271
543.593560	0.202455
543.808437	0.203255
544.023295	0.203605
544.238136	0.204024
544.452958	0.205300
544.667762	0.205989
544.882548	0.206364
545.097315	0.207186
545.312064	0.208104
545.526795	0.207992
545.741508	0.207213
545.956203	0.206212
546.170879	0.205010
546.385537	0.204642
546.600177	0.204763
546.814799	0.204386
547.029402	0.204073
547.243988	0.204429
547.458555	0.205714
547.673103	0.206648
547.887634	0.208565
548.102146	0.209135
548.316640	0.208995
548.531116	0.209537
548.745574	0.211121
548.960013	0.211351
549.174435	0.211365
549.388838	0.210579
549.603222	0.209385
549.817589	0.209333
550.031937	0.210037
550.246267	0.210813
550.460579	0.211053
550.674873	0.210439
550.889148	0.211358
551.103405	0.211802
551.317644	0.211889
551.531865	0.213564
551.746068	0.212983
551.960252	0.212900
552.174418	0.212140
552.388566	0.212827
552.602696	0.213334
552.816807	0.213248
553.030900	0.212876
553.244975	0.213738
553.459032	0.213425
553.673070	0.214108
553.887091	0.214395
554.101093	0.215147
554.315077	0.214614
554.529042	0.215123
554.742990	0.214877
554.956919	0.215299
555.170830	0.214622
555.384722	0.214538
555.598597	0.214658
555.812453	0.214736
556.026291	0.216112
556.240111	0.216442
556.453913	0.216285
556.667696	0.217513
556.881461	0.218398
557.095208	0.218941
557.308937	0.219631
557.522647	0.219991
557.736339	0.221124
557.950013	0.220087
558.163669	0.220011
558.377307	0.220171
558.590926	0.219377
558.804527	0.220252
559.018110	0.220887
559.231675	0.221207
559.445221	0.221662
559.658749	0.221142
559.872259	0.222058
560.085751	0.222574
560.299225	0.222782
560.512680	0.223266
560.726117	0.222023
560.939536	0.222051
561.152937	0.222108
561.366319	0.222679
561.579683	0.222502
561.793029	0.222539
562.006357	0.222616
562.219667	0.221864
562.432958	0.221848
562.646231	0.222882
562.859486	0.223542
563.072723	0.223582
563.285941	0.223493
563.499141	0.224104
563.712323	0.223851
563.925487	0.224585
564.138632	0.225336
564.351760	0.226033
564.564869	0.226298
564.777960	0.226610
564.991032	0.227385
565.204087	0.227578
565.417123	0.227466
565.630141	0.228052
565.843140	0.227608
566.056122	0.227884
566.269085	0.227878
566.482030	0.227816
566.694957	0.227954
566.907866	0.227539
567.120756	0.227856
567.333628	0.229192
567.546482	0.229069
567.759318	0.230011
567.972135	0.230702
568.184935	0.230467
568.397716	0.230953
568.610478	0.230770
568.823223	0.232004
569.035949	0.232639
569.248657	0.232813
569.461347	0.234503
569.674019	0.234603
569.886672	0.234607
570.099308	0.234533
570.311925	0.234207
570.524523	0.234625
570.737104	0.234012
570.949666	0.233657
571.162210	0.232540
571.374736	0.231731
571.587244	0.232052
571.799733	0.232192
572.012205	0.232421
572.224658	0.232663
572.437092	0.233309
572.649509	0.233759
572.861907	0.234021
573.074287	0.234788
573.286649	0.235242
573.498993	0.235609
573.711318	0.236286
573.923625	0.236805
574.135914	0.237718
574.348185	0.236918
574.560438	0.237231
574.772672	0.237886
574.984888	0.238855
575.197086	0.239592
575.409266	0.239450
575.621427	0.239790
575.833570	0.239912
576.045695	0.239683
576.257802	0.240054
576.469890	0.239797
576.681961	0.238996
576.894013	0.238848
577.106046	0.238428
577.318062	0.238891
577.530059	0.238654
577.742039	0.238856
577.954000	0.238790
578.165942	0.239371
578.377867	0.239283
578.589773	0.240150
578.801661	0.240636
579.013531	0.240633
579.225382	0.240135
579.437216	0.239710
579.649031	0.240168
579.860828	0.240533
580.072606	0.241024
580.284367	0.241897
580.496109	0.242462
580.707833	0.241544
580.919539	0.241685
581.131227	0.242288
581.342896	0.243646
581.554547	0.243519
581.766180	0.243916
581.977795	0.242789
582.189391	0.242657
582.400969	0.242238
582.612529	0.243396
582.824071	0.243758
583.035595	0.244282
583.247100	0.243871
583.458587	0.244375
583.670056	0.244886
583.881506	0.246446
584.092939	0.247155
584.304353	0.247857
584.515749	0.247519
584.727127	0.247580
584.938486	0.247446
585.149828	0.247282
585.361151	0.247807
585.572456	0.247797
585.783742	0.247726
585.995011	0.247847
586.206261	0.248735
586.417493	0.250160
586.628706	0.250012
586.839902	0.249679
587.051079	0.250172
587.262238	0.249561
587.473379	0.249269
587.684502	0.249169
587.895606	0.249460
588.106692	0.249051
588.317760	0.248308
588.528810	0.249256
588.739841	0.249512
588.950855	0.249372
589.161850	0.249468
589.372827	0.249656
589.583785	0.250378
589.794726	0.251003
590.005648	0.250417
590.216552	0.250664
590.427437	0.250428
590.638305	0.251366
590.849154	0.251633
591.059985	0.252587
591.270798	0.253370
591.481592	0.253118
591.692369	0.252849
591.903127	0.253771
592.113867	0.253466
592.324588	0.253707
592.535292	0.253820
592.745977	0.255028
592.956644	0.255430
593.167293	0.255363
593.377923	0.254895
593.588536	0.255547
593.799130	0.255597
594.009706	0.256713
594.220263	0.257612
594.430803	0.258008
594.641324	0.257327
594.851827	0.257401
595.062312	0.257361
595.272778	0.258896
595.483227	0.258295
595.693657	0.258037
595.904069	0.257615
596.114462	0.257428
596.324838	0.257820
596.535195	0.258156
596.745534	0.257885
596.955855	0.257642
597.166157	0.256918
597.376441	0.257272
597.586707	0.257117
597.796955	0.256991
598.007185	0.257371
598.217396	0.256963
598.427589	0.256238
598.637764	0.256134
598.847921	0.256705
599.058060	0.257465
599.268180	0.258674
599.478282	0.260022
599.688366	0.260350
599.898431	0.259465
600.108479	0.259651
600.318508	0.260414
600.528519	0.261054
600.738511	0.261442
600.948486	0.261522
601.158442	0.260813
601.368380	0.259941
601.578300	0.259923
601.788202	0.260858
601.998085	0.260618
602.207950	0.261717
602.417797	0.262294
602.627626	0.262403
602.837436	0.262452
603.047228	0.262507
603.257002	0.263486
603.466758	0.264482
603.676496	0.264330
603.886215	0.264720
604.095916	0.263964
604.305599	0.263903
604.515264	0.264885
604.724910	0.264895
604.934538	0.265948
605.144148	0.266225
605.353740	0.266241
605.563314	0.266841
605.772869	0.267528
605.982406	0.268197
606.191925	0.267792
606.401425	0.267291
606.610908	0.268074
606.820372	0.267972
607.029818	0.267277
607.239246	0.267422
607.448655	0.267173
607.658047	0.267295
607.867420	0.267214
608.076775	0.267553
608.286111	0.267790
608.495430	0.267837
608.704730	0.267397
608.914012	0.268402
609.123275	0.268312
609.332521	0.268573
609.541748	0.268442
609.750957	0.269239
609.960148	0.270027
610.169321	0.270444
610.378475	0.270817
610.587611	0.270501
610.796729	0.270368
611.005829	0.270982
611.214910	0.271085
611.423974	0.271075
611.633019	0.271619
611.842045	0.271709
612.051054	0.271743
612.260044	0.271383
612.469017	0.271600
612.677970	0.271312
612.886906	0.271185
613.095824	0.271831
613.304723	0.272416
613.513604	0.272555
613.722467	0.272548
613.931311	0.272702
614.140138	0.272649
614.348946	0.273130
614.557736	0.273693
614.766507	0.273836
614.975261	0.273369
615.183996	0.273986
615.392713	0.272984
615.601412	0.272417
615.810092	0.272669
616.018754	0.273242
616.227399	0.273682
616.436024	0.273811
616.644632	0.274018
616.853222	0.274854
617.061793	0.274102
617.270346	0.274965
617.478880	0.276005
617.687397	0.275752
617.895895	0.276253
618.104375	0.276493
618.312837	0.276969
618.521281	0.276901
618.729706	0.276711
618.938113	0.277328
619.146502	0.277438
619.354873	0.277637
619.563226	0.278039
619.771560	0.277845
619.979876	0.277888
620.188174	0.277216
620.396453	0.278233
620.604715	0.278070
620.812958	0.278350
621.021183	0.278364
621.229390	0.278537
621.437578	0.279405
621.645748	0.279580
621.853900	0.279888
622.062034	0.280756
622.270150	0.280814
622.478247	0.281507
622.686326	0.281759
622.894387	0.281833
623.102430	0.281330
623.310454	0.281194
623.518461	0.281601
623.726449	0.281856
623.934418	0.282439
624.142370	0.282181
624.350303	0.282546
624.558218	0.282517
624.766115	0.283178
624.973994	0.284330
625.181855	0.285142
625.389697	0.285487
625.597521	0.285505
625.805327	0.284749
626.013114	0.284685
626.220883	0.284808
626.428634	0.284291
626.636367	0.284329
626.844082	0.283915
627.051778	0.283280
627.259457	0.282732
627.467117	0.283136
627.674758	0.283680
627.882382	0.283720
628.089987	0.283933
628.297574	0.284545
628.505143	0.284866
628.712694	0.285011
628.920226	0.285785
629.127740	0.286576
629.335236	0.286401
629.542714	0.286901
629.750174	0.287936
629.957615	0.287258
630.165038	0.287230
630.372443	0.286969
630.579829	0.287551
630.787198	0.287365
630.994548	0.287359
631.201880	0.288109
631.409194	0.288090
631.616489	0.287520
631.823766	0.288132
632.031025	0.288671
632.238266	0.289521
632.445489	0.289260
632.652693	0.289289
632.859879	0.290097
633.067047	0.290420
633.274197	0.291242
633.481329	0.291999
633.688442	0.292298
633.895537	0.292971
634.102614	0.292827
634.309672	0.292590
634.516713	0.292566
634.723735	0.292097
634.930739	0.291914
635.137724	0.292045
635.344692	0.292214
635.551641	0.293187
635.758572	0.293271
635.965485	0.292632
636.172379	0.293862
636.379256	0.294036
636.586114	0.294303
636.792954	0.294449
636.999775	0.294552
637.206579	0.294073
637.413364	0.293274
637.620131	0.293399
637.826880	0.294632
638.033610	0.294632
638.240323	0.294866
638.447017	0.295032
638.653692	0.295420
638.860350	0.295816
639.066990	0.296281
639.273611	0.297015
639.480214	0.296801
639.686798	0.296950
639.893365	0.296916
640.099913	0.297313
640.306443	0.297457
640.512955	0.297232
640.719449	0.297201
640.925924	0.297615
641.132381	0.298052
641.338820	0.299082
641.545241	0.299207
641.751644	0.299507
641.958028	0.299561
642.164394	0.300168
642.370742	0.301076
642.577071	0.300996
642.783383	0.301922
642.989676	0.301519
643.195951	0.301837
643.402207	0.301979
643.608446	0.302320
643.814666	0.303143
644.020868	0.303258
644.227052	0.303125
644.433218	0.303487
644.639365	0.303098
644.845494	0.303847
645.051605	0.303984
645.257698	0.304201
645.463772	0.304352
645.669828	0.304388
645.875866	0.304382
646.081886	0.304901
646.287888	0.304795
646.493871	0.304653
646.699836	0.304493
646.905783	0.304246
647.111712	0.304249
647.317622	0.304895
647.523514	0.304888
647.729388	0.305376
647.935244	0.305169
648.141082	0.305548
648.346901	0.306241
648.552702	0.306525
648.758485	0.306742
648.964250	0.307555
649.169996	0.307415
649.375724	0.307522
649.581434	0.307421
649.787126	0.307947
649.992800	0.308508
650.198455	0.308886
650.404092	0.309237
650.609711	0.309585
650.815311	0.309431
651.020894	0.309671
651.226458	0.309947
651.432004	0.310865
651.637532	0.311090
651.843041	0.311600
652.048532	0.311118
652.254006	0.311698
652.459460	0.311872
652.664897	0.312078
652.870315	0.312071
653.075716	0.312531
653.281097	0.312027
653.486461	0.312183
653.691807	0.311881
653.897134	0.312643
654.102443	0.312622
654.307734	0.312411
654.513006	0.312440
654.718261	0.312833
654.923497	0.313580
655.128715	0.314169
655.333915	0.314080
655.539096	0.314809
655.744259	0.315228
655.949404	0.315301
656.154531	0.315649
656.359640	0.316208
656.564730	0.316448
656.769802	0.316597
656.974856	0.316492
657.179892	0.316796
657.384909	0.317139
657.589908	0.317279
657.794889	0.317680
657.999852	0.318612
658.204797	0.319032
658.409723	0.319347
658.614631	0.318972
658.819521	0.319090
659.024393	0.319590
659.229246	0.319124
659.434081	0.319296
659.638898	0.319058
659.843697	0.319082
660.048478	0.319300
660.253240	0.319587
660.457984	0.319956
660.662710	0.320585
660.867417	0.320370
661.072107	0.321047
661.276778	0.320803
661.481431	0.321365
661.686066	0.321780
661.890682	0.321403
662.095281	0.321350
662.299861	0.321395
662.504422	0.321896
662.708966	0.322543
662.913491	0.322732
663.117999	0.323320
663.322488	0.323955
663.526958	0.323406
663.731411	0.324472
663.935845	0.324681
664.140261	0.324806
664.344659	0.324987
664.549038	0.325182
664.753400	0.325316
664.957743	0.325296
665.162068	0.325355
665.366375	0.325606
665.570663	0.325188
665.774933	0.326026
665.979185	0.326824
666.183419	0.326775
666.387635	0.326926
666.591832	0.327350
666.796011	0.328025
667.000172	0.328529
667.204315	0.329315
667.408439	0.330101
667.612545	0.330213
667.816634	0.330520
668.020703	0.330772
668.224755	0.331368
668.428788	0.331209
668.632803	0.331431
668.836800	0.331815
669.040779	0.332611
669.244739	0.332501
669.448681	0.332427
669.652605	0.333044
669.856511	0.333859
670.060399	0.334496
670.264268	0.334729
670.468119	0.335328
670.671952	0.335663
670.875767	0.335114
671.079563	0.335695
671.283341	0.335946
671.487101	0.336060
671.690843	0.335864
671.894567	0.335735
672.098272	0.336287
672.301959	0.336108
672.505628	0.335916
672.709278	0.336569
672.912911	0.336888
673.116525	0.337406
673.320121	0.336983
673.523699	0.337391
673.727258	0.337495
673.930799	0.337706
674.134322	0.338246
674.337827	0.338386
674.541314	0.338080
674.744782	0.338092
674.948232	0.338242
675.151664	0.339197
675.355078	0.339018
675.558474	0.339102
675.761851	0.339039
675.965210	0.338982
676.168551	0.339308
676.371873	0.339790
676.575178	0.339936
676.778464	0.340648
676.981732	0.340500
677.184981	0.341452
677.388213	0.341587
677.591426	0.342573
677.794621	0.343017
677.997798	0.343475
678.200956	0.343645
678.404097	0.343951
678.607219	0.343978
678.810323	0.344253
679.013408	0.344176
679.216476	0.344667
679.419525	0.344311
679.622556	0.344077
679.825569	0.343991
680.028563	0.344469
680.231540	0.344764
680.434498	0.345232
680.637438	0.345835
680.840359	0.346384
681.043263	0.346816
681.246148	0.347109
681.449015	0.347710
681.651864	0.347933
681.854694	0.347892
682.057506	0.348007
682.260301	0.347342
682.463076	0.347105
682.665834	0.346584
682.868573	0.346597
683.071295	0.346756
683.273998	0.347173
683.476682	0.347032
683.679349	0.347468
683.881997	0.348053
684.084627	0.349061
684.287239	0.349742
684.489833	0.350464
684.692408	0.350810
684.894965	0.351169
685.097504	0.351141
685.300025	0.352312
685.502527	0.352757
685.705012	0.352609
685.907478	0.352369
686.109925	0.352345
686.312355	0.352359
686.514766	0.352314
686.717159	0.352899
686.919534	0.352964
687.121891	0.352888
687.324230	0.353147
687.526550	0.353691
687.728852	0.354200
687.931136	0.354346
688.133401	0.354773
688.335649	0.355131
688.537878	0.354926
688.740089	0.355336
688.942281	0.355580
689.144456	0.355494
689.346612	0.355302
689.548750	0.356155
689.750870	0.355743
689.952971	0.356081
690.155055	0.356526
690.357120	0.356905
690.559167	0.357125
690.761195	0.357419
690.963206	0.358044
691.165198	0.358580
691.367172	0.357483
691.569128	0.358241
691.771065	0.358717
691.972984	0.358749
692.174885	0.359320
692.376768	0.359771
692.578633	0.359750
692.780479	0.360232
692.982308	0.360456
693.184118	0.361302
693.385909	0.361406
693.587683	0.360853
