sample name	sample
index	398
start time	 03-08-2021  10:15:59 AM


Wavelength (nm)	Absorbance
494.344910	-0.091964
494.563924	-0.091964
494.782919	-0.091964
495.001897	-0.014646
495.220856	-0.042544
495.439797	-0.033010
495.658719	-0.015470
495.877624	0.005179
496.096510	0.002921
496.315378	-0.010553
496.534227	-0.002626
496.753059	-0.017542
496.971872	0.002482
497.190667	0.091723
497.409444	0.131672
497.628203	0.141370
497.846943	0.148188
498.065665	0.154386
498.284369	0.156940
498.503055	0.158555
498.721723	0.160503
498.940372	0.160686
499.159003	0.161599
499.377616	0.162643
499.596210	0.162595
499.814787	0.161289
500.033345	0.159764
500.251885	0.161068
500.470406	0.162152
500.688910	0.162432
500.907395	0.163575
501.125862	0.163948
501.344311	0.162991
501.562742	0.163876
501.781154	0.165278
501.999548	0.166744
502.217924	0.167055
502.436282	0.166524
502.654621	0.167468
502.872942	0.166946
503.091245	0.167275
503.309530	0.167816
503.527797	0.168804
503.746045	0.169078
503.964275	0.169289
504.182487	0.168885
504.400681	0.169841
504.618856	0.169660
504.837013	0.170800
505.055152	0.170841
505.273273	0.170494
505.491376	0.169825
505.709460	0.169385
505.927526	0.168739
506.145574	0.169105
506.363604	0.168769
506.581615	0.169152
506.799608	0.168351
507.017583	0.168904
507.235540	0.169074
507.453478	0.169772
507.671399	0.169965
507.889301	0.169607
508.107185	0.169599
508.325050	0.170137
508.542898	0.169735
508.760727	0.170633
508.978538	0.169410
509.196330	0.169411
509.414105	0.168718
509.631861	0.169102
509.849599	0.170352
510.067319	0.171311
510.285021	0.171299
510.502704	0.172214
510.720369	0.172374
510.938016	0.173524
511.155645	0.173645
511.373255	0.175188
511.590848	0.175722
511.808422	0.176342
512.025977	0.176154
512.243515	0.176195
512.461034	0.176237
512.678536	0.176446
512.896018	0.175901
513.113483	0.176795
513.330930	0.175855
513.548358	0.175699
513.765768	0.176341
513.983160	0.176535
514.200533	0.177030
514.417889	0.176854
514.635226	0.177428
514.852545	0.178764
515.069845	0.179052
515.287128	0.180767
515.504392	0.180711
515.721638	0.180278
515.938866	0.180516
516.156075	0.180539
516.373267	0.181095
516.590440	0.181421
516.807594	0.181629
517.024731	0.181592
517.241850	0.179793
517.458950	0.180874
517.676032	0.181266
517.893095	0.181749
518.110141	0.182326
518.327168	0.183060
518.544177	0.182687
518.761168	0.182824
518.978141	0.183879
519.195095	0.185162
519.412031	0.185579
519.628949	0.185165
519.845849	0.185845
520.062731	0.186671
520.279594	0.186338
520.496439	0.187380
520.713266	0.187323
520.930074	0.186443
521.146865	0.186921
521.363637	0.187056
521.580391	0.188252
521.797127	0.187628
522.013844	0.187163
522.230543	0.187651
522.447224	0.187163
522.663887	0.187938
522.880532	0.188644
523.097158	0.189130
523.313766	0.189411
523.530356	0.189038
523.746928	0.189774
523.963481	0.190392
524.180017	0.190541
524.396534	0.191371
524.613032	0.191386
524.829513	0.191973
525.045975	0.191945
525.262420	0.191880
525.478845	0.192884
525.695253	0.193321
525.911643	0.193266
526.128014	0.193511
526.344367	0.193654
526.560702	0.194714
526.777018	0.195344
526.993316	0.195855
527.209597	0.196184
527.425858	0.196543
527.642102	0.196497
527.858328	0.197598
528.074535	0.198414
528.290724	0.199126
528.506894	0.198906
528.723047	0.198802
528.939181	0.198312
529.155297	0.198217
529.371395	0.197987
529.587475	0.198701
529.803536	0.198798
530.019579	0.198847
530.235604	0.198945
530.451611	0.199254
530.667600	0.199790
530.883570	0.201301
531.099522	0.201993
531.315456	0.202426
531.531372	0.203423
531.747269	0.203574
531.963148	0.203829
532.179009	0.203715
532.394852	0.204273
532.610676	0.205011
532.826482	0.204806
533.042271	0.205622
533.258040	0.205869
533.473792	0.206045
533.689525	0.206000
533.905240	0.206176
534.120937	0.207052
534.336616	0.207366
534.552277	0.207767
534.767919	0.207915
534.983543	0.208211
535.199149	0.208594
535.414736	0.208341
535.630306	0.209517
535.845857	0.210077
536.061390	0.210219
536.276904	0.210514
536.492401	0.210773
536.707879	0.211307
536.923339	0.211606
537.138781	0.211771
537.354204	0.212167
537.569610	0.211717
537.784997	0.212023
538.000366	0.212388
538.215716	0.212772
538.431049	0.212592
538.646363	0.212951
538.861659	0.213508
539.076937	0.213902
539.292196	0.214150
539.507438	0.214336
539.722661	0.214634
539.937866	0.214662
540.153052	0.214722
540.368221	0.214627
540.583371	0.215014
540.798503	0.214851
541.013617	0.215391
541.228712	0.215447
541.443789	0.215945
541.658848	0.216387
541.873889	0.217318
542.088912	0.217560
542.303916	0.218113
542.518902	0.218772
542.733870	0.218668
542.948820	0.218946
543.163752	0.219695
543.378665	0.220285
543.593560	0.220421
543.808437	0.220092
544.023295	0.220429
544.238136	0.221192
544.452958	0.221109
544.667762	0.222169
544.882548	0.222410
545.097315	0.222335
545.312064	0.222616
545.526795	0.222812
545.741508	0.223175
545.956203	0.223080
546.170879	0.223082
546.385537	0.223344
546.600177	0.223341
546.814799	0.223568
547.029402	0.223647
547.243988	0.224111
547.458555	0.224515
547.673103	0.224580
547.887634	0.224752
548.102146	0.224945
548.316640	0.224970
548.531116	0.225132
548.745574	0.225564
548.960013	0.226349
549.174435	0.226250
549.388838	0.226297
549.603222	0.226755
549.817589	0.227596
550.031937	0.227763
550.246267	0.228524
550.460579	0.228967
550.674873	0.229406
550.889148	0.229827
551.103405	0.230070
551.317644	0.230277
551.531865	0.230673
551.746068	0.230658
551.960252	0.231236
552.174418	0.231145
552.388566	0.230957
552.602696	0.231164
552.816807	0.231283
553.030900	0.231235
553.244975	0.231675
553.459032	0.231731
553.673070	0.232145
553.887091	0.231886
554.101093	0.232189
554.315077	0.232887
554.529042	0.232963
554.742990	0.232476
554.956919	0.232907
555.170830	0.233085
555.384722	0.233592
555.598597	0.233814
555.812453	0.234657
556.026291	0.234923
556.240111	0.234915
556.453913	0.234801
556.667696	0.235761
556.881461	0.236202
557.095208	0.236562
557.308937	0.237059
557.522647	0.237343
557.736339	0.237106
557.950013	0.237397
558.163669	0.237489
558.377307	0.237831
558.590926	0.238058
558.804527	0.238159
559.018110	0.238214
559.231675	0.238013
559.445221	0.237999
559.658749	0.238282
559.872259	0.238379
560.085751	0.238883
560.299225	0.239164
560.512680	0.239147
560.726117	0.239514
560.939536	0.239590
561.152937	0.239825
561.366319	0.240611
561.579683	0.240254
561.793029	0.240194
562.006357	0.240482
562.219667	0.241028
562.432958	0.240934
562.646231	0.240974
562.859486	0.241497
563.072723	0.241590
563.285941	0.241225
563.499141	0.242037
563.712323	0.242388
563.925487	0.242709
564.138632	0.242861
564.351760	0.243482
564.564869	0.243422
564.777960	0.243315
564.991032	0.243197
565.204087	0.243903
565.417123	0.244231
565.630141	0.244683
565.843140	0.244741
566.056122	0.244657
566.269085	0.244404
566.482030	0.244810
566.694957	0.244931
566.907866	0.245591
567.120756	0.245386
567.333628	0.245179
567.546482	0.245473
567.759318	0.245175
567.972135	0.245222
568.184935	0.245349
568.397716	0.245471
568.610478	0.246199
568.823223	0.246060
569.035949	0.246109
569.248657	0.246598
569.461347	0.246640
569.674019	0.246865
569.886672	0.247201
570.099308	0.247586
570.311925	0.247770
570.524523	0.247590
570.737104	0.247650
570.949666	0.248027
571.162210	0.248419
571.374736	0.248187
571.587244	0.248754
571.799733	0.248847
572.012205	0.249192
572.224658	0.249794
572.437092	0.250432
572.649509	0.251056
572.861907	0.251030
573.074287	0.251008
573.286649	0.251188
573.498993	0.251240
573.711318	0.251354
573.923625	0.251360
574.135914	0.250832
574.348185	0.250548
574.560438	0.250808
574.772672	0.251003
574.984888	0.250886
575.197086	0.251146
575.409266	0.251369
575.621427	0.251818
575.833570	0.252197
576.045695	0.252641
576.257802	0.252786
576.469890	0.252766
576.681961	0.252953
576.894013	0.252985
577.106046	0.253269
577.318062	0.253141
577.530059	0.253365
577.742039	0.253413
577.954000	0.253721
578.165942	0.254404
578.377867	0.254408
578.589773	0.254795
578.801661	0.255464
579.013531	0.255624
579.225382	0.255836
579.437216	0.255686
579.649031	0.255990
579.860828	0.256177
580.072606	0.255797
580.284367	0.255982
580.496109	0.255836
580.707833	0.255661
580.919539	0.255767
581.131227	0.255911
581.342896	0.256121
581.554547	0.256037
581.766180	0.256086
581.977795	0.256270
582.189391	0.256575
582.400969	0.257177
582.612529	0.257523
582.824071	0.257830
583.035595	0.258068
583.247100	0.257974
583.458587	0.257953
583.670056	0.258254
583.881506	0.258556
584.092939	0.258914
584.304353	0.258869
584.515749	0.258945
584.727127	0.258818
584.938486	0.259065
585.149828	0.259851
585.361151	0.260328
585.572456	0.260328
585.783742	0.260505
585.995011	0.260560
586.206261	0.260912
586.417493	0.261168
586.628706	0.261474
586.839902	0.261851
587.051079	0.261755
587.262238	0.262126
587.473379	0.262194
587.684502	0.262343
587.895606	0.262256
588.106692	0.262230
588.317760	0.262594
588.528810	0.262854
588.739841	0.262977
588.950855	0.263214
589.161850	0.263070
589.372827	0.263534
589.583785	0.263828
589.794726	0.263959
590.005648	0.264077
590.216552	0.263995
590.427437	0.264493
590.638305	0.264676
590.849154	0.264581
591.059985	0.264755
591.270798	0.264821
591.481592	0.264555
591.692369	0.265066
591.903127	0.265346
592.113867	0.265308
592.324588	0.265019
592.535292	0.265268
592.745977	0.265279
592.956644	0.265709
593.167293	0.265918
593.377923	0.266379
593.588536	0.266795
593.799130	0.267135
594.009706	0.267623
594.220263	0.267688
594.430803	0.267793
594.641324	0.268226
594.851827	0.268248
595.062312	0.268474
595.272778	0.268550
595.483227	0.268205
595.693657	0.268044
595.904069	0.267982
596.114462	0.268338
596.324838	0.268138
596.535195	0.268571
596.745534	0.268846
596.955855	0.268639
597.166157	0.269005
597.376441	0.269483
597.586707	0.269731
597.796955	0.270241
598.007185	0.270681
598.217396	0.271558
598.427589	0.271823
598.637764	0.271822
598.847921	0.272417
599.058060	0.272369
599.268180	0.272362
599.478282	0.272421
599.688366	0.272524
599.898431	0.272313
600.108479	0.271942
600.318508	0.271987
600.528519	0.272003
600.738511	0.272005
600.948486	0.272271
601.158442	0.272286
601.368380	0.272688
601.578300	0.272612
601.788202	0.272897
601.998085	0.273213
602.207950	0.272930
602.417797	0.273480
602.627626	0.273593
602.837436	0.273702
603.047228	0.274132
603.257002	0.274301
603.466758	0.274717
603.676496	0.274963
603.886215	0.275182
604.095916	0.275584
604.305599	0.275641
604.515264	0.275915
604.724910	0.275879
604.934538	0.275771
605.144148	0.275658
605.353740	0.275667
605.563314	0.275645
605.772869	0.275577
605.982406	0.276029
606.191925	0.275921
606.401425	0.275960
606.610908	0.276233
606.820372	0.276571
607.029818	0.276933
607.239246	0.277266
607.448655	0.277775
607.658047	0.277824
607.867420	0.277843
608.076775	0.278501
608.286111	0.278579
608.495430	0.279371
608.704730	0.279507
608.914012	0.279438
609.123275	0.279397
609.332521	0.279290
609.541748	0.279848
609.750957	0.279903
609.960148	0.279776
610.169321	0.279947
610.378475	0.279266
610.587611	0.279173
610.796729	0.279302
611.005829	0.279341
611.214910	0.279386
611.423974	0.279470
611.633019	0.279523
611.842045	0.279519
612.051054	0.279697
612.260044	0.280075
612.469017	0.280320
612.677970	0.280569
612.886906	0.280706
613.095824	0.281083
613.304723	0.280978
613.513604	0.281151
613.722467	0.281238
613.931311	0.281328
614.140138	0.281492
614.348946	0.281683
614.557736	0.281657
614.766507	0.281895
614.975261	0.281803
615.183996	0.281956
615.392713	0.281879
615.601412	0.281701
615.810092	0.281745
616.018754	0.281690
616.227399	0.281867
616.436024	0.282300
616.644632	0.282234
616.853222	0.282471
617.061793	0.282567
617.270346	0.282831
617.478880	0.283637
617.687397	0.283795
617.895895	0.284076
618.104375	0.283937
618.312837	0.283868
618.521281	0.284023
618.729706	0.284031
618.938113	0.283904
619.146502	0.284080
619.354873	0.284154
619.563226	0.284291
619.771560	0.284573
619.979876	0.285026
620.188174	0.285248
620.396453	0.285319
620.604715	0.285476
620.812958	0.285994
621.021183	0.286349
621.229390	0.286187
621.437578	0.286347
621.645748	0.286310
621.853900	0.286305
622.062034	0.286157
622.270150	0.286507
622.478247	0.286614
622.686326	0.286442
622.894387	0.286420
623.102430	0.286488
623.310454	0.286506
623.518461	0.286624
623.726449	0.286757
623.934418	0.287158
624.142370	0.287339
624.350303	0.287451
624.558218	0.287943
624.766115	0.288017
624.973994	0.288214
625.181855	0.288497
625.389697	0.288627
625.597521	0.288701
625.805327	0.288935
626.013114	0.288714
626.220883	0.288872
626.428634	0.289050
626.636367	0.289175
626.844082	0.289274
627.051778	0.289558
627.259457	0.289805
627.467117	0.290172
627.674758	0.290193
627.882382	0.290617
628.089987	0.291063
628.297574	0.291170
628.505143	0.291406
628.712694	0.291702
628.920226	0.291783
629.127740	0.291954
629.335236	0.291969
629.542714	0.292153
629.750174	0.292433
629.957615	0.292411
630.165038	0.292352
630.372443	0.292425
630.579829	0.292512
630.787198	0.292703
630.994548	0.292798
631.201880	0.293033
631.409194	0.293224
631.616489	0.293357
631.823766	0.293262
632.031025	0.293460
632.238266	0.293404
632.445489	0.293707
632.652693	0.293819
632.859879	0.293882
633.067047	0.293806
633.274197	0.293833
633.481329	0.293978
633.688442	0.294469
633.895537	0.294556
634.102614	0.294865
634.309672	0.294731
634.516713	0.294851
634.723735	0.294976
634.930739	0.295071
635.137724	0.295347
635.344692	0.295617
635.551641	0.295545
635.758572	0.295710
635.965485	0.295777
636.172379	0.296061
636.379256	0.296127
636.586114	0.296154
636.792954	0.296258
636.999775	0.296310
637.206579	0.296084
637.413364	0.296366
637.620131	0.296538
637.826880	0.297009
638.033610	0.296971
638.240323	0.296827
638.447017	0.297200
638.653692	0.297552
638.860350	0.297770
639.066990	0.297941
639.273611	0.298142
639.480214	0.298510
639.686798	0.298408
639.893365	0.298904
640.099913	0.299476
640.306443	0.299534
640.512955	0.299794
640.719449	0.299898
640.925924	0.300137
641.132381	0.300172
641.338820	0.299961
641.545241	0.300032
641.751644	0.299941
641.958028	0.300109
642.164394	0.300205
642.370742	0.300370
642.577071	0.300456
642.783383	0.300834
642.989676	0.300946
643.195951	0.301282
643.402207	0.301649
643.608446	0.302144
643.814666	0.302269
644.020868	0.302672
644.227052	0.302908
644.433218	0.303411
644.639365	0.303603
644.845494	0.303949
645.051605	0.304202
645.257698	0.304282
645.463772	0.304171
645.669828	0.304277
645.875866	0.304568
646.081886	0.304651
646.287888	0.304865
646.493871	0.304741
646.699836	0.304845
646.905783	0.304884
647.111712	0.305182
647.317622	0.305501
647.523514	0.305743
647.729388	0.305691
647.935244	0.306036
648.141082	0.306005
648.346901	0.306371
648.552702	0.306608
648.758485	0.306664
648.964250	0.306953
649.169996	0.307040
649.375724	0.307221
649.581434	0.307511
649.787126	0.307381
649.992800	0.307457
650.198455	0.307467
650.404092	0.307402
650.609711	0.307669
650.815311	0.307472
651.020894	0.307862
651.226458	0.308093
651.432004	0.308160
651.637532	0.308521
651.843041	0.308739
652.048532	0.308916
652.254006	0.309136
652.459460	0.309390
652.664897	0.309342
652.870315	0.309433
653.075716	0.309517
653.281097	0.309489
653.486461	0.309582
653.691807	0.309757
653.897134	0.309920
654.102443	0.310249
654.307734	0.310346
654.513006	0.310966
654.718261	0.310945
654.923497	0.311243
655.128715	0.311756
655.333915	0.312004
655.539096	0.312381
655.744259	0.312772
655.949404	0.312934
656.154531	0.313244
656.359640	0.313292
656.564730	0.313623
656.769802	0.313864
656.974856	0.314063
657.179892	0.314151
657.384909	0.314402
657.589908	0.314649
657.794889	0.314684
657.999852	0.315032
658.204797	0.315428
658.409723	0.315611
658.614631	0.315826
658.819521	0.315773
659.024393	0.316088
659.229246	0.316119
659.434081	0.316097
659.638898	0.316317
659.843697	0.316358
660.048478	0.316450
660.253240	0.316821
660.457984	0.316751
660.662710	0.317064
660.867417	0.317437
661.072107	0.317425
661.276778	0.317634
661.481431	0.317869
661.686066	0.318110
661.890682	0.318041
662.095281	0.318040
662.299861	0.318231
662.504422	0.318480
662.708966	0.318599
662.913491	0.318909
663.117999	0.319359
663.322488	0.319610
663.526958	0.319870
663.731411	0.320227
663.935845	0.320546
664.140261	0.320731
664.344659	0.320592
664.549038	0.320715
664.753400	0.320738
664.957743	0.320939
665.162068	0.320979
665.366375	0.320807
665.570663	0.321061
665.774933	0.321355
665.979185	0.321742
666.183419	0.322100
666.387635	0.322427
666.591832	0.322728
666.796011	0.322911
667.000172	0.323174
667.204315	0.323880
667.408439	0.324417
667.612545	0.324533
667.816634	0.324481
668.020703	0.324753
668.224755	0.324819
668.428788	0.325360
668.632803	0.325671
668.836800	0.326131
669.040779	0.326260
669.244739	0.326192
669.448681	0.326308
669.652605	0.326822
669.856511	0.327289
670.060399	0.327478
670.264268	0.327259
670.468119	0.327052
670.671952	0.327001
670.875767	0.326999
671.079563	0.327068
671.283341	0.327316
671.487101	0.327464
671.690843	0.327430
671.894567	0.327622
672.098272	0.328278
672.301959	0.328608
672.505628	0.328873
672.709278	0.329173
672.912911	0.329298
673.116525	0.329382
673.320121	0.329427
673.523699	0.329781
673.727258	0.329839
673.930799	0.329668
674.134322	0.330060
674.337827	0.330126
674.541314	0.330233
674.744782	0.330691
674.948232	0.330981
675.151664	0.331482
675.355078	0.331762
675.558474	0.331973
675.761851	0.332414
675.965210	0.332836
676.168551	0.333285
676.371873	0.333451
676.575178	0.333654
676.778464	0.333777
676.981732	0.333876
677.184981	0.333907
677.388213	0.334157
677.591426	0.334112
677.794621	0.334053
677.997798	0.334113
678.200956	0.334426
678.404097	0.334626
678.607219	0.334933
678.810323	0.334867
679.013408	0.335057
679.216476	0.335281
679.419525	0.335376
679.622556	0.335395
679.825569	0.335784
680.028563	0.335964
680.231540	0.336073
680.434498	0.336086
680.637438	0.336655
680.840359	0.336715
681.043263	0.337023
681.246148	0.337164
681.449015	0.337232
681.651864	0.337277
681.854694	0.337334
682.057506	0.337368
682.260301	0.337694
682.463076	0.337410
682.665834	0.337477
682.868573	0.337493
683.071295	0.337855
683.273998	0.338370
683.476682	0.338484
683.679349	0.338692
683.881997	0.338830
684.084627	0.339173
684.287239	0.339552
684.489833	0.339932
684.692408	0.340149
684.894965	0.340405
685.097504	0.340585
685.300025	0.340882
685.502527	0.341114
685.705012	0.341275
685.907478	0.341221
686.109925	0.341516
686.312355	0.341832
686.514766	0.342031
686.717159	0.342074
686.919534	0.342103
687.121891	0.342314
687.324230	0.342573
687.526550	0.342801
687.728852	0.342823
687.931136	0.342996
688.133401	0.343121
688.335649	0.343289
688.537878	0.343630
688.740089	0.343773
688.942281	0.344010
689.144456	0.344241
689.346612	0.344500
689.548750	0.344690
689.750870	0.344826
689.952971	0.344901
690.155055	0.345279
690.357120	0.345337
690.559167	0.345681
690.761195	0.345625
690.963206	0.345528
691.165198	0.345849
691.367172	0.346134
691.569128	0.345955
691.771065	0.346376
691.972984	0.346314
692.174885	0.346365
692.376768	0.346315
692.578633	0.346422
692.780479	0.346846
692.982308	0.347106
693.184118	0.347198
693.385909	0.347725
