sample name	sample
index	65
start time	 02-11-2021  03:23:33 PM


Wavelength (nm)	Absorbance
494.344910	NaN
494.563924	NaN
494.782919	NaN
495.001897	-0.911158
495.220856	NaN
495.439797	NaN
495.658719	NaN
495.877624	-0.938227
496.096510	-0.559736
496.315378	-1.731355
496.534227	-1.260737
496.753059	-0.986850
496.971872	-1.540038
497.190667	0.122935
497.409444	0.149772
497.628203	0.163135
497.846943	0.163582
498.065665	0.168008
498.284369	0.169583
498.503055	0.169971
498.721723	0.170296
498.940372	0.170793
499.159003	0.166354
499.377616	0.166737
499.596210	0.162668
499.814787	0.164813
500.033345	0.163740
500.251885	0.164016
500.470406	0.164761
500.688910	0.162495
500.907395	0.162095
501.125862	0.162744
501.344311	0.162310
501.562742	0.163268
501.781154	0.162368
501.999548	0.161443
502.217924	0.161857
502.436282	0.163105
502.654621	0.165118
502.872942	0.165256
503.091245	0.166300
503.309530	0.167876
503.527797	0.166032
503.746045	0.167343
503.964275	0.169419
504.182487	0.169291
504.400681	0.167437
504.618856	0.168398
504.837013	0.168679
505.055152	0.170862
505.273273	0.169662
505.491376	0.171634
505.709460	0.170390
505.927526	0.168328
506.145574	0.168054
506.363604	0.169553
506.581615	0.167978
506.799608	0.168035
507.017583	0.165747
507.235540	0.166146
507.453478	0.166559
507.671399	0.165736
507.889301	0.166798
508.107185	0.166986
508.325050	0.167249
508.542898	0.167825
508.760727	0.168964
508.978538	0.168355
509.196330	0.168361
509.414105	0.169440
509.631861	0.171396
509.849599	0.171621
510.067319	0.171479
510.285021	0.170345
510.502704	0.168289
510.720369	0.166974
510.938016	0.166984
511.155645	0.167795
511.373255	0.168279
511.590848	0.166863
511.808422	0.167077
512.025977	0.167528
512.243515	0.169360
512.461034	0.171299
512.678536	0.171307
512.896018	0.171209
513.113483	0.171834
513.330930	0.170751
513.548358	0.172406
513.765768	0.174245
513.983160	0.172040
514.200533	0.171241
514.417889	0.173074
514.635226	0.174253
514.852545	0.176138
515.069845	0.175354
515.287128	0.175939
515.504392	0.175732
515.721638	0.173877
515.938866	0.176147
516.156075	0.176311
516.373267	0.174633
516.590440	0.175193
516.807594	0.174663
517.024731	0.175668
517.241850	0.175537
517.458950	0.175874
517.676032	0.176637
517.893095	0.178474
518.110141	0.179606
518.327168	0.180675
518.544177	0.179526
518.761168	0.179635
518.978141	0.179561
519.195095	0.179934
519.412031	0.180835
519.628949	0.180714
519.845849	0.180676
520.062731	0.179523
520.279594	0.178956
520.496439	0.178790
520.713266	0.179124
520.930074	0.179364
521.146865	0.178966
521.363637	0.178558
521.580391	0.178419
521.797127	0.177588
522.013844	0.177170
522.230543	0.177929
522.447224	0.179381
522.663887	0.179226
522.880532	0.179513
523.097158	0.179419
523.313766	0.180501
523.530356	0.180707
523.746928	0.180354
523.963481	0.181172
524.180017	0.181901
524.396534	0.182258
524.613032	0.182283
524.829513	0.182354
525.045975	0.183362
525.262420	0.181846
525.478845	0.181715
525.695253	0.182170
525.911643	0.184168
526.128014	0.183683
526.344367	0.183672
526.560702	0.184419
526.777018	0.185153
526.993316	0.185444
527.209597	0.186627
527.425858	0.188546
527.642102	0.189187
527.858328	0.187622
528.074535	0.188086
528.290724	0.188422
528.506894	0.188426
528.723047	0.188165
528.939181	0.188795
529.155297	0.188823
529.371395	0.188571
529.587475	0.189271
529.803536	0.189467
530.019579	0.191234
530.235604	0.190602
530.451611	0.190841
530.667600	0.191330
530.883570	0.191804
531.099522	0.192576
531.315456	0.193384
531.531372	0.192873
531.747269	0.193812
531.963148	0.193251
532.179009	0.194514
532.394852	0.194698
532.610676	0.194527
532.826482	0.195245
533.042271	0.195922
533.258040	0.196510
533.473792	0.198182
533.689525	0.199099
533.905240	0.198799
534.120937	0.198171
534.336616	0.199109
534.552277	0.200519
534.767919	0.200954
534.983543	0.200897
535.199149	0.201222
535.414736	0.200571
535.630306	0.200955
535.845857	0.201165
536.061390	0.201957
536.276904	0.202427
536.492401	0.202609
536.707879	0.201733
536.923339	0.202199
537.138781	0.201784
537.354204	0.202407
537.569610	0.202957
537.784997	0.204241
538.000366	0.205812
538.215716	0.206394
538.431049	0.205898
538.646363	0.206154
538.861659	0.207060
539.076937	0.208322
539.292196	0.208526
539.507438	0.208395
539.722661	0.207599
539.937866	0.206885
540.153052	0.207330
540.368221	0.207962
540.583371	0.209480
540.798503	0.208892
541.013617	0.208125
541.228712	0.208858
541.443789	0.207792
541.658848	0.209476
541.873889	0.209470
542.088912	0.209158
542.303916	0.209580
542.518902	0.209534
542.733870	0.209467
542.948820	0.210290
543.163752	0.208985
543.378665	0.210043
543.593560	0.209091
543.808437	0.209979
544.023295	0.209880
544.238136	0.209372
544.452958	0.209248
544.667762	0.210243
544.882548	0.209840
545.097315	0.211387
545.312064	0.211907
545.526795	0.212768
545.741508	0.211977
545.956203	0.212880
546.170879	0.213743
546.385537	0.214089
546.600177	0.213752
546.814799	0.214984
547.029402	0.215254
547.243988	0.215335
547.458555	0.215110
547.673103	0.216221
547.887634	0.216398
548.102146	0.216640
548.316640	0.217013
548.531116	0.217924
548.745574	0.217671
548.960013	0.217499
549.174435	0.218712
549.388838	0.219120
549.603222	0.219239
549.817589	0.218945
550.031937	0.218984
550.246267	0.218693
550.460579	0.217753
550.674873	0.217911
550.889148	0.218832
551.103405	0.217551
551.317644	0.218179
551.531865	0.218682
551.746068	0.219348
551.960252	0.219839
552.174418	0.220384
552.388566	0.221301
552.602696	0.221368
552.816807	0.220580
553.030900	0.220891
553.244975	0.220421
553.459032	0.220590
553.673070	0.219995
553.887091	0.220056
554.101093	0.219427
554.315077	0.219543
554.529042	0.219501
554.742990	0.220061
554.956919	0.220874
555.170830	0.221675
555.384722	0.221952
555.598597	0.222102
555.812453	0.222140
556.026291	0.223635
556.240111	0.223621
556.453913	0.223636
556.667696	0.224030
556.881461	0.224064
557.095208	0.224205
557.308937	0.224292
557.522647	0.225783
557.736339	0.226399
557.950013	0.226075
558.163669	0.226091
558.377307	0.226377
558.590926	0.226550
558.804527	0.226440
559.018110	0.226906
559.231675	0.227454
559.445221	0.227034
559.658749	0.227949
559.872259	0.228492
560.085751	0.229281
560.299225	0.229595
560.512680	0.229879
560.726117	0.230496
560.939536	0.230706
561.152937	0.230984
561.366319	0.231054
561.579683	0.230807
561.793029	0.230349
562.006357	0.231066
562.219667	0.231419
562.432958	0.231269
562.646231	0.231172
562.859486	0.230856
563.072723	0.230920
563.285941	0.231462
563.499141	0.231121
563.712323	0.232057
563.925487	0.231754
564.138632	0.231862
564.351760	0.232055
564.564869	0.232268
564.777960	0.232343
564.991032	0.231986
565.204087	0.232058
565.417123	0.232291
565.630141	0.232351
565.843140	0.232777
566.056122	0.232459
566.269085	0.233262
566.482030	0.233601
566.694957	0.233875
566.907866	0.234366
567.120756	0.234299
567.333628	0.235044
567.546482	0.235278
567.759318	0.234847
567.972135	0.236421
568.184935	0.236240
568.397716	0.236961
568.610478	0.237230
568.823223	0.237117
569.035949	0.237967
569.248657	0.238087
569.461347	0.237688
569.674019	0.237691
569.886672	0.237169
570.099308	0.237428
570.311925	0.236547
570.524523	0.236982
570.737104	0.237488
570.949666	0.236294
571.162210	0.236122
571.374736	0.236548
571.587244	0.237011
571.799733	0.236954
572.012205	0.236773
572.224658	0.236930
572.437092	0.236621
572.649509	0.236610
572.861907	0.237347
573.074287	0.237143
573.286649	0.237044
573.498993	0.237808
573.711318	0.237342
573.923625	0.237586
574.135914	0.238522
574.348185	0.238591
574.560438	0.238696
574.772672	0.238705
574.984888	0.238716
575.197086	0.239110
575.409266	0.238498
575.621427	0.238722
575.833570	0.239280
576.045695	0.239256
576.257802	0.239379
576.469890	0.239210
576.681961	0.239522
576.894013	0.239808
577.106046	0.239999
577.318062	0.240022
577.530059	0.241031
577.742039	0.240610
577.954000	0.240942
578.165942	0.242040
578.377867	0.242758
578.589773	0.243748
578.801661	0.244167
579.013531	0.243944
579.225382	0.244589
579.437216	0.244392
579.649031	0.245082
579.860828	0.244517
580.072606	0.243842
580.284367	0.243655
580.496109	0.243092
580.707833	0.243812
580.919539	0.244503
581.131227	0.244522
581.342896	0.244522
581.554547	0.244197
581.766180	0.244770
581.977795	0.245361
582.189391	0.245091
582.400969	0.245801
582.612529	0.245581
582.824071	0.245913
583.035595	0.245747
583.247100	0.246695
583.458587	0.247098
583.670056	0.247251
583.881506	0.247423
584.092939	0.248498
584.304353	0.249110
584.515749	0.248668
584.727127	0.247628
584.938486	0.248459
585.149828	0.248405
585.361151	0.249187
585.572456	0.249091
585.783742	0.249200
585.995011	0.249036
586.206261	0.248728
586.417493	0.249037
586.628706	0.250656
586.839902	0.250726
587.051079	0.250819
587.262238	0.250169
587.473379	0.250003
587.684502	0.250426
587.895606	0.250667
588.106692	0.250789
588.317760	0.251654
588.528810	0.250695
588.739841	0.250594
588.950855	0.251466
589.161850	0.252261
589.372827	0.253376
589.583785	0.253844
589.794726	0.253877
590.005648	0.254005
590.216552	0.253390
590.427437	0.254524
590.638305	0.255040
590.849154	0.254688
591.059985	0.254809
591.270798	0.254902
591.481592	0.254183
591.692369	0.253563
591.903127	0.253806
592.113867	0.254625
592.324588	0.254286
592.535292	0.254399
592.745977	0.254388
592.956644	0.254437
593.167293	0.254554
593.377923	0.254984
593.588536	0.256270
593.799130	0.256238
594.009706	0.256132
594.220263	0.256154
594.430803	0.256660
594.641324	0.257241
594.851827	0.256954
595.062312	0.257334
595.272778	0.257133
595.483227	0.257044
595.693657	0.257337
595.904069	0.257298
596.114462	0.258020
596.324838	0.257877
596.535195	0.257511
596.745534	0.257586
596.955855	0.257449
597.166157	0.257983
597.376441	0.258063
597.586707	0.257517
597.796955	0.258556
598.007185	0.258157
598.217396	0.258357
598.427589	0.258498
598.637764	0.259110
598.847921	0.260020
599.058060	0.259946
599.268180	0.260092
599.478282	0.260773
599.688366	0.260165
599.898431	0.260553
600.108479	0.260050
600.318508	0.260603
600.528519	0.260949
600.738511	0.260612
600.948486	0.260595
601.158442	0.261581
601.368380	0.261811
601.578300	0.262487
601.788202	0.262835
601.998085	0.263405
602.207950	0.263631
602.417797	0.264333
602.627626	0.263882
602.837436	0.264176
603.047228	0.263050
603.257002	0.263317
603.466758	0.263043
603.676496	0.263062
603.886215	0.263166
604.095916	0.263496
604.305599	0.263277
604.515264	0.264029
604.724910	0.264606
604.934538	0.265118
605.144148	0.265117
605.353740	0.264947
605.563314	0.264831
605.772869	0.265465
605.982406	0.264753
606.191925	0.264634
606.401425	0.264528
606.610908	0.264494
606.820372	0.264616
607.029818	0.264421
607.239246	0.265063
607.448655	0.265567
607.658047	0.265624
607.867420	0.266556
608.076775	0.266429
608.286111	0.266563
608.495430	0.266841
608.704730	0.267457
608.914012	0.268394
609.123275	0.268632
609.332521	0.268933
609.541748	0.268591
609.750957	0.268491
609.960148	0.268786
610.169321	0.269264
610.378475	0.269712
610.587611	0.269177
610.796729	0.268683
611.005829	0.268811
611.214910	0.269090
611.423974	0.269389
611.633019	0.269385
611.842045	0.269549
612.051054	0.269186
612.260044	0.268924
612.469017	0.270133
612.677970	0.270563
612.886906	0.270624
613.095824	0.270138
613.304723	0.270501
613.513604	0.270773
613.722467	0.270911
613.931311	0.270669
614.140138	0.270589
614.348946	0.269913
614.557736	0.270149
614.766507	0.269767
614.975261	0.269980
615.183996	0.270416
615.392713	0.270657
615.601412	0.270657
615.810092	0.271250
616.018754	0.271675
616.227399	0.271911
616.436024	0.271581
616.644632	0.272610
616.853222	0.273033
617.061793	0.273099
617.270346	0.272912
617.478880	0.273376
617.687397	0.273612
617.895895	0.273737
618.104375	0.274412
618.312837	0.275109
618.521281	0.275024
618.729706	0.275508
618.938113	0.275817
619.146502	0.276028
619.354873	0.276298
619.563226	0.276651
619.771560	0.276859
619.979876	0.276690
620.188174	0.276605
620.396453	0.276489
620.604715	0.276194
620.812958	0.276172
621.021183	0.276353
621.229390	0.276386
621.437578	0.276481
621.645748	0.276374
621.853900	0.276089
622.062034	0.276451
622.270150	0.276744
622.478247	0.277666
622.686326	0.277468
622.894387	0.277386
623.102430	0.277461
623.310454	0.277504
623.518461	0.278535
623.726449	0.279696
623.934418	0.279840
624.142370	0.279977
624.350303	0.279371
624.558218	0.279688
624.766115	0.280342
624.973994	0.280738
625.181855	0.281079
625.389697	0.280736
625.597521	0.280053
625.805327	0.279983
626.013114	0.280055
626.220883	0.280452
626.428634	0.280690
626.636367	0.280638
626.844082	0.280916
627.051778	0.280346
627.259457	0.279833
627.467117	0.280491
627.674758	0.280897
627.882382	0.281406
628.089987	0.281210
628.297574	0.281439
628.505143	0.282187
628.712694	0.282336
628.920226	0.283033
629.127740	0.283514
629.335236	0.283462
629.542714	0.284027
629.750174	0.284091
629.957615	0.284538
630.165038	0.284662
630.372443	0.284496
630.579829	0.284212
630.787198	0.284732
630.994548	0.285594
631.201880	0.285952
631.409194	0.285912
631.616489	0.286478
631.823766	0.286943
632.031025	0.287272
632.238266	0.287437
632.445489	0.288002
632.652693	0.288111
632.859879	0.288299
633.067047	0.288321
633.274197	0.288474
633.481329	0.288282
633.688442	0.288355
633.895537	0.288262
634.102614	0.288403
634.309672	0.288231
634.516713	0.288405
634.723735	0.287417
634.930739	0.287999
635.137724	0.287674
635.344692	0.287689
635.551641	0.288004
635.758572	0.288588
635.965485	0.288580
636.172379	0.288582
636.379256	0.288748
636.586114	0.289816
636.792954	0.289945
636.999775	0.290266
637.206579	0.291087
637.413364	0.290686
637.620131	0.290165
637.826880	0.290924
638.033610	0.291221
638.240323	0.291630
638.447017	0.291865
638.653692	0.291948
638.860350	0.292028
639.066990	0.291810
639.273611	0.292193
639.480214	0.292733
639.686798	0.292940
639.893365	0.293421
640.099913	0.293319
640.306443	0.293178
640.512955	0.293377
640.719449	0.293819
640.925924	0.294126
641.132381	0.294371
641.338820	0.294560
641.545241	0.294079
641.751644	0.294323
641.958028	0.294501
642.164394	0.294806
642.370742	0.294953
642.577071	0.295134
642.783383	0.295295
642.989676	0.295293
643.195951	0.295799
643.402207	0.296407
643.608446	0.296514
643.814666	0.296486
644.020868	0.297003
644.227052	0.297276
644.433218	0.297432
644.639365	0.297191
644.845494	0.297538
645.051605	0.297370
645.257698	0.297427
645.463772	0.297379
645.669828	0.297647
645.875866	0.297349
646.081886	0.297539
646.287888	0.297704
646.493871	0.297987
646.699836	0.297948
646.905783	0.297982
647.111712	0.298596
647.317622	0.299342
647.523514	0.299684
647.729388	0.300462
647.935244	0.300412
648.141082	0.300846
648.346901	0.301397
648.552702	0.302359
648.758485	0.302936
648.964250	0.302902
649.169996	0.303083
649.375724	0.303311
649.581434	0.303041
649.787126	0.303527
649.992800	0.303307
650.198455	0.303418
650.404092	0.303196
650.609711	0.303347
650.815311	0.303629
651.020894	0.304012
651.226458	0.304176
651.432004	0.304656
651.637532	0.304873
651.843041	0.305501
652.048532	0.305660
652.254006	0.306364
652.459460	0.306442
652.664897	0.306454
652.870315	0.306000
653.075716	0.306198
653.281097	0.306373
653.486461	0.306548
653.691807	0.306411
653.897134	0.306465
654.102443	0.306126
654.307734	0.306134
654.513006	0.306599
654.718261	0.307050
654.923497	0.307706
655.128715	0.308056
655.333915	0.308492
655.539096	0.308968
655.744259	0.309766
655.949404	0.310100
656.154531	0.310863
656.359640	0.311087
656.564730	0.311628
656.769802	0.311566
656.974856	0.311779
657.179892	0.311769
657.384909	0.312684
657.589908	0.312806
657.794889	0.313033
657.999852	0.313074
658.204797	0.312676
658.409723	0.312285
658.614631	0.312337
658.819521	0.312231
659.024393	0.312618
659.229246	0.312310
659.434081	0.312011
659.638898	0.312536
659.843697	0.313107
660.048478	0.313908
660.253240	0.314276
660.457984	0.314812
660.662710	0.315258
660.867417	0.315301
661.072107	0.315394
661.276778	0.316159
661.481431	0.316282
661.686066	0.316142
661.890682	0.316083
662.095281	0.316873
662.299861	0.317217
662.504422	0.317503
662.708966	0.318235
662.913491	0.318970
663.117999	0.319147
663.322488	0.319090
663.526958	0.319699
663.731411	0.319945
663.935845	0.319973
664.140261	0.320187
664.344659	0.320232
664.549038	0.320041
664.753400	0.320102
664.957743	0.320442
665.162068	0.320741
665.366375	0.320685
665.570663	0.320890
665.774933	0.321323
665.979185	0.321417
666.183419	0.321826
666.387635	0.321906
666.591832	0.321866
666.796011	0.322061
667.000172	0.322555
667.204315	0.322983
667.408439	0.323341
667.612545	0.323499
667.816634	0.323753
668.020703	0.324129
668.224755	0.324425
668.428788	0.324590
668.632803	0.324897
668.836800	0.324955
669.040779	0.325329
669.244739	0.325530
669.448681	0.325671
669.652605	0.325801
669.856511	0.326359
670.060399	0.326512
670.264268	0.327164
670.468119	0.327281
670.671952	0.327742
670.875767	0.327740
671.079563	0.328116
671.283341	0.328659
671.487101	0.328897
671.690843	0.328680
671.894567	0.329242
672.098272	0.329221
672.301959	0.329096
672.505628	0.329180
672.709278	0.329504
672.912911	0.329644
673.116525	0.329456
673.320121	0.330052
673.523699	0.330404
673.727258	0.330818
673.930799	0.330876
674.134322	0.331538
674.337827	0.332034
674.541314	0.331785
674.744782	0.332331
674.948232	0.332843
675.151664	0.333283
675.355078	0.333229
675.558474	0.333019
675.761851	0.333490
675.965210	0.333865
676.168551	0.333884
676.371873	0.334639
676.575178	0.334891
676.778464	0.334999
676.981732	0.335067
677.184981	0.335707
677.388213	0.336085
677.591426	0.336285
677.794621	0.335984
677.997798	0.336696
678.200956	0.336859
678.404097	0.337034
678.607219	0.337465
678.810323	0.337580
679.013408	0.337795
679.216476	0.338032
679.419525	0.338113
679.622556	0.338697
679.825569	0.338766
680.028563	0.339532
680.231540	0.339676
680.434498	0.339572
680.637438	0.340012
680.840359	0.340017
681.043263	0.340642
681.246148	0.341319
681.449015	0.341143
681.651864	0.341609
681.854694	0.341583
682.057506	0.341961
682.260301	0.342295
682.463076	0.342343
682.665834	0.342266
682.868573	0.342391
683.071295	0.342326
683.273998	0.342945
683.476682	0.343121
683.679349	0.343172
683.881997	0.343309
684.084627	0.343430
684.287239	0.343263
684.489833	0.343685
684.692408	0.343999
684.894965	0.343778
685.097504	0.343230
685.300025	0.343202
685.502527	0.343367
685.705012	0.343342
685.907478	0.343580
686.109925	0.344007
686.312355	0.344121
686.514766	0.344056
686.717159	0.344349
686.919534	0.345283
687.121891	0.344986
687.324230	0.345119
687.526550	0.345083
687.728852	0.345587
687.931136	0.346298
688.133401	0.346575
688.335649	0.346596
688.537878	0.347113
688.740089	0.347047
688.942281	0.347515
689.144456	0.347311
689.346612	0.347823
689.548750	0.347662
689.750870	0.347173
689.952971	0.347314
690.155055	0.347547
690.357120	0.347899
690.559167	0.348539
690.761195	0.348779
690.963206	0.349160
691.165198	0.348993
691.367172	0.349303
691.569128	0.349502
691.771065	0.350109
691.972984	0.350463
692.174885	0.350418
692.376768	0.350467
692.578633	0.350374
692.780479	0.350732
692.982308	0.350844
693.184118	0.351150
693.385909	0.351566
693.587683	0.351772
