sample name	sample
index	712
start time	 03-25-2021  11:15:11 AM


Wavelength (nm)	Absorbance
494.344910	-0.042441
494.563924	-0.042441
494.782919	-0.042441
495.001897	-0.015573
495.220856	-0.032823
495.439797	-0.022646
495.658719	-0.014583
495.877624	-0.014340
496.096510	-0.009357
496.315378	-0.013861
496.534227	-0.007337
496.753059	-0.004476
496.971872	0.000183
497.190667	0.053309
497.409444	0.070727
497.628203	0.077445
497.846943	0.082386
498.065665	0.084632
498.284369	0.086557
498.503055	0.089125
498.721723	0.088353
498.940372	0.088973
499.159003	0.090579
499.377616	0.090029
499.596210	0.089006
499.814787	0.088351
500.033345	0.087967
500.251885	0.087812
500.470406	0.085722
500.688910	0.087004
500.907395	0.087130
501.125862	0.086604
501.344311	0.087606
501.562742	0.088478
501.781154	0.089132
501.999548	0.088591
502.217924	0.088121
502.436282	0.088546
502.654621	0.088553
502.872942	0.087764
503.091245	0.087162
503.309530	0.086575
503.527797	0.086226
503.746045	0.085541
503.964275	0.086683
504.182487	0.088070
504.400681	0.089063
504.618856	0.088401
504.837013	0.089072
505.055152	0.090351
505.273273	0.091083
505.491376	0.091980
505.709460	0.092203
505.927526	0.091659
506.145574	0.091010
506.363604	0.091200
506.581615	0.091789
506.799608	0.092087
507.017583	0.091671
507.235540	0.092088
507.453478	0.092214
507.671399	0.092586
507.889301	0.094132
508.107185	0.094098
508.325050	0.093472
508.542898	0.093603
508.760727	0.093260
508.978538	0.093163
509.196330	0.093121
509.414105	0.092640
509.631861	0.092780
509.849599	0.091617
510.067319	0.092228
510.285021	0.092926
510.502704	0.092822
510.720369	0.093874
510.938016	0.093857
511.155645	0.093659
511.373255	0.093879
511.590848	0.094125
511.808422	0.094226
512.025977	0.093591
512.243515	0.093263
512.461034	0.093532
512.678536	0.093473
512.896018	0.093435
513.113483	0.093892
513.330930	0.093846
513.548358	0.093473
513.765768	0.093899
513.983160	0.094767
514.200533	0.095255
514.417889	0.095300
514.635226	0.095027
514.852545	0.095163
515.069845	0.095410
515.287128	0.094847
515.504392	0.094898
515.721638	0.094312
515.938866	0.093917
516.156075	0.093832
516.373267	0.094145
516.590440	0.094584
516.807594	0.094713
517.024731	0.093956
517.241850	0.094944
517.458950	0.095761
517.676032	0.097036
517.893095	0.096887
518.110141	0.096578
518.327168	0.096015
518.544177	0.095520
518.761168	0.095408
518.978141	0.095335
519.195095	0.095549
519.412031	0.094878
519.628949	0.094168
519.845849	0.095117
520.062731	0.094769
520.279594	0.095349
520.496439	0.095911
520.713266	0.096755
520.930074	0.097767
521.146865	0.097981
521.363637	0.098854
521.580391	0.098951
521.797127	0.097998
522.013844	0.099104
522.230543	0.099196
522.447224	0.098938
522.663887	0.098193
522.880532	0.098451
523.097158	0.098231
523.313766	0.098315
523.530356	0.098739
523.746928	0.099963
523.963481	0.100209
524.180017	0.100472
524.396534	0.100583
524.613032	0.101553
524.829513	0.100994
525.045975	0.101483
525.262420	0.101658
525.478845	0.101956
525.695253	0.101528
525.911643	0.101347
526.128014	0.101399
526.344367	0.101663
526.560702	0.101513
526.777018	0.101786
526.993316	0.101527
527.209597	0.101387
527.425858	0.101338
527.642102	0.101978
527.858328	0.101995
528.074535	0.102498
528.290724	0.102276
528.506894	0.102181
528.723047	0.102577
528.939181	0.102983
529.155297	0.103430
529.371395	0.103363
529.587475	0.103229
529.803536	0.103416
530.019579	0.102917
530.235604	0.103531
530.451611	0.104443
530.667600	0.104047
530.883570	0.104336
531.099522	0.104284
531.315456	0.105073
531.531372	0.105120
531.747269	0.105153
531.963148	0.105455
532.179009	0.105818
532.394852	0.105316
532.610676	0.105947
532.826482	0.105902
533.042271	0.106040
533.258040	0.106035
533.473792	0.107040
533.689525	0.107602
533.905240	0.108107
534.120937	0.108014
534.336616	0.108775
534.552277	0.109371
534.767919	0.109522
534.983543	0.109742
535.199149	0.109899
535.414736	0.109471
535.630306	0.109384
535.845857	0.109518
536.061390	0.109388
536.276904	0.108658
536.492401	0.108094
536.707879	0.108475
536.923339	0.108731
537.138781	0.108388
537.354204	0.108357
537.569610	0.108624
537.784997	0.108827
538.000366	0.109414
538.215716	0.109604
538.431049	0.110238
538.646363	0.110104
538.861659	0.110180
539.076937	0.110560
539.292196	0.110963
539.507438	0.111383
539.722661	0.111069
539.937866	0.111054
540.153052	0.111183
540.368221	0.110678
540.583371	0.111363
540.798503	0.111328
541.013617	0.111627
541.228712	0.111609
541.443789	0.111504
541.658848	0.112120
541.873889	0.111725
542.088912	0.112008
542.303916	0.112864
542.518902	0.112717
542.733870	0.113054
542.948820	0.113272
543.163752	0.113179
543.378665	0.113209
543.593560	0.113053
543.808437	0.113617
544.023295	0.113875
544.238136	0.113946
544.452958	0.113642
544.667762	0.113983
544.882548	0.113906
545.097315	0.114480
545.312064	0.114929
545.526795	0.115587
545.741508	0.115671
545.956203	0.115995
546.170879	0.115981
546.385537	0.116418
546.600177	0.116535
546.814799	0.116903
547.029402	0.116587
547.243988	0.116654
547.458555	0.116501
547.673103	0.116794
547.887634	0.116786
548.102146	0.117003
548.316640	0.117351
548.531116	0.117220
548.745574	0.117224
548.960013	0.117545
549.174435	0.117604
549.388838	0.117686
549.603222	0.118009
549.817589	0.118071
550.031937	0.117888
550.246267	0.117742
550.460579	0.118083
550.674873	0.118349
550.889148	0.118702
551.103405	0.118929
551.317644	0.119165
551.531865	0.119023
551.746068	0.119379
551.960252	0.120028
552.174418	0.120547
552.388566	0.120375
552.602696	0.120183
552.816807	0.120307
553.030900	0.120134
553.244975	0.120043
553.459032	0.120048
553.673070	0.119916
553.887091	0.119384
554.101093	0.119335
554.315077	0.119351
554.529042	0.119503
554.742990	0.119476
554.956919	0.119804
555.170830	0.119700
555.384722	0.120145
555.598597	0.120547
555.812453	0.120772
556.026291	0.120805
556.240111	0.121159
556.453913	0.121506
556.667696	0.121672
556.881461	0.121740
557.095208	0.122451
557.308937	0.122404
557.522647	0.122157
557.736339	0.122426
557.950013	0.122569
558.163669	0.122680
558.377307	0.122608
558.590926	0.122444
558.804527	0.122634
559.018110	0.122545
559.231675	0.123104
559.445221	0.123131
559.658749	0.123224
559.872259	0.123267
560.085751	0.123492
560.299225	0.124028
560.512680	0.124351
560.726117	0.124368
560.939536	0.124367
561.152937	0.124268
561.366319	0.124863
561.579683	0.125048
561.793029	0.125283
562.006357	0.125104
562.219667	0.125061
562.432958	0.125323
562.646231	0.125243
562.859486	0.125655
563.072723	0.125907
563.285941	0.126165
563.499141	0.126326
563.712323	0.126816
563.925487	0.127063
564.138632	0.126966
564.351760	0.127069
564.564869	0.127514
564.777960	0.127357
564.991032	0.127252
565.204087	0.127130
565.417123	0.127083
565.630141	0.126764
565.843140	0.126868
566.056122	0.126924
566.269085	0.126772
566.482030	0.126809
566.694957	0.127112
566.907866	0.127363
567.120756	0.127286
567.333628	0.127634
567.546482	0.127771
567.759318	0.128284
567.972135	0.128644
568.184935	0.128697
568.397716	0.128936
568.610478	0.128732
568.823223	0.128453
569.035949	0.128713
569.248657	0.128760
569.461347	0.128803
569.674019	0.128314
569.886672	0.128406
570.099308	0.128645
570.311925	0.128610
570.524523	0.128608
570.737104	0.129177
570.949666	0.129193
571.162210	0.129196
571.374736	0.129398
571.587244	0.129594
571.799733	0.129346
572.012205	0.129407
572.224658	0.129523
572.437092	0.129828
572.649509	0.129744
572.861907	0.130007
573.074287	0.129987
573.286649	0.129690
573.498993	0.130150
573.711318	0.130579
573.923625	0.130844
574.135914	0.131135
574.348185	0.131607
574.560438	0.131800
574.772672	0.131714
574.984888	0.131778
575.197086	0.132305
575.409266	0.132263
575.621427	0.132299
575.833570	0.132145
576.045695	0.132017
576.257802	0.131734
576.469890	0.132024
576.681961	0.132386
576.894013	0.132625
577.106046	0.132578
577.318062	0.132713
577.530059	0.132721
577.742039	0.133074
577.954000	0.133063
578.165942	0.133171
578.377867	0.132852
578.589773	0.132864
578.801661	0.132870
579.013531	0.133001
579.225382	0.132863
579.437216	0.132783
579.649031	0.132874
579.860828	0.133209
580.072606	0.133272
580.284367	0.133276
580.496109	0.133079
580.707833	0.133463
580.919539	0.133834
581.131227	0.134086
581.342896	0.133956
581.554547	0.133918
581.766180	0.133967
581.977795	0.134142
582.189391	0.134382
582.400969	0.134720
582.612529	0.134721
582.824071	0.134291
583.035595	0.134481
583.247100	0.135048
583.458587	0.135198
583.670056	0.135346
583.881506	0.135390
584.092939	0.135592
584.304353	0.135733
584.515749	0.135952
584.727127	0.136310
584.938486	0.136202
585.149828	0.136154
585.361151	0.136657
585.572456	0.136653
585.783742	0.136991
585.995011	0.137035
586.206261	0.137424
586.417493	0.137590
586.628706	0.137517
586.839902	0.137962
587.051079	0.138463
587.262238	0.138174
587.473379	0.138249
587.684502	0.138392
587.895606	0.138480
588.106692	0.137976
588.317760	0.137612
588.528810	0.138271
588.739841	0.138166
588.950855	0.138102
589.161850	0.137945
589.372827	0.137773
589.583785	0.137318
589.794726	0.137408
590.005648	0.137797
590.216552	0.138245
590.427437	0.138171
590.638305	0.138300
590.849154	0.138324
591.059985	0.138900
591.270798	0.139072
591.481592	0.139582
591.692369	0.139572
591.903127	0.139565
592.113867	0.139636
592.324588	0.139350
592.535292	0.139467
592.745977	0.139616
592.956644	0.139645
593.167293	0.139888
593.377923	0.139943
593.588536	0.140126
593.799130	0.140388
594.009706	0.140459
594.220263	0.140728
594.430803	0.140928
594.641324	0.140904
594.851827	0.140630
595.062312	0.140935
595.272778	0.141292
595.483227	0.141116
595.693657	0.141048
595.904069	0.141171
596.114462	0.141207
596.324838	0.141200
596.535195	0.141607
596.745534	0.141978
596.955855	0.142007
597.166157	0.141486
597.376441	0.141985
597.586707	0.142286
597.796955	0.142415
598.007185	0.142624
598.217396	0.142398
598.427589	0.142063
598.637764	0.142096
598.847921	0.142012
599.058060	0.142326
599.268180	0.142314
599.478282	0.142220
599.688366	0.142326
599.898431	0.142521
600.108479	0.142982
600.318508	0.143229
600.528519	0.143299
600.738511	0.143513
600.948486	0.143508
601.158442	0.143729
601.368380	0.144038
601.578300	0.144099
601.788202	0.144352
601.998085	0.144411
602.207950	0.144495
602.417797	0.144748
602.627626	0.144883
602.837436	0.145467
603.047228	0.145597
603.257002	0.145581
603.466758	0.145710
603.676496	0.145747
603.886215	0.145824
604.095916	0.145798
604.305599	0.145633
604.515264	0.145552
604.724910	0.145433
604.934538	0.145381
605.144148	0.145450
605.353740	0.145572
605.563314	0.145448
605.772869	0.145496
605.982406	0.145883
606.191925	0.146244
606.401425	0.146624
606.610908	0.146487
606.820372	0.146555
607.029818	0.146770
607.239246	0.146723
607.448655	0.146955
607.658047	0.146890
607.867420	0.147006
608.076775	0.147174
608.286111	0.146827
608.495430	0.147172
608.704730	0.147131
608.914012	0.147272
609.123275	0.147472
609.332521	0.147312
609.541748	0.147690
609.750957	0.147391
609.960148	0.147291
610.169321	0.147513
610.378475	0.147581
610.587611	0.147680
610.796729	0.147684
611.005829	0.147491
611.214910	0.147750
611.423974	0.148122
611.633019	0.148592
611.842045	0.148602
612.051054	0.148884
612.260044	0.148875
612.469017	0.149229
612.677970	0.149420
612.886906	0.149725
613.095824	0.149488
613.304723	0.149358
613.513604	0.149238
613.722467	0.149194
613.931311	0.149231
614.140138	0.149126
614.348946	0.149055
614.557736	0.148904
614.766507	0.149002
614.975261	0.149293
615.183996	0.149183
615.392713	0.149169
615.601412	0.149439
615.810092	0.149498
616.018754	0.150107
616.227399	0.150245
616.436024	0.150472
616.644632	0.150581
616.853222	0.150752
617.061793	0.150921
617.270346	0.151098
617.478880	0.151140
617.687397	0.151180
617.895895	0.150869
618.104375	0.150926
618.312837	0.150646
618.521281	0.150592
618.729706	0.150680
618.938113	0.150547
619.146502	0.150605
619.354873	0.150814
619.563226	0.150834
619.771560	0.151182
619.979876	0.151203
620.188174	0.151800
620.396453	0.151954
620.604715	0.152032
620.812958	0.152211
621.021183	0.152389
621.229390	0.152313
621.437578	0.152404
621.645748	0.152326
621.853900	0.152198
622.062034	0.151988
622.270150	0.152174
622.478247	0.152232
622.686326	0.152382
622.894387	0.152334
623.102430	0.152579
623.310454	0.152750
623.518461	0.152967
623.726449	0.153325
623.934418	0.153409
624.142370	0.153537
624.350303	0.153531
624.558218	0.153551
624.766115	0.153836
624.973994	0.153723
625.181855	0.154007
625.389697	0.154021
625.597521	0.153762
625.805327	0.154037
626.013114	0.153986
626.220883	0.154177
626.428634	0.154203
626.636367	0.154225
626.844082	0.154076
627.051778	0.153830
627.259457	0.153720
627.467117	0.154048
627.674758	0.154054
627.882382	0.153805
628.089987	0.153794
628.297574	0.153944
628.505143	0.154042
628.712694	0.154423
628.920226	0.154643
629.127740	0.154883
629.335236	0.154899
629.542714	0.154875
629.750174	0.155248
629.957615	0.155487
630.165038	0.155451
630.372443	0.155292
630.579829	0.155407
630.787198	0.155495
630.994548	0.155430
631.201880	0.155690
631.409194	0.155772
631.616489	0.155907
631.823766	0.155744
632.031025	0.155981
632.238266	0.156371
632.445489	0.156333
632.652693	0.156275
632.859879	0.156479
633.067047	0.156561
633.274197	0.156642
633.481329	0.156836
633.688442	0.156894
633.895537	0.156827
634.102614	0.156814
634.309672	0.156988
634.516713	0.157071
634.723735	0.156876
634.930739	0.156913
635.137724	0.156965
635.344692	0.156840
635.551641	0.156933
635.758572	0.157134
635.965485	0.156863
636.172379	0.157076
636.379256	0.157359
636.586114	0.157667
636.792954	0.157675
636.999775	0.158018
637.206579	0.158212
637.413364	0.158304
637.620131	0.158379
637.826880	0.158843
638.033610	0.158790
638.240323	0.158675
638.447017	0.158849
638.653692	0.158914
638.860350	0.158677
639.066990	0.158736
639.273611	0.159077
639.480214	0.159073
639.686798	0.159060
639.893365	0.159292
640.099913	0.159459
640.306443	0.159573
640.512955	0.159697
640.719449	0.160045
640.925924	0.159980
641.132381	0.159941
641.338820	0.160050
641.545241	0.160191
641.751644	0.160077
641.958028	0.160332
642.164394	0.160231
642.370742	0.160275
642.577071	0.160112
642.783383	0.160499
642.989676	0.160390
643.195951	0.160567
643.402207	0.160673
643.608446	0.160695
643.814666	0.160432
644.020868	0.160611
644.227052	0.160910
644.433218	0.160910
644.639365	0.160895
644.845494	0.161141
645.051605	0.161210
645.257698	0.161174
645.463772	0.161271
645.669828	0.161506
645.875866	0.161671
646.081886	0.161439
646.287888	0.161695
646.493871	0.161568
646.699836	0.161754
646.905783	0.161885
647.111712	0.162037
647.317622	0.162404
647.523514	0.162511
647.729388	0.162493
647.935244	0.162876
648.141082	0.162890
648.346901	0.163123
648.552702	0.163104
648.758485	0.163262
648.964250	0.163495
649.169996	0.163455
649.375724	0.163556
649.581434	0.163742
649.787126	0.163746
649.992800	0.163984
650.198455	0.163950
650.404092	0.164100
650.609711	0.164132
650.815311	0.164085
651.020894	0.164278
651.226458	0.164361
651.432004	0.164362
651.637532	0.164408
651.843041	0.164417
652.048532	0.164687
652.254006	0.164667
652.459460	0.164686
652.664897	0.164766
652.870315	0.164742
653.075716	0.164919
653.281097	0.164834
653.486461	0.165043
653.691807	0.165184
653.897134	0.165350
654.102443	0.165625
654.307734	0.165706
654.513006	0.166007
654.718261	0.166146
654.923497	0.166380
655.128715	0.166673
655.333915	0.166723
655.539096	0.166825
655.744259	0.166731
655.949404	0.166904
656.154531	0.166889
656.359640	0.166659
656.564730	0.166600
656.769802	0.166492
656.974856	0.166670
657.179892	0.166851
657.384909	0.166922
657.589908	0.167027
657.794889	0.167141
657.999852	0.167482
658.204797	0.167837
658.409723	0.167962
658.614631	0.167943
658.819521	0.168078
659.024393	0.168033
659.229246	0.167959
659.434081	0.168171
659.638898	0.168033
659.843697	0.168001
660.048478	0.167845
660.253240	0.167949
660.457984	0.168152
660.662710	0.168191
660.867417	0.168375
661.072107	0.168544
661.276778	0.168687
661.481431	0.168947
661.686066	0.169142
661.890682	0.169179
662.095281	0.169492
662.299861	0.169590
662.504422	0.169403
662.708966	0.169522
662.913491	0.169824
663.117999	0.169728
663.322488	0.169754
663.526958	0.169797
663.731411	0.170015
663.935845	0.170199
664.140261	0.170048
664.344659	0.170457
664.549038	0.170406
664.753400	0.170386
664.957743	0.170587
665.162068	0.170849
665.366375	0.170922
665.570663	0.171002
665.774933	0.170890
665.979185	0.171046
666.183419	0.170990
666.387635	0.171057
666.591832	0.171073
666.796011	0.171174
667.000172	0.171114
667.204315	0.171340
667.408439	0.171602
667.612545	0.171729
667.816634	0.172053
668.020703	0.172436
668.224755	0.172739
668.428788	0.172996
668.632803	0.173118
668.836800	0.173450
669.040779	0.173536
669.244739	0.173613
669.448681	0.173650
669.652605	0.173846
669.856511	0.173681
670.060399	0.173682
670.264268	0.173778
670.468119	0.173948
670.671952	0.173853
670.875767	0.173884
671.079563	0.173976
671.283341	0.174045
671.487101	0.173997
671.690843	0.174281
671.894567	0.174310
672.098272	0.174404
672.301959	0.174424
672.505628	0.174464
672.709278	0.174730
672.912911	0.174908
673.116525	0.174981
673.320121	0.175143
673.523699	0.175311
673.727258	0.175494
673.930799	0.175574
674.134322	0.175818
674.337827	0.176056
674.541314	0.175936
674.744782	0.176066
674.948232	0.176311
675.151664	0.176607
675.355078	0.176629
675.558474	0.176883
675.761851	0.177137
675.965210	0.177167
676.168551	0.177101
676.371873	0.177388
676.575178	0.177290
676.778464	0.177515
676.981732	0.177370
677.184981	0.177532
677.388213	0.177496
677.591426	0.177668
677.794621	0.177729
677.997798	0.177909
678.200956	0.177851
678.404097	0.178277
678.607219	0.178257
678.810323	0.178511
679.013408	0.178570
679.216476	0.178858
679.419525	0.178850
679.622556	0.179189
679.825569	0.179267
680.028563	0.179555
680.231540	0.179488
680.434498	0.179697
680.637438	0.179842
680.840359	0.180038
681.043263	0.179967
681.246148	0.180069
681.449015	0.179762
681.651864	0.179963
681.854694	0.180027
682.057506	0.180071
682.260301	0.180115
682.463076	0.179975
682.665834	0.179995
682.868573	0.179892
683.071295	0.179906
683.273998	0.180414
683.476682	0.180471
683.679349	0.180411
683.881997	0.180591
684.084627	0.180726
684.287239	0.180941
684.489833	0.181042
684.692408	0.181517
684.894965	0.181765
685.097504	0.181643
685.300025	0.181895
685.502527	0.182052
685.705012	0.182078
685.907478	0.182379
686.109925	0.182413
686.312355	0.182461
686.514766	0.182687
686.717159	0.182769
686.919534	0.182853
687.121891	0.182859
687.324230	0.183031
687.526550	0.183105
687.728852	0.183004
687.931136	0.183153
688.133401	0.183092
688.335649	0.182817
688.537878	0.182806
688.740089	0.182937
688.942281	0.183200
689.144456	0.183031
689.346612	0.183223
689.548750	0.183317
689.750870	0.183438
689.952971	0.183701
690.155055	0.183929
690.357120	0.184045
690.559167	0.184150
690.761195	0.183898
690.963206	0.184408
691.165198	0.184411
691.367172	0.184525
691.569128	0.184488
691.771065	0.184666
691.972984	0.184750
692.174885	0.184999
692.376768	0.185253
692.578633	0.185621
692.780479	0.185504
692.982308	0.185632
693.184118	0.185597
693.385909	0.185856
