sample name	sample
index	1403
start time	 05-10-2021  11:16:48 AM


Wavelength (nm)	Absorbance
494.344910	0.083696
494.563924	0.083696
494.782919	0.083696
495.001897	0.186291
495.220856	0.023026
495.439797	0.006874
495.658719	0.000059
495.877624	-0.011607
496.096510	-0.032308
496.315378	-0.028218
496.534227	-0.026837
496.753059	-0.011511
496.971872	-0.000524
497.190667	0.082349
497.409444	0.116453
497.628203	0.131059
497.846943	0.137605
498.065665	0.143782
498.284369	0.147253
498.503055	0.149877
498.721723	0.150891
498.940372	0.151460
499.159003	0.150995
499.377616	0.150438
499.596210	0.149644
499.814787	0.151113
500.033345	0.149926
500.251885	0.149062
500.470406	0.149207
500.688910	0.150121
500.907395	0.150642
501.125862	0.152320
501.344311	0.153551
501.562742	0.154801
501.781154	0.152537
501.999548	0.152775
502.217924	0.153117
502.436282	0.152539
502.654621	0.150777
502.872942	0.150815
503.091245	0.148889
503.309530	0.150453
503.527797	0.149585
503.746045	0.150229
503.964275	0.149376
504.182487	0.149517
504.400681	0.149021
504.618856	0.150258
504.837013	0.150804
505.055152	0.152324
505.273273	0.151292
505.491376	0.152019
505.709460	0.152406
505.927526	0.153231
506.145574	0.152720
506.363604	0.152726
506.581615	0.152920
506.799608	0.151992
507.017583	0.152511
507.235540	0.153174
507.453478	0.152357
507.671399	0.152223
507.889301	0.153190
508.107185	0.152855
508.325050	0.153405
508.542898	0.153715
508.760727	0.154396
508.978538	0.154090
509.196330	0.154217
509.414105	0.154917
509.631861	0.155486
509.849599	0.154544
510.067319	0.154766
510.285021	0.155602
510.502704	0.155569
510.720369	0.155649
510.938016	0.155465
511.155645	0.155450
511.373255	0.155378
511.590848	0.155014
511.808422	0.156588
512.025977	0.158006
512.243515	0.157133
512.461034	0.157207
512.678536	0.156966
512.896018	0.156690
513.113483	0.157063
513.330930	0.156874
513.548358	0.158286
513.765768	0.156896
513.983160	0.157181
514.200533	0.157827
514.417889	0.157922
514.635226	0.158384
514.852545	0.159684
515.069845	0.160067
515.287128	0.159798
515.504392	0.159380
515.721638	0.159796
515.938866	0.160015
516.156075	0.160015
516.373267	0.160161
516.590440	0.160633
516.807594	0.160644
517.024731	0.160501
517.241850	0.161444
517.458950	0.161215
517.676032	0.162188
517.893095	0.161737
518.110141	0.162030
518.327168	0.162598
518.544177	0.162815
518.761168	0.163155
518.978141	0.162901
519.195095	0.163120
519.412031	0.163648
519.628949	0.163627
519.845849	0.163609
520.062731	0.164175
520.279594	0.164580
520.496439	0.165983
520.713266	0.166116
520.930074	0.166118
521.146865	0.165783
521.363637	0.166210
521.580391	0.165985
521.797127	0.166075
522.013844	0.165620
522.230543	0.164433
522.447224	0.163826
522.663887	0.164006
522.880532	0.164897
523.097158	0.165631
523.313766	0.165624
523.530356	0.166739
523.746928	0.166975
523.963481	0.167612
524.180017	0.168802
524.396534	0.168410
524.613032	0.168640
524.829513	0.168092
525.045975	0.168414
525.262420	0.168014
525.478845	0.167822
525.695253	0.168810
525.911643	0.168247
526.128014	0.168317
526.344367	0.168651
526.560702	0.168499
526.777018	0.169010
526.993316	0.168827
527.209597	0.168977
527.425858	0.168715
527.642102	0.168626
527.858328	0.169911
528.074535	0.170719
528.290724	0.170810
528.506894	0.171118
528.723047	0.171755
528.939181	0.172530
529.155297	0.173300
529.371395	0.174284
529.587475	0.174755
529.803536	0.175349
530.019579	0.175541
530.235604	0.176782
530.451611	0.176661
530.667600	0.176561
530.883570	0.177241
531.099522	0.177384
531.315456	0.177743
531.531372	0.177288
531.747269	0.176666
531.963148	0.176567
532.179009	0.176366
532.394852	0.177432
532.610676	0.177589
532.826482	0.177836
533.042271	0.178105
533.258040	0.177980
533.473792	0.178581
533.689525	0.179141
533.905240	0.179405
534.120937	0.179391
534.336616	0.179055
534.552277	0.179671
534.767919	0.179399
534.983543	0.179479
535.199149	0.179351
535.414736	0.179001
535.630306	0.178405
535.845857	0.178893
536.061390	0.178799
536.276904	0.178525
536.492401	0.178420
536.707879	0.178470
536.923339	0.178567
537.138781	0.179687
537.354204	0.180206
537.569610	0.181368
537.784997	0.181338
538.000366	0.181762
538.215716	0.182518
538.431049	0.182834
538.646363	0.183268
538.861659	0.183403
539.076937	0.183063
539.292196	0.183489
539.507438	0.183452
539.722661	0.183580
539.937866	0.183462
540.153052	0.183863
540.368221	0.183978
540.583371	0.183959
540.798503	0.184706
541.013617	0.185045
541.228712	0.185891
541.443789	0.186164
541.658848	0.186255
541.873889	0.186938
542.088912	0.186943
542.303916	0.187125
542.518902	0.187733
542.733870	0.187901
542.948820	0.188094
543.163752	0.187720
543.378665	0.187788
543.593560	0.187719
543.808437	0.187914
544.023295	0.188155
544.238136	0.188396
544.452958	0.188168
544.667762	0.188064
544.882548	0.188456
545.097315	0.188525
545.312064	0.189034
545.526795	0.189725
545.741508	0.190115
545.956203	0.190254
546.170879	0.190277
546.385537	0.189956
546.600177	0.190526
546.814799	0.190383
547.029402	0.190839
547.243988	0.190338
547.458555	0.190505
547.673103	0.190509
547.887634	0.190654
548.102146	0.190875
548.316640	0.192052
548.531116	0.192465
548.745574	0.192901
548.960013	0.193203
549.174435	0.193994
549.388838	0.193614
549.603222	0.193455
549.817589	0.193903
550.031937	0.194554
550.246267	0.194556
550.460579	0.194522
550.674873	0.194868
550.889148	0.194574
551.103405	0.194765
551.317644	0.195078
551.531865	0.195271
551.746068	0.195239
551.960252	0.194790
552.174418	0.194725
552.388566	0.195091
552.602696	0.194444
552.816807	0.194605
553.030900	0.194113
553.244975	0.194823
553.459032	0.194904
553.673070	0.194566
553.887091	0.195010
554.101093	0.195182
554.315077	0.195117
554.529042	0.195352
554.742990	0.195519
554.956919	0.196015
555.170830	0.195916
555.384722	0.196134
555.598597	0.196260
555.812453	0.196488
556.026291	0.196191
556.240111	0.196138
556.453913	0.196468
556.667696	0.196789
556.881461	0.197072
557.095208	0.196886
557.308937	0.196735
557.522647	0.197445
557.736339	0.197232
557.950013	0.197775
558.163669	0.197759
558.377307	0.198100
558.590926	0.197939
558.804527	0.197806
559.018110	0.197989
559.231675	0.198250
559.445221	0.198199
559.658749	0.198591
559.872259	0.198540
560.085751	0.198911
560.299225	0.198367
560.512680	0.198591
560.726117	0.198871
560.939536	0.199041
561.152937	0.199292
561.366319	0.199023
561.579683	0.198740
561.793029	0.199208
562.006357	0.199205
562.219667	0.199389
562.432958	0.199409
562.646231	0.199446
562.859486	0.199415
563.072723	0.199514
563.285941	0.200074
563.499141	0.200564
563.712323	0.200047
563.925487	0.200244
564.138632	0.200667
564.351760	0.201034
564.564869	0.201131
564.777960	0.201333
564.991032	0.201747
565.204087	0.201777
565.417123	0.201834
565.630141	0.202364
565.843140	0.202415
566.056122	0.202903
566.269085	0.202934
566.482030	0.203098
566.694957	0.203372
566.907866	0.203089
567.120756	0.203320
567.333628	0.203402
567.546482	0.203627
567.759318	0.203789
567.972135	0.203436
568.184935	0.203403
568.397716	0.203378
568.610478	0.203261
568.823223	0.203606
569.035949	0.203717
569.248657	0.203912
569.461347	0.203920
569.674019	0.203617
569.886672	0.203658
570.099308	0.203629
570.311925	0.203913
570.524523	0.204171
570.737104	0.204476
570.949666	0.204725
571.162210	0.204891
571.374736	0.204716
571.587244	0.204892
571.799733	0.205266
572.012205	0.205206
572.224658	0.205225
572.437092	0.205538
572.649509	0.205507
572.861907	0.205218
573.074287	0.205186
573.286649	0.205488
573.498993	0.205739
573.711318	0.205794
573.923625	0.206508
574.135914	0.206747
574.348185	0.206912
574.560438	0.206946
574.772672	0.207078
574.984888	0.207404
575.197086	0.207496
575.409266	0.207685
575.621427	0.207684
575.833570	0.207617
576.045695	0.207615
576.257802	0.208049
576.469890	0.208267
576.681961	0.208657
576.894013	0.208533
577.106046	0.208763
577.318062	0.209025
577.530059	0.209365
577.742039	0.209231
577.954000	0.209257
578.165942	0.209170
578.377867	0.209191
578.589773	0.209321
578.801661	0.209312
579.013531	0.209375
579.225382	0.209373
579.437216	0.209391
579.649031	0.209812
579.860828	0.210071
580.072606	0.209982
580.284367	0.210037
580.496109	0.210117
580.707833	0.210569
580.919539	0.210588
581.131227	0.211128
581.342896	0.211503
581.554547	0.211488
581.766180	0.211790
581.977795	0.211553
582.189391	0.211912
582.400969	0.212338
582.612529	0.212261
582.824071	0.212878
583.035595	0.212766
583.247100	0.212546
583.458587	0.212859
583.670056	0.212799
583.881506	0.213894
584.092939	0.213812
584.304353	0.213472
584.515749	0.213793
584.727127	0.213606
584.938486	0.213637
585.149828	0.213893
585.361151	0.214317
585.572456	0.214797
585.783742	0.214372
585.995011	0.214664
586.206261	0.215107
586.417493	0.215309
586.628706	0.215385
586.839902	0.215503
587.051079	0.215781
587.262238	0.215493
587.473379	0.215510
587.684502	0.215658
587.895606	0.215952
588.106692	0.215962
588.317760	0.215937
588.528810	0.216017
588.739841	0.216036
588.950855	0.216155
589.161850	0.216368
589.372827	0.216485
589.583785	0.216599
589.794726	0.216425
590.005648	0.216601
590.216552	0.216515
590.427437	0.216993
590.638305	0.216969
590.849154	0.217029
591.059985	0.217114
591.270798	0.217202
591.481592	0.217406
591.692369	0.217559
591.903127	0.217582
592.113867	0.217913
592.324588	0.217722
592.535292	0.217972
592.745977	0.218211
592.956644	0.218420
593.167293	0.218873
593.377923	0.218828
593.588536	0.218956
593.799130	0.219137
594.009706	0.219738
594.220263	0.220357
594.430803	0.220782
594.641324	0.220700
594.851827	0.220517
595.062312	0.220135
595.272778	0.220740
595.483227	0.220692
595.693657	0.220571
595.904069	0.220013
596.114462	0.219723
596.324838	0.219560
596.535195	0.219773
596.745534	0.220257
596.955855	0.220173
597.166157	0.219811
597.376441	0.219976
597.586707	0.220106
597.796955	0.220527
598.007185	0.220592
598.217396	0.220846
598.427589	0.220865
598.637764	0.220688
598.847921	0.221101
599.058060	0.221028
599.268180	0.221118
599.478282	0.221249
599.688366	0.221245
599.898431	0.221666
600.108479	0.221959
600.318508	0.221961
600.528519	0.222212
600.738511	0.222443
600.948486	0.223042
601.158442	0.223236
601.368380	0.223596
601.578300	0.223722
601.788202	0.224045
601.998085	0.224035
602.207950	0.224362
602.417797	0.224464
602.627626	0.224454
602.837436	0.224303
603.047228	0.224769
603.257002	0.224897
603.466758	0.225486
603.676496	0.225158
603.886215	0.225337
604.095916	0.225588
604.305599	0.225704
604.515264	0.225978
604.724910	0.226036
604.934538	0.225835
605.144148	0.225690
605.353740	0.225566
605.563314	0.226024
605.772869	0.225923
605.982406	0.225775
606.191925	0.225890
606.401425	0.225986
606.610908	0.226179
606.820372	0.226187
607.029818	0.226364
607.239246	0.226456
607.448655	0.226197
607.658047	0.226509
607.867420	0.226853
608.076775	0.227010
608.286111	0.227300
608.495430	0.227465
608.704730	0.227594
608.914012	0.228102
609.123275	0.228127
609.332521	0.228375
609.541748	0.228558
609.750957	0.228497
609.960148	0.228465
610.169321	0.228801
610.378475	0.228771
610.587611	0.229228
610.796729	0.229212
611.005829	0.229212
611.214910	0.229222
611.423974	0.229118
611.633019	0.229316
611.842045	0.229301
612.051054	0.228682
612.260044	0.228573
612.469017	0.228554
612.677970	0.228978
612.886906	0.229588
613.095824	0.229906
613.304723	0.230273
613.513604	0.230767
613.722467	0.231202
613.931311	0.231640
614.140138	0.231928
614.348946	0.232062
614.557736	0.231839
614.766507	0.231786
614.975261	0.231758
615.183996	0.232018
615.392713	0.231949
615.601412	0.232150
615.810092	0.232365
616.018754	0.232630
616.227399	0.232844
616.436024	0.233123
616.644632	0.232985
616.853222	0.233187
617.061793	0.233156
617.270346	0.232862
617.478880	0.232984
617.687397	0.233035
617.895895	0.233083
618.104375	0.233130
618.312837	0.233029
618.521281	0.233019
618.729706	0.233173
618.938113	0.232939
619.146502	0.233423
619.354873	0.233665
619.563226	0.233785
619.771560	0.234167
619.979876	0.234220
620.188174	0.234240
620.396453	0.234481
620.604715	0.234098
620.812958	0.234181
621.021183	0.234286
621.229390	0.234296
621.437578	0.234318
621.645748	0.234200
621.853900	0.234587
622.062034	0.234796
622.270150	0.235268
622.478247	0.235861
622.686326	0.236346
622.894387	0.236178
623.102430	0.236380
623.310454	0.236637
623.518461	0.236910
623.726449	0.236776
623.934418	0.236804
624.142370	0.236630
624.350303	0.236789
624.558218	0.236645
624.766115	0.237128
624.973994	0.236935
625.181855	0.236860
625.389697	0.236987
625.597521	0.237086
625.805327	0.237265
626.013114	0.237288
626.220883	0.237518
626.428634	0.237803
626.636367	0.237987
626.844082	0.238270
627.051778	0.238722
627.259457	0.238732
627.467117	0.239118
627.674758	0.239421
627.882382	0.239454
628.089987	0.239605
628.297574	0.239849
628.505143	0.239873
628.712694	0.240238
628.920226	0.240366
629.127740	0.240661
629.335236	0.240712
629.542714	0.240691
629.750174	0.241091
629.957615	0.241143
630.165038	0.241080
630.372443	0.241025
630.579829	0.240872
630.787198	0.240800
630.994548	0.240790
631.201880	0.240909
631.409194	0.240953
631.616489	0.241015
631.823766	0.241017
632.031025	0.241317
632.238266	0.241393
632.445489	0.241640
632.652693	0.241630
632.859879	0.241792
633.067047	0.241760
633.274197	0.242023
633.481329	0.242045
633.688442	0.242234
633.895537	0.242194
634.102614	0.242656
634.309672	0.242756
634.516713	0.243051
634.723735	0.243075
634.930739	0.243098
635.137724	0.243052
635.344692	0.243227
635.551641	0.243273
635.758572	0.243440
635.965485	0.243210
636.172379	0.243020
636.379256	0.243131
636.586114	0.243278
636.792954	0.243606
636.999775	0.243675
637.206579	0.243656
637.413364	0.243693
637.620131	0.243581
637.826880	0.243971
638.033610	0.244105
638.240323	0.244088
638.447017	0.244304
638.653692	0.244416
638.860350	0.244512
639.066990	0.244656
639.273611	0.244887
639.480214	0.245232
639.686798	0.244971
639.893365	0.245157
640.099913	0.245527
640.306443	0.245472
640.512955	0.245318
640.719449	0.245697
640.925924	0.245688
641.132381	0.245649
641.338820	0.245623
641.545241	0.245740
641.751644	0.245774
641.958028	0.245678
642.164394	0.245802
642.370742	0.246257
642.577071	0.246039
642.783383	0.246420
642.989676	0.246476
643.195951	0.246828
643.402207	0.247131
643.608446	0.247382
643.814666	0.247406
644.020868	0.247549
644.227052	0.247435
644.433218	0.247803
644.639365	0.247852
644.845494	0.248022
645.051605	0.247841
645.257698	0.248259
645.463772	0.248260
645.669828	0.248379
645.875866	0.248319
646.081886	0.248523
646.287888	0.248583
646.493871	0.248597
646.699836	0.248515
646.905783	0.248452
647.111712	0.248173
647.317622	0.248540
647.523514	0.248507
647.729388	0.248798
647.935244	0.249024
648.141082	0.248926
648.346901	0.249123
648.552702	0.249671
648.758485	0.250075
648.964250	0.250470
649.169996	0.250393
649.375724	0.250823
649.581434	0.251050
649.787126	0.250852
649.992800	0.251072
650.198455	0.251249
650.404092	0.251316
650.609711	0.251592
650.815311	0.251457
651.020894	0.251747
651.226458	0.252038
651.432004	0.252160
651.637532	0.252413
651.843041	0.253206
652.048532	0.253413
652.254006	0.253493
652.459460	0.253473
652.664897	0.254038
652.870315	0.254031
653.075716	0.254215
653.281097	0.254278
653.486461	0.254519
653.691807	0.254113
653.897134	0.254388
654.102443	0.254623
654.307734	0.254733
654.513006	0.254354
654.718261	0.254440
654.923497	0.254385
655.128715	0.254587
655.333915	0.254849
655.539096	0.255266
655.744259	0.255412
655.949404	0.255608
656.154531	0.256011
656.359640	0.256123
656.564730	0.256497
656.769802	0.256686
656.974856	0.256772
657.179892	0.256741
657.384909	0.256459
657.589908	0.256152
657.794889	0.256170
657.999852	0.256005
658.204797	0.256400
658.409723	0.256341
658.614631	0.256261
658.819521	0.256370
659.024393	0.256487
659.229246	0.256787
659.434081	0.257196
659.638898	0.257272
659.843697	0.257390
660.048478	0.257461
660.253240	0.257494
660.457984	0.257416
660.662710	0.257792
660.867417	0.257873
661.072107	0.257989
661.276778	0.258119
661.481431	0.258175
661.686066	0.258319
661.890682	0.258463
662.095281	0.258599
662.299861	0.258975
662.504422	0.258783
662.708966	0.258734
662.913491	0.258671
663.117999	0.258692
663.322488	0.258898
663.526958	0.259170
663.731411	0.259076
663.935845	0.259478
664.140261	0.259585
664.344659	0.259706
664.549038	0.260153
664.753400	0.260625
664.957743	0.260616
665.162068	0.260572
665.366375	0.260670
665.570663	0.260976
665.774933	0.261093
665.979185	0.261157
666.183419	0.261285
666.387635	0.261335
666.591832	0.261468
666.796011	0.261893
667.000172	0.262151
667.204315	0.262349
667.408439	0.262577
667.612545	0.262759
667.816634	0.263042
668.020703	0.263357
668.224755	0.263794
668.428788	0.263718
668.632803	0.263669
668.836800	0.263777
669.040779	0.263957
669.244739	0.263970
669.448681	0.264374
669.652605	0.264560
669.856511	0.264719
670.060399	0.264501
670.264268	0.264628
670.468119	0.264862
670.671952	0.264884
670.875767	0.265038
671.079563	0.265165
671.283341	0.264941
671.487101	0.265208
671.690843	0.264991
671.894567	0.265220
672.098272	0.265516
672.301959	0.265521
672.505628	0.266005
672.709278	0.266168
672.912911	0.266598
673.116525	0.266984
673.320121	0.267027
673.523699	0.267506
673.727258	0.267783
673.930799	0.267775
674.134322	0.267911
674.337827	0.267757
674.541314	0.267852
674.744782	0.267864
674.948232	0.267827
675.151664	0.267868
675.355078	0.267998
675.558474	0.268297
675.761851	0.268785
675.965210	0.269237
676.168551	0.269665
676.371873	0.269822
676.575178	0.270029
676.778464	0.270246
676.981732	0.270720
677.184981	0.271147
677.388213	0.271051
677.591426	0.271169
677.794621	0.271464
677.997798	0.271413
678.200956	0.271545
678.404097	0.271659
678.607219	0.271674
678.810323	0.271633
679.013408	0.271589
679.216476	0.271791
679.419525	0.271951
679.622556	0.271959
679.825569	0.272193
680.028563	0.272412
680.231540	0.272575
680.434498	0.272878
680.637438	0.272887
680.840359	0.272963
681.043263	0.273028
681.246148	0.273161
681.449015	0.273425
681.651864	0.273440
681.854694	0.273697
682.057506	0.273776
682.260301	0.273926
682.463076	0.274339
682.665834	0.274645
682.868573	0.274999
683.071295	0.275163
683.273998	0.275176
683.476682	0.275566
683.679349	0.275683
683.881997	0.276200
684.084627	0.276499
684.287239	0.276570
684.489833	0.276700
684.692408	0.276696
684.894965	0.276634
685.097504	0.276789
685.300025	0.277082
685.502527	0.277405
685.705012	0.277303
685.907478	0.277291
686.109925	0.277531
686.312355	0.277794
686.514766	0.278084
686.717159	0.278488
686.919534	0.278495
687.121891	0.278307
687.324230	0.278246
687.526550	0.278468
687.728852	0.278780
687.931136	0.278630
688.133401	0.278375
688.335649	0.278238
688.537878	0.278019
688.740089	0.278010
688.942281	0.278387
689.144456	0.278181
689.346612	0.277870
689.548750	0.277661
689.750870	0.277963
689.952971	0.278093
690.155055	0.278408
690.357120	0.278633
690.559167	0.278964
690.761195	0.278821
690.963206	0.279323
691.165198	0.279769
691.367172	0.280114
691.569128	0.280307
691.771065	0.280731
691.972984	0.280728
692.174885	0.280851
692.376768	0.280914
692.578633	0.281151
692.780479	0.281226
692.982308	0.281182
693.184118	0.281331
693.385909	0.281338
