sample name	sample
index	1437
start time	 05-10-2021  12:51:44 PM


Wavelength (nm)	Absorbance
494.344910	-0.085799
494.563924	-0.085799
494.782919	-0.085799
495.001897	0.025729
495.220856	-0.032844
495.439797	-0.021405
495.658719	-0.012597
495.877624	-0.004250
496.096510	-0.009290
496.315378	-0.013672
496.534227	-0.009109
496.753059	-0.010689
496.971872	-0.006329
497.190667	0.042615
497.409444	0.068948
497.628203	0.081208
497.846943	0.087483
498.065665	0.091970
498.284369	0.094412
498.503055	0.095163
498.721723	0.095328
498.940372	0.095508
499.159003	0.095773
499.377616	0.095630
499.596210	0.094687
499.814787	0.093710
500.033345	0.092932
500.251885	0.093640
500.470406	0.094378
500.688910	0.095537
500.907395	0.096357
501.125862	0.096857
501.344311	0.097379
501.562742	0.097455
501.781154	0.097809
501.999548	0.097509
502.217924	0.097785
502.436282	0.097286
502.654621	0.096787
502.872942	0.097176
503.091245	0.097159
503.309530	0.096673
503.527797	0.097394
503.746045	0.097761
503.964275	0.098439
504.182487	0.098202
504.400681	0.099324
504.618856	0.098714
504.837013	0.098290
505.055152	0.098136
505.273273	0.098850
505.491376	0.098522
505.709460	0.097980
505.927526	0.097985
506.145574	0.097449
506.363604	0.096286
506.581615	0.096401
506.799608	0.096850
507.017583	0.096599
507.235540	0.095401
507.453478	0.095182
507.671399	0.096271
507.889301	0.096848
508.107185	0.097128
508.325050	0.097968
508.542898	0.099773
508.760727	0.099788
508.978538	0.100265
509.196330	0.101702
509.414105	0.100961
509.631861	0.100659
509.849599	0.099720
510.067319	0.099731
510.285021	0.099488
510.502704	0.099508
510.720369	0.099423
510.938016	0.099234
511.155645	0.099383
511.373255	0.100449
511.590848	0.100417
511.808422	0.101127
512.025977	0.100144
512.243515	0.101028
512.461034	0.100323
512.678536	0.100519
512.896018	0.101259
513.113483	0.100834
513.330930	0.101608
513.548358	0.101645
513.765768	0.101557
513.983160	0.102349
514.200533	0.101772
514.417889	0.102132
514.635226	0.103007
514.852545	0.102712
515.069845	0.102752
515.287128	0.102215
515.504392	0.102296
515.721638	0.101972
515.938866	0.102498
516.156075	0.103252
516.373267	0.103160
516.590440	0.102447
516.807594	0.101727
517.024731	0.102124
517.241850	0.102218
517.458950	0.102550
517.676032	0.103403
517.893095	0.103611
518.110141	0.102870
518.327168	0.103094
518.544177	0.103052
518.761168	0.104248
518.978141	0.104025
519.195095	0.103600
519.412031	0.103869
519.628949	0.103141
519.845849	0.103174
520.062731	0.103650
520.279594	0.103453
520.496439	0.103393
520.713266	0.103676
520.930074	0.103724
521.146865	0.104209
521.363637	0.104766
521.580391	0.105640
521.797127	0.105377
522.013844	0.105470
522.230543	0.105609
522.447224	0.105894
522.663887	0.105854
522.880532	0.105763
523.097158	0.105992
523.313766	0.105934
523.530356	0.105913
523.746928	0.105901
523.963481	0.106474
524.180017	0.106148
524.396534	0.106230
524.613032	0.105802
524.829513	0.105910
525.045975	0.106123
525.262420	0.105817
525.478845	0.106431
525.695253	0.107324
525.911643	0.106286
526.128014	0.106931
526.344367	0.106961
526.560702	0.107316
526.777018	0.108638
526.993316	0.109210
527.209597	0.109048
527.425858	0.108266
527.642102	0.108175
527.858328	0.108391
528.074535	0.108759
528.290724	0.110015
528.506894	0.110374
528.723047	0.109682
528.939181	0.109600
529.155297	0.109756
529.371395	0.110777
529.587475	0.111008
529.803536	0.112112
530.019579	0.111686
530.235604	0.110399
530.451611	0.110666
530.667600	0.110525
530.883570	0.110811
531.099522	0.111364
531.315456	0.110609
531.531372	0.110492
531.747269	0.110019
531.963148	0.110583
532.179009	0.111223
532.394852	0.111622
532.610676	0.112588
532.826482	0.112474
533.042271	0.112555
533.258040	0.113138
533.473792	0.112982
533.689525	0.113458
533.905240	0.113013
534.120937	0.113037
534.336616	0.112725
534.552277	0.112099
534.767919	0.112541
534.983543	0.112661
535.199149	0.113150
535.414736	0.113337
535.630306	0.113078
535.845857	0.113395
536.061390	0.114016
536.276904	0.114396
536.492401	0.114385
536.707879	0.114467
536.923339	0.114217
537.138781	0.113888
537.354204	0.114436
537.569610	0.114994
537.784997	0.115625
538.000366	0.115648
538.215716	0.115507
538.431049	0.115611
538.646363	0.115496
538.861659	0.116303
539.076937	0.116522
539.292196	0.116411
539.507438	0.116816
539.722661	0.116879
539.937866	0.116433
540.153052	0.116567
540.368221	0.117172
540.583371	0.116919
540.798503	0.117014
541.013617	0.117062
541.228712	0.117706
541.443789	0.117156
541.658848	0.117156
541.873889	0.117712
542.088912	0.118264
542.303916	0.118819
542.518902	0.119407
542.733870	0.119411
542.948820	0.119653
543.163752	0.118959
543.378665	0.119570
543.593560	0.119831
543.808437	0.120166
544.023295	0.119809
544.238136	0.119111
544.452958	0.119061
544.667762	0.119103
544.882548	0.119363
545.097315	0.119515
545.312064	0.119519
545.526795	0.119397
545.741508	0.119293
545.956203	0.119504
546.170879	0.119837
546.385537	0.120140
546.600177	0.119592
546.814799	0.119418
547.029402	0.119531
547.243988	0.119589
547.458555	0.119154
547.673103	0.119112
547.887634	0.119569
548.102146	0.119559
548.316640	0.119495
548.531116	0.120073
548.745574	0.120011
548.960013	0.120490
549.174435	0.120274
549.388838	0.121141
549.603222	0.121446
549.817589	0.121183
550.031937	0.121334
550.246267	0.121857
550.460579	0.121964
550.674873	0.122237
550.889148	0.122516
551.103405	0.122807
551.317644	0.122455
551.531865	0.122592
551.746068	0.122524
551.960252	0.122559
552.174418	0.122107
552.388566	0.122384
552.602696	0.122741
552.816807	0.122144
553.030900	0.122246
553.244975	0.122577
553.459032	0.122989
553.673070	0.123106
553.887091	0.123380
554.101093	0.123348
554.315077	0.123174
554.529042	0.123042
554.742990	0.123201
554.956919	0.123269
555.170830	0.123309
555.384722	0.122904
555.598597	0.123019
555.812453	0.123048
556.026291	0.123575
556.240111	0.123810
556.453913	0.124272
556.667696	0.124757
556.881461	0.124989
557.095208	0.125108
557.308937	0.125203
557.522647	0.125560
557.736339	0.125504
557.950013	0.125390
558.163669	0.125305
558.377307	0.124973
558.590926	0.124890
558.804527	0.124664
559.018110	0.124485
559.231675	0.124329
559.445221	0.124447
559.658749	0.124713
559.872259	0.124454
560.085751	0.124144
560.299225	0.124117
560.512680	0.123971
560.726117	0.124133
560.939536	0.124258
561.152937	0.124494
561.366319	0.124001
561.579683	0.124032
561.793029	0.124566
562.006357	0.125167
562.219667	0.125196
562.432958	0.125680
562.646231	0.125922
562.859486	0.125897
563.072723	0.125967
563.285941	0.126450
563.499141	0.126787
563.712323	0.127044
563.925487	0.127188
564.138632	0.127442
564.351760	0.127561
564.564869	0.127909
564.777960	0.128412
564.991032	0.128049
565.204087	0.128191
565.417123	0.128193
565.630141	0.128064
565.843140	0.128080
566.056122	0.128270
566.269085	0.127838
566.482030	0.127216
566.694957	0.127029
566.907866	0.127334
567.120756	0.127224
567.333628	0.126892
567.546482	0.126825
567.759318	0.126628
567.972135	0.126294
568.184935	0.126248
568.397716	0.126466
568.610478	0.126381
568.823223	0.126539
569.035949	0.126654
569.248657	0.126892
569.461347	0.126970
569.674019	0.127388
569.886672	0.127798
570.099308	0.128194
570.311925	0.128245
570.524523	0.128495
570.737104	0.128536
570.949666	0.128387
571.162210	0.128544
571.374736	0.128422
571.587244	0.128353
571.799733	0.128286
572.012205	0.128179
572.224658	0.128240
572.437092	0.128606
572.649509	0.128692
572.861907	0.129078
573.074287	0.129569
573.286649	0.129714
573.498993	0.129780
573.711318	0.129892
573.923625	0.130456
574.135914	0.130821
574.348185	0.130662
574.560438	0.130977
574.772672	0.131023
574.984888	0.130736
575.197086	0.130822
575.409266	0.130891
575.621427	0.131187
575.833570	0.131449
576.045695	0.131373
576.257802	0.131748
576.469890	0.131761
576.681961	0.131965
576.894013	0.132114
577.106046	0.132210
577.318062	0.132503
577.530059	0.132583
577.742039	0.132698
577.954000	0.132936
578.165942	0.132786
578.377867	0.132808
578.589773	0.132977
578.801661	0.132752
579.013531	0.132905
579.225382	0.132763
579.437216	0.132814
579.649031	0.132602
579.860828	0.132582
580.072606	0.132893
580.284367	0.133134
580.496109	0.133074
580.707833	0.133407
580.919539	0.133822
581.131227	0.133869
581.342896	0.133761
581.554547	0.133553
581.766180	0.134044
581.977795	0.134527
582.189391	0.134834
582.400969	0.135137
582.612529	0.135137
582.824071	0.135030
583.035595	0.135338
583.247100	0.135546
583.458587	0.135951
583.670056	0.135587
583.881506	0.135134
584.092939	0.135392
584.304353	0.135478
584.515749	0.135995
584.727127	0.136319
584.938486	0.136350
585.149828	0.136706
585.361151	0.137221
585.572456	0.137612
585.783742	0.138097
585.995011	0.138056
586.206261	0.138285
586.417493	0.138095
586.628706	0.138269
586.839902	0.138764
587.051079	0.138780
587.262238	0.138547
587.473379	0.138393
587.684502	0.138205
587.895606	0.138137
588.106692	0.138054
588.317760	0.138319
588.528810	0.138023
588.739841	0.137785
588.950855	0.137880
589.161850	0.138018
589.372827	0.138232
589.583785	0.138519
589.794726	0.138560
590.005648	0.138548
590.216552	0.138658
590.427437	0.139081
590.638305	0.139319
590.849154	0.139303
591.059985	0.138884
591.270798	0.138962
591.481592	0.139132
591.692369	0.139257
591.903127	0.139453
592.113867	0.139377
592.324588	0.139525
592.535292	0.139348
592.745977	0.139262
592.956644	0.139652
593.167293	0.139688
593.377923	0.139510
593.588536	0.139832
593.799130	0.139597
594.009706	0.139511
594.220263	0.139390
594.430803	0.139823
594.641324	0.140430
594.851827	0.140770
595.062312	0.140770
595.272778	0.140735
595.483227	0.140689
595.693657	0.140828
595.904069	0.141159
596.114462	0.141177
596.324838	0.141123
596.535195	0.140947
596.745534	0.141066
596.955855	0.141105
597.166157	0.141352
597.376441	0.141553
597.586707	0.141821
597.796955	0.141948
598.007185	0.142429
598.217396	0.142492
598.427589	0.142673
598.637764	0.142858
598.847921	0.143097
599.058060	0.143204
599.268180	0.143398
599.478282	0.143278
599.688366	0.143378
599.898431	0.143273
600.108479	0.143422
600.318508	0.143422
600.528519	0.143303
600.738511	0.143272
600.948486	0.143358
601.158442	0.143319
601.368380	0.143426
601.578300	0.143404
601.788202	0.143373
601.998085	0.143724
602.207950	0.143981
602.417797	0.144033
602.627626	0.144264
602.837436	0.144427
603.047228	0.144264
603.257002	0.144531
603.466758	0.144632
603.676496	0.144924
603.886215	0.144576
604.095916	0.144353
604.305599	0.144367
604.515264	0.144608
604.724910	0.144545
604.934538	0.144738
605.144148	0.144666
605.353740	0.144585
605.563314	0.144321
605.772869	0.144642
605.982406	0.144684
606.191925	0.144727
606.401425	0.144788
606.610908	0.145068
606.820372	0.145249
607.029818	0.145382
607.239246	0.145810
607.448655	0.145930
607.658047	0.145939
607.867420	0.146252
608.076775	0.146182
608.286111	0.146246
608.495430	0.146185
608.704730	0.146405
608.914012	0.146778
609.123275	0.146777
609.332521	0.147326
609.541748	0.147360
609.750957	0.147442
609.960148	0.147833
610.169321	0.147989
610.378475	0.148023
610.587611	0.147923
610.796729	0.147968
611.005829	0.148040
611.214910	0.147860
611.423974	0.147953
611.633019	0.148085
611.842045	0.148088
612.051054	0.148351
612.260044	0.148451
612.469017	0.148408
612.677970	0.148380
612.886906	0.148423
613.095824	0.148619
613.304723	0.148732
613.513604	0.148764
613.722467	0.148748
613.931311	0.148792
614.140138	0.148724
614.348946	0.148698
614.557736	0.148728
614.766507	0.149049
614.975261	0.149076
615.183996	0.149017
615.392713	0.149213
615.601412	0.149470
615.810092	0.149235
616.018754	0.149402
616.227399	0.149611
616.436024	0.149800
616.644632	0.149609
616.853222	0.149509
617.061793	0.149756
617.270346	0.149530
617.478880	0.149714
617.687397	0.149988
617.895895	0.150203
618.104375	0.150407
618.312837	0.150449
618.521281	0.150552
618.729706	0.150637
618.938113	0.150787
619.146502	0.150886
619.354873	0.150667
619.563226	0.150589
619.771560	0.150432
619.979876	0.150400
620.188174	0.150380
620.396453	0.150372
620.604715	0.150614
620.812958	0.150685
621.021183	0.151055
621.229390	0.151351
621.437578	0.151593
621.645748	0.151786
621.853900	0.151763
622.062034	0.151865
622.270150	0.152081
622.478247	0.152073
622.686326	0.152026
622.894387	0.151967
623.102430	0.151749
623.310454	0.151593
623.518461	0.151655
623.726449	0.151930
623.934418	0.151862
624.142370	0.151660
624.350303	0.151800
624.558218	0.151779
624.766115	0.151929
624.973994	0.152168
625.181855	0.152445
625.389697	0.152546
625.597521	0.152517
625.805327	0.152588
626.013114	0.152578
626.220883	0.152562
626.428634	0.152601
626.636367	0.152634
626.844082	0.152789
627.051778	0.152697
627.259457	0.152582
627.467117	0.152342
627.674758	0.152892
627.882382	0.153174
628.089987	0.153123
628.297574	0.153070
628.505143	0.152867
628.712694	0.153032
628.920226	0.153087
629.127740	0.153382
629.335236	0.153876
629.542714	0.153566
629.750174	0.153645
629.957615	0.153860
630.165038	0.154077
630.372443	0.154300
630.579829	0.153944
630.787198	0.154106
630.994548	0.153781
631.201880	0.153635
631.409194	0.153684
631.616489	0.153822
631.823766	0.153711
632.031025	0.153681
632.238266	0.153548
632.445489	0.153950
632.652693	0.154153
632.859879	0.154539
633.067047	0.154773
633.274197	0.155007
633.481329	0.154960
633.688442	0.155237
633.895537	0.155536
634.102614	0.155737
634.309672	0.155982
634.516713	0.155898
634.723735	0.156035
634.930739	0.156080
635.137724	0.156096
635.344692	0.156351
635.551641	0.156303
635.758572	0.156383
635.965485	0.156557
636.172379	0.156392
636.379256	0.156443
636.586114	0.156363
636.792954	0.156186
636.999775	0.156292
637.206579	0.156348
637.413364	0.156607
637.620131	0.156615
637.826880	0.156621
638.033610	0.156459
638.240323	0.156679
638.447017	0.156973
638.653692	0.157328
638.860350	0.157423
639.066990	0.157599
639.273611	0.157522
639.480214	0.157774
639.686798	0.158092
639.893365	0.158420
640.099913	0.158413
640.306443	0.158588
640.512955	0.158519
640.719449	0.158579
640.925924	0.158741
641.132381	0.158977
641.338820	0.158894
641.545241	0.158858
641.751644	0.158964
641.958028	0.158966
642.164394	0.158967
642.370742	0.159234
642.577071	0.159475
642.783383	0.159457
642.989676	0.159677
643.195951	0.159887
643.402207	0.159920
643.608446	0.160028
643.814666	0.160356
644.020868	0.160379
644.227052	0.160421
644.433218	0.160320
644.639365	0.160354
644.845494	0.160419
645.051605	0.160520
645.257698	0.160843
645.463772	0.160803
645.669828	0.160844
645.875866	0.161068
646.081886	0.161441
646.287888	0.161442
646.493871	0.161561
646.699836	0.161401
646.905783	0.161458
647.111712	0.161388
647.317622	0.161744
647.523514	0.161969
647.729388	0.161924
647.935244	0.161810
648.141082	0.162157
648.346901	0.162278
648.552702	0.162617
648.758485	0.162432
648.964250	0.162538
649.169996	0.162441
649.375724	0.162514
649.581434	0.162432
649.787126	0.162462
649.992800	0.162444
650.198455	0.162303
650.404092	0.162083
650.609711	0.162257
650.815311	0.162332
651.020894	0.162671
651.226458	0.162654
651.432004	0.162731
651.637532	0.162543
651.843041	0.162546
652.048532	0.162635
652.254006	0.162776
652.459460	0.163122
652.664897	0.163022
652.870315	0.162826
653.075716	0.162867
653.281097	0.163141
653.486461	0.163747
653.691807	0.163802
653.897134	0.164003
654.102443	0.164193
654.307734	0.164296
654.513006	0.164588
654.718261	0.164857
654.923497	0.164901
655.128715	0.164991
655.333915	0.164838
655.539096	0.165057
655.744259	0.165073
655.949404	0.165330
656.154531	0.165112
656.359640	0.165118
656.564730	0.165259
656.769802	0.165491
656.974856	0.165698
657.179892	0.165892
657.384909	0.165943
657.589908	0.166247
657.794889	0.166338
657.999852	0.166575
658.204797	0.166842
658.409723	0.166820
658.614631	0.166931
658.819521	0.166978
659.024393	0.167067
659.229246	0.167228
659.434081	0.167292
659.638898	0.167394
659.843697	0.167577
660.048478	0.167615
660.253240	0.167542
660.457984	0.167351
660.662710	0.167423
660.867417	0.167546
661.072107	0.167385
661.276778	0.167324
661.481431	0.167175
661.686066	0.167183
661.890682	0.167123
662.095281	0.167278
662.299861	0.167523
662.504422	0.167658
662.708966	0.167647
662.913491	0.167949
663.117999	0.167918
663.322488	0.168050
663.526958	0.168238
663.731411	0.168460
663.935845	0.168644
664.140261	0.168874
664.344659	0.169014
664.549038	0.168916
664.753400	0.168730
664.957743	0.168911
665.162068	0.169243
665.366375	0.169293
665.570663	0.169470
665.774933	0.169554
665.979185	0.169370
666.183419	0.169395
666.387635	0.169550
666.591832	0.169713
666.796011	0.169800
667.000172	0.169734
667.204315	0.169748
667.408439	0.169785
667.612545	0.169982
667.816634	0.170061
668.020703	0.169996
668.224755	0.170266
668.428788	0.170412
668.632803	0.170665
668.836800	0.170490
669.040779	0.170710
669.244739	0.170722
669.448681	0.170815
669.652605	0.171076
669.856511	0.171420
670.060399	0.171553
670.264268	0.171882
670.468119	0.171990
670.671952	0.172523
670.875767	0.172829
671.079563	0.173348
671.283341	0.173453
671.487101	0.173653
671.690843	0.173723
671.894567	0.173671
672.098272	0.173660
672.301959	0.173999
672.505628	0.173937
672.709278	0.173843
672.912911	0.173669
673.116525	0.173741
673.320121	0.173792
673.523699	0.173874
673.727258	0.174200
673.930799	0.174427
674.134322	0.174364
674.337827	0.174484
674.541314	0.174771
674.744782	0.174897
674.948232	0.175184
675.151664	0.175483
675.355078	0.175519
675.558474	0.175432
675.761851	0.175557
675.965210	0.175533
676.168551	0.175683
676.371873	0.175547
676.575178	0.175594
676.778464	0.175516
676.981732	0.175305
677.184981	0.175299
677.388213	0.175590
677.591426	0.175425
677.794621	0.175507
677.997798	0.175456
678.200956	0.175549
678.404097	0.175757
678.607219	0.175637
678.810323	0.175972
679.013408	0.176233
679.216476	0.176290
679.419525	0.176426
679.622556	0.176550
679.825569	0.176847
680.028563	0.177102
680.231540	0.177123
680.434498	0.177505
680.637438	0.177405
680.840359	0.177559
681.043263	0.177564
681.246148	0.177921
681.449015	0.178167
681.651864	0.178034
681.854694	0.178036
682.057506	0.178063
682.260301	0.178188
682.463076	0.178215
682.665834	0.178212
682.868573	0.178548
683.071295	0.178631
683.273998	0.178546
683.476682	0.178987
683.679349	0.179166
683.881997	0.179325
684.084627	0.179357
684.287239	0.179724
684.489833	0.179697
684.692408	0.179565
684.894965	0.179479
685.097504	0.179541
685.300025	0.179209
685.502527	0.179066
685.705012	0.179030
685.907478	0.179145
686.109925	0.179155
686.312355	0.179614
686.514766	0.179689
686.717159	0.179899
686.919534	0.180140
687.121891	0.180457
687.324230	0.180840
687.526550	0.180995
687.728852	0.180807
687.931136	0.180704
688.133401	0.180577
688.335649	0.180671
688.537878	0.180684
688.740089	0.180726
688.942281	0.180788
689.144456	0.180603
689.346612	0.180538
689.548750	0.180638
689.750870	0.180818
689.952971	0.180724
690.155055	0.180886
690.357120	0.180888
690.559167	0.181008
690.761195	0.181144
690.963206	0.180976
691.165198	0.181358
691.367172	0.181730
691.569128	0.181665
691.771065	0.182004
691.972984	0.181955
692.174885	0.181970
692.376768	0.182007
692.578633	0.181806
692.780479	0.182110
692.982308	0.181898
693.184118	0.181582
693.385909	0.181699
