sample name	sample
index	590
start time	 03-16-2021  04:26:45 PM


Wavelength (nm)	Absorbance
494.344910	-0.234434
494.563924	-0.234434
494.782919	-0.234434
495.001897	-0.423741
495.220856	-0.266744
495.439797	-0.235848
495.658719	-0.190011
495.877624	-0.184384
496.096510	-0.100271
496.315378	0.002528
496.534227	0.022348
496.753059	0.129083
496.971872	0.179116
497.190667	0.090728
497.409444	0.087426
497.628203	0.086187
497.846943	0.084476
498.065665	0.083536
498.284369	0.082267
498.503055	0.081163
498.721723	0.081919
498.940372	0.082081
499.159003	0.082009
499.377616	0.081970
499.596210	0.080653
499.814787	0.081964
500.033345	0.081826
500.251885	0.082869
500.470406	0.081899
500.688910	0.081221
500.907395	0.080946
501.125862	0.080799
501.344311	0.080844
501.562742	0.080820
501.781154	0.080360
501.999548	0.080627
502.217924	0.079468
502.436282	0.080659
502.654621	0.080013
502.872942	0.081168
503.091245	0.082598
503.309530	0.081545
503.527797	0.082386
503.746045	0.081607
503.964275	0.081221
504.182487	0.081483
504.400681	0.081776
504.618856	0.083029
504.837013	0.080947
505.055152	0.079934
505.273273	0.080572
505.491376	0.080078
505.709460	0.080152
505.927526	0.080266
506.145574	0.079594
506.363604	0.079247
506.581615	0.077815
506.799608	0.079782
507.017583	0.080268
507.235540	0.079657
507.453478	0.079293
507.671399	0.080472
507.889301	0.081327
508.107185	0.082066
508.325050	0.081837
508.542898	0.080839
508.760727	0.080079
508.978538	0.079447
509.196330	0.079125
509.414105	0.080442
509.631861	0.080116
509.849599	0.079094
510.067319	0.078069
510.285021	0.078616
510.502704	0.080450
510.720369	0.081268
510.938016	0.082108
511.155645	0.083009
511.373255	0.081643
511.590848	0.081562
511.808422	0.081603
512.025977	0.082804
512.243515	0.082169
512.461034	0.081574
512.678536	0.080879
512.896018	0.080369
513.113483	0.079877
513.330930	0.080307
513.548358	0.080017
513.765768	0.078665
513.983160	0.078050
514.200533	0.078594
514.417889	0.078970
514.635226	0.078582
514.852545	0.078260
515.069845	0.078480
515.287128	0.079415
515.504392	0.078838
515.721638	0.080158
515.938866	0.080177
516.156075	0.079988
516.373267	0.080250
516.590440	0.080398
516.807594	0.080903
517.024731	0.080947
517.241850	0.080287
517.458950	0.081448
517.676032	0.081212
517.893095	0.081310
518.110141	0.080591
518.327168	0.079673
518.544177	0.079664
518.761168	0.080064
518.978141	0.079689
519.195095	0.080139
519.412031	0.079523
519.628949	0.079450
519.845849	0.079241
520.062731	0.080038
520.279594	0.080641
520.496439	0.081475
520.713266	0.080586
520.930074	0.081150
521.146865	0.081677
521.363637	0.080857
521.580391	0.081424
521.797127	0.082256
522.013844	0.082091
522.230543	0.081873
522.447224	0.082117
522.663887	0.082667
522.880532	0.083205
523.097158	0.082841
523.313766	0.083984
523.530356	0.084035
523.746928	0.083511
523.963481	0.083229
524.180017	0.083647
524.396534	0.082667
524.613032	0.083157
524.829513	0.083054
525.045975	0.082995
525.262420	0.083125
525.478845	0.083993
525.695253	0.084222
525.911643	0.085116
526.128014	0.084749
526.344367	0.085184
526.560702	0.084605
526.777018	0.084410
526.993316	0.084298
527.209597	0.084937
527.425858	0.084298
527.642102	0.084540
527.858328	0.083888
528.074535	0.084505
528.290724	0.084532
528.506894	0.085432
528.723047	0.085195
528.939181	0.085099
529.155297	0.084535
529.371395	0.084130
529.587475	0.083674
529.803536	0.084413
530.019579	0.084065
530.235604	0.084436
530.451611	0.083731
530.667600	0.084573
530.883570	0.084535
531.099522	0.083989
531.315456	0.084899
531.531372	0.085347
531.747269	0.085452
531.963148	0.085280
532.179009	0.085601
532.394852	0.085887
532.610676	0.085475
532.826482	0.085682
533.042271	0.086283
533.258040	0.085903
533.473792	0.086346
533.689525	0.086769
533.905240	0.088266
534.120937	0.087978
534.336616	0.087862
534.552277	0.088491
534.767919	0.089268
534.983543	0.090201
535.199149	0.090428
535.414736	0.090147
535.630306	0.089599
535.845857	0.089058
536.061390	0.089776
536.276904	0.089599
536.492401	0.089366
536.707879	0.089249
536.923339	0.088532
537.138781	0.088969
537.354204	0.089586
537.569610	0.090099
537.784997	0.090127
538.000366	0.089989
538.215716	0.090718
538.431049	0.090783
538.646363	0.091305
538.861659	0.091516
539.076937	0.091211
539.292196	0.090750
539.507438	0.090816
539.722661	0.091051
539.937866	0.091551
540.153052	0.091529
540.368221	0.090972
540.583371	0.090896
540.798503	0.091409
541.013617	0.091607
541.228712	0.091938
541.443789	0.092297
541.658848	0.092051
541.873889	0.091133
542.088912	0.091648
542.303916	0.092445
542.518902	0.092351
542.733870	0.091967
542.948820	0.092325
543.163752	0.092349
543.378665	0.091939
543.593560	0.092413
543.808437	0.092927
544.023295	0.092501
544.238136	0.092772
544.452958	0.092657
544.667762	0.092854
544.882548	0.093073
545.097315	0.093292
545.312064	0.093464
545.526795	0.092876
545.741508	0.093077
545.956203	0.093251
546.170879	0.092787
546.385537	0.092705
546.600177	0.093348
546.814799	0.093230
547.029402	0.092949
547.243988	0.093606
547.458555	0.094044
547.673103	0.094002
547.887634	0.094493
548.102146	0.094942
548.316640	0.095449
548.531116	0.094488
548.745574	0.094807
548.960013	0.095411
549.174435	0.094949
549.388838	0.094726
549.603222	0.094478
549.817589	0.094545
550.031937	0.094450
550.246267	0.094350
550.460579	0.095175
550.674873	0.095382
550.889148	0.095239
551.103405	0.095231
551.317644	0.095681
551.531865	0.095826
551.746068	0.095304
551.960252	0.095758
552.174418	0.095964
552.388566	0.096158
552.602696	0.095640
552.816807	0.095900
553.030900	0.096391
553.244975	0.096688
553.459032	0.096758
553.673070	0.097415
553.887091	0.097220
554.101093	0.096892
554.315077	0.096700
554.529042	0.096945
554.742990	0.096855
554.956919	0.096554
555.170830	0.096356
555.384722	0.096299
555.598597	0.096074
555.812453	0.096277
556.026291	0.096421
556.240111	0.096424
556.453913	0.096498
556.667696	0.096608
556.881461	0.096783
557.095208	0.097176
557.308937	0.097036
557.522647	0.097211
557.736339	0.097407
557.950013	0.098116
558.163669	0.098395
558.377307	0.098684
558.590926	0.098929
558.804527	0.098794
559.018110	0.098561
559.231675	0.099539
559.445221	0.099423
559.658749	0.099231
559.872259	0.099311
560.085751	0.099266
560.299225	0.098895
560.512680	0.098568
560.726117	0.098853
560.939536	0.098870
561.152937	0.098531
561.366319	0.098540
561.579683	0.098419
561.793029	0.098016
562.006357	0.098224
562.219667	0.098333
562.432958	0.098542
562.646231	0.098620
562.859486	0.098859
563.072723	0.099136
563.285941	0.099465
563.499141	0.099646
563.712323	0.099871
563.925487	0.099675
564.138632	0.099707
564.351760	0.099848
564.564869	0.099839
564.777960	0.099490
564.991032	0.099761
565.204087	0.099732
565.417123	0.100049
565.630141	0.099521
565.843140	0.099613
566.056122	0.100009
566.269085	0.100076
566.482030	0.100135
566.694957	0.100402
566.907866	0.100048
567.120756	0.100171
567.333628	0.099913
567.546482	0.100575
567.759318	0.100509
567.972135	0.100316
568.184935	0.099878
568.397716	0.099950
568.610478	0.100289
568.823223	0.100235
569.035949	0.100471
569.248657	0.100763
569.461347	0.101095
569.674019	0.100998
569.886672	0.100972
570.099308	0.101377
570.311925	0.101880
570.524523	0.101883
570.737104	0.102166
570.949666	0.101999
571.162210	0.101688
571.374736	0.101674
571.587244	0.102109
571.799733	0.102341
572.012205	0.102139
572.224658	0.101766
572.437092	0.101118
572.649509	0.101102
572.861907	0.101298
573.074287	0.101918
573.286649	0.101513
573.498993	0.101557
573.711318	0.101538
573.923625	0.101733
574.135914	0.101891
574.348185	0.102768
574.560438	0.102958
574.772672	0.102811
574.984888	0.102399
575.197086	0.102602
575.409266	0.102720
575.621427	0.103102
575.833570	0.103513
576.045695	0.103245
576.257802	0.103166
576.469890	0.103024
576.681961	0.102963
576.894013	0.103525
577.106046	0.103810
577.318062	0.103731
577.530059	0.103369
577.742039	0.103342
577.954000	0.103865
578.165942	0.104270
578.377867	0.104326
578.589773	0.104472
578.801661	0.104355
579.013531	0.104402
579.225382	0.104654
579.437216	0.105207
579.649031	0.105290
579.860828	0.105100
580.072606	0.104678
580.284367	0.104586
580.496109	0.104619
580.707833	0.104726
580.919539	0.104622
581.131227	0.104597
581.342896	0.104273
581.554547	0.104620
581.766180	0.104935
581.977795	0.104941
582.189391	0.105137
582.400969	0.105583
582.612529	0.105502
582.824071	0.105564
583.035595	0.105633
583.247100	0.105646
583.458587	0.105243
583.670056	0.104984
583.881506	0.104992
584.092939	0.105015
584.304353	0.104739
584.515749	0.105070
584.727127	0.105107
584.938486	0.105095
585.149828	0.105219
585.361151	0.105561
585.572456	0.105926
585.783742	0.106331
585.995011	0.106556
586.206261	0.106726
586.417493	0.106369
586.628706	0.106390
586.839902	0.106588
587.051079	0.106972
587.262238	0.106712
587.473379	0.106921
587.684502	0.106908
587.895606	0.107135
588.106692	0.106933
588.317760	0.106983
588.528810	0.107166
588.739841	0.107204
588.950855	0.106831
589.161850	0.106814
589.372827	0.106429
589.583785	0.106366
589.794726	0.106295
590.005648	0.106750
590.216552	0.107068
590.427437	0.107258
590.638305	0.107433
590.849154	0.107492
591.059985	0.107622
591.270798	0.107348
591.481592	0.107241
591.692369	0.107111
591.903127	0.107210
592.113867	0.106751
592.324588	0.106591
592.535292	0.106617
592.745977	0.106995
592.956644	0.107207
593.167293	0.107830
593.377923	0.108014
593.588536	0.108164
593.799130	0.108182
594.009706	0.108792
594.220263	0.108977
594.430803	0.109010
594.641324	0.109084
594.851827	0.108945
595.062312	0.109010
595.272778	0.109075
595.483227	0.109139
595.693657	0.108852
595.904069	0.108833
596.114462	0.108732
596.324838	0.108762
596.535195	0.108841
596.745534	0.109063
596.955855	0.108606
597.166157	0.108687
597.376441	0.108731
597.586707	0.109007
597.796955	0.108670
598.007185	0.108641
598.217396	0.108808
598.427589	0.108665
598.637764	0.108638
598.847921	0.108797
599.058060	0.108843
599.268180	0.109279
599.478282	0.108921
599.688366	0.109562
599.898431	0.110004
600.108479	0.109579
600.318508	0.109438
600.528519	0.109409
600.738511	0.110034
600.948486	0.110139
601.158442	0.109715
601.368380	0.110130
601.578300	0.109954
601.788202	0.109793
601.998085	0.110474
602.207950	0.110728
602.417797	0.110592
602.627626	0.110162
602.837436	0.110336
603.047228	0.110451
603.257002	0.110213
603.466758	0.110364
603.676496	0.110205
603.886215	0.109796
604.095916	0.109957
604.305599	0.110377
604.515264	0.110540
604.724910	0.110347
604.934538	0.110371
605.144148	0.110669
605.353740	0.110662
605.563314	0.110795
605.772869	0.110814
605.982406	0.110606
606.191925	0.110659
606.401425	0.110790
606.610908	0.111119
606.820372	0.111294
607.029818	0.111374
607.239246	0.111098
607.448655	0.110839
607.658047	0.110951
607.867420	0.110991
608.076775	0.111007
608.286111	0.111002
608.495430	0.111018
608.704730	0.111049
608.914012	0.111060
609.123275	0.111383
609.332521	0.111919
609.541748	0.111957
609.750957	0.112326
609.960148	0.112468
610.169321	0.112824
610.378475	0.112772
610.587611	0.112204
610.796729	0.112470
611.005829	0.112178
611.214910	0.112135
611.423974	0.112136
611.633019	0.112418
611.842045	0.112486
612.051054	0.112104
612.260044	0.111987
612.469017	0.112557
612.677970	0.112392
612.886906	0.112965
613.095824	0.113039
613.304723	0.113236
613.513604	0.112834
613.722467	0.113044
613.931311	0.113120
614.140138	0.113246
614.348946	0.113194
614.557736	0.113112
614.766507	0.113056
614.975261	0.113057
615.183996	0.113211
615.392713	0.113199
615.601412	0.112976
615.810092	0.113205
616.018754	0.113524
616.227399	0.113685
616.436024	0.114083
616.644632	0.114002
616.853222	0.113947
617.061793	0.113972
617.270346	0.114365
617.478880	0.114543
617.687397	0.114816
617.895895	0.114852
618.104375	0.114964
618.312837	0.115015
618.521281	0.115063
618.729706	0.115316
618.938113	0.115271
619.146502	0.115120
619.354873	0.115185
619.563226	0.115032
619.771560	0.115245
619.979876	0.115307
620.188174	0.115163
620.396453	0.115503
620.604715	0.115601
620.812958	0.115438
621.021183	0.115569
621.229390	0.115566
621.437578	0.115836
621.645748	0.115591
621.853900	0.115616
622.062034	0.115818
622.270150	0.115773
622.478247	0.115621
622.686326	0.116219
622.894387	0.116295
623.102430	0.116506
623.310454	0.116355
623.518461	0.116356
623.726449	0.116529
623.934418	0.116546
624.142370	0.116581
624.350303	0.116776
624.558218	0.116223
624.766115	0.116510
624.973994	0.116688
625.181855	0.116640
625.389697	0.116855
625.597521	0.116783
625.805327	0.116857
626.013114	0.116912
626.220883	0.116942
626.428634	0.117160
626.636367	0.116823
626.844082	0.116406
627.051778	0.116658
627.259457	0.116510
627.467117	0.116529
627.674758	0.116359
627.882382	0.116438
628.089987	0.116471
628.297574	0.116608
628.505143	0.116795
628.712694	0.117094
628.920226	0.117116
629.127740	0.117294
629.335236	0.117262
629.542714	0.117676
629.750174	0.117683
629.957615	0.117673
630.165038	0.117823
630.372443	0.117848
630.579829	0.117970
630.787198	0.117905
630.994548	0.117793
631.201880	0.118032
631.409194	0.117722
631.616489	0.117824
631.823766	0.118090
632.031025	0.118289
632.238266	0.118466
632.445489	0.118170
632.652693	0.118368
632.859879	0.118526
633.067047	0.118555
633.274197	0.118742
633.481329	0.118764
633.688442	0.118759
633.895537	0.118737
634.102614	0.118700
634.309672	0.119096
634.516713	0.119103
634.723735	0.118884
634.930739	0.118831
635.137724	0.118812
635.344692	0.118842
635.551641	0.118966
635.758572	0.118980
635.965485	0.119153
636.172379	0.119278
636.379256	0.119129
636.586114	0.119300
636.792954	0.119523
636.999775	0.119924
637.206579	0.120105
637.413364	0.120093
637.620131	0.120054
637.826880	0.120125
638.033610	0.119883
638.240323	0.120201
638.447017	0.120364
638.653692	0.120401
638.860350	0.120142
639.066990	0.120224
639.273611	0.120422
639.480214	0.120651
639.686798	0.120903
639.893365	0.121169
640.099913	0.121280
640.306443	0.121452
640.512955	0.121650
640.719449	0.121737
640.925924	0.121424
641.132381	0.121251
641.338820	0.121419
641.545241	0.121423
641.751644	0.121294
641.958028	0.121159
642.164394	0.121343
642.370742	0.121437
642.577071	0.121572
642.783383	0.121981
642.989676	0.122200
643.195951	0.121886
643.402207	0.121729
643.608446	0.121931
643.814666	0.122224
644.020868	0.122159
644.227052	0.122002
644.433218	0.121981
644.639365	0.121839
644.845494	0.121772
645.051605	0.122013
645.257698	0.122123
645.463772	0.122312
645.669828	0.122333
645.875866	0.122601
646.081886	0.122864
646.287888	0.123161
646.493871	0.123368
646.699836	0.123454
646.905783	0.123434
647.111712	0.123482
647.317622	0.123458
647.523514	0.123274
647.729388	0.123249
647.935244	0.123217
648.141082	0.123451
648.346901	0.123456
648.552702	0.123910
648.758485	0.124104
648.964250	0.123912
649.169996	0.123690
649.375724	0.123835
649.581434	0.123673
649.787126	0.123747
649.992800	0.123654
650.198455	0.123740
650.404092	0.123432
650.609711	0.123426
650.815311	0.123489
651.020894	0.123783
651.226458	0.123772
651.432004	0.124091
651.637532	0.124127
651.843041	0.123969
652.048532	0.124060
652.254006	0.124240
652.459460	0.124314
652.664897	0.124520
652.870315	0.124584
653.075716	0.124662
653.281097	0.124696
653.486461	0.124665
653.691807	0.124777
653.897134	0.124835
654.102443	0.124636
654.307734	0.124826
654.513006	0.125040
654.718261	0.125168
654.923497	0.125272
655.128715	0.125256
655.333915	0.125485
655.539096	0.125710
655.744259	0.125763
655.949404	0.126087
656.154531	0.125958
656.359640	0.125941
656.564730	0.125905
656.769802	0.126143
656.974856	0.126205
657.179892	0.126316
657.384909	0.126216
657.589908	0.126362
657.794889	0.126248
657.999852	0.126186
658.204797	0.126403
658.409723	0.126424
658.614631	0.126339
658.819521	0.126400
659.024393	0.126455
659.229246	0.126612
659.434081	0.126812
659.638898	0.126990
659.843697	0.127180
660.048478	0.127185
660.253240	0.127491
660.457984	0.127585
660.662710	0.127640
660.867417	0.127804
661.072107	0.127759
661.276778	0.127722
661.481431	0.127851
661.686066	0.128240
661.890682	0.128431
662.095281	0.128304
662.299861	0.128180
662.504422	0.128417
662.708966	0.128563
662.913491	0.128906
663.117999	0.129160
663.322488	0.129386
663.526958	0.129312
663.731411	0.129514
663.935845	0.129942
664.140261	0.130461
664.344659	0.130347
664.549038	0.130151
664.753400	0.130145
664.957743	0.130001
665.162068	0.129805
665.366375	0.129907
665.570663	0.129787
665.774933	0.129708
665.979185	0.129461
666.183419	0.129674
666.387635	0.129860
666.591832	0.130068
666.796011	0.130114
667.000172	0.130366
667.204315	0.130390
667.408439	0.130579
667.612545	0.130774
667.816634	0.130980
668.020703	0.131158
668.224755	0.131204
668.428788	0.131181
668.632803	0.131523
668.836800	0.131706
669.040779	0.131856
669.244739	0.131669
669.448681	0.131762
669.652605	0.132048
669.856511	0.132114
670.060399	0.132311
670.264268	0.132195
670.468119	0.132154
670.671952	0.132275
670.875767	0.132402
671.079563	0.132636
671.283341	0.132703
671.487101	0.132690
671.690843	0.132927
671.894567	0.132967
672.098272	0.133468
672.301959	0.133461
672.505628	0.133398
672.709278	0.133565
672.912911	0.133844
673.116525	0.134014
673.320121	0.134184
673.523699	0.134111
673.727258	0.134358
673.930799	0.134238
674.134322	0.134510
674.337827	0.134736
674.541314	0.134772
674.744782	0.134773
674.948232	0.134819
675.151664	0.134945
675.355078	0.135195
675.558474	0.135063
675.761851	0.135182
675.965210	0.135220
676.168551	0.135093
676.371873	0.135201
676.575178	0.135227
676.778464	0.135165
676.981732	0.135307
677.184981	0.135058
677.388213	0.135312
677.591426	0.135405
677.794621	0.135501
677.997798	0.135706
678.200956	0.135719
678.404097	0.135693
678.607219	0.135738
678.810323	0.135598
679.013408	0.135665
679.216476	0.135664
679.419525	0.135821
679.622556	0.135930
679.825569	0.136135
680.028563	0.136353
680.231540	0.136658
680.434498	0.136761
680.637438	0.136793
680.840359	0.137194
681.043263	0.137607
681.246148	0.137517
681.449015	0.137438
681.651864	0.137515
681.854694	0.137459
682.057506	0.137511
682.260301	0.137572
682.463076	0.137792
682.665834	0.137786
682.868573	0.137571
683.071295	0.137631
683.273998	0.137770
683.476682	0.137577
683.679349	0.137756
683.881997	0.137769
684.084627	0.137863
684.287239	0.137797
684.489833	0.137926
684.692408	0.138030
684.894965	0.138192
685.097504	0.138328
685.300025	0.138487
685.502527	0.138406
685.705012	0.138522
685.907478	0.138575
686.109925	0.138859
686.312355	0.138762
686.514766	0.138962
686.717159	0.139123
686.919534	0.139160
687.121891	0.139323
687.324230	0.139465
687.526550	0.139645
687.728852	0.139696
687.931136	0.139639
688.133401	0.139888
688.335649	0.139674
688.537878	0.139403
688.740089	0.139561
688.942281	0.139671
689.144456	0.139777
689.346612	0.139766
689.548750	0.140192
689.750870	0.140456
689.952971	0.140477
690.155055	0.140870
690.357120	0.141159
690.559167	0.141285
690.761195	0.141227
690.963206	0.141264
691.165198	0.141345
691.367172	0.141220
691.569128	0.141133
691.771065	0.141030
691.972984	0.140938
692.174885	0.141315
692.376768	0.141370
692.578633	0.141608
692.780479	0.141826
692.982308	0.141646
693.184118	0.141564
693.385909	0.141724
