sample name	sample
index	1017
start time	 04-19-2021  11:51:37 AM


Wavelength (nm)	Absorbance
494.344910	-0.020945
494.563924	-0.020945
494.782919	-0.020945
495.001897	0.030047
495.220856	-0.043804
495.439797	-0.045505
495.658719	-0.045571
495.877624	-0.046533
496.096510	-0.049687
496.315378	-0.034284
496.534227	-0.022763
496.753059	-0.026136
496.971872	-0.007652
497.190667	0.113686
497.409444	0.154685
497.628203	0.169156
497.846943	0.176700
498.065665	0.178657
498.284369	0.181362
498.503055	0.183444
498.721723	0.186290
498.940372	0.187896
499.159003	0.187101
499.377616	0.186266
499.596210	0.187355
499.814787	0.187771
500.033345	0.188449
500.251885	0.188630
500.470406	0.189329
500.688910	0.188440
500.907395	0.188319
501.125862	0.188578
501.344311	0.189369
501.562742	0.188227
501.781154	0.188417
501.999548	0.190117
502.217924	0.189675
502.436282	0.189014
502.654621	0.188651
502.872942	0.188438
503.091245	0.189897
503.309530	0.191198
503.527797	0.191747
503.746045	0.190792
503.964275	0.190913
504.182487	0.191099
504.400681	0.191770
504.618856	0.193230
504.837013	0.193060
505.055152	0.194079
505.273273	0.192681
505.491376	0.192481
505.709460	0.193876
505.927526	0.193760
506.145574	0.194809
506.363604	0.194722
506.581615	0.194439
506.799608	0.195250
507.017583	0.194565
507.235540	0.195633
507.453478	0.196058
507.671399	0.195451
507.889301	0.195678
508.107185	0.196141
508.325050	0.196302
508.542898	0.196621
508.760727	0.196252
508.978538	0.196582
509.196330	0.197010
509.414105	0.198419
509.631861	0.199557
509.849599	0.199362
510.067319	0.199343
510.285021	0.199051
510.502704	0.199040
510.720369	0.199597
510.938016	0.198653
511.155645	0.199244
511.373255	0.198552
511.590848	0.198014
511.808422	0.198362
512.025977	0.198586
512.243515	0.198736
512.461034	0.198811
512.678536	0.199071
512.896018	0.200304
513.113483	0.200349
513.330930	0.200860
513.548358	0.201430
513.765768	0.202271
513.983160	0.202666
514.200533	0.203745
514.417889	0.204349
514.635226	0.204255
514.852545	0.204363
515.069845	0.204380
515.287128	0.204503
515.504392	0.204980
515.721638	0.204998
515.938866	0.204391
516.156075	0.205303
516.373267	0.205915
516.590440	0.205640
516.807594	0.205338
517.024731	0.204554
517.241850	0.204472
517.458950	0.204137
517.676032	0.203325
517.893095	0.204170
518.110141	0.204023
518.327168	0.203951
518.544177	0.205676
518.761168	0.206294
518.978141	0.207605
519.195095	0.207754
519.412031	0.208097
519.628949	0.209091
519.845849	0.209993
520.062731	0.210644
520.279594	0.210179
520.496439	0.210226
520.713266	0.210631
520.930074	0.210382
521.146865	0.210948
521.363637	0.212382
521.580391	0.212740
521.797127	0.212430
522.013844	0.212600
522.230543	0.213758
522.447224	0.213736
522.663887	0.213557
522.880532	0.213734
523.097158	0.214493
523.313766	0.214066
523.530356	0.214386
523.746928	0.214658
523.963481	0.214587
524.180017	0.214891
524.396534	0.215284
524.613032	0.215764
524.829513	0.216771
525.045975	0.217013
525.262420	0.217347
525.478845	0.218023
525.695253	0.218539
525.911643	0.219284
526.128014	0.219134
526.344367	0.219112
526.560702	0.220763
526.777018	0.221289
526.993316	0.220869
527.209597	0.220747
527.425858	0.220856
527.642102	0.220698
527.858328	0.220675
528.074535	0.221214
528.290724	0.221848
528.506894	0.220756
528.723047	0.220793
528.939181	0.221814
529.155297	0.222583
529.371395	0.222331
529.587475	0.222721
529.803536	0.223196
530.019579	0.223481
530.235604	0.223985
530.451611	0.225267
530.667600	0.225796
530.883570	0.225607
531.099522	0.225675
531.315456	0.226814
531.531372	0.226864
531.747269	0.227580
531.963148	0.228540
532.179009	0.229337
532.394852	0.229356
532.610676	0.229570
532.826482	0.230708
533.042271	0.231384
533.258040	0.231458
533.473792	0.232718
533.689525	0.232136
533.905240	0.231912
534.120937	0.231397
534.336616	0.231902
534.552277	0.232529
534.767919	0.232105
534.983543	0.232490
535.199149	0.232201
535.414736	0.232435
535.630306	0.233814
535.845857	0.234056
536.061390	0.234500
536.276904	0.234267
536.492401	0.234382
536.707879	0.234491
536.923339	0.234932
537.138781	0.235651
537.354204	0.235631
537.569610	0.235291
537.784997	0.236030
538.000366	0.236712
538.215716	0.237666
538.431049	0.238257
538.646363	0.239231
538.861659	0.238953
539.076937	0.239567
539.292196	0.239989
539.507438	0.240564
539.722661	0.241223
539.937866	0.241162
540.153052	0.241205
540.368221	0.240898
540.583371	0.241213
540.798503	0.242219
541.013617	0.242735
541.228712	0.242677
541.443789	0.243410
541.658848	0.243388
541.873889	0.244033
542.088912	0.244393
542.303916	0.244517
542.518902	0.244811
542.733870	0.244843
542.948820	0.245609
543.163752	0.245970
543.378665	0.246096
543.593560	0.246100
543.808437	0.246822
544.023295	0.246976
544.238136	0.247815
544.452958	0.248027
544.667762	0.248400
544.882548	0.247807
545.097315	0.248994
545.312064	0.248972
545.526795	0.249572
545.741508	0.249553
545.956203	0.250075
546.170879	0.250537
546.385537	0.250812
546.600177	0.251022
546.814799	0.251489
547.029402	0.251595
547.243988	0.252020
547.458555	0.252546
547.673103	0.253282
547.887634	0.253386
548.102146	0.253731
548.316640	0.253895
548.531116	0.254169
548.745574	0.255112
548.960013	0.255311
549.174435	0.255420
549.388838	0.255738
549.603222	0.255651
549.817589	0.255548
550.031937	0.255481
550.246267	0.255875
550.460579	0.256665
550.674873	0.256139
550.889148	0.256287
551.103405	0.256763
551.317644	0.256766
551.531865	0.257215
551.746068	0.257672
551.960252	0.258274
552.174418	0.258388
552.388566	0.258342
552.602696	0.258970
552.816807	0.259313
553.030900	0.259126
553.244975	0.259618
553.459032	0.259465
553.673070	0.259844
553.887091	0.260238
554.101093	0.260803
554.315077	0.261425
554.529042	0.261533
554.742990	0.261557
554.956919	0.262077
555.170830	0.261859
555.384722	0.262101
555.598597	0.262540
555.812453	0.262028
556.026291	0.262291
556.240111	0.262614
556.453913	0.262928
556.667696	0.263499
556.881461	0.263562
557.095208	0.263964
557.308937	0.264346
557.522647	0.264115
557.736339	0.264380
557.950013	0.264317
558.163669	0.264321
558.377307	0.264585
558.590926	0.264758
558.804527	0.264772
559.018110	0.264678
559.231675	0.264757
559.445221	0.265377
559.658749	0.266349
559.872259	0.266799
560.085751	0.266234
560.299225	0.266427
560.512680	0.266572
560.726117	0.267711
560.939536	0.268209
561.152937	0.268426
561.366319	0.268760
561.579683	0.268428
561.793029	0.269099
562.006357	0.270330
562.219667	0.270378
562.432958	0.270236
562.646231	0.269777
562.859486	0.270615
563.072723	0.271146
563.285941	0.271624
563.499141	0.272163
563.712323	0.272196
563.925487	0.272015
564.138632	0.272558
564.351760	0.273460
564.564869	0.273565
564.777960	0.273200
564.991032	0.273493
565.204087	0.273494
565.417123	0.273583
565.630141	0.273246
565.843140	0.273351
566.056122	0.273074
566.269085	0.272722
566.482030	0.273345
566.694957	0.273192
566.907866	0.273366
567.120756	0.273335
567.333628	0.273351
567.546482	0.274041
567.759318	0.274056
567.972135	0.274654
568.184935	0.275038
568.397716	0.275223
568.610478	0.275838
568.823223	0.276015
569.035949	0.276392
569.248657	0.276835
569.461347	0.276570
569.674019	0.276933
569.886672	0.276715
570.099308	0.277103
570.311925	0.277639
570.524523	0.277323
570.737104	0.277481
570.949666	0.277427
571.162210	0.277733
571.374736	0.278219
571.587244	0.278690
571.799733	0.279182
572.012205	0.279278
572.224658	0.279335
572.437092	0.280148
572.649509	0.280763
572.861907	0.280710
573.074287	0.280845
573.286649	0.280603
573.498993	0.280470
573.711318	0.280908
573.923625	0.281400
574.135914	0.281654
574.348185	0.281640
574.560438	0.281038
574.772672	0.281576
574.984888	0.281643
575.197086	0.282578
575.409266	0.282557
575.621427	0.282340
575.833570	0.282065
576.045695	0.281765
576.257802	0.282007
576.469890	0.282061
576.681961	0.282063
576.894013	0.282605
577.106046	0.282399
577.318062	0.282719
577.530059	0.282902
577.742039	0.283075
577.954000	0.283563
578.165942	0.283409
578.377867	0.284139
578.589773	0.284625
578.801661	0.284414
579.013531	0.284783
579.225382	0.285125
579.437216	0.285468
579.649031	0.285365
579.860828	0.285744
580.072606	0.286285
580.284367	0.286299
580.496109	0.286430
580.707833	0.286968
580.919539	0.287234
581.131227	0.287522
581.342896	0.287889
581.554547	0.288639
581.766180	0.288792
581.977795	0.288878
582.189391	0.289272
582.400969	0.289365
582.612529	0.289298
582.824071	0.289416
583.035595	0.289535
583.247100	0.289584
583.458587	0.289659
583.670056	0.289611
583.881506	0.290103
584.092939	0.290210
584.304353	0.290279
584.515749	0.290588
584.727127	0.290567
584.938486	0.290541
585.149828	0.290717
585.361151	0.290971
585.572456	0.291515
585.783742	0.291909
585.995011	0.292159
586.206261	0.292698
586.417493	0.292709
586.628706	0.292657
586.839902	0.293104
587.051079	0.293203
587.262238	0.293473
587.473379	0.293203
587.684502	0.293137
587.895606	0.293118
588.106692	0.293334
588.317760	0.293455
588.528810	0.294352
588.739841	0.294465
588.950855	0.294377
589.161850	0.294095
589.372827	0.294526
589.583785	0.294147
589.794726	0.294756
590.005648	0.294928
590.216552	0.295447
590.427437	0.294824
590.638305	0.295273
590.849154	0.295142
591.059985	0.296118
591.270798	0.296104
591.481592	0.296709
591.692369	0.296345
591.903127	0.296539
592.113867	0.296402
592.324588	0.296960
592.535292	0.296987
592.745977	0.297772
592.956644	0.297516
593.167293	0.297199
593.377923	0.297241
593.588536	0.297265
593.799130	0.297249
594.009706	0.297636
594.220263	0.297602
594.430803	0.297957
594.641324	0.298235
594.851827	0.298380
595.062312	0.299093
595.272778	0.299845
595.483227	0.300381
595.693657	0.300747
595.904069	0.301134
596.114462	0.301630
596.324838	0.301712
596.535195	0.301599
596.745534	0.301885
596.955855	0.301751
597.166157	0.301400
597.376441	0.301647
597.586707	0.301660
597.796955	0.301582
598.007185	0.301968
598.217396	0.301974
598.427589	0.302460
598.637764	0.302041
598.847921	0.301925
599.058060	0.302277
599.268180	0.302422
599.478282	0.302672
599.688366	0.302883
599.898431	0.302926
600.108479	0.303060
600.318508	0.303304
600.528519	0.303876
600.738511	0.304623
600.948486	0.304722
601.158442	0.304922
601.368380	0.305103
601.578300	0.305127
601.788202	0.305480
601.998085	0.305639
602.207950	0.305665
602.417797	0.305778
602.627626	0.305930
602.837436	0.306096
603.047228	0.305993
603.257002	0.306029
603.466758	0.306277
603.676496	0.306297
603.886215	0.306424
604.095916	0.306325
604.305599	0.306472
604.515264	0.307003
604.724910	0.307094
604.934538	0.307517
605.144148	0.307849
605.353740	0.308150
605.563314	0.308203
605.772869	0.308278
605.982406	0.308573
606.191925	0.309008
606.401425	0.308401
606.610908	0.308429
606.820372	0.308457
607.029818	0.308503
607.239246	0.308112
607.448655	0.308159
607.658047	0.308559
607.867420	0.308883
608.076775	0.308933
608.286111	0.309249
608.495430	0.309758
608.704730	0.309915
608.914012	0.310082
609.123275	0.310642
609.332521	0.311147
609.541748	0.311053
609.750957	0.311415
609.960148	0.311688
610.169321	0.312041
610.378475	0.312121
610.587611	0.312044
610.796729	0.312184
611.005829	0.312598
611.214910	0.312449
611.423974	0.312739
611.633019	0.312367
611.842045	0.312149
612.051054	0.312257
612.260044	0.312205
612.469017	0.312618
612.677970	0.312970
612.886906	0.312796
613.095824	0.312837
613.304723	0.312986
613.513604	0.313457
613.722467	0.313717
613.931311	0.313960
614.140138	0.314260
614.348946	0.314675
614.557736	0.314564
614.766507	0.314789
614.975261	0.315191
615.183996	0.315459
615.392713	0.315407
615.601412	0.315501
615.810092	0.315760
616.018754	0.316068
616.227399	0.315830
616.436024	0.316189
616.644632	0.316501
616.853222	0.316480
617.061793	0.316724
617.270346	0.317008
617.478880	0.317360
617.687397	0.317348
617.895895	0.317440
618.104375	0.317681
618.312837	0.317619
618.521281	0.317446
618.729706	0.318016
618.938113	0.318076
619.146502	0.318176
619.354873	0.318106
619.563226	0.318393
619.771560	0.318705
619.979876	0.319018
620.188174	0.319253
620.396453	0.319897
620.604715	0.319590
620.812958	0.319783
621.021183	0.319909
621.229390	0.320398
621.437578	0.320485
621.645748	0.320687
621.853900	0.320543
622.062034	0.320872
622.270150	0.321101
622.478247	0.321668
622.686326	0.321746
622.894387	0.322299
623.102430	0.322393
623.310454	0.322449
623.518461	0.322229
623.726449	0.322596
623.934418	0.322590
624.142370	0.322232
624.350303	0.322453
624.558218	0.322641
624.766115	0.322279
624.973994	0.322406
625.181855	0.322598
625.389697	0.322833
625.597521	0.322963
625.805327	0.323449
626.013114	0.323671
626.220883	0.323586
626.428634	0.323670
626.636367	0.323798
626.844082	0.324052
627.051778	0.324244
627.259457	0.324408
627.467117	0.324876
627.674758	0.324989
627.882382	0.325440
628.089987	0.325493
628.297574	0.325765
628.505143	0.326132
628.712694	0.326349
628.920226	0.326520
629.127740	0.326960
629.335236	0.326968
629.542714	0.326842
629.750174	0.326970
629.957615	0.327263
630.165038	0.327343
630.372443	0.327781
630.579829	0.327911
630.787198	0.328266
630.994548	0.328249
631.201880	0.328405
631.409194	0.328696
631.616489	0.328924
631.823766	0.328977
632.031025	0.329397
632.238266	0.329678
632.445489	0.329801
632.652693	0.330017
632.859879	0.330067
633.067047	0.330156
633.274197	0.330222
633.481329	0.330154
633.688442	0.330492
633.895537	0.330640
634.102614	0.330662
634.309672	0.330611
634.516713	0.330647
634.723735	0.331011
634.930739	0.331265
635.137724	0.331658
635.344692	0.331847
635.551641	0.331985
635.758572	0.332210
635.965485	0.332291
636.172379	0.332964
636.379256	0.333359
636.586114	0.333468
636.792954	0.333503
636.999775	0.333529
637.206579	0.333738
637.413364	0.333774
637.620131	0.333616
637.826880	0.333863
638.033610	0.333649
638.240323	0.333697
638.447017	0.333943
638.653692	0.334255
638.860350	0.334466
639.066990	0.334596
639.273611	0.334830
639.480214	0.335104
639.686798	0.335434
639.893365	0.335870
640.099913	0.336135
640.306443	0.336411
640.512955	0.336740
640.719449	0.337097
640.925924	0.337413
641.132381	0.337889
641.338820	0.337922
641.545241	0.338064
641.751644	0.338094
641.958028	0.338042
642.164394	0.338200
642.370742	0.338398
642.577071	0.338496
642.783383	0.338531
642.989676	0.338555
643.195951	0.339386
643.402207	0.339491
643.608446	0.339722
643.814666	0.339878
644.020868	0.339927
644.227052	0.339994
644.433218	0.339862
644.639365	0.339799
644.845494	0.340009
645.051605	0.339830
645.257698	0.340051
645.463772	0.340099
645.669828	0.340346
645.875866	0.340458
646.081886	0.340693
646.287888	0.340703
646.493871	0.341297
646.699836	0.341406
646.905783	0.341730
647.111712	0.341703
647.317622	0.341663
647.523514	0.341861
647.729388	0.342059
647.935244	0.342214
648.141082	0.342935
648.346901	0.342967
648.552702	0.342872
648.758485	0.343062
648.964250	0.343552
649.169996	0.343926
649.375724	0.344031
649.581434	0.344197
649.787126	0.344245
649.992800	0.344551
650.198455	0.344673
650.404092	0.345085
650.609711	0.345155
650.815311	0.345258
651.020894	0.345379
651.226458	0.345790
651.432004	0.346267
651.637532	0.346492
651.843041	0.346410
652.048532	0.346660
652.254006	0.346852
652.459460	0.346959
652.664897	0.346882
652.870315	0.347455
653.075716	0.347465
653.281097	0.347235
653.486461	0.347506
653.691807	0.347734
653.897134	0.348120
654.102443	0.348495
654.307734	0.348821
654.513006	0.349188
654.718261	0.349335
654.923497	0.349758
655.128715	0.350164
655.333915	0.350204
655.539096	0.350670
655.744259	0.350903
655.949404	0.351098
656.154531	0.351336
656.359640	0.351766
656.564730	0.351923
656.769802	0.352175
656.974856	0.352324
657.179892	0.352742
657.384909	0.352751
657.589908	0.353163
657.794889	0.353547
657.999852	0.353645
658.204797	0.353746
658.409723	0.353915
658.614631	0.354226
658.819521	0.354758
659.024393	0.355099
659.229246	0.355298
659.434081	0.355243
659.638898	0.355481
659.843697	0.355700
660.048478	0.356026
660.253240	0.356160
660.457984	0.356218
660.662710	0.356571
660.867417	0.356534
661.072107	0.357082
661.276778	0.357271
661.481431	0.357323
661.686066	0.357882
661.890682	0.358212
662.095281	0.358744
662.299861	0.359103
662.504422	0.359178
662.708966	0.359648
662.913491	0.359755
663.117999	0.360149
663.322488	0.360356
663.526958	0.360234
663.731411	0.360183
663.935845	0.360219
664.140261	0.360408
664.344659	0.360471
664.549038	0.360424
664.753400	0.360278
664.957743	0.360414
665.162068	0.360708
665.366375	0.361005
665.570663	0.361240
665.774933	0.361353
665.979185	0.361429
666.183419	0.361763
666.387635	0.362098
666.591832	0.362636
666.796011	0.363201
667.000172	0.363378
667.204315	0.363544
667.408439	0.364147
667.612545	0.364405
667.816634	0.364826
668.020703	0.365359
668.224755	0.365693
668.428788	0.365746
668.632803	0.365647
668.836800	0.365867
669.040779	0.366073
669.244739	0.365749
669.448681	0.366358
669.652605	0.366288
669.856511	0.366299
670.060399	0.366258
670.264268	0.366611
670.468119	0.366705
670.671952	0.367028
670.875767	0.367461
671.079563	0.367917
671.283341	0.368144
671.487101	0.368823
671.690843	0.369048
671.894567	0.369531
672.098272	0.369765
672.301959	0.370358
672.505628	0.370393
672.709278	0.370703
672.912911	0.370949
673.116525	0.371150
673.320121	0.371013
673.523699	0.371288
673.727258	0.371433
673.930799	0.371604
674.134322	0.371979
674.337827	0.372206
674.541314	0.372242
674.744782	0.372414
674.948232	0.372148
675.151664	0.372392
675.355078	0.372340
675.558474	0.372446
675.761851	0.372894
675.965210	0.372793
676.168551	0.373135
676.371873	0.373432
676.575178	0.373815
676.778464	0.374177
676.981732	0.374557
677.184981	0.374780
677.388213	0.375261
677.591426	0.375219
677.794621	0.375462
677.997798	0.375646
678.200956	0.375883
678.404097	0.376266
678.607219	0.376658
678.810323	0.376864
679.013408	0.377244
679.216476	0.377515
679.419525	0.377935
679.622556	0.378113
679.825569	0.378406
680.028563	0.378787
680.231540	0.378674
680.434498	0.378818
680.637438	0.378925
680.840359	0.379344
681.043263	0.379485
681.246148	0.379649
681.449015	0.379777
681.651864	0.379829
681.854694	0.380098
682.057506	0.380330
682.260301	0.380708
682.463076	0.381106
682.665834	0.381424
682.868573	0.381842
683.071295	0.382169
683.273998	0.382659
683.476682	0.383033
683.679349	0.382849
683.881997	0.383291
684.084627	0.383457
684.287239	0.383513
684.489833	0.383461
684.692408	0.383446
684.894965	0.383458
685.097504	0.383337
685.300025	0.383536
685.502527	0.384048
685.705012	0.384106
685.907478	0.384086
686.109925	0.384079
686.312355	0.384252
686.514766	0.384721
686.717159	0.384925
686.919534	0.385157
687.121891	0.385408
687.324230	0.385528
687.526550	0.385813
687.728852	0.385973
687.931136	0.386481
688.133401	0.386665
688.335649	0.386631
688.537878	0.386958
688.740089	0.387270
688.942281	0.387493
689.144456	0.387301
689.346612	0.387351
689.548750	0.387615
689.750870	0.387758
689.952971	0.388024
690.155055	0.388601
690.357120	0.388497
690.559167	0.388780
690.761195	0.388876
690.963206	0.389334
691.165198	0.389662
691.367172	0.389985
691.569128	0.390108
691.771065	0.390488
691.972984	0.390588
692.174885	0.391154
692.376768	0.391198
692.578633	0.391219
692.780479	0.391354
692.982308	0.391420
693.184118	0.391653
693.385909	0.391814
