sample name	sample
index	872
start time	 04-08-2021  01:30:57 PM
880	0.465321
Peak Time (s)	102.037
Peak Height 	0.4653
calc peak height	100,103
Baseline Time (s)	8.539
Baseline Value 	-0.004748
subtract baseline	10,4
Abs	0.347612
Peak Time (s)	102.535
Peak Height 	0.3476
calc peak height	100,103
Baseline Time (s)	9.537
Baseline Value 	0.001664
subtract baseline	10,3
PK_550	0.168410
Peak Time (s)	102.535
Peak Height 	0.1684
calc peak height	100,103
Baseline Time (s)	10.04
Baseline Value 	4.4902E-4
subtract baseline	10,2
PK_880	0.308718
Peak Time (s)	102.535
Peak Height 	0.3087
calc peak height	100,103
Baseline Time (s)	10.537
Baseline Value 	0.002315
subtract baseline	10,1


Time (s)	A880-A510	A880-A775	A880-A975	A880	I510	I775	I975	I880	
0.036000	0.000260	-0.000373	-0.000091	0.001592	6891.205159	42519.109625	3921.343811	22772.323647
0.536500	-0.004861	-0.000252	-0.001303	0.007233	6788.570118	42016.427577	3901.744953	22513.088402
1.040000	-0.003690	0.000207	-0.000776	0.004432	6826.160316	42312.528660	3911.222476	22641.399939
1.537000	-0.000059	-0.000252	0.000423	0.001688	6887.201494	42521.458170	3922.548190	22767.894302
2.037500	-0.000258	0.000003	-0.000273	0.000860	6893.260798	42620.800174	3922.927840	22806.202555
2.538000	-0.003347	-0.000690	-0.002956	0.005765	6816.756553	42109.769684	3901.220226	22580.231879
3.035000	-0.000120	-0.000219	-0.000419	-0.001135	6913.921683	42784.028300	3928.275401	22898.849262
3.535500	0.000332	-0.000090	-0.004138	0.000665	6900.855915	42630.089237	3912.382374	22815.235766
4.036500	-0.000813	0.000108	-0.001542	0.000465	6891.724887	42666.779735	3920.411049	22824.537990
4.536000	-0.001345	-0.000204	-0.004935	0.000313	6888.056408	42652.033449	3911.109485	22831.575442
5.037000	0.000616	-0.000317	0.000657	0.000256	6907.568695	42646.896773	3927.362537	22834.204368
5.536500	0.001692	0.000194	0.002438	0.000580	6914.862914	42664.089310	3931.592649	22819.203432
6.037000	-0.000703	0.000050	0.000875	0.000821	6889.347747	42628.690228	3926.359886	22808.025529
6.537500	0.000262	0.000114	-0.002614	0.000144	6905.222634	42696.853962	3918.248724	22839.431059
7.035000	0.000416	-0.000356	-0.002895	-0.000036	6908.459776	42670.180357	3917.957587	22847.780388
7.535000	-0.000291	-0.000563	0.002560	0.000198	6899.338532	42629.594280	3933.054804	22836.882236
8.035500	0.000117	-0.000471	0.003992	0.000115	6904.098295	42645.626232	3937.472373	22840.742906
8.538500	-0.000019	-0.000231	-0.002806	0.000000	6903.893101	42678.317641	3918.110480	22846.094519
9.039000	-0.001231	-0.001288	0.001885	-0.000373	6895.780975	42615.460067	3932.754871	22863.423007
9.536500	0.001855	0.000904	0.000000	0.000912	6913.221565	42698.818387	3923.566453	22803.787139
10.039500	-0.000530	0.000000	0.002154	-0.000157	6900.471665	42714.066823	3932.908590	22853.391176
10.537000	0.000000	0.000487	-0.000103	0.000681	6897.488037	42681.727675	3923.936033	22814.494068
11.034000	0.001315	0.000905	0.002613	0.000942	6907.697009	42696.191738	3931.047557	22802.407638
11.534500	0.000066	-0.000036	-0.000705	-0.000165	6906.316042	42711.476046	3924.641608	22853.747151
12.035000	-0.001467	0.000005	0.004633	-0.000128	6891.131590	42711.892613	3940.056109	22852.048106
12.535000	-0.000421	-0.000189	0.000191	-0.000230	6902.232533	42703.397081	3927.422872	22856.782949
13.036500	0.002304	0.000694	0.000403	-0.001266	6938.801952	42880.436805	3931.044252	22904.964202
13.538500	-0.002948	-0.000325	0.001889	0.005037	6827.464007	42209.050659	3917.128504	22613.628448
14.037000	0.000167	0.000016	-0.000815	0.000049	6905.224412	42696.538890	3923.706281	22843.822499
14.536500	-0.000684	-0.000147	-0.002279	0.002129	6876.926166	42490.598763	3913.512441	22747.480866
15.036500	-0.000980	-0.000497	-0.006003	0.000290	6891.801223	42627.194044	3908.125220	22832.635453
15.554500	-0.002595	-0.001085	-0.002343	0.003369	6846.722285	42291.663917	3909.784369	22690.297296
16.037500	-0.001245	0.001176	0.000242	0.000030	6891.750628	42805.261564	3926.816930	22844.698810
16.537500	-0.000978	0.000021	0.000565	-0.000130	6895.882262	42713.480150	3928.216564	22852.139101
17.035000	-0.000337	0.000604	0.003336	0.000532	6895.681021	42706.226136	3934.344975	22821.433819
17.535500	-0.001895	-0.000126	0.000456	0.002349	6863.176881	42472.388098	3920.735236	22737.320746
18.038500	-0.000212	0.000679	-0.000840	0.001743	6885.192892	42601.837215	3918.754292	22765.363289
18.536000	-0.001369	-0.000483	0.002922	0.001184	6879.425987	42546.380011	3931.242675	22791.190186
19.036500	-0.000243	0.000207	0.001999	0.002011	6882.308772	42533.943087	3926.168229	22752.964747
19.536500	-0.001395	-0.000477	0.004761	0.002683	6864.778604	42409.821864	3932.231125	22721.936035
20.036500	-0.000487	0.000235	0.000102	0.001356	6886.265154	42596.535889	3922.580345	22783.228085
20.537000	-0.000766	-0.000112	-0.001847	0.001293	6884.188418	42570.445735	3917.148557	22786.144759
21.037500	-0.001998	0.000401	0.002881	0.001351	6871.779880	42612.296219	3930.638765	22783.486565
21.535000	-0.002004	0.000079	-0.004542	0.003097	6854.964603	42422.771323	3904.290973	22702.826595
22.035000	0.000018	0.000370	0.001854	0.001632	6888.482457	42583.623473	3926.846675	22770.473896
22.538000	-0.001005	0.001132	0.001542	0.001830	6876.718354	42635.457378	3925.370697	22761.341389
23.036000	-0.002284	-0.000053	-0.000689	0.001147	6870.990235	42589.361197	3920.903690	22792.937478
23.536500	0.000051	0.000044	0.000262	0.001108	6893.856713	42601.706074	3923.757595	22794.711364
24.036500	0.000203	0.000749	0.002936	0.001845	6888.207647	42598.847703	3929.363758	22760.623093
24.536500	-0.001082	-0.000148	0.001704	0.001062	6883.365174	42588.355337	3928.062019	22796.838696
25.037000	-0.000251	-0.000052	0.000654	0.001482	6887.326250	42558.572139	3923.807791	22777.392201
25.537500	-0.001123	0.000110	0.000249	0.001253	6881.131468	42594.532993	3923.300862	22788.001216
26.035000	-0.001044	0.001104	-0.001030	0.001751	6877.103394	42640.100581	3918.182692	22764.993987
26.535000	0.000167	0.000190	0.000047	0.001488	6891.308522	42580.275823	3922.041416	22777.130260
27.035500	0.001396	0.001214	0.003960	0.001909	6899.110364	42635.709278	3932.152458	22757.666978
27.536000	0.001116	0.000104	-0.000182	-0.000561	6920.346363	42760.820413	3927.300240	22872.134177
28.036000	0.002446	0.001013	0.002126	-0.000497	6932.674463	42838.805866	3933.816272	22869.184409
28.535500	0.001773	0.000569	0.003322	0.000330	6918.078120	42721.631221	3934.893217	22830.800894
29.036500	0.001268	-0.000314	0.000208	-0.000509	6921.324749	42717.552188	3928.282079	22869.752755
29.536500	0.000783	0.000453	0.000284	0.000218	6909.557385	42721.278356	3926.395881	22835.990917
30.037000	-0.000715	0.000459	-0.000206	0.000244	6894.800415	42719.364909	3924.900210	22834.760319
30.537500	-0.000931	-0.000291	0.005282	0.000085	6894.251882	42665.014219	3941.331855	22842.163796
31.045000	-0.000171	0.000961	0.001137	0.000371	6898.835109	42753.954787	3928.421976	22828.879495
31.541000	-0.001462	-0.000427	0.001044	0.003697	6854.421505	42321.785313	3918.550825	22675.219198
32.035500	0.000175	0.000764	-0.004380	0.001011	6895.989627	42676.856009	3910.700383	22799.200833
32.568500	0.000653	-0.000618	0.002387	0.000052	6909.902404	42637.959313	3932.976068	22843.660726
33.035500	-0.000445	-0.000231	0.004432	-0.000282	6902.500030	42704.275774	3939.917107	22859.167831
33.536500	0.001297	0.000789	0.003278	0.000119	6915.504878	42761.331811	3935.376321	22840.564346
34.036500	0.000768	0.000112	0.000172	-0.000558	6916.937328	42761.350983	3928.318590	22872.021041
34.536500	0.000015	0.000187	0.003470	0.000099	6903.263984	42707.692711	3935.996396	22841.484872
35.037500	-0.000528	0.000638	-0.002228	0.002362	6876.186719	42541.206109	3912.991776	22736.742897
35.537500	-0.002904	-0.000126	-0.003702	0.002545	6851.645541	42454.518853	3908.256630	22728.311594
36.035000	-0.002423	-0.000521	0.005931	0.001653	6864.794662	42500.033560	3938.645044	22769.526326
36.538000	-0.000470	-0.000102	-0.004318	0.002166	6878.625817	42491.308375	3907.581179	22745.781523
37.036000	0.000985	-0.000074	0.001652	0.001949	6894.760394	42513.863158	3925.345066	22755.836482
37.535500	-0.002568	-0.000267	0.000637	0.001467	6865.179010	42540.289989	3923.805001	22778.098132
38.036500	-0.000159	0.000666	0.000526	0.002542	6878.007124	42527.285745	3920.384299	22728.452974
38.536500	-0.001527	-0.000836	0.003789	0.001400	6875.821739	42494.226438	3933.132868	22781.184827
39.036500	-0.000101	-0.000321	0.005141	0.002076	6883.044563	42479.503920	3935.102244	22749.944438
39.533500	-0.002862	-0.000350	0.001929	0.002713	6850.440172	42418.631809	3923.936722	22720.538730
40.037500	-0.001895	-0.000008	-0.000024	0.002209	6864.524052	42496.070067	3919.757546	22743.808051
40.538000	-0.000892	0.000280	0.006279	0.002158	6874.648189	42527.082387	3938.184025	22746.167094
41.038000	-0.000801	-0.000149	0.000818	0.001736	6879.583155	42526.429611	3923.548878	22765.667344
41.536000	-0.001656	-0.000062	-0.004651	0.003607	6853.418711	42363.205129	3902.533775	22679.320660
42.036000	-0.000888	-0.000465	0.000315	0.002001	6876.200307	42473.273401	3921.334654	22753.434515
42.536000	-0.001205	0.000181	-0.001990	0.002233	6870.911576	42511.095736	3914.041145	22742.683097
43.036500	-0.002985	-0.000813	-0.001415	0.001497	6860.899201	42487.555894	3917.806571	22776.735930
43.536000	-0.003343	-0.000233	-0.000129	0.002797	6845.043287	42421.665138	3917.764948	22716.674997
44.037000	-0.001331	-0.000293	0.003136	0.001736	6874.485487	42513.296387	3930.262196	22765.665839
44.570500	-0.000965	-0.000391	0.006058	0.001574	6879.566751	42519.087304	3939.245116	22773.150863
45.035000	0.001833	0.000869	0.003552	-0.000210	6923.915037	42799.083688	3937.136912	22855.860736
45.538000	-0.001300	-0.000375	0.004998	0.004034	6852.740482	42295.827161	3928.997036	22659.700301
46.035000	-0.002716	-0.000156	0.000983	0.005446	6825.778685	42187.226308	3913.355194	22594.860212
47.061500	-0.002255	-0.000741	-0.000957	0.004543	6838.757692	42216.069655	3910.388882	22636.273538
47.677000	-0.001759	0.000199	-0.000670	0.005833	6831.196075	42184.272539	3907.527678	22577.122087
47.772000	-0.003778	-0.000548	0.000845	0.005362	6816.496368	42159.228420	3913.200183	22598.715528
48.037000	-0.003034	-0.000538	-0.002532	0.003955	6836.943463	42288.194611	3907.572761	22663.339274
48.537000	-0.000162	-0.000089	0.001693	0.002684	6876.600960	42445.104619	3923.337303	22721.862461
49.037500	0.000460	0.000249	0.001736	0.002392	6885.409153	42502.851958	3924.307110	22735.355430
49.534000	-0.002866	-0.001040	-0.001034	0.003658	6841.369719	42269.453522	3912.698677	22676.972569
50.037500	-0.001204	0.000421	0.004224	0.003020	6863.369672	42461.084055	3929.691870	22706.390849
50.535500	0.000901	-0.000430	0.002332	-0.000435	6917.039554	42700.075341	3934.235066	22866.305213
51.035000	0.001313	0.000863	0.006176	-0.001899	6935.294495	42954.624625	3949.786071	22934.433112
51.536000	-0.003270	-0.000441	0.000878	0.006379	6811.666297	42076.714808	3910.385422	22552.127944
52.036000	0.000244	-0.000757	-0.001871	-0.018754	7092.135747	44391.046498	3976.019220	23735.770300
52.536000	-0.038336	-0.015115	0.016445	0.074633	5940.790747	35235.708277	3768.622352	19662.779325
53.037000	-0.023464	-0.012940	0.018100	0.034263	6380.601170	38582.141864	3880.293171	21316.630350
53.537000	-0.029248	-0.011976	-0.000427	-0.041998	7029.375302	45560.931489	4052.439337	24893.117642
54.036500	-0.029969	-0.013656	-0.016110	-0.099397	7633.147377	51425.414342	4191.863090	28031.080607
54.537500	-0.015589	-0.012355	-0.016068	-0.122190	8074.140984	54203.780481	4274.048736	29396.859568
55.038000	-0.003417	-0.010156	-0.011216	-0.125912	8274.536378	54910.493804	4306.042300	29626.772363
55.535000	0.000583	-0.005473	-0.006807	-0.090837	7889.479809	51383.239466	4194.470856	27536.432868
56.036000	-0.001214	-0.003932	-0.006485	-0.044313	7342.864025	46595.155081	4040.572457	25011.827409
56.536000	0.002674	-0.002941	-0.000896	-0.033514	7269.552110	45615.413613	4024.223008	24463.531834
57.036000	0.006611	-0.001659	0.006042	-0.022177	7192.314792	44633.710173	4010.570732	23902.372128
57.536500	0.000984	-0.000903	0.007499	-0.016232	7074.151514	44135.891991	3996.783312	23613.907689
58.039500	0.004060	-0.001702	0.009040	-0.001329	6956.595417	42665.279412	3956.568899	22907.892432
58.537500	0.012854	0.000989	0.013489	0.003186	6998.760146	42497.849059	3956.373850	22698.739240
59.037000	0.013577	0.001324	0.018206	0.027297	6773.296088	40378.754557	3900.170703	21617.902366
59.537500	0.015024	0.001621	0.021935	0.044605	6627.159672	38932.268860	3862.288101	20878.213921
60.035000	0.013775	0.001515	0.018486	0.050994	6558.654458	38394.724252	3835.571487	20612.496304
60.535500	0.019166	0.002067	0.025524	0.053962	6580.252325	38196.857541	3846.551291	20490.406228
61.036000	0.022240	0.004417	0.030757	0.059849	6555.194088	37909.049217	3844.779735	20250.666359
61.536500	0.024622	0.006244	0.035651	0.064878	6531.758621	37650.561691	3844.412411	20048.428195
62.036500	0.023600	0.006028	0.034297	0.073776	6445.191555	36925.173820	3817.005404	19696.315220
62.536500	0.032204	0.009062	0.042620	0.076148	6499.347665	36977.432863	3832.839059	19603.674708
63.036500	0.037415	0.011711	0.048144	0.080835	6503.936178	36817.035330	3835.083270	19422.067430
63.540000	0.037780	0.011141	0.053328	0.085068	6470.188427	36442.042560	3837.637260	19259.716058
64.040000	0.042395	0.015251	0.049136	0.077265	6579.591290	37379.802037	3847.387587	19560.190667
64.535000	0.047802	0.016727	0.057288	0.088475	6528.087376	36611.637748	3839.125408	19130.205565
65.035000	0.053940	0.019097	0.070500	0.104452	6442.287573	35566.209340	3831.701780	18536.184275
65.535500	0.060938	0.023121	0.074914	0.118003	6386.225779	34853.592104	3807.507362	18049.235254
66.036000	0.067243	0.027598	0.083569	0.126628	6366.572184	34548.117510	3807.585203	17747.100346
66.536000	0.075529	0.032293	0.094241	0.137778	6342.458191	34078.531263	3806.331318	17365.314429
67.036500	0.086835	0.037549	0.099925	0.150276	6332.479364	33560.079254	3788.636388	16948.890309
67.537000	0.092645	0.041434	0.110136	0.159705	6302.320790	33168.856338	3790.652121	16642.531929
68.037000	0.103077	0.046041	0.116790	0.170280	6301.128317	32753.334658	3780.575937	16306.772712
68.537500	0.110540	0.051310	0.126790	0.179640	6285.432636	32471.798749	3782.216083	16016.350090
69.037500	0.118585	0.056842	0.143122	0.190127	6265.317565	32134.250218	3797.292332	15698.283036
69.535000	0.125354	0.061760	0.153376	0.215506	6115.690541	30780.564669	3758.690798	14959.592516
70.035500	0.131292	0.065385	0.156005	0.222711	6105.738048	30550.253047	3747.274626	14757.646162
70.535500	0.141684	0.070407	0.165306	0.212428	6271.874413	31548.488978	3796.985789	15046.897118
71.038500	0.151682	0.074937	0.172863	0.223470	6263.296117	31119.476357	3787.978151	14736.579526
71.536500	0.157870	0.080817	0.176395	0.226629	6288.249560	31297.943252	3788.937148	14649.224959
72.036500	0.162941	0.084758	0.189440	0.243793	6189.670755	30441.002623	3778.371784	14185.611736
72.537000	0.172740	0.090238	0.191618	0.248484	6230.968661	30491.422815	3771.974836	14062.051798
73.037500	0.178175	0.093388	0.201618	0.259793	6183.515746	29974.566398	3768.657209	13769.619876
73.537000	0.182171	0.096642	0.205083	0.273170	6109.037841	29346.648667	3743.854216	13433.398170
74.035500	0.184063	0.098073	0.207175	0.282822	6048.637738	28847.348291	3725.314280	13197.141970
74.540500	0.191004	0.101787	0.212828	0.282594	6104.395522	29085.554323	3739.706902	13202.653675
75.038500	0.193706	0.104118	0.214009	0.286765	6092.894766	28974.147065	3732.365694	13102.138986
75.536000	0.201672	0.105972	0.222112	0.290462	6126.434606	28862.971438	3743.204999	13013.841575
76.036000	0.199657	0.106609	0.224086	0.298827	6045.468778	28401.845621	3727.519192	12816.790783
76.536500	0.207163	0.109674	0.228711	0.296859	6119.277940	28701.170171	3743.701099	12862.798801
77.037000	0.210715	0.112217	0.233820	0.300563	6118.087789	28631.838088	3747.182739	12776.373939
77.537000	0.213249	0.114456	0.234696	0.304993	6103.194303	28501.444579	3738.399740	12673.959267
78.040000	0.212278	0.115509	0.238596	0.315198	6016.688849	27963.849762	3722.994484	12441.970517
78.537500	0.218032	0.117507	0.247635	0.314071	6069.677438	28146.135843	3747.943226	12467.318199
79.035500	0.221148	0.119178	0.240114	0.318049	6062.996427	28011.459064	3719.767539	12378.136296
79.535500	0.221255	0.118855	0.251712	0.327688	5989.949292	27437.925311	3724.514115	12165.356314
80.036000	0.224398	0.121295	0.243918	0.333013	5973.456948	27274.268002	3693.120795	12049.825497
80.536000	0.228188	0.122096	0.249980	0.330290	6022.944947	27474.354131	3714.038538	12108.744421
81.035500	0.232888	0.123676	0.254629	0.334505	6026.661501	27324.634709	3715.083999	12017.724080
81.536500	0.234436	0.127298	0.259371	0.340138	5995.501714	27210.943944	3712.940540	11897.448346
82.037000	0.231714	0.126345	0.263446	0.348184	5914.756890	26708.750865	3703.443101	11728.351960
82.540000	0.237924	0.128465	0.266473	0.346514	5973.646380	26918.936433	3714.686016	11763.182228
83.037500	0.240283	0.128331	0.262734	0.349669	5967.645279	26736.428518	3698.226279	11697.473716
83.535000	0.244350	0.131379	0.267703	0.354787	5959.753168	26622.220074	3697.872553	11591.895552
84.035000	0.244910	0.132588	0.272295	0.357861	5940.922668	26519.799184	3701.473812	11529.074570
84.535500	0.247280	0.135167	0.273736	0.362118	5926.863147	26428.004238	3694.804819	11442.804439
85.035500	0.248866	0.133383	0.274321	0.363183	5930.736572	26272.989220	3693.670466	11421.344862
85.536000	0.252594	0.135983	0.280873	0.367823	5923.958276	26162.647223	3698.189837	11328.508795
86.036500	0.254797	0.137884	0.282750	0.372516	5905.517312	26012.436781	3691.542103	11235.610399
86.537000	0.253438	0.138417	0.283243	0.374962	5877.537405	25910.030686	3686.956389	11187.579309
87.037000	0.255453	0.139687	0.285895	0.378480	5866.553264	25790.284563	3684.927884	11118.979083
87.536500	0.254014	0.139970	0.285596	0.387569	5790.674925	25327.301494	3663.214194	10944.313061
88.037500	0.258401	0.141010	0.286063	0.390048	5804.293525	25252.496879	3658.620666	10897.296799
88.535000	0.263084	0.142531	0.293608	0.387828	5854.053469	25447.388453	3681.111902	10939.381282
89.035000	0.262268	0.143773	0.296205	0.391141	5824.194064	25339.272137	3679.447192	10876.653005
89.535500	0.268419	0.144533	0.301582	0.393999	5847.984678	25230.252499	3685.322183	10822.918927
90.036000	0.267156	0.145556	0.298065	0.403131	5773.495507	24813.899112	3656.163228	10653.592938
90.536000	0.271262	0.145948	0.300182	0.399537	5828.505050	25017.607625	3669.223521	10719.817936
91.036500	0.272455	0.147434	0.304282	0.403712	5807.080112	24879.978670	3669.050041	10642.935822
91.537000	0.276080	0.147614	0.305234	0.406325	5814.336633	24756.190738	3665.235866	10595.202287
92.037000	0.274520	0.150449	0.305177	0.415672	5737.054254	24428.253830	3643.905802	10426.773361
92.534500	0.275752	0.149715	0.312839	0.411798	5772.994950	24585.783637	3670.134732	10496.148554
93.034000	0.277305	0.150140	0.308472	0.413832	5769.581913	24504.904875	3655.493802	10459.640238
93.535000	0.276027	0.151707	0.314694	0.423787	5691.164672	24088.221456	3647.055508	10283.455113
94.035000	0.281229	0.153188	0.312379	0.426458	5708.659266	24029.752329	3635.897423	10236.869575
94.535000	0.282976	0.155504	0.317081	0.424560	5734.035398	24237.527863	3650.698011	10269.955980
95.036000	0.285300	0.154495	0.319642	0.426235	5738.576973	24104.955951	3652.700747	10240.755962
95.536500	0.287910	0.156720	0.322663	0.429073	5736.973027	24074.763309	3653.114721	10191.535242
96.036500	0.285903	0.157698	0.322672	0.437189	5666.965055	23726.655394	3634.923106	10052.553688
96.539500	0.289470	0.157674	0.321593	0.433507	5716.934737	23904.333446	3640.727624	10115.281422
97.037500	0.293812	0.159533	0.326043	0.437199	5721.452548	23815.139532	3642.423662	10052.387401
97.537500	0.291328	0.159309	0.324945	0.444717	5652.623313	23442.442518	3623.313313	9925.946281
