sample name	sample
index	64
start time	 02-11-2021  03:19:36 PM
880	0.463767
Peak Time (s)	91.536
Peak Height 	0.4638
calc peak height	90,93
Baseline Time (s)	10.036
Baseline Value 	-0.002135
subtract baseline	10,4
Abs	0.313520
Peak Time (s)	92.036
Peak Height 	0.3135
calc peak height	90,93
Baseline Time (s)	11.537
Baseline Value 	1.4401E-4
subtract baseline	10,3
PK_550	0.155833
Peak Time (s)	91.536
Peak Height 	0.1558
calc peak height	90,93
Baseline Time (s)	11.037
Baseline Value 	0.001049
subtract baseline	10,2
PK_880	0.299240
Peak Time (s)	91.536
Peak Height 	0.2992
calc peak height	90,93
Baseline Time (s)	11.037
Baseline Value 	6.7615E-4
subtract baseline	10,1


Time (s)	A880-A510	A880-A775	A880-A975	A880	I510	I775	I975	I880	
0.036000	-0.004855	-0.001677	0.005294	0.005071	4511.520340	19433.913697	3300.233166	10699.483581
0.535500	-0.001136	-0.001338	-0.001732	0.003169	4531.995697	19519.233896	3295.822585	10733.590832
1.036500	-0.000527	-0.000977	0.005416	0.003032	4534.732085	19538.225073	3302.110275	10736.050707
1.536500	0.001441	-0.001009	0.007997	0.000674	4550.692843	19627.291069	3306.433703	10778.527138
2.036500	0.001137	-0.000584	0.006076	0.002187	4543.970576	19585.573136	3303.422240	10751.242866
2.537500	0.001422	-0.000345	0.000790	0.000288	4552.054293	19667.670162	3300.475398	10785.501213
3.037000	0.001671	-0.000310	-0.003828	-0.001581	4559.937016	19741.129673	3298.099777	10819.370765
3.537500	-0.002510	-0.001188	0.014117	0.000680	4536.082863	19620.171200	3311.853992	10778.415270
4.035500	0.001773	0.000887	-0.002640	0.000800	4551.456648	19695.401537	3297.073991	10776.251269
4.535500	0.004553	0.000798	0.013793	0.000262	4563.818001	19712.737996	3311.938151	10785.972546
5.036000	-0.003303	-0.000382	-0.000946	-0.000028	4535.774010	19678.433911	3299.246232	10791.219630
5.536500	0.000957	-0.000219	0.005724	-0.000138	4551.911552	19688.952919	3305.149315	10793.215901
6.035500	-0.001410	-0.000813	0.001038	-0.000424	4544.206403	19677.072896	3301.308234	10798.391274
6.536500	0.000931	-0.000519	-0.001795	0.000038	4551.164397	19670.608311	3298.457703	10790.034843
7.037000	0.001443	-0.000549	0.005278	0.000048	4553.027689	19669.059027	3304.595961	10789.853578
7.540000	0.001140	0.000489	0.002540	-0.000024	4552.168031	19711.850624	3302.266181	10791.147737
8.034500	0.004083	-0.000086	0.002846	0.000267	4562.043842	19678.475952	3302.280003	10785.893795
8.535000	0.002084	0.001077	0.002683	0.001002	4551.865899	19694.951607	3301.498774	10772.612686
9.035500	0.004044	0.001659	-0.007182	0.001050	4558.975577	19715.578806	3292.981366	10771.741461
9.535500	-0.001835	-0.001451	-0.004232	-0.000973	4544.663678	19673.669692	3297.229965	10808.346187
10.036000	0.001346	-0.000251	-0.010671	0.000000	4552.843247	19682.383176	3290.915903	10790.715569
10.536500	-0.000242	-0.000396	0.002847	-0.000448	4548.613192	19694.042592	3302.903452	10798.821487
11.036500	0.000000	0.000000	0.009895	-0.000012	4547.896572	19692.523062	3308.714734	10790.931607
11.537000	-0.000554	0.000556	0.000000	0.001251	4541.184631	19665.318594	3298.959364	10768.116565
12.039500	0.002241	-0.001136	0.015720	0.000124	4555.708443	19643.548388	3313.785876	10788.464965
12.534500	0.000289	0.000130	-0.005507	0.002703	4538.938819	19593.136417	3292.999698	10741.950121
13.035000	-0.000049	-0.001044	0.003854	-0.002375	4556.485589	19743.456778	3305.471712	10833.808777
13.534500	-0.001220	0.000009	0.011862	0.000352	4542.044338	19678.869577	3310.137969	10784.357668
14.035500	-0.000236	-0.000349	0.005873	0.001042	4543.130089	19638.541424	3304.246074	10771.886148
14.535500	0.002978	-0.000926	-0.000313	0.002114	4551.052586	19575.241537	3297.945008	10752.548817
15.036000	0.000685	-0.000578	-0.004897	0.000663	4547.933480	19644.313774	3295.258713	10778.732499
15.567000	0.002078	0.000737	0.001476	0.001037	4551.708582	19680.475185	3300.420245	10771.966374
16.037000	-0.000921	-0.000166	0.004975	0.000311	4543.297584	19673.671450	3304.099258	10785.082098
16.537000	-0.003769	-0.000319	0.005023	0.003971	4519.451138	19527.495381	3300.952564	10719.195989
17.037000	-0.000098	0.000075	0.013461	0.000068	4547.236920	19692.352297	3311.815227	10789.486804
17.537000	-0.000477	0.000640	0.010214	-0.002812	4556.522497	19825.677767	3311.488096	10841.771359
18.038000	-0.001525	-0.000351	-0.004137	0.000151	4541.662460	19672.748408	3296.347536	10787.991798
18.535000	-0.001833	-0.001352	-0.007411	0.002604	4531.508431	19540.246901	3291.470152	10743.737358
19.035500	-0.002060	0.000483	-0.000547	0.002544	4530.897001	19612.775462	3297.373545	10744.810063
19.535500	-0.001275	0.000565	-0.003118	0.002675	4533.296720	19610.912094	3295.059085	10742.463927
20.036000	0.000453	-0.000594	0.005091	0.001488	4544.022307	19611.995702	3303.172503	10763.831731
20.536500	-0.001780	0.000096	0.008444	0.003440	4528.643778	19563.634362	3304.397538	10728.721773
21.036500	0.001262	0.001225	0.002511	0.003388	4540.002831	19608.890467	3299.282208	10729.652044
21.534000	-0.000428	-0.001426	0.003741	0.001648	4540.187025	19573.990351	3301.856562	10760.957797
22.034500	-0.002171	-0.000237	0.006729	0.001815	4533.165244	19613.139625	3304.318802	10757.947057
22.535000	-0.003135	-0.000626	0.015806	0.002572	4526.862455	19569.229592	3311.673678	10744.321858
23.035500	-0.000094	0.000042	-0.009442	0.002585	4537.963299	19594.314947	3289.772238	10744.080066
23.535500	-0.000365	0.000185	-0.003612	0.002860	4535.957612	19589.255578	3294.480117	10739.142963
24.035000	0.002506	0.000768	-0.000314	0.002452	4548.051813	19627.275376	3297.653407	10746.470034
24.536000	-0.000311	-0.001074	0.005406	0.001270	4542.009703	19601.920196	3303.637567	10767.765615
25.036500	0.001754	-0.001555	-0.003320	0.001344	4549.368746	19580.656921	3296.024468	10766.431359
25.536500	-0.001345	-0.000559	0.001394	0.001667	4536.743207	19606.486952	3299.804835	10760.617074
26.036500	0.002460	0.001057	0.002927	0.003398	4544.386348	19602.063111	3299.633163	10729.478029
26.537000	-0.004621	-0.001198	0.015729	0.001126	4526.718034	19602.715978	3312.896613	10770.373095
27.037500	-0.000993	0.001090	0.000400	0.003296	4532.052813	19607.232160	3297.542447	10731.304645
27.539500	-0.003794	-0.001451	0.010723	0.004627	4516.977306	19459.349958	3305.354279	10707.432569
28.035000	0.003111	-0.000194	0.000494	-0.001354	4564.470736	19736.857041	3301.644230	10815.262865
28.535500	0.000821	0.000567	0.002874	0.001176	4546.541298	19668.593606	3301.513801	10769.470373
29.054500	-0.000994	0.000750	0.002392	0.001506	4538.623050	19662.937089	3300.808381	10763.510469
29.536500	-0.001064	-0.000640	0.006287	0.004690	4526.691304	19487.851536	3301.425890	10706.313388
30.036000	0.007166	-0.000255	-0.001051	0.001068	4570.588095	19641.129969	3298.210668	10771.413524
30.537000	0.001292	-0.000371	0.007063	0.001486	4547.131087	19620.607030	3304.899044	10763.865780
31.057000	-0.000811	-0.001314	0.004998	0.000148	4544.305516	19635.806340	3304.262754	10788.035417
31.537000	-0.004565	-0.001240	0.002819	0.005775	4510.025092	19423.803291	3297.490823	10686.917522
32.035000	-0.000650	0.000355	0.003322	0.003399	4532.932086	19575.094613	3299.973961	10729.448639
32.573500	-0.003576	-0.000247	0.011357	0.000886	4531.418705	19648.476451	3309.215035	10774.708375
33.035000	0.000647	0.000225	0.008271	0.001635	4544.199288	19637.787299	3305.829345	10761.190531
33.535500	-0.003265	0.000037	0.002145	0.005624	4515.277804	19478.046058	3297.041010	10689.602097
34.036500	0.000786	0.000328	0.014232	0.001454	4545.382818	19648.708465	3311.266607	10764.452624
34.536000	-0.000840	-0.000392	0.001208	0.001042	4540.900879	19636.871783	3300.184778	10771.891052
35.036500	0.001162	0.001295	0.005791	0.003944	4537.584534	19590.235639	3301.642422	10719.671141
35.537500	-0.000350	0.000661	0.000777	0.005578	4526.055319	19503.594471	3295.907483	10690.434156
36.037500	-0.002046	-0.000846	-0.002768	0.002162	4532.347188	19576.487872	3295.797040	10751.685383
36.534500	-0.002870	0.000028	-0.004144	0.003038	4526.130518	19576.451287	3293.874623	10735.944399
37.035000	-0.001039	-0.000546	0.003066	0.001925	4536.915593	19597.063526	3301.029044	10755.958218
37.535500	-0.000434	-0.000029	-0.007871	0.005124	4527.405059	19494.591587	3288.957716	10698.544496
38.035000	-0.003646	-0.000036	0.000621	0.003217	4522.641639	19567.107385	3297.799621	10732.714765
38.536000	0.001628	0.000451	0.002316	0.003864	4539.596150	19560.972575	3298.702948	10721.104365
39.036000	-0.000241	-0.000279	0.000635	0.002889	4536.309401	19570.386864	3298.094441	10738.621397
39.536000	0.000497	-0.000796	0.007528	0.002551	4540.265980	19563.526970	3304.373645	10744.685562
40.036500	0.002258	-0.000220	-0.006566	0.004036	4541.284733	19528.785131	3290.973982	10718.023024
40.539500	-0.001425	0.000104	0.007992	0.003285	4530.512109	19569.903535	3304.137886	10731.506576
41.037500	0.001110	-0.000200	-0.000965	0.004271	4536.190227	19520.581324	3295.534598	10713.805691
41.537500	0.001383	0.000640	-0.002271	0.003770	4539.038872	19571.830368	3294.846840	10722.790472
42.035000	0.002523	-0.001627	0.002565	0.003030	4545.975522	19513.470134	3299.637741	10736.074529
42.535000	0.000725	-0.000583	-0.007519	0.003203	4538.702647	19546.746240	3290.872696	10732.968373
43.035500	-0.004115	-0.000748	-0.006321	0.002634	4523.060524	19562.200178	3292.368590	10743.206588
43.535500	0.001288	0.000378	0.002550	0.004175	4537.200037	19546.296749	3298.636141	10715.527535
44.036000	-0.001496	0.000290	0.000210	0.003949	4527.820831	19551.593699	3296.818092	10719.584599
44.537000	-0.001158	-0.001367	0.006210	0.001845	4536.772061	19568.679320	3303.838177	10757.396552
45.039500	0.002531	0.000600	0.002372	-0.000481	4559.041290	19733.796759	3302.518173	10799.419880
45.537000	0.003720	0.000578	0.011402	0.002470	4552.486568	19619.280696	3307.851911	10746.140622
46.051000	0.002331	0.001036	0.008485	0.002544	4547.066658	19634.052232	3305.218962	10744.825827
46.535000	-0.004829	-0.001909	0.005791	0.004564	4513.450432	19444.363894	3301.104251	10708.568895
47.035000	0.003305	0.000548	0.009356	0.002937	4549.216173	19600.242352	3305.639253	10737.759826
47.535500	0.000295	-0.001091	0.000598	0.001296	4544.151214	19600.302484	3299.437287	10767.306914
48.049000	-0.000355	-0.000169	0.021537	0.000990	4542.877711	19647.429995	3318.254244	10772.814800
48.540000	-0.001633	-0.000453	0.001314	0.005189	4522.791594	19475.964628	3296.701107	10697.381308
49.036000	-0.000818	-0.000315	-0.004299	0.004454	4528.452468	19509.187010	3292.539213	10710.529820
49.556000	0.002087	-0.000027	0.011655	0.002367	4546.816207	19600.030131	3308.166785	10747.998912
50.037000	-0.002757	-0.000882	0.008497	0.001823	4530.985837	19588.113743	3305.862550	10757.798971
50.537500	-0.004070	-0.000652	0.001412	0.006812	4508.067431	19406.787947	3295.395149	10668.417903
51.037500	0.001034	-0.000232	-0.004656	-0.000356	4553.005949	19696.865897	3296.336571	10797.162930
51.534500	-0.004653	-0.000246	-0.001434	0.002033	4523.291805	19604.447692	3297.051751	10754.020123
52.035500	0.002429	0.000132	0.003080	0.001830	4550.070692	19626.721003	3301.124013	10757.670376
52.536000	-0.071153	-0.040717	-0.002645	0.195514	3810.123143	12667.607611	3162.306890	7942.120271
53.035500	-0.031056	-0.014086	-0.003612	0.038167	4310.956957	17794.061194	3265.559555	10129.576579
53.536000	-0.004626	-0.005261	0.008424	-0.094515	4917.582369	23512.134975	3400.597740	12701.294558
54.035500	-0.000013	-0.006383	0.005829	-0.067317	4817.370269	22214.009664	3369.004792	12108.273477
54.539500	-0.010955	-0.009720	0.012142	-0.116983	4992.456629	24382.712371	3430.212602	13219.980147
55.036500	-0.003860	-0.007659	0.013743	-0.134189	5110.575291	25355.014394	3452.612175	13635.751487
55.537000	-0.006722	-0.005088	0.010505	-0.077141	4830.885852	22713.584499	3384.109600	12318.199170
56.035000	0.008789	-0.003500	0.019195	-0.049872	4780.378062	21578.737742	3364.845153	11746.984804
56.534500	0.009991	-0.004850	0.016678	-0.010092	4623.951990	19895.399886	3323.942982	10975.467718
57.037500	0.008753	-0.007123	0.025177	0.000352	4579.256314	19406.333183	3322.156399	10784.347953
57.536000	0.006594	-0.008051	0.016088	0.020716	4496.410494	18618.953265	3296.055797	10424.670155
58.035500	0.017545	-0.008111	0.028677	0.029781	4503.186666	18293.165994	3299.086419	10269.909055
58.536000	0.022421	-0.008158	0.022401	0.045715	4463.885701	17738.772704	3280.390354	10005.564677
59.036500	0.023251	-0.007683	0.037593	0.059066	4420.578402	17306.748214	3281.904357	9791.440181
59.537000	0.026772	-0.007127	0.046053	0.076658	4373.377866	16754.420497	3274.459229	9519.145134
60.037000	0.038008	-0.007619	0.041829	0.085540	4381.168640	16459.644832	3264.043608	9385.801290
60.536500	0.048837	-0.004947	0.059360	0.103837	4356.599250	15982.212808	3263.444723	9119.565926
61.037000	0.051918	-0.004013	0.068191	0.117081	4323.829341	15617.941892	3260.013572	8933.720106
61.535500	0.067057	0.000415	0.068092	0.144565	4285.047461	14962.919230	3239.341298	8565.694453
62.036000	0.080359	0.005266	0.088427	0.167053	4256.898725	14484.822290	3237.783193	8281.428549
62.535500	0.089175	0.013125	0.105188	0.187950	4220.770820	14143.636123	3234.809979	8030.138656
63.036000	0.117356	0.023248	0.138341	0.215956	4221.289213	13692.041729	3238.513935	7711.775789
63.536000	0.132500	0.034431	0.135346	0.234743	4210.585317	13505.583852	3223.132795	7509.427315
64.036500	0.147564	0.043110	0.149669	0.244404	4226.490589	13481.748366	3226.360790	7408.736745
64.537000	0.156176	0.046829	0.150725	0.258171	4211.308854	13240.843926	3217.641722	7269.055485
65.091500	0.164351	0.054816	0.182161	0.272072	4194.659688	13101.652429	3229.736564	7132.446118
65.540000	0.171319	0.062007	0.191385	0.284456	4179.110502	12980.980517	3227.520912	7014.372948
66.038500	0.182243	0.069856	0.193185	0.297688	4172.541006	12857.380087	3219.637625	6891.873770
66.535500	0.189687	0.076079	0.205234	0.311575	4154.390169	12684.075521	3218.389523	6767.268080
67.035500	0.193716	0.082861	0.213022	0.319213	4144.341528	12664.891405	3218.491102	6700.410846
67.536000	0.211235	0.088944	0.220612	0.330133	4162.781602	12557.294142	3216.242536	6606.848181
68.036500	0.213949	0.094800	0.210617	0.340157	4142.372156	12465.522120	3203.081938	6523.010674
68.536500	0.219368	0.098020	0.223921	0.351810	4125.235724	12282.503429	3204.144010	6427.942295
69.036500	0.224634	0.102871	0.246158	0.357341	4124.513570	12267.919285	3215.127118	6383.707498
69.537000	0.236603	0.107722	0.240400	0.365022	4136.265025	12207.389931	3206.258463	6323.199833
70.037000	0.240633	0.114825	0.239489	0.375012	4119.963101	12146.052674	3199.264526	6246.095333
70.535000	0.242146	0.116692	0.250850	0.382104	4104.899403	12036.052281	3201.982597	6192.418468
71.035500	0.246127	0.119572	0.254294	0.386008	4105.107412	12014.648929	3201.688225	6163.243027
71.535500	0.247360	0.121869	0.265784	0.389695	4098.542462	11985.688723	3206.721204	6135.928884
72.038500	0.255979	0.127237	0.261803	0.396796	4102.597957	11949.695276	3199.599919	6083.974015
72.535500	0.259833	0.131690	0.267666	0.405529	4089.610995	11861.439765	3197.785915	6021.236443
73.035500	0.262041	0.129119	0.287979	0.403807	4100.058955	11844.028160	3212.030223	6033.502481
73.539500	0.262113	0.131668	0.268475	0.408655	4087.374670	11797.063467	3196.329699	5999.081399
74.037000	0.261000	0.137079	0.273172	0.414151	4070.044704	11795.335818	3195.828933	5960.516139
74.537000	0.266074	0.136144	0.274959	0.416544	4077.042127	11727.789446	3195.450040	5943.872707
75.035000	0.271789	0.137511	0.265538	0.416472	4092.294566	11756.924720	3189.670466	5944.371384
75.538000	0.270626	0.138282	0.274070	0.419300	4081.756434	11715.321925	3193.182539	5924.826798
76.035500	0.272610	0.141158	0.280530	0.422879	4077.569958	11701.146017	3194.973098	5900.265876
76.535500	0.276645	0.143425	0.273051	0.428910	4072.353265	11625.612107	3186.676509	5859.336700
77.036000	0.275837	0.143048	0.293162	0.427435	4074.091800	11647.563827	3200.056944	5869.288573
77.536500	0.272978	0.142503	0.289320	0.430847	4057.835678	11568.686405	3195.485880	5846.307366
78.039000	0.277879	0.141446	0.296926	0.428865	4075.694116	11587.053718	3201.544800	5859.638257
78.536500	0.277812	0.143602	0.295894	0.431751	4067.998354	11572.570320	3199.053175	5840.251564
79.037000	0.274630	0.143922	0.295010	0.433878	4054.291165	11536.739105	3197.152551	5826.039519
79.537500	0.277811	0.147301	0.290372	0.438002	4051.874400	11522.016276	3191.699126	5798.693070
80.035000	0.284553	0.145810	0.298691	0.437828	4069.722314	11496.069660	3196.984029	5799.842571
80.535000	0.283809	0.145114	0.290345	0.437552	4068.505236	11487.805172	3191.960207	5801.666751
81.035000	0.283354	0.147160	0.281765	0.439834	4061.416655	11483.183246	3185.343509	5786.630346
81.535500	0.290448	0.151370	0.294261	0.446247	4063.177424	11439.985371	3189.028237	5744.790871
82.035500	0.287434	0.145748	0.299996	0.440381	4070.576142	11444.765630	3196.201283	5783.038299
82.536500	0.289387	0.148382	0.296604	0.443349	4067.935853	11438.215607	3192.244888	5763.618367
83.036000	0.289806	0.149287	0.310953	0.445337	4063.870476	11417.098487	3199.986850	5750.690224
83.536500	0.296436	0.150405	0.305683	0.447450	4075.618867	11397.698818	3195.335845	5737.007780
84.037000	0.295904	0.150121	0.297938	0.448102	4072.528467	11379.529956	3190.142226	5732.803470
84.537500	0.291757	0.148779	0.300043	0.447538	4063.222435	11364.427857	3191.781769	5736.439105
85.035000	0.294376	0.153256	0.316690	0.452745	4056.549329	11350.285843	3198.926878	5703.019799
85.535500	0.293075	0.150392	0.299996	0.452920	4052.762122	11291.712967	3188.456774	5701.907026
86.035500	0.292675	0.149748	0.299537	0.450966	4056.749137	11316.911098	3189.368588	5714.394638
86.536000	0.295067	0.150389	0.307291	0.452354	4059.333100	11302.535933	3193.285547	5705.517334
87.036000	0.292419	0.152852	0.316358	0.454678	4046.592884	11305.214859	3197.497928	5690.717093
87.539000	0.292255	0.151950	0.308815	0.454927	4045.540978	11283.081936	3192.636106	5689.133950
88.037000	0.290857	0.152018	0.301633	0.455410	4040.764119	11275.132703	3187.937986	5686.072283
88.537000	0.292580	0.150945	0.310463	0.457550	4039.707075	11213.762285	3192.033693	5672.534916
89.037500	0.299358	0.153176	0.306921	0.458070	4055.667290	11246.387666	3189.539589	5669.256669
89.537500	0.294436	0.152545	0.283277	0.458002	4043.267300	11235.625620	3175.513534	5669.684147
90.035500	0.296322	0.152553	0.302325	0.459391	4044.530624	11209.335148	3185.947575	5660.945604
90.535000	0.296397	0.152256	0.294590	0.462276	4037.408841	11149.041911	3179.621790	5642.882245
91.035500	0.291227	0.152560	0.300105	0.458935	4032.794487	11218.127661	3184.885881	5663.809158
91.536000	0.299240	0.155833	0.283684	0.463767	4040.829832	11188.509534	3172.430325	5633.588415
92.036000	0.295166	0.151945	0.313520	0.460485	4038.824492	11177.024070	3192.109571	5654.081595
92.536500	0.294244	0.153171	0.297593	0.463366	4029.244835	11145.729930	3180.749981	5636.086250
93.036500	0.297380	0.153121	0.292592	0.462544	4039.215955	11160.310613	3178.291940	5641.207656
93.537000	0.296536	0.152545	0.287030	0.462701	4036.685205	11146.469407	3174.966498	5640.228985
94.037000	0.295344	0.154537	0.295332	0.464618	4028.863550	11147.871913	3178.681952	5628.302105
94.534500	0.296103	0.154650	0.298967	0.466105	4027.036475	11121.976146	3179.944411	5619.084407
95.035000	0.293060	0.151259	0.305138	0.463516	4025.900575	11106.892743	3185.157256	5635.148516
95.557000	0.295147	0.152359	0.302801	0.464809	4027.889215	11103.270983	3182.984345	5627.113139
96.057500	0.299535	0.152392	0.307166	0.466160	4035.522871	11078.563011	3184.787074	5618.744708
96.535500	0.297727	0.153738	0.303241	0.466792	4029.385748	11091.953500	3182.066455	5614.841115
97.039000	0.294855	0.151511	0.297428	0.465398	4025.685994	11076.334638	3179.454920	5623.463818
97.536500	0.294428	0.152341	0.317700	0.467282	4019.923733	11056.636138	3190.499189	5611.815184
98.059500	0.292970	0.153391	0.309310	0.466648	4017.877235	11088.133197	3185.783183	5615.729394
