sample name	sample
index	1252
start time	 04-29-2021  12:52:05 PM


Wavelength (nm)	Absorbance
494.344910	0.247740
494.563924	0.247740
494.782919	0.247740
495.001897	0.172614
495.220856	-0.024406
495.439797	-0.055928
495.658719	-0.021306
495.877624	-0.100875
496.096510	-0.157648
496.315378	-0.148252
496.534227	-0.112612
496.753059	-0.034656
496.971872	-0.160179
497.190667	0.096561
497.409444	0.111669
497.628203	0.112083
497.846943	0.117680
498.065665	0.119439
498.284369	0.120415
498.503055	0.122114
498.721723	0.122597
498.940372	0.124182
499.159003	0.124285
499.377616	0.126341
499.596210	0.127271
499.814787	0.126756
500.033345	0.128373
500.251885	0.128996
500.470406	0.127661
500.688910	0.127280
500.907395	0.127863
501.125862	0.127629
501.344311	0.125944
501.562742	0.127384
501.781154	0.128593
501.999548	0.128030
502.217924	0.127785
502.436282	0.129506
502.654621	0.129814
502.872942	0.130331
503.091245	0.130915
503.309530	0.131704
503.527797	0.130839
503.746045	0.130553
503.964275	0.131170
504.182487	0.130768
504.400681	0.130266
504.618856	0.129988
504.837013	0.130689
505.055152	0.129625
505.273273	0.130394
505.491376	0.130781
505.709460	0.130184
505.927526	0.129965
506.145574	0.129879
506.363604	0.129415
506.581615	0.130373
506.799608	0.129580
507.017583	0.130135
507.235540	0.129591
507.453478	0.128958
507.671399	0.129548
507.889301	0.129443
508.107185	0.130334
508.325050	0.130027
508.542898	0.130354
508.760727	0.130827
508.978538	0.131275
509.196330	0.131848
509.414105	0.132666
509.631861	0.132631
509.849599	0.132898
510.067319	0.132620
510.285021	0.133189
510.502704	0.131948
510.720369	0.130262
510.938016	0.130300
511.155645	0.130582
511.373255	0.130377
511.590848	0.130593
511.808422	0.130488
512.025977	0.129794
512.243515	0.129815
512.461034	0.130696
512.678536	0.131047
512.896018	0.131414
513.113483	0.131297
513.330930	0.130051
513.548358	0.130862
513.765768	0.130686
513.983160	0.132619
514.200533	0.133281
514.417889	0.133696
514.635226	0.134309
514.852545	0.134381
515.069845	0.134165
515.287128	0.135212
515.504392	0.134819
515.721638	0.135062
515.938866	0.134401
516.156075	0.134560
516.373267	0.134673
516.590440	0.134309
516.807594	0.134591
517.024731	0.134684
517.241850	0.134715
517.458950	0.134795
517.676032	0.135034
517.893095	0.134517
518.110141	0.134058
518.327168	0.134265
518.544177	0.134937
518.761168	0.134947
518.978141	0.134714
519.195095	0.135173
519.412031	0.135152
519.628949	0.135721
519.845849	0.136007
520.062731	0.135996
520.279594	0.134987
520.496439	0.135155
520.713266	0.134856
520.930074	0.134695
521.146865	0.134132
521.363637	0.134425
521.580391	0.133912
521.797127	0.134350
522.013844	0.134739
522.230543	0.135973
522.447224	0.136561
522.663887	0.136281
522.880532	0.136914
523.097158	0.137736
523.313766	0.137555
523.530356	0.138602
523.746928	0.138714
523.963481	0.138468
524.180017	0.138580
524.396534	0.138083
524.613032	0.137757
524.829513	0.137836
525.045975	0.137757
525.262420	0.137601
525.478845	0.136086
525.695253	0.135519
525.911643	0.135811
526.128014	0.135934
526.344367	0.136307
526.560702	0.136818
526.777018	0.136560
526.993316	0.136431
527.209597	0.136364
527.425858	0.137118
527.642102	0.137915
527.858328	0.138100
528.074535	0.137538
528.290724	0.137441
528.506894	0.137451
528.723047	0.137216
528.939181	0.137940
529.155297	0.138034
529.371395	0.138164
529.587475	0.137983
529.803536	0.138052
530.019579	0.138614
530.235604	0.138903
530.451611	0.139072
530.667600	0.139320
530.883570	0.139233
531.099522	0.139250
531.315456	0.139360
531.531372	0.139602
531.747269	0.139536
531.963148	0.138568
532.179009	0.138830
532.394852	0.139571
532.610676	0.140103
532.826482	0.140390
533.042271	0.140583
533.258040	0.140388
533.473792	0.140532
533.689525	0.141067
533.905240	0.142397
534.120937	0.142188
534.336616	0.141712
534.552277	0.141716
534.767919	0.141155
534.983543	0.141707
535.199149	0.142271
535.414736	0.142319
535.630306	0.141814
535.845857	0.141443
536.061390	0.141790
536.276904	0.142485
536.492401	0.142483
536.707879	0.142430
536.923339	0.142682
537.138781	0.142759
537.354204	0.142685
537.569610	0.143530
537.784997	0.144019
538.000366	0.143884
538.215716	0.143245
538.431049	0.143555
538.646363	0.143984
538.861659	0.143582
539.076937	0.144028
539.292196	0.143991
539.507438	0.144290
539.722661	0.143694
539.937866	0.143665
540.153052	0.144262
540.368221	0.144023
540.583371	0.144438
540.798503	0.144857
541.013617	0.145280
541.228712	0.145952
541.443789	0.145346
541.658848	0.145721
541.873889	0.145528
542.088912	0.145688
542.303916	0.146154
542.518902	0.145920
542.733870	0.146535
542.948820	0.146038
543.163752	0.145542
543.378665	0.145433
543.593560	0.145250
543.808437	0.146209
544.023295	0.146042
544.238136	0.145970
544.452958	0.146302
544.667762	0.146630
544.882548	0.146896
545.097315	0.147470
545.312064	0.147958
545.526795	0.148529
545.741508	0.148343
545.956203	0.148873
546.170879	0.148699
546.385537	0.148500
546.600177	0.148014
546.814799	0.147676
547.029402	0.148041
547.243988	0.148528
547.458555	0.148428
547.673103	0.148278
547.887634	0.148498
548.102146	0.149541
548.316640	0.149896
548.531116	0.149903
548.745574	0.149903
548.960013	0.149689
549.174435	0.149864
549.388838	0.150373
549.603222	0.150691
549.817589	0.150497
550.031937	0.149983
550.246267	0.149671
550.460579	0.149734
550.674873	0.150329
550.889148	0.150220
551.103405	0.150052
551.317644	0.150567
551.531865	0.150440
551.746068	0.150795
551.960252	0.151082
552.174418	0.151728
552.388566	0.152283
552.602696	0.152573
552.816807	0.153077
553.030900	0.153536
553.244975	0.153380
553.459032	0.153391
553.673070	0.153238
553.887091	0.153717
554.101093	0.153834
554.315077	0.153449
554.529042	0.153579
554.742990	0.153274
554.956919	0.153158
555.170830	0.153337
555.384722	0.153863
555.598597	0.153900
555.812453	0.153546
556.026291	0.153375
556.240111	0.153683
556.453913	0.153545
556.667696	0.153899
556.881461	0.153837
557.095208	0.153387
557.308937	0.153044
557.522647	0.153120
557.736339	0.153321
557.950013	0.153477
558.163669	0.153541
558.377307	0.153717
558.590926	0.154196
558.804527	0.153639
559.018110	0.153701
559.231675	0.154032
559.445221	0.154484
559.658749	0.154391
559.872259	0.154845
560.085751	0.155168
560.299225	0.155260
560.512680	0.155069
560.726117	0.155494
560.939536	0.155536
561.152937	0.155559
561.366319	0.155384
561.579683	0.155855
561.793029	0.155844
562.006357	0.155652
562.219667	0.155568
562.432958	0.155626
562.646231	0.155989
562.859486	0.156684
563.072723	0.156893
563.285941	0.157205
563.499141	0.157404
563.712323	0.157261
563.925487	0.157384
564.138632	0.157488
564.351760	0.157526
564.564869	0.157503
564.777960	0.156993
564.991032	0.157317
565.204087	0.156891
565.417123	0.156950
565.630141	0.157407
565.843140	0.157643
566.056122	0.157508
566.269085	0.157567
566.482030	0.157919
566.694957	0.158379
566.907866	0.158280
567.120756	0.158777
567.333628	0.158499
567.546482	0.158288
567.759318	0.158399
567.972135	0.158692
568.184935	0.158705
568.397716	0.158797
568.610478	0.158816
568.823223	0.159265
569.035949	0.159502
569.248657	0.159817
569.461347	0.159722
569.674019	0.159644
569.886672	0.159988
570.099308	0.159905
570.311925	0.159888
570.524523	0.159796
570.737104	0.159723
570.949666	0.159821
571.162210	0.159882
571.374736	0.159902
571.587244	0.159872
571.799733	0.160040
572.012205	0.160453
572.224658	0.160594
572.437092	0.160968
572.649509	0.161161
572.861907	0.161056
573.074287	0.160973
573.286649	0.161488
573.498993	0.161693
573.711318	0.161248
573.923625	0.160890
574.135914	0.160881
574.348185	0.161058
574.560438	0.160971
574.772672	0.161043
574.984888	0.161058
575.197086	0.160758
575.409266	0.161098
575.621427	0.161434
575.833570	0.162039
576.045695	0.161872
576.257802	0.161705
576.469890	0.161669
576.681961	0.161641
576.894013	0.161755
577.106046	0.162035
577.318062	0.161987
577.530059	0.162281
577.742039	0.162353
577.954000	0.162406
578.165942	0.162762
578.377867	0.163015
578.589773	0.163334
578.801661	0.163152
579.013531	0.163298
579.225382	0.163589
579.437216	0.163695
579.649031	0.163628
579.860828	0.163911
580.072606	0.163949
580.284367	0.163529
580.496109	0.163286
580.707833	0.163500
580.919539	0.163325
581.131227	0.163125
581.342896	0.163027
581.554547	0.163163
581.766180	0.163311
581.977795	0.163140
582.189391	0.163342
582.400969	0.163607
582.612529	0.163705
582.824071	0.163863
583.035595	0.164337
583.247100	0.164017
583.458587	0.164112
583.670056	0.164287
583.881506	0.164559
584.092939	0.165004
584.304353	0.165151
584.515749	0.165584
584.727127	0.165974
584.938486	0.165974
585.149828	0.166797
585.361151	0.166827
585.572456	0.166825
585.783742	0.166456
585.995011	0.166475
586.206261	0.166422
586.417493	0.166361
586.628706	0.166440
586.839902	0.166229
587.051079	0.165947
587.262238	0.165960
587.473379	0.165899
587.684502	0.166274
587.895606	0.166341
588.106692	0.166389
588.317760	0.166407
588.528810	0.166511
588.739841	0.166912
588.950855	0.167198
589.161850	0.167963
589.372827	0.168348
589.583785	0.168288
589.794726	0.168196
590.005648	0.168451
590.216552	0.168495
590.427437	0.168383
590.638305	0.168330
590.849154	0.168444
591.059985	0.167771
591.270798	0.167730
591.481592	0.167971
591.692369	0.168147
591.903127	0.168053
592.113867	0.168183
592.324588	0.168342
592.535292	0.168190
592.745977	0.168333
592.956644	0.168795
593.167293	0.168706
593.377923	0.169065
593.588536	0.169407
593.799130	0.169358
594.009706	0.169491
594.220263	0.169479
594.430803	0.169518
594.641324	0.169594
594.851827	0.169688
595.062312	0.169982
595.272778	0.169546
595.483227	0.169559
595.693657	0.169788
595.904069	0.169525
596.114462	0.169807
596.324838	0.169785
596.535195	0.169572
596.745534	0.169430
596.955855	0.169292
597.166157	0.169613
597.376441	0.169496
597.586707	0.169797
597.796955	0.169845
598.007185	0.169764
598.217396	0.170058
598.427589	0.170350
598.637764	0.170576
598.847921	0.170828
599.058060	0.171116
599.268180	0.171496
599.478282	0.171331
599.688366	0.171750
599.898431	0.171973
600.108479	0.171944
600.318508	0.171765
600.528519	0.171669
600.738511	0.171965
600.948486	0.172000
601.158442	0.171878
601.368380	0.172041
601.578300	0.172100
601.788202	0.172003
601.998085	0.172083
602.207950	0.172261
602.417797	0.172688
602.627626	0.172588
602.837436	0.172913
603.047228	0.173036
603.257002	0.173502
603.466758	0.173370
603.676496	0.173326
603.886215	0.173564
604.095916	0.173483
604.305599	0.173270
604.515264	0.173305
604.724910	0.173145
604.934538	0.173119
605.144148	0.172887
605.353740	0.173302
605.563314	0.173417
605.772869	0.173200
605.982406	0.173473
606.191925	0.173467
606.401425	0.173570
606.610908	0.173446
606.820372	0.173475
607.029818	0.173310
607.239246	0.173642
607.448655	0.173980
607.658047	0.174164
607.867420	0.174127
608.076775	0.174052
608.286111	0.173936
608.495430	0.173983
608.704730	0.173984
608.914012	0.173859
609.123275	0.173323
609.332521	0.173154
609.541748	0.173594
609.750957	0.173942
609.960148	0.174228
610.169321	0.174562
610.378475	0.174523
610.587611	0.174785
610.796729	0.175603
611.005829	0.175920
611.214910	0.175974
611.423974	0.175966
611.633019	0.175964
611.842045	0.176016
612.051054	0.175930
612.260044	0.176180
612.469017	0.176078
612.677970	0.175913
612.886906	0.175993
613.095824	0.176459
613.304723	0.176257
613.513604	0.176475
613.722467	0.176426
613.931311	0.176502
614.140138	0.176687
614.348946	0.176855
614.557736	0.176771
614.766507	0.176738
614.975261	0.176214
615.183996	0.176004
615.392713	0.175785
615.601412	0.176165
615.810092	0.175954
616.018754	0.175793
616.227399	0.175594
616.436024	0.175723
616.644632	0.175624
616.853222	0.175865
617.061793	0.176313
617.270346	0.176270
617.478880	0.175938
617.687397	0.176347
617.895895	0.176429
618.104375	0.176575
618.312837	0.176230
618.521281	0.176482
618.729706	0.176619
618.938113	0.176788
619.146502	0.176592
619.354873	0.176685
619.563226	0.176131
619.771560	0.176123
619.979876	0.176214
620.188174	0.176492
620.396453	0.176572
620.604715	0.176355
620.812958	0.176282
621.021183	0.176640
621.229390	0.176726
621.437578	0.177222
621.645748	0.177219
621.853900	0.177292
622.062034	0.177337
622.270150	0.177302
622.478247	0.177570
622.686326	0.177612
622.894387	0.177788
623.102430	0.177807
623.310454	0.177932
623.518461	0.178246
623.726449	0.178475
623.934418	0.178653
624.142370	0.178656
624.350303	0.178712
624.558218	0.178959
624.766115	0.178964
624.973994	0.178963
625.181855	0.179080
625.389697	0.179051
625.597521	0.178875
625.805327	0.178958
626.013114	0.179290
626.220883	0.179553
626.428634	0.179411
626.636367	0.179526
626.844082	0.179772
627.051778	0.179595
627.259457	0.179512
627.467117	0.179491
627.674758	0.179542
627.882382	0.179384
628.089987	0.179129
628.297574	0.179461
628.505143	0.179253
628.712694	0.179397
628.920226	0.179414
629.127740	0.179619
629.335236	0.179788
629.542714	0.179680
629.750174	0.179982
629.957615	0.179960
630.165038	0.179684
630.372443	0.180009
630.579829	0.179973
630.787198	0.180081
630.994548	0.180036
631.201880	0.180256
631.409194	0.180557
631.616489	0.180506
631.823766	0.180834
632.031025	0.180972
632.238266	0.181034
632.445489	0.181165
632.652693	0.181379
632.859879	0.181265
633.067047	0.181363
633.274197	0.181373
633.481329	0.181278
633.688442	0.181277
633.895537	0.181510
634.102614	0.181416
634.309672	0.181534
634.516713	0.181616
634.723735	0.181928
634.930739	0.181908
635.137724	0.181868
635.344692	0.181913
635.551641	0.181987
635.758572	0.181894
635.965485	0.181942
636.172379	0.181708
636.379256	0.181760
636.586114	0.181919
636.792954	0.182138
636.999775	0.182061
637.206579	0.182169
637.413364	0.182525
637.620131	0.182646
637.826880	0.182963
638.033610	0.183238
638.240323	0.183510
638.447017	0.183533
638.653692	0.183644
638.860350	0.183795
639.066990	0.183936
639.273611	0.183762
639.480214	0.183839
639.686798	0.183692
639.893365	0.183819
640.099913	0.183775
640.306443	0.183832
640.512955	0.183691
640.719449	0.183964
640.925924	0.184106
641.132381	0.184173
641.338820	0.184127
641.545241	0.184413
641.751644	0.184201
641.958028	0.184330
642.164394	0.184474
642.370742	0.184517
642.577071	0.184717
642.783383	0.184802
642.989676	0.184956
643.195951	0.185113
643.402207	0.185214
643.608446	0.185584
643.814666	0.185527
644.020868	0.185718
644.227052	0.186008
644.433218	0.185918
644.639365	0.186067
644.845494	0.186301
645.051605	0.186451
645.257698	0.186775
645.463772	0.186937
645.669828	0.187091
645.875866	0.186994
646.081886	0.187066
646.287888	0.187189
646.493871	0.187265
646.699836	0.186925
646.905783	0.186999
647.111712	0.186748
647.317622	0.186695
647.523514	0.186753
647.729388	0.186661
647.935244	0.186698
648.141082	0.186800
648.346901	0.186570
648.552702	0.186773
648.758485	0.186675
648.964250	0.186657
649.169996	0.186730
649.375724	0.186710
649.581434	0.186892
649.787126	0.186942
649.992800	0.186864
650.198455	0.187409
650.404092	0.187570
650.609711	0.187689
650.815311	0.187931
651.020894	0.188027
651.226458	0.188015
651.432004	0.188232
651.637532	0.188177
651.843041	0.188253
652.048532	0.188071
652.254006	0.188213
652.459460	0.188358
652.664897	0.188209
652.870315	0.188298
653.075716	0.188623
653.281097	0.188680
653.486461	0.188940
653.691807	0.189151
653.897134	0.189134
654.102443	0.189314
654.307734	0.189537
654.513006	0.189709
654.718261	0.189636
654.923497	0.189530
655.128715	0.189810
655.333915	0.189980
655.539096	0.190181
655.744259	0.190413
655.949404	0.190421
656.154531	0.190239
656.359640	0.190474
656.564730	0.190703
656.769802	0.190856
656.974856	0.190660
657.179892	0.190607
657.384909	0.190683
657.589908	0.190761
657.794889	0.190715
657.999852	0.191238
658.204797	0.191323
658.409723	0.191542
658.614631	0.191874
658.819521	0.192105
659.024393	0.192203
659.229246	0.192093
659.434081	0.192149
659.638898	0.192397
659.843697	0.192247
660.048478	0.192543
660.253240	0.192581
660.457984	0.192511
660.662710	0.192613
660.867417	0.192831
661.072107	0.193030
661.276778	0.193096
661.481431	0.193101
661.686066	0.193156
661.890682	0.192880
662.095281	0.193026
662.299861	0.193185
662.504422	0.193318
662.708966	0.193425
662.913491	0.193402
663.117999	0.193481
663.322488	0.193626
663.526958	0.193752
663.731411	0.193964
663.935845	0.194132
664.140261	0.194111
664.344659	0.194036
664.549038	0.194013
664.753400	0.194452
664.957743	0.194710
665.162068	0.194957
665.366375	0.194908
665.570663	0.195056
665.774933	0.195112
665.979185	0.195187
666.183419	0.195667
666.387635	0.195913
666.591832	0.195864
666.796011	0.195998
667.000172	0.196052
667.204315	0.196417
667.408439	0.196644
667.612545	0.196677
667.816634	0.197020
668.020703	0.196862
668.224755	0.197125
668.428788	0.197416
668.632803	0.197645
668.836800	0.197847
669.040779	0.197792
669.244739	0.197779
669.448681	0.197980
669.652605	0.197938
669.856511	0.198308
670.060399	0.198148
670.264268	0.198057
670.468119	0.198113
670.671952	0.198189
670.875767	0.198585
671.079563	0.198860
671.283341	0.199038
671.487101	0.199318
671.690843	0.199100
671.894567	0.199556
672.098272	0.199882
672.301959	0.199923
672.505628	0.199939
672.709278	0.199766
672.912911	0.199809
673.116525	0.199669
673.320121	0.199789
673.523699	0.199927
673.727258	0.199425
673.930799	0.199202
674.134322	0.199320
674.337827	0.199224
674.541314	0.199405
674.744782	0.199517
674.948232	0.199569
675.151664	0.199312
675.355078	0.199260
675.558474	0.199497
675.761851	0.199485
675.965210	0.199320
676.168551	0.199606
676.371873	0.199824
676.575178	0.199631
676.778464	0.199918
676.981732	0.200390
677.184981	0.200646
677.388213	0.200967
677.591426	0.201047
677.794621	0.201231
677.997798	0.201076
678.200956	0.200995
678.404097	0.201244
678.607219	0.201067
678.810323	0.200606
679.013408	0.200707
679.216476	0.200573
679.419525	0.200807
679.622556	0.200989
679.825569	0.201186
680.028563	0.201038
680.231540	0.200844
680.434498	0.200978
680.637438	0.201269
680.840359	0.201311
681.043263	0.201254
681.246148	0.201222
681.449015	0.201144
681.651864	0.201300
681.854694	0.201645
682.057506	0.202008
682.260301	0.202258
682.463076	0.202462
682.665834	0.202875
682.868573	0.203242
683.071295	0.203595
683.273998	0.203681
683.476682	0.203812
683.679349	0.203793
683.881997	0.203777
684.084627	0.203884
684.287239	0.204052
684.489833	0.203724
684.692408	0.203635
684.894965	0.203503
685.097504	0.203688
685.300025	0.203765
685.502527	0.203891
685.705012	0.203964
685.907478	0.203797
686.109925	0.203905
686.312355	0.203952
686.514766	0.204250
686.717159	0.204715
686.919534	0.204975
687.121891	0.204944
687.324230	0.205142
687.526550	0.205528
687.728852	0.205794
687.931136	0.205813
688.133401	0.206112
688.335649	0.206123
688.537878	0.205805
688.740089	0.205728
688.942281	0.205864
689.144456	0.205845
689.346612	0.205646
689.548750	0.205811
689.750870	0.205945
689.952971	0.205997
690.155055	0.206199
690.357120	0.206308
690.559167	0.206426
690.761195	0.206856
690.963206	0.207165
691.165198	0.207194
691.367172	0.207365
691.569128	0.207477
691.771065	0.207488
691.972984	0.207463
692.174885	0.207605
692.376768	0.207830
692.578633	0.207590
692.780479	0.207388
692.982308	0.207509
693.184118	0.207475
693.385909	0.207494
