sample name	sample
index	1417
start time	 05-10-2021  11:55:08 AM
880	0.444815
Peak Time (s)	92.536
Peak Height 	0.4448
calc peak height	90,93
Baseline Time (s)	9.037
Baseline Value 	-0.003909
subtract baseline	10,4
Abs	0.327530
Peak Time (s)	90.037
Peak Height 	0.3275
calc peak height	90,93
Baseline Time (s)	11.036
Baseline Value 	0.003057
subtract baseline	10,3
PK_550	0.175136
Peak Time (s)	92.035
Peak Height 	0.1751
calc peak height	90,93
Baseline Time (s)	9.037
Baseline Value 	7.9746E-4
subtract baseline	10,2
PK_880	0.312617
Peak Time (s)	90.537
Peak Height 	0.3126
calc peak height	90,93
Baseline Time (s)	8.537
Baseline Value 	0.001902
subtract baseline	10,1


Time (s)	A880-A510	A880-A775	A880-A975	A880	I510	I775	I975	I880	
0.032000	NaN	NaN	NaN	NaN	NaN	NaN	NaN	NaN
0.534500	-0.001247	0.000021	-0.000692	0.003563	6474.321889	44052.315500	3926.590912	22512.535704
1.035000	-0.004014	-0.000053	-0.002580	0.006459	6427.375065	43772.198155	3914.415458	22381.919236
1.535500	0.000425	-0.000352	-0.000825	0.000635	6512.913200	44295.006001	3933.766834	22645.511659
2.036000	-0.000571	0.000328	-0.004023	0.000397	6506.518511	44382.371704	3926.168831	22656.332655
2.539000	-0.002063	-0.000294	-0.003285	0.006106	6446.402358	43782.759334	3913.527624	22397.808848
3.036000	-0.002380	-0.000285	-0.003057	0.005266	6450.733009	43862.611909	3916.230891	22435.642881
3.537000	-0.000346	0.000240	-0.001477	0.000699	6505.876943	44345.258174	3931.926234	22642.608396
4.037000	-0.000192	-0.000111	-0.000660	0.000025	6512.855442	44376.058035	3935.764836	22673.335338
4.537500	-0.001109	-0.000178	-0.005430	0.002474	6484.576070	44136.723681	3917.292740	22561.887424
5.037500	-0.000050	0.000531	-0.001790	0.000324	6511.533074	44408.818055	3932.085513	22659.702707
5.535000	0.000483	0.000104	-0.007956	-0.000161	6520.115569	44414.330265	3917.570346	22681.803303
6.035500	0.000692	-0.000046	-0.001086	-0.000407	6523.963845	44423.494484	3935.777677	22693.015049
6.536000	-0.000899	0.000492	-0.001093	-0.000290	6509.544532	44463.765416	3935.459567	22687.692460
7.036000	0.002817	-0.000158	-0.005689	-0.000778	6545.144359	44448.242868	3924.913741	22710.000676
7.536500	0.000764	-0.000664	-0.000523	-0.000919	6528.906963	44413.359286	3938.556462	22716.441751
8.037000	0.002667	0.001553	-0.000237	0.001143	6527.564091	44428.192107	3933.974346	22622.388889
8.536500	0.000000	-0.000107	-0.001775	-0.000659	6520.244970	44441.746386	3934.651674	22704.541794
9.037500	-0.000468	0.000000	-0.003655	0.000000	6510.739080	44389.041625	3928.127224	22674.458100
9.537500	0.002237	-0.000087	-0.004933	-0.000359	6536.649268	44414.945888	3925.773638	22690.832336
10.035000	-0.000514	0.000123	0.001124	-0.000314	6512.994872	44430.800537	3941.254014	22688.785473
10.535000	-0.002567	-0.000215	0.003251	0.004196	6458.067348	43970.223730	3935.095702	22483.940845
11.035500	0.000636	0.000795	0.000000	0.000240	6518.030928	44442.067775	3936.914062	22663.529894
11.536000	0.000430	0.000549	0.001812	0.000252	6516.189870	44417.456776	3941.571609	22662.978908
12.036000	0.001463	0.000987	-0.000977	0.000272	6524.739854	44457.286109	3934.310049	22662.036241
12.536500	-0.003063	-0.000265	-0.001621	0.003405	6460.513857	44040.255867	3924.622002	22519.718836
13.037000	-0.000086	0.000410	-0.003641	-0.000594	6518.971467	44484.936662	3929.686086	22701.573978
13.537500	-0.000804	0.001053	-0.001846	-0.000077	6508.558389	44497.107239	3932.972005	22677.987665
14.034500	-0.002188	-0.000302	0.002104	0.001550	6483.283692	44212.667164	3938.967888	22603.881004
14.538000	-0.004434	-0.000529	-0.003470	0.002535	6456.347193	44097.645232	3922.121960	22559.118683
15.035000	-0.001969	0.000109	0.001041	-0.001307	6509.096298	44524.317657	3943.615365	22734.164594
15.535500	-0.000789	0.000098	-0.005634	-0.000814	6514.893590	44476.172219	3925.145593	22711.623071
16.035500	0.001200	-0.000492	0.000485	-0.001275	6535.618657	44463.804052	3942.090019	22732.712603
16.536000	-0.002191	0.000448	-0.000235	0.003572	6466.379875	44092.001533	3927.738572	22512.144718
17.036000	-0.001578	0.000490	0.001128	-0.001160	6511.149022	44546.754959	3943.458857	22727.436008
17.542500	0.000127	0.001017	-0.000348	0.000829	6508.765064	44407.043384	3934.496439	22636.677340
18.039500	0.000201	-0.000562	0.000406	-0.000699	6522.281784	44402.151118	3940.392775	22706.384472
18.537500	-0.000146	0.000159	-0.000719	0.000865	6506.164450	44321.754038	3933.449102	22635.048111
19.040000	-0.001639	0.000303	-0.001790	0.000316	6498.218583	44387.770955	3932.102572	22660.034555
19.535000	-0.001315	0.000433	-0.001860	0.000373	6500.462171	44394.746463	3931.777697	22657.436523
20.035000	0.001431	0.000208	-0.005626	0.000053	6526.326409	44403.824220	3922.951801	22672.033962
20.535500	-0.001829	-0.000206	-0.000543	0.000339	6496.438397	44337.077769	3935.256031	22659.014190
21.035500	-0.002719	0.000111	-0.000980	0.000005	6491.771077	44399.172245	3934.990888	22674.227230
21.536000	0.000986	0.000469	-0.006029	0.000461	6519.114109	44389.762205	3920.885805	22653.435709
22.036500	-0.000007	0.000332	-0.003273	0.000217	6512.789976	44400.023472	3928.550683	22664.565000
22.539500	0.000594	0.000383	-0.000931	0.000680	6513.955274	44360.688473	3933.378095	22643.442173
23.037000	-0.000839	0.000242	0.002838	-0.000014	6507.731192	44413.486106	3944.928225	22675.095232
23.537500	-0.001627	0.000810	-0.004485	0.000274	6498.680256	44440.233282	3925.301274	22661.957849
24.037500	-0.000334	0.000686	-0.001655	0.000435	6508.195039	44412.954528	3932.144798	22654.610568
24.535000	-0.001110	0.000028	-0.005446	0.000369	6502.224620	44356.515927	3922.606717	22657.619322
25.035500	0.000632	0.000446	-0.004389	0.000436	6516.332067	44389.925848	3925.132528	22654.559641
25.535500	0.001189	0.001114	-0.003897	0.001134	6515.146363	44387.170694	3924.609074	22622.796424
26.036000	-0.001464	0.000324	-0.003716	0.000223	6500.478180	44398.636512	3927.399426	22664.280047
26.536500	-0.000942	-0.000224	-0.005481	0.000097	6505.931489	44358.465227	3923.212882	22670.049239
27.039000	0.000370	-0.000022	0.004098	-0.002080	6535.410944	44585.950047	3953.612658	22769.587962
27.536500	0.002801	0.000223	0.001205	-0.001453	6550.754294	44549.308529	3944.423483	22740.873055
28.037000	0.000913	0.000373	-0.002562	-0.001469	6534.837855	44565.277913	3934.711629	22741.607535
28.537500	0.000902	0.000755	0.002848	-0.001001	6530.778259	44557.003171	3947.524285	22720.189827
29.035000	-0.002655	0.000143	-0.005301	0.001741	6477.780036	44236.779068	3919.480748	22595.171308
29.535500	0.000158	0.000174	0.003202	-0.001341	6527.351239	44533.901998	3949.334761	22735.760133
30.035000	0.001567	0.000143	-0.004910	-0.001313	6539.066625	44528.295122	3928.276743	22734.474270
30.535500	0.000054	0.000116	-0.003840	0.001477	6502.701610	44259.404420	3923.878419	22607.192551
31.036000	-0.000083	-0.000121	0.004067	0.000181	6512.460322	44360.281518	3947.621130	22666.209267
31.539000	0.002653	0.000281	0.001512	-0.000580	6542.066361	44471.271933	3942.950965	22700.942071
32.037000	0.000687	0.000142	0.003394	-0.000647	6525.951004	44464.353207	3948.023691	22703.987561
32.537000	-0.000135	0.000316	-0.004639	0.002766	6490.286451	44155.832815	3918.559398	22548.645779
33.034500	0.000655	0.000642	-0.003602	0.001138	6510.605035	44341.742524	3925.349955	22622.595303
33.537500	0.001507	0.000788	0.004235	-0.002075	6545.036550	44663.184176	3953.959756	22769.381188
34.035500	-0.001403	0.001212	0.002446	0.001966	6486.368855	44317.131086	3938.774715	22584.948705
34.535500	-0.000079	-0.000325	0.000846	0.001078	6504.931067	44255.336209	3936.932997	22625.334387
35.035500	0.000046	0.000315	0.002166	0.001847	6499.518915	44243.100757	3938.358934	22590.367490
35.536000	0.000358	0.000871	0.000789	0.001570	6504.470976	44322.466415	3935.518404	22602.969560
36.036000	0.000309	0.000108	-0.003377	0.000985	6508.979892	44305.418880	3926.318866	22629.567093
36.536500	-0.002677	0.000186	0.000227	0.001586	6478.889058	44255.628447	3934.026194	22602.225516
37.037000	0.000106	0.000833	-0.007533	0.001544	6502.573197	44321.214239	3914.320042	22604.132206
37.537000	0.000048	-0.000185	-0.002190	0.000835	6508.046517	44291.767134	3929.741376	22636.381855
38.037500	-0.000821	0.000420	-0.004665	0.001519	6494.991915	44284.214822	3921.664400	22605.252379
38.535000	-0.003880	-0.000172	0.000309	0.000918	6474.420360	44285.171243	3935.960023	22632.618862
39.035000	-0.000921	0.000142	-0.001979	0.000888	6499.453844	44317.896198	3930.150100	22633.985632
39.535500	0.001276	0.000555	-0.000172	0.001435	6513.334951	44305.123255	3933.387563	22609.077282
40.035500	0.000303	0.000840	-0.000351	0.001641	6503.415117	44312.688403	3932.398219	22599.733335
40.535500	-0.002294	0.000079	-0.002349	0.001119	6485.999725	44289.886207	3928.607023	22623.463915
41.036500	-0.000688	0.000746	0.002219	0.001515	6496.143181	44315.683554	3939.353770	22605.458671
41.536500	-0.001240	0.000242	-0.002484	0.000846	6497.123593	44331.428778	3928.961283	22635.908329
42.037000	0.001440	0.000591	-0.003769	0.001299	6515.871531	44321.560238	3924.513658	22615.285836
42.537500	-0.000152	0.000217	-0.002127	0.001174	6503.512995	44297.826193	3929.035217	22620.975522
43.035000	-0.000492	0.000196	-0.003069	0.000679	6504.817823	44342.991678	3927.888091	22643.494934
43.535000	0.000891	0.000235	0.000508	0.000504	6517.953900	44363.402317	3937.543896	22651.495507
44.035000	-0.000916	0.000591	-0.001515	-0.000970	6515.140978	44538.330765	3936.127048	22718.781059
44.542000	-0.003375	-0.000293	-0.003627	0.003398	6457.982020	44038.323065	3919.526812	22520.028122
45.036000	0.000722	-0.000116	0.001519	-0.001959	6537.371224	44565.285896	3946.556200	22764.027888
45.536000	0.000538	0.000444	0.002564	-0.000786	6525.865972	44506.563880	3946.222614	22710.331952
46.036500	0.001979	0.001086	-0.001564	-0.000434	6535.099917	44534.322576	3934.616282	22694.267995
46.536500	-0.003928	0.000026	-0.001623	0.003949	6448.826436	44016.359919	3923.227463	22495.101992
47.034000	0.000783	0.000628	-0.001445	0.000871	6513.937931	44365.834891	3931.562749	22634.738130
47.534000	-0.000356	0.000240	-0.000786	0.001727	6497.143603	44247.309045	3931.057628	22595.800748
48.037500	0.000768	0.001042	-0.004540	-0.000575	6526.033615	44543.674627	3927.333308	22700.709459
48.535500	-0.002144	0.000043	-0.001681	0.004240	6461.206712	43990.364194	3922.334447	22481.918011
49.038500	0.000693	0.000496	0.001039	0.000047	6520.139236	44431.948745	3940.098110	22672.314279
49.535500	0.000810	0.000109	-0.002730	-0.003880	6554.467339	44771.486145	3940.507729	22852.280390
50.036500	0.002182	0.000588	0.003837	-0.002085	6550.857360	44644.945862	3952.939996	22769.810859
50.536000	-0.002716	-0.000072	0.000320	0.006401	6438.558569	43775.793659	3921.927065	22384.516337
51.036500	-0.001083	-0.001663	0.007148	0.007857	6440.020417	43490.309124	3935.702402	22319.172675
51.536500	0.036793	-0.024439	0.110726	0.585686	3885.762888	13111.666649	3191.222029	8002.719771
52.037000	-0.001126	-0.028393	-0.003717	0.012415	6402.187525	40671.644716	3896.609638	22115.985313
52.537500	-0.011132	-0.087182	-0.028395	-0.261129	9366.493455	64807.307181	4733.188052	39011.641755
53.035000	-0.004418	-0.102373	-0.024329	-0.281377	9783.836373	65531.953524	4843.624144	40737.109550
53.538000	0.006898	-0.071772	-0.006895	-0.243063	9365.949913	64430.188834	4748.411789	37538.549612
54.035500	0.011199	-0.039125	0.000779	-0.186154	8622.604841	61089.092481	4541.219575	33279.252046
54.535500	0.012247	-0.022239	0.007760	-0.130796	7944.081880	56159.505352	4359.281529	29638.569564
55.036000	0.016208	-0.017644	0.018911	-0.126174	7936.340366	56156.259198	4382.668500	29355.064788
55.536000	0.022843	-0.013413	0.022863	-0.125990	8012.455520	56654.505191	4396.330089	29343.881836
56.037000	0.041203	-0.004696	0.038423	-0.106603	8000.260031	55350.911213	4382.458802	28187.549834
56.537000	0.056427	0.004381	0.064477	-0.029902	7320.517027	47793.616706	4209.950579	24086.920957
57.037500	0.079272	0.020568	0.089956	0.043613	6828.240906	42246.949680	4063.910575	20781.115247
57.537000	0.105006	0.036851	0.115263	0.094700	6602.681193	39219.919657	3991.948980	18792.123134
58.035000	0.127927	0.050626	0.140688	0.149715	6335.385025	35933.328517	3914.448974	16896.302303
58.535500	0.155613	0.066071	0.167094	0.206208	6111.724080	32957.716821	3840.876444	15184.019055
59.036000	0.169568	0.077865	0.184217	0.250901	5888.876546	30767.792275	3777.790853	13978.670281
59.536000	0.190783	0.090174	0.210156	0.288221	5778.259075	29210.471016	3752.894767	13062.980656
60.036500	0.210362	0.100202	0.232182	0.323515	5674.212089	27725.729002	3724.684291	12266.481639
60.536000	0.221953	0.109749	0.243656	0.350750	5574.297329	26736.529483	3692.270969	11694.595360
61.036500	0.240948	0.120883	0.264083	0.374286	5545.970574	26066.600738	3686.015055	11228.477110
61.537000	0.247416	0.127748	0.270913	0.390309	5487.312662	25584.071075	3667.777978	10925.297473
62.037000	0.254021	0.135507	0.271372	0.404077	5444.180121	25272.923174	3642.049056	10673.576039
62.538000	0.261494	0.142710	0.276640	0.397336	5530.466745	26001.580764	3665.228274	10795.814567
63.035500	0.265111	0.146997	0.282312	0.395144	5566.558730	26348.174679	3680.759915	10835.981920
63.543500	0.267449	0.149411	0.281542	0.391418	5604.754181	26681.509337	3686.670968	10904.728910
64.039000	0.269358	0.152268	0.285951	0.392180	5612.035208	26796.286290	3694.020129	10890.612733
64.536500	0.274925	0.155936	0.285997	0.395847	5624.142255	26796.323919	3686.723109	10823.080760
65.036500	0.276909	0.155675	0.287463	0.397481	5626.380755	26692.509898	3686.387337	10793.174902
65.537000	0.280132	0.159204	0.292623	0.402185	5616.930696	26628.335438	3687.302008	10707.697129
66.037000	0.280835	0.160063	0.288264	0.402927	5616.684395	26634.731559	3677.119512	10694.297530
66.537500	0.279576	0.161314	0.289429	0.409926	5564.579872	26323.143414	3665.618442	10569.021584
67.037500	0.283483	0.163172	0.296173	0.406515	5610.702465	26608.605041	3685.737138	10629.827346
67.535000	0.288070	0.166476	0.301357	0.409600	5620.265174	26620.483068	3689.955080	10574.811474
68.035500	0.288341	0.167072	0.295235	0.410721	5614.848921	26591.893873	3675.487182	10554.921530
68.535500	0.288910	0.168543	0.297416	0.414569	5594.059277	26462.798994	3672.192466	10487.032200
69.036000	0.294661	0.170948	0.309293	0.418276	5606.997177	26392.374313	3688.464677	10422.190759
69.536500	0.293973	0.170280	0.305002	0.420217	5590.366193	26251.922583	3676.025577	10388.463305
70.036500	0.296485	0.171836	0.311470	0.422503	5591.784907	26212.765289	3684.353048	10348.920847
70.537000	0.292750	0.171461	0.305833	0.428939	5528.328446	25850.635258	3660.525799	10238.736289
71.040000	0.295204	0.172742	0.316454	0.425863	5562.649583	26081.619083	3687.608843	10291.196724
71.539500	0.297592	0.173803	0.313291	0.428146	5563.304937	26016.587519	3676.738881	10252.225073
72.035000	0.297853	0.174470	0.310183	0.429171	5558.540529	25997.603648	3668.579796	10234.803939
72.535500	0.296724	0.174785	0.311853	0.435044	5515.223398	25704.432273	3660.360289	10135.720306
73.035000	0.297403	0.174582	0.309499	0.430632	5546.649743	25926.093802	3664.375298	10210.025834
73.535500	0.300806	0.176754	0.311479	0.433111	5552.386212	25909.852707	3663.398347	10168.173933
74.039000	0.302308	0.177601	0.316735	0.433161	5561.439619	25952.069239	3673.628473	10167.343829
74.536500	0.300290	0.177766	0.307894	0.439064	5512.436514	25649.971317	3644.974639	10068.655878
75.036000	0.303618	0.179354	0.314597	0.434384	5561.983014	25980.158845	3667.010347	10146.785073
75.542500	0.303425	0.180771	0.315649	0.434381	5560.795679	26055.588110	3669.082575	10146.838949
76.037000	0.304949	0.180808	0.314653	0.434917	5566.966696	26029.049895	3666.076001	10137.842674
76.537000	0.303347	0.179544	0.313678	0.438247	5536.288148	25786.076750	3657.682033	10082.232830
77.035000	0.305353	0.180213	0.313857	0.434417	5572.627966	26024.036760	3665.495828	10146.236072
77.541000	0.303865	0.180226	0.316834	0.434234	5564.461588	26034.443067	3671.705007	10149.305469
78.036000	0.303807	0.179691	0.312109	0.434069	5565.130579	26014.799097	3662.760543	10152.078212
78.535500	0.302797	0.181757	0.318751	0.437980	5534.537952	25916.902648	3668.105022	10086.675015
79.036500	0.306756	0.182202	0.319711	0.437339	5563.119161	25974.444870	3671.254368	10097.355685
79.536500	0.307739	0.182874	0.316635	0.437871	5565.943447	25981.907222	3664.174241	10088.501241
80.042000	0.306792	0.180959	0.315325	0.436955	5565.750161	25928.956420	3663.402634	10103.761925
80.537000	0.306600	0.182232	0.321199	0.441528	5536.114428	25754.920343	3665.947070	10027.864470
81.037500	0.307587	0.181930	0.315194	0.439777	5553.103228	25831.196917	3657.655817	10056.837949
81.534500	0.308450	0.181378	0.315647	0.439864	5557.938734	25797.513691	3658.365971	10055.390411
82.035500	0.307395	0.179256	0.320677	0.439886	5551.226645	25684.954436	3668.144321	10055.022468
82.535500	0.307178	0.179601	0.318922	0.444000	5524.433479	25488.438760	3656.696752	9987.176421
83.036500	0.309571	0.180466	0.327471	0.442277	5549.894939	25623.201215	3676.837017	10015.524462
83.536000	0.310874	0.180869	0.322320	0.442744	5555.095426	25619.830366	3665.762246	10007.828517
84.036500	0.309031	0.178479	0.320918	0.441002	5554.462948	25585.991097	3666.426490	10036.552987
84.536500	0.308425	0.179935	0.322034	0.446546	5516.448480	25373.898289	3657.795110	9945.515323
85.037000	0.310613	0.180545	0.316688	0.442511	5554.924572	25615.111722	3655.254514	10011.669360
85.537000	0.310239	0.179673	0.325636	0.442094	5555.193304	25591.386704	3673.564163	10018.540257
86.034500	0.311508	0.180309	0.327582	0.442440	5560.945930	25606.495193	3676.732650	10012.830654
86.535000	0.308749	0.176163	0.316000	0.442044	5546.239603	25411.645569	3654.827681	10019.362784
87.035000	0.309305	0.178315	0.325893	0.440050	5562.105596	25627.139128	3678.122679	10052.304288
87.535500	0.311263	0.177697	0.322174	0.440823	5569.517209	25554.585958	3669.243885	10039.513523
88.036000	0.310809	0.177064	0.322368	0.440244	5570.299148	25551.773840	3670.766151	10049.095559
88.536500	0.308291	0.176249	0.322652	0.440117	5555.367370	25516.014770	3671.575026	10051.197954
89.036000	0.310230	0.175874	0.325460	0.439494	5571.371756	25528.903675	3678.368956	10061.528181
89.537000	0.312369	0.175205	0.325005	0.440053	5581.291590	25465.122107	3676.357063	10052.268552
90.037000	0.309269	0.174534	0.327530	0.439528	5565.147131	25457.575068	3682.425226	10060.967570
90.537000	0.312617	0.174670	0.322015	0.439317	5587.485334	25475.542531	3671.898696	10064.465858
91.037500	0.311242	0.174120	0.319576	0.439263	5579.174586	25449.837103	3667.206515	10065.365418
91.535000	0.312320	0.174805	0.324611	0.440616	5577.445290	25415.193300	3674.458091	10042.935106
92.035500	0.312098	0.175136	0.325996	0.441364	5571.367408	25393.684387	3675.722270	10030.584933
92.536000	0.307636	0.173113	0.321480	0.444815	5522.232234	25112.386828	3660.079068	9973.805042
93.035500	0.310630	0.174142	0.327398	0.441300	5562.578287	25345.654470	3678.631931	10031.639919
93.539000	0.313036	0.172917	0.332221	0.440841	5580.525808	25306.115801	3689.194214	10039.213532
94.037000	0.309225	0.173251	0.329307	0.441270	5554.008786	25301.253455	3682.494047	10032.131950
94.537000	0.307055	0.172508	0.324672	0.447528	5502.047646	24943.652150	3661.011469	9929.500216
95.037000	0.309542	0.171234	0.326349	0.441191	5556.475355	25201.692126	3676.763152	10033.437359
95.537000	0.308741	0.172208	0.332393	0.441585	5549.035627	25231.450823	3688.044696	10026.933985
96.034500	0.308775	0.170676	0.322211	0.440704	5554.732224	25198.087852	3669.553062	10041.494213
