sample name	sample
index	892
start time	 04-08-2021  02:54:40 PM


Wavelength (nm)	Absorbance
494.344910	0.009672
494.563924	0.009672
494.782919	0.009672
495.001897	-0.004633
495.220856	0.009790
495.439797	0.002354
495.658719	0.003153
495.877624	-0.002332
496.096510	-0.000937
496.315378	-0.007368
496.534227	-0.004637
496.753059	-0.004226
496.971872	-0.003718
497.190667	0.065100
497.409444	0.110420
497.628203	0.129629
497.846943	0.140900
498.065665	0.145923
498.284369	0.152985
498.503055	0.156004
498.721723	0.159550
498.940372	0.161034
499.159003	0.162435
499.377616	0.163807
499.596210	0.164260
499.814787	0.164609
500.033345	0.165834
500.251885	0.166518
500.470406	0.167718
500.688910	0.166917
500.907395	0.168079
501.125862	0.167204
501.344311	0.166802
501.562742	0.167136
501.781154	0.168297
501.999548	0.169334
502.217924	0.169219
502.436282	0.168734
502.654621	0.169278
502.872942	0.168592
503.091245	0.169354
503.309530	0.169557
503.527797	0.169497
503.746045	0.169771
503.964275	0.169502
504.182487	0.170018
504.400681	0.169752
504.618856	0.170513
504.837013	0.171861
505.055152	0.172258
505.273273	0.173098
505.491376	0.174446
505.709460	0.174928
505.927526	0.175097
506.145574	0.175038
506.363604	0.175522
506.581615	0.175490
506.799608	0.175730
507.017583	0.175142
507.235540	0.174986
507.453478	0.173839
507.671399	0.174128
507.889301	0.174289
508.107185	0.174409
508.325050	0.174679
508.542898	0.175360
508.760727	0.176149
508.978538	0.177335
509.196330	0.177267
509.414105	0.178654
509.631861	0.178636
509.849599	0.179595
510.067319	0.179256
510.285021	0.180277
510.502704	0.180193
510.720369	0.180440
510.938016	0.181072
511.155645	0.182353
511.373255	0.182263
511.590848	0.182119
511.808422	0.182240
512.025977	0.183807
512.243515	0.183721
512.461034	0.183911
512.678536	0.183608
512.896018	0.183967
513.113483	0.184180
513.330930	0.183922
513.548358	0.184296
513.765768	0.185111
513.983160	0.184713
514.200533	0.185511
514.417889	0.185988
514.635226	0.186013
514.852545	0.186272
515.069845	0.185892
515.287128	0.186474
515.504392	0.186621
515.721638	0.186580
515.938866	0.186575
516.156075	0.186153
516.373267	0.186901
516.590440	0.187210
516.807594	0.187202
517.024731	0.187762
517.241850	0.188429
517.458950	0.188470
517.676032	0.188903
517.893095	0.189833
518.110141	0.190909
518.327168	0.191107
518.544177	0.191484
518.761168	0.192456
518.978141	0.193113
519.195095	0.193312
519.412031	0.194187
519.628949	0.194278
519.845849	0.194818
520.062731	0.194572
520.279594	0.194337
520.496439	0.195200
520.713266	0.194744
520.930074	0.193881
521.146865	0.194385
521.363637	0.194920
521.580391	0.195208
521.797127	0.195690
522.013844	0.196802
522.230543	0.197601
522.447224	0.198101
522.663887	0.197618
522.880532	0.199562
523.097158	0.200438
523.313766	0.200898
523.530356	0.201882
523.746928	0.201386
523.963481	0.201138
524.180017	0.201411
524.396534	0.201377
524.613032	0.202647
524.829513	0.202563
525.045975	0.201982
525.262420	0.201802
525.478845	0.201410
525.695253	0.201819
525.911643	0.202648
526.128014	0.203137
526.344367	0.203892
526.560702	0.204373
526.777018	0.204686
526.993316	0.205359
527.209597	0.206022
527.425858	0.206756
527.642102	0.207967
527.858328	0.208194
528.074535	0.208566
528.290724	0.208312
528.506894	0.208836
528.723047	0.209360
528.939181	0.209568
529.155297	0.210205
529.371395	0.210499
529.587475	0.210909
529.803536	0.211565
530.019579	0.212320
530.235604	0.212591
530.451611	0.213409
530.667600	0.214033
530.883570	0.214637
531.099522	0.215001
531.315456	0.215846
531.531372	0.216425
531.747269	0.216818
531.963148	0.217231
532.179009	0.218330
532.394852	0.218313
532.610676	0.218172
532.826482	0.218786
533.042271	0.219241
533.258040	0.219400
533.473792	0.219584
533.689525	0.220429
533.905240	0.220667
534.120937	0.221199
534.336616	0.222089
534.552277	0.222936
534.767919	0.223089
534.983543	0.223448
535.199149	0.223759
535.414736	0.224225
535.630306	0.224148
535.845857	0.225118
536.061390	0.225409
536.276904	0.225636
536.492401	0.226273
536.707879	0.227055
536.923339	0.227324
537.138781	0.227802
537.354204	0.228207
537.569610	0.228578
537.784997	0.228683
538.000366	0.228395
538.215716	0.228101
538.431049	0.227783
538.646363	0.228099
538.861659	0.228299
539.076937	0.228772
539.292196	0.229210
539.507438	0.229299
539.722661	0.229746
539.937866	0.230698
540.153052	0.231787
540.368221	0.232309
540.583371	0.232313
540.798503	0.232907
541.013617	0.233672
541.228712	0.234206
541.443789	0.234611
541.658848	0.234294
541.873889	0.234822
542.088912	0.234844
542.303916	0.235224
542.518902	0.235536
542.733870	0.236204
542.948820	0.236083
543.163752	0.236165
543.378665	0.237520
543.593560	0.238489
543.808437	0.238793
544.023295	0.239178
544.238136	0.239683
544.452958	0.240327
544.667762	0.240439
544.882548	0.240849
545.097315	0.241585
545.312064	0.241607
545.526795	0.241530
545.741508	0.242256
545.956203	0.242113
546.170879	0.242603
546.385537	0.243287
546.600177	0.244135
546.814799	0.244992
547.029402	0.244977
547.243988	0.244752
547.458555	0.245582
547.673103	0.245655
547.887634	0.246441
548.102146	0.247032
548.316640	0.246274
548.531116	0.246218
548.745574	0.245979
548.960013	0.246726
549.174435	0.247522
549.388838	0.246979
549.603222	0.246886
549.817589	0.247324
550.031937	0.246887
550.246267	0.247847
550.460579	0.247994
550.674873	0.248521
550.889148	0.248541
551.103405	0.248202
551.317644	0.248812
551.531865	0.249547
551.746068	0.249875
551.960252	0.250175
552.174418	0.250090
552.388566	0.250843
552.602696	0.250697
552.816807	0.251266
553.030900	0.251539
553.244975	0.252208
553.459032	0.252157
553.673070	0.252465
553.887091	0.252960
554.101093	0.253531
554.315077	0.253665
554.529042	0.254354
554.742990	0.254468
554.956919	0.255181
555.170830	0.255436
555.384722	0.255805
555.598597	0.256313
555.812453	0.257007
556.026291	0.257264
556.240111	0.257587
556.453913	0.257585
556.667696	0.257815
556.881461	0.258260
557.095208	0.258650
557.308937	0.259292
557.522647	0.259259
557.736339	0.259330
557.950013	0.259639
558.163669	0.259932
558.377307	0.260544
558.590926	0.260659
558.804527	0.260751
559.018110	0.260246
559.231675	0.259978
559.445221	0.260302
559.658749	0.260486
559.872259	0.260818
560.085751	0.261013
560.299225	0.260795
560.512680	0.260940
560.726117	0.261324
560.939536	0.261664
561.152937	0.262038
561.366319	0.261665
561.579683	0.261852
561.793029	0.261973
562.006357	0.261906
562.219667	0.262065
562.432958	0.262288
562.646231	0.262156
562.859486	0.262831
563.072723	0.263115
563.285941	0.263812
563.499141	0.264396
563.712323	0.264997
563.925487	0.265337
564.138632	0.265737
564.351760	0.265835
564.564869	0.266005
564.777960	0.266492
564.991032	0.266518
565.204087	0.267055
565.417123	0.267026
565.630141	0.266703
565.843140	0.266858
566.056122	0.266994
566.269085	0.267635
566.482030	0.267782
566.694957	0.267487
566.907866	0.267993
567.120756	0.267645
567.333628	0.267829
567.546482	0.268567
567.759318	0.268967
567.972135	0.269220
568.184935	0.269081
568.397716	0.269461
568.610478	0.270061
568.823223	0.269957
569.035949	0.270833
569.248657	0.271124
569.461347	0.270789
569.674019	0.271135
569.886672	0.271428
570.099308	0.271524
570.311925	0.271620
570.524523	0.271280
570.737104	0.271729
570.949666	0.271725
571.162210	0.271641
571.374736	0.272424
571.587244	0.272494
571.799733	0.272533
572.012205	0.272983
572.224658	0.273311
572.437092	0.273857
572.649509	0.273742
572.861907	0.273657
573.074287	0.274226
573.286649	0.274031
573.498993	0.273825
573.711318	0.274445
573.923625	0.274760
574.135914	0.274644
574.348185	0.274519
574.560438	0.275265
574.772672	0.275866
574.984888	0.275813
575.197086	0.275961
575.409266	0.276699
575.621427	0.276710
575.833570	0.276871
576.045695	0.277365
576.257802	0.278349
576.469890	0.278044
576.681961	0.278170
576.894013	0.278440
577.106046	0.278896
577.318062	0.278772
577.530059	0.278893
577.742039	0.279066
577.954000	0.279253
578.165942	0.278633
578.377867	0.279057
578.589773	0.279242
578.801661	0.279264
579.013531	0.279143
579.225382	0.279778
579.437216	0.279524
579.649031	0.279815
579.860828	0.279745
580.072606	0.280111
580.284367	0.279847
580.496109	0.280036
580.707833	0.280312
580.919539	0.280623
581.131227	0.280577
581.342896	0.281603
581.554547	0.281457
581.766180	0.281867
581.977795	0.281942
582.189391	0.282331
582.400969	0.282618
582.612529	0.282766
582.824071	0.282959
583.035595	0.283103
583.247100	0.282926
583.458587	0.283380
583.670056	0.283403
583.881506	0.283695
584.092939	0.284045
584.304353	0.284085
584.515749	0.284677
584.727127	0.284763
584.938486	0.285315
585.149828	0.285615
585.361151	0.285554
585.572456	0.286238
585.783742	0.286447
585.995011	0.287072
586.206261	0.287169
586.417493	0.287381
586.628706	0.287691
586.839902	0.287398
587.051079	0.287831
587.262238	0.288018
587.473379	0.287790
587.684502	0.288269
587.895606	0.288162
588.106692	0.288590
588.317760	0.288390
588.528810	0.288690
588.739841	0.289227
588.950855	0.289108
589.161850	0.289306
589.372827	0.289753
589.583785	0.290358
589.794726	0.290375
590.005648	0.290289
590.216552	0.290656
590.427437	0.291034
590.638305	0.290800
590.849154	0.290927
591.059985	0.291096
591.270798	0.290733
591.481592	0.290972
591.692369	0.291137
591.903127	0.291270
592.113867	0.291481
592.324588	0.291114
592.535292	0.291635
592.745977	0.291443
592.956644	0.291716
593.167293	0.292366
593.377923	0.291731
593.588536	0.292084
593.799130	0.292587
594.009706	0.293145
594.220263	0.293874
594.430803	0.294069
594.641324	0.294580
594.851827	0.294502
595.062312	0.295043
595.272778	0.295897
595.483227	0.296145
595.693657	0.296648
595.904069	0.296546
596.114462	0.296730
596.324838	0.296155
596.535195	0.296306
596.745534	0.296962
596.955855	0.296673
597.166157	0.296069
597.376441	0.296030
597.586707	0.295679
597.796955	0.295603
598.007185	0.295612
598.217396	0.296400
598.427589	0.296886
598.637764	0.297147
598.847921	0.297387
599.058060	0.297890
599.268180	0.298556
599.478282	0.298914
599.688366	0.299264
599.898431	0.299909
600.108479	0.300052
600.318508	0.299861
600.528519	0.299854
600.738511	0.300120
600.948486	0.300251
601.158442	0.300483
601.368380	0.300737
601.578300	0.300532
601.788202	0.300267
601.998085	0.300572
602.207950	0.301055
602.417797	0.301097
602.627626	0.301205
602.837436	0.301764
603.047228	0.301907
603.257002	0.302202
603.466758	0.302780
603.676496	0.303245
603.886215	0.303427
604.095916	0.303222
604.305599	0.303507
604.515264	0.303526
604.724910	0.303304
604.934538	0.303247
605.144148	0.302956
605.353740	0.303208
605.563314	0.303363
605.772869	0.303702
605.982406	0.304272
606.191925	0.304481
606.401425	0.305136
606.610908	0.305289
606.820372	0.305599
607.029818	0.305807
607.239246	0.306017
607.448655	0.305921
607.658047	0.305809
607.867420	0.305704
608.076775	0.305814
608.286111	0.305674
608.495430	0.306100
608.704730	0.306183
608.914012	0.306638
609.123275	0.307027
609.332521	0.307120
609.541748	0.307198
609.750957	0.307676
609.960148	0.307881
610.169321	0.308280
610.378475	0.308438
610.587611	0.308302
610.796729	0.308396
611.005829	0.308232
611.214910	0.308497
611.423974	0.308683
611.633019	0.308816
611.842045	0.309233
612.051054	0.309415
612.260044	0.309374
612.469017	0.309775
612.677970	0.309954
612.886906	0.310325
613.095824	0.310796
613.304723	0.311457
613.513604	0.311389
613.722467	0.311562
613.931311	0.311424
614.140138	0.312043
614.348946	0.312150
614.557736	0.312439
614.766507	0.312508
614.975261	0.312360
615.183996	0.312408
615.392713	0.312761
615.601412	0.312577
615.810092	0.313005
616.018754	0.312819
616.227399	0.313027
616.436024	0.312958
616.644632	0.312704
616.853222	0.313393
617.061793	0.313460
617.270346	0.313826
617.478880	0.314199
617.687397	0.314352
617.895895	0.314419
618.104375	0.314597
618.312837	0.314913
618.521281	0.315487
618.729706	0.315332
618.938113	0.315565
619.146502	0.315279
619.354873	0.315321
619.563226	0.315007
619.771560	0.315626
619.979876	0.315753
620.188174	0.315915
620.396453	0.315985
620.604715	0.316088
620.812958	0.316227
621.021183	0.316688
621.229390	0.316920
621.437578	0.317361
621.645748	0.317227
621.853900	0.317433
622.062034	0.317368
622.270150	0.317514
622.478247	0.317341
622.686326	0.317455
622.894387	0.317372
623.102430	0.317171
623.310454	0.317344
623.518461	0.317355
623.726449	0.317524
623.934418	0.317516
624.142370	0.317726
624.350303	0.317778
624.558218	0.317919
624.766115	0.318400
624.973994	0.318788
625.181855	0.318843
625.389697	0.319178
625.597521	0.319400
625.805327	0.319995
626.013114	0.320214
626.220883	0.320675
626.428634	0.320747
626.636367	0.320705
626.844082	0.320747
627.051778	0.321360
627.259457	0.321695
627.467117	0.321979
627.674758	0.322121
627.882382	0.321984
628.089987	0.322156
628.297574	0.322174
628.505143	0.322602
628.712694	0.323017
628.920226	0.322818
629.127740	0.323017
629.335236	0.323005
629.542714	0.323079
629.750174	0.323655
629.957615	0.323954
630.165038	0.324318
630.372443	0.324316
630.579829	0.324614
630.787198	0.325044
630.994548	0.325173
631.201880	0.325385
631.409194	0.325788
631.616489	0.325789
631.823766	0.326195
632.031025	0.326257
632.238266	0.326408
632.445489	0.326566
632.652693	0.326700
632.859879	0.326773
633.067047	0.326910
633.274197	0.326982
633.481329	0.327178
633.688442	0.327046
633.895537	0.327515
634.102614	0.327785
634.309672	0.327714
634.516713	0.327473
634.723735	0.327839
634.930739	0.328121
635.137724	0.328246
635.344692	0.328194
635.551641	0.328700
635.758572	0.328785
635.965485	0.328855
636.172379	0.329330
636.379256	0.329850
636.586114	0.330168
636.792954	0.330189
636.999775	0.330191
637.206579	0.330501
637.413364	0.330563
637.620131	0.330586
637.826880	0.331048
638.033610	0.331064
638.240323	0.331229
638.447017	0.331003
638.653692	0.331306
638.860350	0.331548
639.066990	0.331857
639.273611	0.331992
639.480214	0.332329
639.686798	0.332479
639.893365	0.332475
640.099913	0.332984
640.306443	0.333572
640.512955	0.333689
640.719449	0.334230
640.925924	0.334734
641.132381	0.335212
641.338820	0.335535
641.545241	0.335682
641.751644	0.336126
641.958028	0.336113
642.164394	0.336227
642.370742	0.336375
642.577071	0.336493
642.783383	0.336414
642.989676	0.336280
643.195951	0.336197
643.402207	0.336091
643.608446	0.336108
643.814666	0.336442
644.020868	0.336566
644.227052	0.336622
644.433218	0.336563
644.639365	0.336534
644.845494	0.336727
645.051605	0.337135
645.257698	0.337184
645.463772	0.337519
645.669828	0.337444
645.875866	0.337370
646.081886	0.337909
646.287888	0.338229
646.493871	0.338833
646.699836	0.338713
646.905783	0.338998
647.111712	0.339533
647.317622	0.339792
647.523514	0.339910
647.729388	0.340360
647.935244	0.340416
648.141082	0.340669
648.346901	0.340568
648.552702	0.341145
648.758485	0.341238
648.964250	0.341432
649.169996	0.341600
649.375724	0.342059
649.581434	0.342180
649.787126	0.342350
649.992800	0.342697
650.198455	0.343185
650.404092	0.343510
650.609711	0.343553
650.815311	0.343981
651.020894	0.344269
651.226458	0.344449
651.432004	0.344851
651.637532	0.345230
651.843041	0.345094
652.048532	0.345104
652.254006	0.345207
652.459460	0.345265
652.664897	0.345269
652.870315	0.345791
653.075716	0.346155
653.281097	0.346228
653.486461	0.346186
653.691807	0.346481
653.897134	0.346759
654.102443	0.346806
654.307734	0.347147
654.513006	0.347321
654.718261	0.347313
654.923497	0.347333
655.128715	0.347640
655.333915	0.348123
655.539096	0.348432
655.744259	0.348738
655.949404	0.349229
656.154531	0.349539
656.359640	0.350037
656.564730	0.350196
656.769802	0.350463
656.974856	0.350803
657.179892	0.351190
657.384909	0.351423
657.589908	0.351341
657.794889	0.351692
657.999852	0.352070
658.204797	0.352154
658.409723	0.352430
658.614631	0.352765
658.819521	0.352875
659.024393	0.353010
659.229246	0.353306
659.434081	0.354028
659.638898	0.354090
659.843697	0.354018
660.048478	0.354280
660.253240	0.354534
660.457984	0.354531
660.662710	0.354706
660.867417	0.354959
661.072107	0.355092
661.276778	0.355161
661.481431	0.355311
661.686066	0.355927
661.890682	0.355988
662.095281	0.356067
662.299861	0.356582
662.504422	0.356823
662.708966	0.357250
662.913491	0.357614
663.117999	0.357762
663.322488	0.358035
663.526958	0.357870
663.731411	0.358322
663.935845	0.358643
664.140261	0.358717
664.344659	0.358864
664.549038	0.358816
664.753400	0.358616
664.957743	0.359058
665.162068	0.359391
665.366375	0.360035
665.570663	0.360382
665.774933	0.360802
665.979185	0.360980
666.183419	0.361326
666.387635	0.361606
666.591832	0.362237
666.796011	0.362319
667.000172	0.362325
667.204315	0.362394
667.408439	0.362510
667.612545	0.362575
667.816634	0.363045
668.020703	0.363219
668.224755	0.363444
668.428788	0.363660
668.632803	0.363844
668.836800	0.364314
669.040779	0.364567
669.244739	0.364932
669.448681	0.365419
669.652605	0.365744
669.856511	0.366162
670.060399	0.366445
670.264268	0.366670
670.468119	0.366683
670.671952	0.367064
670.875767	0.367309
671.079563	0.367536
671.283341	0.367596
671.487101	0.367960
671.690843	0.368384
671.894567	0.368708
672.098272	0.369003
672.301959	0.369737
672.505628	0.369891
672.709278	0.370236
672.912911	0.370229
673.116525	0.370582
673.320121	0.370441
673.523699	0.370412
673.727258	0.370526
673.930799	0.370785
674.134322	0.371021
674.337827	0.371114
674.541314	0.371372
674.744782	0.371839
674.948232	0.371758
675.151664	0.372077
675.355078	0.372454
675.558474	0.372879
675.761851	0.372943
675.965210	0.373158
676.168551	0.373328
676.371873	0.373730
676.575178	0.373895
676.778464	0.374667
676.981732	0.375104
677.184981	0.375263
677.388213	0.375491
677.591426	0.375740
677.794621	0.375795
677.997798	0.376379
678.200956	0.376208
678.404097	0.376748
678.607219	0.376750
678.810323	0.376710
679.013408	0.376931
679.216476	0.377026
679.419525	0.377505
679.622556	0.377891
679.825569	0.377829
680.028563	0.378266
680.231540	0.378149
680.434498	0.378282
680.637438	0.378659
680.840359	0.378995
681.043263	0.379252
681.246148	0.379403
681.449015	0.379591
681.651864	0.380026
681.854694	0.380254
682.057506	0.380505
682.260301	0.380951
682.463076	0.381112
682.665834	0.381279
682.868573	0.381544
683.071295	0.381795
683.273998	0.381949
683.476682	0.382189
683.679349	0.382313
683.881997	0.382442
684.084627	0.382718
684.287239	0.383032
684.489833	0.383379
684.692408	0.383578
684.894965	0.383853
685.097504	0.383941
685.300025	0.384191
685.502527	0.384527
685.705012	0.384811
685.907478	0.384791
686.109925	0.385062
686.312355	0.385118
686.514766	0.385515
686.717159	0.385825
686.919534	0.386325
687.121891	0.386500
687.324230	0.386835
687.526550	0.387016
687.728852	0.387503
687.931136	0.387878
688.133401	0.388450
688.335649	0.388665
688.537878	0.388884
688.740089	0.389251
688.942281	0.389263
689.144456	0.389460
689.346612	0.390080
689.548750	0.389994
689.750870	0.390187
689.952971	0.390187
690.155055	0.390453
690.357120	0.390395
690.559167	0.390208
690.761195	0.390769
690.963206	0.391123
691.165198	0.391229
691.367172	0.391500
691.569128	0.391450
691.771065	0.391697
691.972984	0.391738
692.174885	0.392147
692.376768	0.392722
692.578633	0.392878
692.780479	0.392919
692.982308	0.393221
693.184118	0.393548
693.385909	0.393982
