sample name	sample
index	841
start time	 04-05-2021  11:00:20 AM
880	0.388367
Peak Time (s)	92.037
Peak Height 	0.3884
calc peak height	90,93
Baseline Time (s)	8.537
Baseline Value 	-0.005652
subtract baseline	10,4
Abs	0.301030
Peak Time (s)	91.035
Peak Height 	0.301
calc peak height	90,93
Baseline Time (s)	8.537
Baseline Value 	0.001762
subtract baseline	10,3
PK_550	0.162295
Peak Time (s)	92.537
Peak Height 	0.1623
calc peak height	90,93
Baseline Time (s)	10.536
Baseline Value 	7.2397E-4
subtract baseline	10,2
PK_880	0.282863
Peak Time (s)	92.537
Peak Height 	0.2829
calc peak height	90,93
Baseline Time (s)	9.536
Baseline Value 	0.003089
subtract baseline	10,1


Time (s)	A880-A510	A880-A775	A880-A975	A880	I510	I775	I975	I880	
0.035500	-0.003218	-0.000646	0.000342	0.002762	6602.855951	40376.502472	3846.583893	21829.619962
0.535500	-0.004152	-0.000942	-0.006660	0.004798	6576.741509	40175.256891	3823.654033	21740.401903
1.036000	-0.005224	-0.001577	-0.007676	0.003669	6577.240287	40217.760023	3823.936460	21789.825218
1.536500	-0.003420	-0.000302	-0.004549	0.007771	6557.165781	39975.058664	3821.493137	21610.923839
2.035500	-0.001738	-0.001491	-0.002287	0.001185	6629.923186	40439.926761	3843.893691	21899.036574
2.537000	-0.000714	0.000158	-0.006856	0.001913	6632.554828	40519.814109	3830.426928	21866.954983
3.034000	0.000226	0.000055	-0.001315	-0.000530	6662.739291	40723.524691	3850.784483	21974.741393
3.538000	-0.004408	-0.000998	-0.004889	0.006065	6563.418421	40061.583449	3824.920536	21685.097344
4.035000	0.001031	-0.000365	-0.000102	0.000383	6661.776716	40607.338529	3851.557898	21934.411152
4.535000	-0.002459	-0.000501	0.000375	-0.000633	6639.675772	40683.987743	3855.408739	21979.309438
5.034500	0.000383	-0.000163	0.001643	-0.000540	6664.243383	40705.458882	3858.449654	21975.223374
5.538000	-0.000875	-0.000531	0.001142	-0.000237	6650.279863	40646.873573	3856.367133	21961.805490
6.036000	-0.000364	-0.000582	-0.001365	0.000014	6652.595884	40620.586306	3849.257639	21950.705589
6.536500	0.001125	-0.000496	-0.002852	-0.000298	6668.723248	40655.284986	3846.240461	21964.488499
7.036500	-0.002617	-0.000815	0.002578	-0.000609	6638.056410	40654.576711	3861.052927	21978.249426
7.537000	-0.000684	-0.000477	-0.001163	-0.000319	6652.713575	40658.701960	3850.631504	21965.414263
8.037000	-0.000328	-0.000705	-0.001303	-0.000385	6656.483094	40644.646903	3850.443151	21968.334642
8.537000	0.000414	0.000439	0.000000	0.000000	6659.679080	40710.875748	3852.807205	21951.322030
9.035000	-0.001272	-0.000844	0.003733	-0.000861	6652.302695	40674.003956	3864.712936	21989.413369
9.535500	0.000000	-0.000139	0.000843	-0.000262	6658.322324	40683.217487	3855.658252	21962.904545
10.035500	0.000015	-0.000916	-0.002003	-0.000427	6659.936844	40629.920778	3848.752897	21970.208153
10.536000	0.001205	0.000000	0.007415	0.000506	6662.236462	40628.417746	3870.762078	21928.962825
11.036000	-0.000264	0.000068	-0.002620	0.000024	6653.399365	40676.324304	3846.010933	21950.257146
11.536500	-0.000435	0.000726	-0.002186	0.000722	6645.647376	40672.951696	3845.337444	21919.453530
12.040500	-0.001617	0.000009	-0.000064	0.004885	6598.246291	40249.700950	3840.120691	21736.599653
12.537000	-0.000734	-0.000866	0.000906	0.000139	6648.173927	40585.008419	3854.785290	21945.171323
13.034500	0.000927	-0.000675	0.002218	-0.000256	6666.578625	40635.987142	3859.204892	21962.646065
13.535000	0.002661	0.000436	0.001183	0.001715	6664.451838	40561.155611	3851.436851	21875.668139
14.034500	-0.002121	-0.000674	-0.001448	0.004102	6600.715527	40258.340588	3838.589784	21770.865935
14.535500	-0.000326	0.000732	0.000584	0.004162	6616.040251	40374.565641	3843.619011	21768.232075
15.039000	-0.001669	0.000497	0.002114	0.000803	6633.929124	40645.848340	3856.191018	21915.844214
15.535500	-0.001897	0.000777	0.001068	0.001160	6628.737877	40639.146650	3852.571066	21900.139211
16.036000	-0.000916	-0.000383	-0.000144	0.006566	6589.629407	40071.339305	3835.641961	21663.292195
16.537000	-0.002286	-0.000814	0.001876	-0.000257	6637.874290	40624.038253	3858.321704	21962.699215
17.037000	0.001677	-0.000059	0.001380	-0.002021	6689.196282	40843.956202	3861.608226	22040.841378
17.539500	-0.000624	-0.000493	-0.001779	0.001892	6633.534153	40465.122768	3843.382115	21867.874516
18.037500	-0.001658	-0.000007	0.000154	0.003378	6611.190070	40378.497567	3844.526451	21802.593537
18.535000	-0.000586	0.000339	-0.000937	0.002425	6629.139024	40491.040581	3844.172657	21844.442460
19.038500	-0.000764	0.000275	0.002514	0.002669	6625.393567	40464.279286	3852.407793	21833.700306
19.535000	0.000894	0.001041	-0.001400	0.003245	6635.001485	40480.785868	3840.894329	21808.411885
20.035000	-0.001433	-0.000264	0.004545	0.003749	6609.903474	40324.161910	3854.860119	21786.320462
20.536000	-0.001223	-0.000068	-0.002065	0.002098	6626.384305	40484.149705	3842.126353	21858.811106
21.036500	-0.000934	-0.000774	0.001761	0.001944	6630.326606	40436.247249	3852.335220	21865.606078
21.536500	0.000503	0.000045	-0.002553	0.002535	6637.846967	40456.090751	3839.767636	21839.619662
22.037000	-0.001624	0.000071	-0.004150	0.003405	6611.253164	40382.917417	3833.500310	21801.419732
22.537500	-0.001852	-0.000442	0.000478	0.002152	6620.322876	40446.923473	3848.498718	21856.422704
23.035000	-0.002297	-0.000588	-0.002103	0.001790	6619.595436	40465.783838	3842.816143	21872.383995
23.535000	-0.002692	-0.000604	-0.004522	0.002122	6613.153611	40435.561679	3835.809210	21857.764178
24.035000	-0.000490	-0.000600	0.000563	0.001798	6635.562419	40464.015704	3849.626238	21872.008048
24.535500	-0.000292	0.000610	0.001535	0.003096	6625.791009	40456.385864	3848.791060	21814.963117
25.035500	-0.002844	-0.000118	-0.003052	0.002105	6611.967215	40479.193462	3839.591832	21858.510810
25.535500	0.000849	0.000422	-0.001486	0.002537	6640.912614	40488.602075	3842.484210	21839.528460
26.037000	-0.002316	0.000194	-0.003661	0.002311	6614.807707	40488.394468	3837.516368	21849.441442
26.537000	-0.002247	-0.000243	-0.001723	0.002258	6615.897855	40455.096829	3842.593225	21851.796483
27.037500	0.000757	-0.000895	0.002705	-0.000480	6667.053786	40636.344164	3861.049244	21972.544001
27.537500	0.000971	-0.000042	0.001467	0.001414	6652.013853	40545.758143	3852.942815	21888.914955
28.035000	-0.000680	0.000648	0.004981	0.000789	6642.859702	40660.288031	3863.668439	21916.492542
28.535000	-0.003382	-0.000558	0.003714	0.000427	6622.061115	40586.730630	3861.314611	21932.468605
29.035000	-0.000731	0.000124	0.002596	0.000431	6645.597177	40645.754736	3858.403900	21932.291702
29.536000	-0.000665	0.000091	0.000496	0.001692	6634.956079	40533.213607	3849.728040	21876.687778
30.036000	-0.000553	0.000300	0.002048	0.000920	6642.830650	40618.536956	3855.719413	21910.707196
30.536500	-0.002008	-0.000329	0.002442	0.003851	6603.923816	40309.835452	3849.181898	21781.881134
31.036500	0.000728	-0.000086	0.003550	0.003476	6631.476834	40363.227267	3852.998260	21798.299530
31.536500	0.000024	0.000381	0.002231	0.002149	6637.016609	40518.625710	3853.016748	21856.558005
32.040500	-0.002400	-0.000431	-0.000547	0.006575	6576.528213	40066.487085	3834.595966	21662.916492
32.534500	0.001898	-0.000014	0.004415	0.000496	6668.544191	40628.066913	3862.957235	21929.421861
33.034500	-0.000015	-0.000469	0.002215	0.000487	6651.493878	40589.257724	3857.270150	21929.802078
33.535500	-0.000857	-0.000043	0.001927	-0.000100	6649.217137	40677.501973	3858.045596	21955.762382
34.035000	-0.000205	-0.000309	0.004545	0.004012	6618.435375	40297.605970	3854.182275	21774.798047
34.536000	-0.000264	0.000226	0.001539	0.003725	6620.462702	40368.662169	3847.185996	21787.391151
35.036500	-0.001319	0.000042	0.003349	0.003909	6609.492889	40336.811385	3851.362625	21779.300424
35.536500	-0.002498	-0.000664	-0.002631	0.002947	6607.580239	40358.905196	3838.518640	21821.493559
36.036500	-0.001762	0.000374	0.004500	0.004167	6603.310212	40343.188115	3853.667394	21768.032732
36.537500	-0.000605	-0.000378	-0.000039	0.003560	6618.898678	40330.689045	3843.566491	21794.603703
37.037500	-0.000702	-0.000576	0.000726	0.003130	6621.846435	40350.715653	3846.626342	21813.457098
37.537500	-0.000807	0.000192	0.002452	0.003612	6616.654793	40375.486009	3849.819101	21792.329758
38.035000	-0.000429	0.000481	-0.001263	0.004341	6613.549225	40337.467090	3838.455156	21760.429554
38.535500	-0.001375	0.000418	0.003882	0.003749	6610.414456	40383.230731	3853.150103	21786.342901
39.035500	0.000227	0.000800	0.002066	0.004016	6622.230092	40393.062961	3847.789167	21774.615516
39.536000	-0.000190	0.000532	0.000687	0.003734	6621.040040	40394.343847	3844.979811	21786.980911
40.036000	0.001284	0.000388	-0.000280	0.003791	6633.619728	40376.982431	3842.362044	21784.510572
40.539500	-0.000979	-0.000595	0.003358	0.002387	6625.985381	40413.355532	3855.313168	21846.086880
41.037000	-0.000977	-0.000421	-0.001414	0.003727	6614.135209	40312.602892	3839.632026	21787.308702
41.540000	0.001123	0.000263	0.004766	0.003793	6632.175964	40365.980698	3855.319262	21784.416355
42.037000	-0.001729	-0.000411	0.002705	0.003823	6606.633029	40305.102582	3849.928786	21783.098405
42.535000	-0.002774	-0.000591	0.001323	0.003036	6604.358067	40357.569762	3848.400221	21817.594418
43.035500	-0.000117	-0.000537	-0.002121	0.003155	6626.826560	40351.951679	3839.288371	21812.397720
43.535500	0.000557	0.000756	0.002634	0.003403	6630.607888	40442.443729	3850.825504	21801.504922
44.036000	-0.000532	-0.000267	0.000906	0.004487	6611.349165	40260.213916	3843.614724	21754.030020
44.536000	-0.000402	-0.000384	0.000706	0.000832	6644.953237	40566.667363	3852.482398	21914.589069
45.036500	0.002006	0.000161	0.003160	0.001622	6659.418599	40545.387828	3856.779609	21879.781996
45.536500	0.001278	-0.000022	0.005362	0.000958	6658.841508	40587.187042	3864.217730	21909.025718
46.039500	-0.003469	0.000605	0.000146	0.007960	6555.086476	40036.500493	3832.842364	21602.694138
46.536500	0.000126	0.000214	0.003504	0.001068	6647.569068	40598.136498	3859.105860	21904.194350
47.035000	0.000661	0.000511	0.000484	0.003592	6629.849567	40404.787453	3844.822632	21793.211423
47.535500	-0.002843	0.000188	-0.000912	0.004402	6591.712715	40306.878278	3839.193178	21757.757910
48.035000	-0.001759	0.000642	-0.000985	0.007050	6577.981661	40117.890305	3832.282332	21642.237260
48.535500	0.000834	-0.000090	0.001004	0.001490	6650.114740	40534.997470	3851.555712	21885.588911
49.036500	0.001721	0.000964	0.001633	0.001756	6655.668695	40603.506947	3852.489542	21873.862549
49.536500	0.002366	-0.000192	0.001128	-0.000369	6680.518725	40687.925180	3856.673142	21967.638066
50.037000	-0.002036	-0.000807	-0.001593	0.002823	6612.764371	40357.312533	3841.480286	21826.965648
50.537500	0.000795	0.000202	0.010053	0.006766	6602.939056	40104.456291	3861.314766	21654.598507
51.037500	-0.053074	-0.012685	0.021123	0.161564	5141.170585	28155.934638	3543.456329	15988.116231
51.535000	-0.053554	-0.012593	0.010306	0.120975	5370.453027	30645.808897	3600.951077	17284.444768
52.036500	-0.043554	-0.016138	-0.018688	-0.127792	7487.484442	51775.118655	4172.563408	28518.508332
52.535500	-0.037867	-0.029873	-0.023359	-0.213392	8590.670627	60588.281327	4467.403850	34131.381725
53.035500	-0.039391	-0.058563	-0.007997	-0.264169	9289.505799	63603.330837	4752.685331	38022.849498
53.536000	-0.024835	-0.036585	-0.005111	-0.225897	8943.107983	61364.281708	4594.660102	35047.963662
54.036000	-0.014243	-0.020879	-0.002070	-0.189480	8586.814347	58637.079633	4456.964783	32450.605283
54.536000	-0.008739	-0.016789	-0.000008	-0.162715	8308.976342	55796.623009	4361.651589	30675.778038
55.037000	0.002504	-0.011277	-0.004753	-0.176543	8638.063511	58209.992489	4396.068629	31579.080761
55.540000	0.025383	-0.003662	0.010944	-0.173298	8909.370509	58770.222087	4444.433796	31364.482708
56.034500	0.035833	0.004486	0.017813	-0.155175	8801.873182	57499.342096	4400.657871	30195.197413
56.535000	0.052899	0.013252	0.034731	-0.133138	8733.230810	55853.176015	4381.119192	28837.599424
57.035500	0.065292	0.022023	0.052089	-0.098842	8440.020008	52825.049934	4318.087549	26857.196318
57.535500	0.074227	0.031171	0.064199	-0.061353	8079.308910	49664.798593	4228.124327	24863.976761
58.035500	0.085874	0.038805	0.074045	-0.022520	7757.231170	46416.247448	4131.602778	22972.959956
58.536500	0.095341	0.046998	0.088920	0.020753	7383.857477	43031.769728	4043.086993	21055.634638
59.036500	0.113418	0.057643	0.105720	0.059348	7171.001419	40524.095970	3978.970124	19499.506068
59.536500	0.117317	0.063044	0.120491	0.086280	6943.750949	38699.573134	3944.571573	18492.724629
60.037000	0.125250	0.069250	0.131146	0.131212	6603.019197	35637.072470	3852.637098	16945.985603
60.537000	0.137284	0.074928	0.141319	0.133470	6690.238454	35896.590815	3873.224250	16872.375359
61.035000	0.144161	0.081205	0.151428	0.146850	6632.002886	35359.682813	3864.671382	16444.101819
61.535000	0.159285	0.090279	0.169618	0.175424	6514.266399	33930.110580	3837.938088	15572.472823
62.035000	0.160054	0.090045	0.170478	0.196990	6339.255288	32406.103367	3786.503379	14951.577172
62.536000	0.167662	0.093876	0.172416	0.171603	6620.889344	34466.488158	3854.906630	15685.761703
63.035500	0.173085	0.097671	0.177879	0.178955	6603.823368	34208.140690	3850.036235	15468.690868
63.536000	0.178901	0.098930	0.181974	0.180538	6641.367962	34184.741126	3856.516497	15422.463711
64.036500	0.175362	0.099380	0.180344	0.190275	6524.853000	33520.711973	3827.495406	15141.626309
64.537000	0.183839	0.103847	0.188553	0.190746	6594.681767	33804.634917	3847.167526	15128.187125
65.040000	0.187492	0.105890	0.189717	0.196275	6578.212003	33556.852985	3836.027394	14971.683605
65.537500	0.191451	0.106864	0.198403	0.200764	6573.565089	33308.946944	3846.736562	14846.070122
66.035000	0.189258	0.108179	0.190694	0.210398	6471.419982	32730.095258	3803.146822	14580.826153
66.536500	0.194324	0.110690	0.198245	0.209680	6521.029971	32953.429339	3823.713610	14600.384669
67.035500	0.196712	0.111737	0.198007	0.216809	6480.311231	32534.073494	3805.369550	14407.536202
67.536000	0.201664	0.115001	0.207196	0.219591	6498.895825	32567.075928	3821.302684	14333.133332
68.036000	0.201627	0.116090	0.205655	0.230123	6409.279170	31926.927854	3791.472942	14055.758749
68.535500	0.205749	0.117669	0.211909	0.229186	6451.902853	32096.072636	3809.141345	14080.157209
69.036500	0.206247	0.118573	0.214544	0.238234	6380.154221	31551.912123	3793.369142	13846.672997
69.536500	0.211382	0.121654	0.216625	0.240975	6400.097844	31574.372257	3791.757847	13776.885761
70.037000	0.212516	0.121741	0.219303	0.250840	6327.870395	30933.789781	3774.385470	13529.360518
70.536500	0.218498	0.123056	0.219924	0.249792	6385.919595	31087.339724	3778.396124	13555.410762
71.035000	0.215375	0.124401	0.224973	0.258231	6290.956155	30629.016998	3770.268212	13347.578048
71.535500	0.220657	0.126703	0.232872	0.260223	6317.719725	30648.928085	3784.471414	13299.112713
72.035500	0.216251	0.126343	0.229146	0.269123	6210.717866	30061.400231	3754.348212	13085.245888
72.535500	0.222063	0.128739	0.232335	0.270210	6248.337709	30143.641929	3759.299598	13059.412132
73.036000	0.222908	0.129421	0.229886	0.279371	6182.394669	29615.020590	3732.234216	12844.349178
73.536500	0.230229	0.131717	0.238023	0.280205	6233.719922	29705.394921	3749.172926	12824.981976
74.037000	0.227656	0.132733	0.235077	0.290806	6130.277645	29118.194279	3717.973072	12582.190972
74.540000	0.234410	0.135678	0.244645	0.290727	6183.539215	29302.037592	3740.090684	12583.960917
75.037000	0.231660	0.135147	0.242855	0.299740	6092.369554	28726.014777	3715.354703	12382.116534
75.538000	0.238401	0.137439	0.246334	0.299821	6143.682504	28858.332207	3723.069467	12380.306614
76.035500	0.238567	0.138741	0.251055	0.303981	6112.814277	28687.405650	3724.347916	12288.555404
76.535500	0.239454	0.138589	0.249552	0.307154	6095.264741	28489.931666	3713.733269	12219.158527
77.035500	0.239621	0.139897	0.252609	0.317096	6021.294162	27984.295777	3698.312830	12004.990620
77.536000	0.245120	0.142280	0.259319	0.316521	6067.069758	28156.454771	3714.637336	12017.245949
78.036500	0.248993	0.142279	0.258346	0.320128	6069.084339	27946.626225	3704.342900	11940.644127
78.537000	0.247615	0.143559	0.262169	0.323698	6031.728387	27814.414961	3704.908268	11865.456184
79.039500	0.247767	0.143593	0.263182	0.333487	5960.177784	27258.826423	3685.469447	11662.418895
79.537000	0.249411	0.145139	0.264226	0.331416	5987.567606	27463.361956	3692.323488	11704.979432
80.035000	0.253501	0.145799	0.265660	0.335381	5988.496782	27276.347948	3686.749101	11623.648633
80.535000	0.254427	0.147195	0.275321	0.339045	5968.273655	27148.886071	3700.007371	11549.145717
81.035500	0.252436	0.147527	0.267468	0.347868	5889.664018	26677.540277	3663.589042	11372.323125
81.535500	0.258690	0.149760	0.273078	0.346393	5945.645968	26882.234436	3678.892117	11401.624664
82.035500	0.259667	0.148933	0.269761	0.353823	5898.837981	26428.700574	3655.777949	11254.975377
82.536000	0.260424	0.150287	0.277897	0.352617	5913.001655	26568.379300	3675.838050	11278.604310
83.038500	0.258889	0.150514	0.272633	0.360518	5845.475420	26152.100748	3647.689027	11124.945365
83.536500	0.262641	0.152059	0.276769	0.358046	5889.854981	26369.096313	3661.711243	11172.727513
84.037000	0.261204	0.151586	0.274742	0.364628	5832.799929	25989.328192	3643.488144	11046.132075
84.534500	0.263182	0.154195	0.283311	0.362824	5859.578124	26226.169218	3665.491542	11080.640691
85.034500	0.264793	0.154242	0.279498	0.371111	5812.471760	25785.917191	3639.874784	10923.295726
85.534500	0.267959	0.155185	0.287503	0.367313	5861.624474	26038.178372	3664.852687	10995.023524
86.035500	0.266297	0.155240	0.285411	0.373811	5804.103451	25695.977849	3646.606814	10872.673669
86.535500	0.270029	0.155671	0.285536	0.370273	5855.304343	25906.180610	3654.345402	10939.069315
87.036000	0.266806	0.154818	0.281692	0.378034	5778.281902	25452.452417	3630.054966	10794.133089
87.536500	0.270294	0.157196	0.285159	0.373849	5831.880586	25797.316467	3645.998170	10871.961421
88.036000	0.275886	0.159176	0.287956	0.376882	5849.968526	25741.620895	3645.501019	10815.479896
88.539500	0.275881	0.158958	0.290304	0.377064	5848.636178	25720.523807	3650.062461	10812.099465
89.040000	0.272360	0.158128	0.295403	0.384071	5774.942681	25310.623798	3646.044905	10683.164299
89.536500	0.276313	0.159110	0.295292	0.379193	5836.642968	25616.425879	3656.120400	10772.710447
90.039500	0.278987	0.160723	0.294644	0.380981	5842.896052	25607.210939	3650.954513	10739.756127
90.535000	0.277669	0.161256	0.298128	0.381911	5827.045327	25586.427916	3656.369397	10722.692260
91.035500	0.277635	0.160294	0.301030	0.388344	5781.877306	25201.672405	3648.894232	10605.544519
91.536000	0.280270	0.160520	0.295992	0.382943	5838.098096	25493.776121	3649.659900	10703.769140
92.036500	0.278495	0.161927	0.298234	0.388367	5787.687690	25284.873693	3642.970543	10605.133736
92.536500	0.282863	0.162295	0.296367	0.385419	5838.925836	25457.187650	3645.236925	10658.586803
93.039500	0.278720	0.161048	0.295681	0.390356	5775.457221	25136.905320	3633.504140	10569.260664
93.536500	0.280965	0.163288	0.299813	0.385943	5821.860997	25481.668716	3651.392758	10649.054283
94.126000	0.285382	0.163615	0.296580	0.386802	5846.956290	25453.922069	3642.783016	10633.457115
94.534500	0.282196	0.163637	0.300163	0.387285	5821.089484	25429.878079	3649.298446	10624.709399
95.034500	0.280414	0.163683	0.300828	0.393883	5762.798578	25091.051170	3636.868813	10506.055579
95.537000	0.283137	0.163838	0.306233	0.388112	5821.889258	25397.298951	3660.426476	10609.737999
96.035500	0.282226	0.165181	0.297804	0.394045	5774.189548	25159.730386	3630.262857	10503.167087
96.536000	0.284967	0.164714	0.302095	0.388888	5829.301564	25402.508504	3649.993348	10595.719675
