sample name	sample
index	1480
start time	 05-18-2021  12:30:06 PM
880	0.480679
Peak Time (s)	92.038
Peak Height 	0.4807
calc peak height	90,93
Baseline Time (s)	11.034
Baseline Value 	-0.002253
subtract baseline	10,4
Abs	0.305043
Peak Time (s)	91.538
Peak Height 	0.305
calc peak height	90,93
Baseline Time (s)	11.034
Baseline Value 	4.7089E-4
subtract baseline	10,3
PK_550	0.177885
Peak Time (s)	92.038
Peak Height 	0.1779
calc peak height	90,93
Baseline Time (s)	8.549
Baseline Value 	3.2047E-4
subtract baseline	10,2
PK_880	0.288262
Peak Time (s)	92.038
Peak Height 	0.2883
calc peak height	90,93
Baseline Time (s)	10.537
Baseline Value 	-4.519E-4
subtract baseline	10,1


Time (s)	A880-A510	A880-A775	A880-A975	A880	I510	I775	I975	I880	
0.034000	-0.001307	-0.001175	-0.001903	0.000547	6569.555148	44679.622497	3967.076563	23375.721245
0.537500	-0.002550	-0.000356	-0.003465	0.005928	6513.992231	44243.338192	3949.790357	23123.524841
1.037500	-0.001170	-0.001030	-0.006659	0.002420	6554.914288	44513.819212	3950.566406	23287.595956
1.535000	0.002112	0.000155	-0.001753	0.001049	6594.291786	44759.381084	3966.194512	23352.067736
2.035500	0.001180	0.000817	0.003544	0.000886	6587.752973	44838.914669	3979.972620	23359.737453
2.535500	-0.003227	-0.000754	-0.001330	0.006099	6506.944363	44189.236729	3954.651216	23115.566078
3.036000	0.003028	0.000093	-0.000788	-0.001521	6624.062355	45001.589446	3975.093962	23473.468966
3.536500	0.001934	0.000531	-0.000034	0.001205	6591.445958	44780.512632	3970.119578	23344.698612
4.036500	0.000730	0.000068	-0.002267	0.000457	6587.579451	44808.081556	3966.389096	23379.991765
4.536500	-0.001929	-0.000834	-0.003262	0.002284	6549.669185	44545.720424	3959.335582	23293.989081
5.036500	0.000868	-0.000145	-0.001087	0.000259	6590.433036	44806.570595	3969.852714	23389.333934
5.540000	0.000445	-0.000636	-0.001050	-0.000022	6589.220355	44786.368442	3970.650916	23402.592573
6.034500	0.002288	0.000473	-0.000080	0.000176	6603.226712	44874.217053	3972.596778	23393.238551
6.535000	0.000548	-0.000469	-0.001586	-0.000576	6594.806474	44855.882826	3970.697272	23428.749271
7.035500	0.002488	0.000162	-0.002476	0.000111	6605.484234	44850.471106	3966.733286	23396.293566
7.535500	0.000352	0.000833	0.000713	0.000064	6587.698031	44919.813224	3974.882611	23398.522151
8.036000	0.000747	-0.000070	0.003186	0.000045	6591.214727	44834.400537	3981.198929	23399.408780
8.548500	0.001556	0.000000	0.002397	-0.000108	6599.407982	44855.969491	3979.583657	23406.634927
9.037000	-0.000898	-0.000030	0.001175	-0.000045	6578.019903	44847.020239	3976.324781	23403.655319
9.540000	0.000812	0.000337	-0.002947	0.000378	6588.938677	44841.600442	3964.880964	23383.686953
10.037000	-0.001075	-0.000492	-0.001111	-0.000493	6580.320361	44845.602461	3971.683914	23424.829256
10.537000	0.000000	-0.000003	-0.003025	0.001694	6570.905531	44682.109526	3961.395932	23321.707659
11.034500	-0.000184	0.000758	0.000000	0.000000	6583.691895	44918.803317	3973.242621	23401.536983
11.535500	0.001192	0.000222	0.002802	0.000132	6594.266193	44854.288571	3980.003657	23395.313329
12.035500	0.001656	0.000832	-0.001955	0.000189	6597.728984	44907.655776	3967.846294	23392.629809
12.535500	0.002607	-0.000220	0.002245	-0.000015	6607.570802	44825.683409	3978.961483	23402.226761
13.042000	0.001589	0.000083	0.001643	-0.000481	6602.862226	44900.077059	3978.616554	23424.264187
13.536500	0.000885	-0.000247	0.002761	-0.000384	6596.038770	44858.724223	3981.208551	23419.674007
14.042000	0.000376	0.000355	-0.000613	0.002706	6565.526037	44619.216649	3964.896955	23274.135684
14.537500	-0.000224	-0.000283	-0.003286	0.003046	6557.601515	44525.400222	3957.376638	23258.204415
15.037000	0.002402	0.000066	0.003289	-0.000256	6607.886473	44876.627763	3982.226143	23413.630235
15.535000	0.001554	-0.000459	-0.000633	-0.000969	6606.736096	44894.804316	3974.091983	23447.348486
16.035000	0.004217	0.000344	-0.002354	-0.000259	6623.433978	44903.773802	3967.967478	23413.748633
16.535500	0.000502	-0.000468	-0.002166	0.001022	6580.848142	44702.042256	3965.227546	23353.358617
17.036000	0.003756	-0.000273	0.001590	-0.003458	6646.994102	45154.130947	3986.058204	23565.468344
17.536500	0.001477	0.000301	0.002847	0.000749	6591.439931	44802.325484	3978.550659	23366.207887
18.036500	0.002402	0.000086	0.000319	0.000936	6597.721079	44763.621507	3971.688269	23357.410236
18.536500	0.000230	-0.000155	0.000268	0.001207	6576.970221	44714.301127	3970.874058	23344.622992
19.036500	0.001739	-0.000195	-0.001078	0.000534	6595.490040	44775.211910	3969.181325	23376.321174
19.537000	0.001084	0.000738	0.004558	0.001394	6582.622004	44782.245280	3981.257387	23335.812312
20.037000	0.002498	-0.000382	-0.002006	0.000616	6601.262281	44749.326049	3966.644325	23372.465773
20.535000	-0.000041	-0.000122	0.001342	0.000722	6578.785042	44764.175313	3974.808299	23367.489924
21.035000	0.000362	-0.000075	-0.004272	0.000380	6585.107249	44801.651925	3961.563560	23383.620298
21.535500	0.001246	0.000257	0.001016	0.000665	6590.193652	44806.188762	3974.129406	23370.162859
22.036000	0.001612	0.000384	-0.000159	0.000813	6592.041182	44804.152560	3970.792843	23363.191190
22.539000	0.000316	-0.000412	0.003082	0.000722	6581.811310	44736.220016	3979.214904	23367.483127
23.036500	-0.000827	-0.000309	0.000641	0.000385	6574.984297	44778.661221	3973.890031	23383.373908
23.536000	0.000161	0.000351	-0.003496	0.000587	6581.636058	44822.767543	3962.984695	23373.815969
24.036000	0.001581	-0.000290	-0.002029	0.000365	6595.597010	44782.363475	3967.218112	23384.326290
24.537500	-0.000439	0.000281	-0.002710	0.001219	6571.208355	44755.065824	3963.369147	23344.047306
25.040500	0.000399	-0.000120	-0.000218	0.000286	6586.219384	44806.423505	3971.971367	23388.044709
25.535000	0.002086	-0.000244	0.003440	-0.000115	6603.975991	44833.026522	3982.251310	23406.947527
26.035500	0.001972	-0.000915	-0.001962	-0.000436	6605.751830	44799.301475	3969.397633	23422.128887
26.535500	0.000440	-0.000014	-0.001352	0.001545	6575.894154	44695.412161	3965.956411	23328.731486
27.036000	0.002698	-0.000242	0.004168	-0.001967	6625.061048	45012.319119	3988.836231	23494.613154
27.539500	0.001498	0.000342	0.001915	-0.001209	6608.305209	44995.534819	3981.157082	23458.709036
28.036500	0.001399	-0.000726	0.002090	-0.001383	6608.939960	44909.019939	3982.044245	23466.935727
28.537000	-0.001068	-0.000167	-0.004215	0.000074	6575.573296	44822.353594	3962.470932	23398.057645
29.040000	0.003081	0.000702	0.000370	-0.000867	6618.919232	44997.225206	3976.369485	23442.514017
29.537500	0.001862	-0.000411	-0.000258	-0.001318	6612.344498	44933.192525	3975.922822	23463.872465
30.035000	0.001746	-0.000019	-0.002462	-0.000867	6607.503063	44927.512461	3969.224600	23442.514919
30.535500	-0.000831	-0.000581	-0.003435	0.001607	6564.617268	44634.823115	3960.590070	23325.785567
31.035500	0.000420	0.000163	-0.001263	0.001491	6576.176079	44717.493997	3966.312684	23331.247910
31.535500	0.002393	-0.000088	0.001375	-0.001052	6614.607208	44938.715483	3979.385527	23451.272953
32.039000	0.001729	-0.000853	0.001519	-0.001383	6611.759601	44896.688668	3980.591489	23466.933260
32.536500	-0.001639	-0.000242	-0.000644	0.002340	6551.633369	44597.017624	3965.736040	23291.342436
33.037000	0.002248	-0.000369	0.001824	-0.000907	6612.126508	44897.504171	3980.156239	23444.390416
33.537000	0.004776	0.000708	0.001337	-0.002017	6643.368807	45109.472319	3981.740112	23497.004145
34.037000	0.001041	0.000362	-0.004948	0.001290	6583.144054	44756.088512	3957.609334	23340.715877
34.534500	0.000237	-0.000852	-0.000757	0.000093	6586.481249	44754.486053	3971.100281	23397.154564
35.035500	0.000269	-0.000059	-0.003779	0.000914	6579.786997	44751.773930	3961.461827	23358.446815
35.535500	0.001376	0.000335	0.001530	0.001060	6587.937859	44775.658782	3974.430922	23351.559344
36.035000	-0.002608	-0.000310	0.003682	0.000598	6558.147181	44758.028419	3981.053093	23373.317743
36.536000	0.000882	-0.000812	-0.000446	0.000558	6588.003375	44713.502379	3970.709443	23375.188727
37.036000	0.001456	-0.000215	-0.000639	0.000806	6590.779389	44747.093172	3969.602598	23363.511100
37.536500	0.001625	-0.000528	-0.002031	0.000978	6590.749793	44700.493960	3965.674966	23355.420282
38.036500	-0.000247	-0.000688	-0.002296	0.000710	6577.143496	44710.832151	3965.683005	23368.050145
38.536500	-0.000304	-0.000137	0.003675	0.001904	6566.562231	44648.982378	3977.723073	23311.836548
39.037500	0.003278	0.000292	0.005058	0.001471	6600.618786	44731.900985	3982.332455	23332.182878
39.538000	0.000850	-0.000689	-0.000547	0.000888	6584.926513	44693.532442	3969.625130	23359.638638
40.035500	-0.000167	-0.000287	-0.004536	0.000733	6577.622758	44747.221566	3960.024994	23366.966220
40.535500	0.001094	0.000413	0.000991	0.001046	6585.659883	44784.490517	3973.102725	23352.202257
41.035500	0.001907	-0.000191	-0.002611	0.001351	6589.978083	44696.959523	3963.288604	23337.858158
41.539000	0.001326	-0.000241	-0.000374	0.000879	6589.058740	44737.584272	3970.085615	23360.095353
42.036500	0.001048	0.000661	0.003457	0.001314	6582.999188	44782.570679	3978.666663	23339.604731
42.536500	-0.000668	0.000201	0.003677	0.001678	6565.403702	44703.291264	3978.301593	23322.477120
43.036500	0.001119	-0.000105	-0.000822	0.000913	6587.000334	44747.322660	3968.870495	23358.453162
43.534500	0.001072	-0.000080	0.000875	0.001461	6581.957016	44697.065395	3971.765129	23332.668105
44.037500	0.002922	-0.000185	0.002344	-0.001660	6624.352679	44988.159186	3983.393857	23480.061830
44.534500	-0.000597	-0.000035	-0.000146	0.002098	6562.450361	44640.127590	3967.593475	23302.694928
45.035000	0.001525	0.000642	0.003112	-0.000560	6602.996073	44961.740997	3982.550416	23428.011843
45.535500	0.003348	0.001257	0.003339	0.000148	6612.517428	44952.761678	3981.327636	23394.570096
46.038500	-0.000025	-0.000099	0.002033	-0.001222	6595.434900	44954.078380	3981.490891	23459.334351
46.536500	-0.000430	-0.000631	0.002129	0.001523	6568.720640	44638.200355	3974.773510	23329.762772
47.036000	0.001753	0.000571	0.000804	-0.000555	6604.891480	44954.366151	3976.675873	23427.741423
47.536500	0.001375	0.000214	0.001669	0.001262	6586.219335	44744.497084	3974.269749	23342.042434
48.037000	0.001182	0.000455	0.003042	0.000286	6592.865562	44861.838997	3980.220326	23388.028342
48.537500	0.000291	0.000019	0.002420	0.002348	6567.831633	44621.356197	3973.422556	23290.954337
49.038000	0.001135	0.000492	0.004175	-0.000565	6599.712981	44947.646847	3985.270432	23428.228453
49.535500	0.003430	0.000357	0.001894	-0.002608	6636.864480	45132.767219	3984.666006	23525.061124
50.035500	0.003719	0.000384	0.002992	-0.001845	6632.783046	45061.250617	3985.520859	23488.855991
50.535500	0.000619	-0.000339	0.000288	0.005533	6543.776091	44282.514914	3960.084347	23141.921101
51.035500	-0.002391	-0.004865	0.007228	0.012396	6461.864239	43212.073679	3960.275178	22824.480417
51.536000	0.015626	-0.010133	0.023520	0.300390	4812.530909	23431.272785	3456.517566	13163.126676
52.036000	-0.002869	-0.022507	-0.010607	-0.096395	7471.019619	52620.616080	4212.639801	28497.936432
52.561500	-0.024710	-0.026313	-0.016107	-0.089489	7178.187334	51409.739138	4175.025356	28093.977996
53.087000	-0.026539	-0.042132	-0.018651	-0.181176	8161.807289	60664.938891	4470.754613	34017.349496
53.548000	-0.025801	-0.036795	-0.012261	-0.165774	7987.082600	59341.942790	4438.023026	32932.900833
54.066000	-0.000331	-0.041110	0.010278	-0.186585	8559.229608	61526.176541	4601.873653	34407.362822
54.534500	0.021490	-0.025195	0.034711	-0.155384	8438.288093	59499.407648	4575.204377	32222.804782
55.041000	0.046156	-0.003165	0.058201	-0.073081	7749.864568	52168.111883	4360.132337	27159.718546
55.593500	0.070363	0.020313	0.078914	0.023890	7001.573710	44501.642611	4121.302402	22303.920591
56.036000	0.082893	0.027513	0.098595	0.093680	6494.825260	38921.288917	3985.718077	19422.606868
56.540000	0.108860	0.044659	0.114044	0.132727	6388.142382	37150.874941	3927.086118	18001.401009
57.037500	0.133864	0.061405	0.142125	0.144852	6493.167063	37517.086001	3966.380989	17585.483989
57.537000	0.159009	0.079291	0.160644	0.167895	6510.593572	37108.669065	3955.091940	16826.305888
58.037500	0.180457	0.091903	0.181695	0.215771	6297.386269	34442.658970	3890.522626	15372.128233
58.537500	0.201148	0.103712	0.206522	0.255685	6150.248344	32467.437878	3855.919488	14276.463531
59.038000	0.211513	0.112622	0.216564	0.289810	5977.167276	30800.998324	3803.120829	13416.370337
59.564500	0.219619	0.120306	0.228845	0.310275	5890.804315	29992.542321	3785.831611	12932.042360
60.996000	0.245238	0.135429	0.262385	0.407986	5433.222364	25304.756837	3661.007251	10909.745306
61.270500	0.245252	0.137736	0.260675	0.413606	5400.723807	25134.703900	3647.886779	10806.687179
61.370500	0.244821	0.133789	0.266115	0.417998	5373.091586	24712.256334	3649.747811	10727.069020
61.536500	0.243872	0.138408	0.257183	0.435622	5269.523714	24069.476631	3603.918749	10415.591700
62.037000	0.249220	0.143908	0.266880	0.472298	5104.555167	22604.661213	3560.139519	9806.505822
62.537000	0.257739	0.148754	0.270639	0.460329	5211.092982	23381.681517	3585.329289	9999.655639
63.037500	0.259004	0.150693	0.265411	0.456712	5237.222543	23645.019670	3582.706720	10059.065961
63.542500	0.257133	0.152709	0.271634	0.450771	5259.241568	24028.196965	3602.749830	10157.755118
64.038000	0.255452	0.153616	0.269524	0.451099	5248.348931	24056.372118	3598.687036	10152.271810
64.535500	0.257568	0.155997	0.266151	0.451065	5260.006658	24174.206259	3593.160435	10152.834199
65.038500	0.259897	0.157772	0.276276	0.446517	5297.692312	24485.890994	3617.768379	10229.255689
65.536000	0.260697	0.159337	0.276173	0.443050	5321.373684	24737.192219	3623.528348	10288.046109
66.036500	0.259796	0.160055	0.274239	0.442049	5321.928195	24823.638818	3621.924489	10305.097222
66.536500	0.260292	0.160665	0.275320	0.438626	5343.885460	25027.984543	3629.688536	10363.731674
67.037000	0.263093	0.164159	0.273598	0.433999	5386.060020	25445.175900	3634.740829	10443.734113
67.537000	0.264988	0.164723	0.279677	0.432412	5406.084031	25557.043251	3648.233739	10471.376948
68.037500	0.264379	0.165430	0.274472	0.435089	5387.187521	25454.622581	3634.365397	10424.825100
68.534500	0.266235	0.166448	0.276481	0.435070	5397.956242	25508.481537	3637.908869	10425.154633
69.035000	0.269341	0.168157	0.277316	0.432357	5431.661600	25739.650757	3644.150358	10472.347920
69.536000	0.270513	0.168761	0.275842	0.432704	5436.473193	25753.115808	3640.940919	10466.286100
70.035500	0.271384	0.171101	0.277143	0.439044	5404.724409	25543.834934	3632.129294	10356.559189
70.536000	0.271721	0.172243	0.282507	0.440733	5396.933240	25515.362910	3638.546071	10327.596479
71.036500	0.272181	0.172492	0.280468	0.437843	5416.277143	25679.242767	3640.038952	10377.220611
71.536500	0.272257	0.172195	0.277841	0.437278	5419.993449	25693.257358	3636.425231	10386.957560
72.037000	0.274255	0.174524	0.282853	0.444157	5391.819366	25455.945490	3633.167405	10269.219819
72.537500	0.276288	0.175668	0.275151	0.441436	5419.256571	25657.366451	3624.544735	10315.566964
73.035000	0.276226	0.176128	0.285751	0.441984	5415.719568	25652.768621	3642.047472	10306.206565
73.535000	0.278303	0.174788	0.286121	0.441432	5430.997650	25611.581698	3643.674173	10315.636451
74.035000	0.276597	0.176543	0.284166	0.447142	5388.133446	25405.902443	3630.262099	10218.704545
74.538500	0.277282	0.176871	0.287655	0.444865	5405.166615	25541.139529	3640.329039	10257.206245
75.036000	0.279762	0.177395	0.280792	0.445672	5414.839258	25526.411482	3626.967762	10243.531263
75.536500	0.278430	0.177683	0.280981	0.448045	5393.469509	25418.160765	3623.206777	10203.490817
76.091500	0.277547	0.175934	0.284831	0.452541	5362.763787	25097.008165	3622.097746	10128.217356
76.537000	0.279132	0.178805	0.288296	0.450557	5383.092203	25346.248175	3631.501938	10161.331103
77.037000	0.283093	0.179138	0.288491	0.451790	5398.747617	25299.869809	3629.702359	10140.735527
77.537000	0.281722	0.177961	0.285323	0.451340	5393.447720	25262.433902	3625.007183	10148.243082
78.035000	0.282081	0.179556	0.289598	0.458943	5352.191663	24955.533198	3619.297031	10022.360288
78.534500	0.285309	0.179465	0.291024	0.455107	5392.417406	25146.346855	3628.345621	10085.607152
79.038500	0.284703	0.179135	0.291995	0.454859	5390.366609	25142.177953	3630.457596	10089.712738
79.536000	0.283296	0.179192	0.297892	0.456325	5373.935087	25070.160865	3638.182120	10065.458788
80.036000	0.283474	0.178185	0.288791	0.462997	5337.209489	24682.025331	3611.037399	9956.143019
80.536500	0.285142	0.180669	0.289546	0.460244	5362.152160	24945.977496	3616.987528	10001.037272
81.036500	0.285992	0.178115	0.286895	0.459510	5371.151069	24853.875992	3613.730081	10013.064228
81.537000	0.286623	0.178752	0.295907	0.461728	5362.136003	24774.238695	3625.344297	9976.804921
82.037000	0.282114	0.177449	0.283046	0.467654	5303.659865	24413.535853	3593.665848	9880.823143
82.535000	0.287777	0.177487	0.297040	0.463127	5360.744859	24640.614706	3624.887495	9954.026516
83.035000	0.283751	0.176808	0.300244	0.463031	5338.566096	24611.445924	3630.589453	9955.575489
83.535500	0.283423	0.177198	0.293862	0.464648	5327.670100	24550.236384	3616.837717	9929.338352
84.035500	0.285148	0.177310	0.295482	0.465298	5333.692743	24523.497209	3618.493785	9918.827939
84.535500	0.285003	0.176080	0.295304	0.471456	5298.614323	24159.148913	3607.754785	9819.925844
85.036500	0.285276	0.177096	0.291371	0.468659	5315.629853	24346.394862	3605.845141	9864.661693
85.536000	0.279992	0.175428	0.295606	0.467647	5291.980448	24314.111763	3614.705068	9880.936577
86.036500	0.278840	0.175061	0.295705	0.474295	5249.387299	23971.358715	3603.665017	9774.801232
86.537000	0.284468	0.176931	0.292230	0.474263	5280.217383	24063.722006	3597.927823	9775.309173
87.039000	0.286444	0.176832	0.302352	0.470416	5312.358569	24246.969691	3621.491133	9836.533569
87.535000	0.287498	0.178439	0.298842	0.471434	5312.554029	24275.873280	3613.768020	9820.266597
88.038000	0.288588	0.179052	0.299502	0.472071	5315.077763	24274.707934	3613.808748	9810.128343
88.538500	0.283650	0.176287	0.295140	0.474716	5273.260178	24010.401421	3602.017660	9768.139216
89.036000	0.287079	0.176711	0.299977	0.471550	5309.582802	24185.414262	3615.498400	9818.417603
89.536000	0.287945	0.178157	0.301760	0.472405	5309.645501	24214.353429	3617.077987	9804.801454
90.036500	0.285208	0.176369	0.297985	0.478161	5262.965829	23847.744588	3601.016524	9713.826327
90.536500	0.285236	0.177238	0.295664	0.477272	5267.957910	23932.556538	3598.632865	9727.789782
91.037000	0.285617	0.175848	0.303578	0.472002	5298.989531	24121.144129	3620.874363	9811.228391
91.537500	0.286317	0.177023	0.305043	0.473172	5296.389214	24121.400918	3621.379398	9792.616032
92.037500	0.288262	0.177885	0.294504	0.480679	5265.884089	23799.511441	3591.084523	9674.400069
92.535000	0.283667	0.176850	0.295052	0.478295	5253.868250	23864.482837	3595.921558	9711.723809
93.036500	0.288708	0.179014	0.303764	0.476231	5292.701713	24069.280176	3613.979371	9744.188297
93.535500	0.288315	0.176455	0.303069	0.474327	5301.047442	24037.426480	3616.034626	9774.293712
94.036000	0.290922	0.178346	0.298424	0.475815	5307.243411	24057.036961	3605.672935	9750.753575
94.536500	0.285852	0.177664	0.297192	0.475865	5279.022340	24021.461070	3603.525345	9749.971719
95.036500	0.288163	0.179003	0.300717	0.477026	5285.330663	24030.121783	3607.490468	9731.668500
95.533500	0.287753	0.178677	0.300719	0.477196	5282.147030	24006.028373	3607.208644	9728.998453
96.037000	0.285847	0.176474	0.300788	0.475137	5282.989938	23999.038692	3610.795322	9761.477620
