sample name	sample
index	1064
start time	 04-22-2021  10:12:58 AM
880	0.522906
Peak Time (s)	101.535
Peak Height 	0.5229
calc peak height	100,103
Baseline Time (s)	11.036
Baseline Value 	-0.004529
subtract baseline	10,4
Abs	0.365476
Peak Time (s)	102.036
Peak Height 	0.3655
calc peak height	100,103
Baseline Time (s)	10.539
Baseline Value 	0.0038
subtract baseline	10,3
PK_550	0.201351
Peak Time (s)	102.036
Peak Height 	0.2014
calc peak height	100,103
Baseline Time (s)	8.537
Baseline Value 	9.9383E-4
subtract baseline	10,2
PK_880	0.339424
Peak Time (s)	102.036
Peak Height 	0.3394
calc peak height	100,103
Baseline Time (s)	11.036
Baseline Value 	0.002464
subtract baseline	10,1


Time (s)	A880-A510	A880-A775	A880-A975	A880	I510	I775	I975	I880	
0.035000	0.000356	-0.000113	-0.004180	0.002430	6234.189203	43386.633972	3817.722237	22730.939528
0.535000	-0.004159	-0.001051	-0.003402	0.004875	6178.490314	43071.381512	3813.484242	22618.640995
1.038000	-0.004705	-0.001651	-0.001856	0.005046	6172.795397	42999.899297	3816.977828	22610.790915
1.538000	-0.001525	-0.000516	-0.002407	0.001237	6228.639448	43460.608124	3825.303938	22785.949297
2.036000	-0.001867	-0.000898	-0.005893	0.000426	6232.412623	43500.818850	3818.461017	22823.431205
2.536000	-0.003952	-0.000992	-0.002793	0.002823	6196.459427	43267.750721	3820.255037	22712.821575
3.036500	-0.001304	-0.001107	-0.003703	-0.000540	6244.767059	43571.956897	3826.538062	22868.210672
3.537000	-0.000404	0.000016	0.002440	0.000633	6242.556771	43567.230417	3839.371616	22813.861260
4.037500	-0.002306	-0.000317	-0.001438	0.000118	6231.362644	43584.337938	3830.672311	22837.721276
4.534500	-0.002214	-0.001204	0.001579	0.002093	6216.222561	43316.167304	3833.362134	22746.478702
5.035000	0.000701	-0.000141	-0.007354	0.000403	6253.371195	43574.078153	3814.804692	22824.531192
5.535000	-0.001740	-0.000678	0.001420	0.000270	6234.699247	43536.116784	3837.670018	22830.679493
6.035500	-0.002646	-0.000781	0.000700	0.000019	6229.424548	43550.074209	3836.453917	22842.311370
6.536000	-0.000517	-0.000292	-0.002576	0.000057	6246.300104	43592.439424	3827.899844	22840.519918
7.036000	0.000028	-0.000245	-0.003186	0.000184	6249.687943	43584.879512	3826.006209	22834.643547
7.536500	-0.004219	-0.000898	-0.001914	-0.000622	6221.915254	43599.252406	3831.351514	22871.990513
8.039500	-0.002219	-0.001182	-0.002888	-0.000583	6237.718597	43568.971103	3828.744713	22870.203994
8.537000	-0.000643	0.000000	-0.000628	0.000088	6245.037175	43617.006605	3832.839370	22839.116297
9.037000	0.000431	0.000393	0.004367	0.000685	6248.898593	43597.792276	3844.255008	22811.471536
9.535000	-0.002122	-0.000949	-0.002908	-0.000542	6238.169202	43586.961418	3828.586552	22868.285330
10.035000	-0.002651	0.000103	0.000602	-0.000204	6231.180772	43654.159044	3836.776537	22852.636906
10.538500	0.001584	-0.000669	0.000000	-0.000131	6264.879955	43574.600355	3835.027601	22849.224290
11.035500	0.000000	-0.000262	0.002932	0.000000	6250.954874	43600.617687	3842.298560	22843.174415
11.536000	0.003327	0.000469	-0.000063	0.000665	6272.602249	43606.858534	3832.808109	22812.399975
12.036500	0.000563	-0.000452	-0.001240	-0.000031	6255.774520	43585.658614	3831.568046	22844.626405
12.536500	-0.001243	0.000456	-0.000413	0.000078	6240.260514	43660.852055	3833.419164	22839.548946
13.037000	-0.000685	0.000004	-0.001053	0.000037	6245.106346	43622.202827	3831.875037	22841.470436
13.537000	-0.001965	-0.001055	-0.000531	0.002975	6211.136751	43247.703805	3825.656683	22705.828253
14.034500	-0.006395	0.000037	-0.002231	0.002686	6178.106460	43376.688783	3822.042738	22719.127769
14.535000	-0.001970	0.000296	0.000495	0.002991	6210.968417	43372.368342	3828.250867	22705.083576
15.037500	-0.000312	-0.000579	-0.001053	-0.000111	6249.325532	43581.215070	3832.254463	22848.310050
15.535500	-0.003268	-0.000303	-0.002031	0.003029	6200.284975	43312.930378	3821.677290	22703.361069
16.036000	-0.000700	-0.000491	-0.002519	-0.000394	6248.477139	43616.135731	3829.204906	22861.423758
16.539000	-0.001351	0.000437	-0.000375	0.000531	6235.733909	43616.435769	3832.348519	22818.601396
17.036000	0.000908	0.000827	-0.003796	-0.001944	6274.148437	43886.896373	3829.909637	22933.433085
17.536500	-0.003203	-0.000012	-0.006494	0.002176	6207.628998	43419.876239	3812.486101	22742.651722
18.037000	0.000008	0.000571	0.000483	0.002511	6230.725769	43443.079623	3829.455762	22727.196988
18.537000	-0.000020	0.000218	-0.003526	0.002041	6234.287872	43454.126693	3820.383142	22748.872427
19.035000	-0.000945	-0.000385	0.002562	0.001486	6231.306368	43449.607325	3837.475640	22774.461687
19.535000	-0.002272	0.000192	-0.003497	0.002329	6213.859503	43424.657780	3819.722494	22735.590630
20.035500	-0.001075	0.000033	-0.000191	0.002033	6225.855479	43437.477581	3828.953809	22749.243983
20.535500	-0.002075	-0.000171	0.000138	0.001590	6221.372206	43459.821424	3830.938728	22769.650231
21.036500	-0.003319	-0.000596	0.000058	0.001255	6214.068698	43451.409645	3831.595847	22785.105086
21.536500	-0.001154	-0.000480	0.000283	0.002337	6222.777036	43361.041668	3829.390333	22735.232609
22.036500	-0.001456	-0.000686	-0.001171	0.001130	6230.056285	43454.677808	3828.753354	22790.884268
22.537000	-0.000895	0.000301	0.000261	0.001833	6228.917469	43481.375381	3830.631669	22758.456838
23.037500	-0.001891	-0.000226	-0.000837	0.001357	6224.729411	43476.596862	3829.031270	22780.432780
23.535000	-0.000836	0.000172	-0.001292	0.003038	6219.694937	43356.492398	3823.546584	22702.961896
24.035500	0.002221	0.000295	-0.002925	0.002194	6251.176471	43446.974688	3821.528528	22741.817524
24.537500	-0.003131	-0.000183	-0.002056	0.001527	6213.402376	43464.637554	3825.460670	22772.562727
25.036000	-0.003434	-0.000192	0.001315	0.001982	6207.327063	43421.247581	3832.968146	22751.593128
25.535500	-0.000659	-0.000063	0.001802	0.003340	6218.683694	43306.229567	3830.719046	22689.042510
26.036000	-0.001536	-0.000614	-0.001115	0.001322	6227.865811	43443.443511	3828.404362	22782.025341
26.536500	-0.002092	-0.000413	-0.005161	0.003023	6209.731723	43303.145060	3813.718572	22703.613264
27.036500	0.001976	-0.000704	-0.002015	-0.001904	6282.548714	43738.294946	3834.403550	22931.565769
27.536500	-0.001445	-0.000352	0.000404	-0.000504	6243.333077	43639.580668	3837.041457	22866.538038
28.037500	0.000863	0.000250	0.002776	0.000315	6255.397682	43619.097245	3841.072233	22828.582933
28.535000	-0.003820	0.000047	-0.002359	0.005343	6177.462124	43129.916759	3814.943986	22597.207347
29.035500	0.000539	0.000547	-0.000046	0.000511	6251.184031	43628.670214	3833.248765	22819.510611
29.535500	-0.003489	-0.000104	-0.000692	0.004316	6188.261576	43211.457579	3821.810576	22644.255253
30.035500	0.000468	-0.000286	0.001276	0.000110	6253.859597	43588.009283	3837.710436	22838.071202
30.539500	-0.003309	-0.000067	0.001389	0.005713	6178.585574	43085.021118	3823.560717	22580.293186
31.036500	-0.000417	-0.000393	-0.002339	0.001932	6231.967700	43407.074127	3823.697756	22753.898478
31.536500	-0.000556	-0.000746	-0.002053	-0.000526	6250.708820	43604.542142	3830.747225	22867.550704
32.037000	-0.001140	-0.000813	0.001191	-0.000073	6242.319265	43555.721277	3837.965510	22846.573070
32.537500	-0.002481	-0.000289	-0.001215	0.005324	6188.252782	43100.408222	3817.900761	22598.049244
33.035000	0.000461	0.000608	-0.000134	-0.000630	6259.810747	43741.909308	3835.975322	22872.393742
33.535000	-0.000663	0.000336	-0.000591	0.002557	6224.952293	43416.754727	3826.576845	22725.083946
34.038000	-0.004403	0.000256	0.000841	0.002743	6193.505641	43391.869050	3829.779742	22716.502241
34.535500	-0.003907	-0.000410	0.003699	0.003453	6191.802087	43263.371630	3835.327534	22683.881365
35.035500	-0.003182	-0.000100	0.001324	0.002233	6207.331905	43406.313502	3832.340859	22740.002884
35.536000	-0.001233	-0.000205	-0.000417	0.002274	6222.640669	43392.596881	3827.750635	22738.101877
36.036500	-0.000460	0.000362	0.002394	0.002642	6225.902961	43411.293201	3834.049980	22721.177702
36.537000	-0.002463	0.000002	0.001673	0.002655	6209.712503	43376.362798	3832.152798	22720.580247
37.037000	-0.002287	-0.000099	0.002970	0.002519	6212.212916	43379.696642	3835.858493	22726.843511
37.537500	-0.004103	0.000048	0.001559	0.004316	6183.366484	43225.602798	3827.581131	22644.239367
38.034500	-0.004937	-0.000881	0.002644	0.001869	6196.214015	43367.222162	3836.694118	22756.764080
38.536000	-0.004137	-0.000363	-0.000641	0.002761	6195.480843	43332.250085	3825.922137	22715.664286
39.035500	-0.003325	0.000456	0.002747	0.003182	6198.601876	43369.510576	3833.564689	22696.315613
39.535500	-0.001747	-0.000821	-0.002379	0.003702	6207.065840	43201.903873	3819.071625	22672.435625
40.036000	-0.001147	-0.000155	-0.000455	0.002635	6220.429740	43363.590880	3826.725520	22721.493793
40.536500	-0.001204	0.000260	-0.000696	0.002665	6219.728288	43399.497480	3826.029946	22720.096274
41.036500	-0.001736	0.000102	-0.004064	0.002294	6218.443125	43419.463096	3818.362968	22737.191730
41.537000	-0.003842	-0.001640	0.000939	0.001854	6205.083573	43297.726583	3832.324850	22757.456958
42.037000	-0.002365	-0.000816	0.005990	0.002060	6215.273029	43355.533980	3844.901523	22747.994764
42.537500	-0.004153	0.000163	-0.002662	0.002169	6200.081560	43436.948255	3822.263935	22742.966277
43.034500	-0.000540	-0.000248	-0.001707	0.001558	6233.990383	43455.662538	3826.275931	22771.118223
43.538500	-0.000210	-0.000124	-0.003072	0.001530	6236.886163	43469.941205	3822.849290	22772.447490
44.035500	-0.000725	0.000435	0.002048	0.000398	6241.870142	43628.775391	3838.968005	22824.763475
44.535500	-0.002977	-0.000771	-0.000617	0.004831	6188.230597	43101.486611	3820.684038	22620.622617
45.036000	0.001156	0.000569	0.002416	0.000307	6257.843055	43649.949218	3840.159301	22828.975545
45.536000	-0.001554	-0.000248	-0.000499	0.003351	6211.419219	43287.952727	3824.774787	22688.533004
46.036500	-0.000934	-0.000116	0.001962	0.000200	6241.777501	43595.549493	3839.258092	22833.927206
46.537000	-0.001504	0.000270	0.000333	0.005295	6196.273058	43155.134482	3821.928990	22599.408857
47.037500	-0.000797	-0.000554	-0.000375	0.002331	6225.691690	43354.722652	3827.712386	22735.511154
47.535000	-0.000583	0.000749	-0.000160	0.004799	6207.596438	43245.864845	3821.934618	22622.100568
48.038000	0.000299	0.000434	0.003064	0.001123	6244.277520	43560.446091	3839.720608	22791.216414
48.535000	-0.002116	-0.000040	0.000741	0.005440	6190.240484	43112.876988	3822.601429	22592.772740
49.035500	-0.000079	0.000472	0.002146	-0.000189	6251.840027	43687.425153	3840.745792	22851.909468
49.536000	-0.001245	-0.000995	0.004601	0.002196	6223.167215	43325.987961	3840.925882	22741.689265
50.035500	0.002635	0.000777	0.009208	0.014068	6159.492665	42393.484253	3822.188126	22201.972562
50.536500	0.048783	-0.012948	0.063948	0.448847	4131.947269	16868.815271	3174.377081	9882.872924
51.036500	0.005465	-0.011013	-0.009391	0.142512	5298.304038	31455.460112	3503.132523	17215.564432
51.537500	-0.030351	-0.033236	-0.048157	-0.153441	7404.419743	56657.339757	4142.865076	31368.250574
52.037500	-0.027400	-0.047407	-0.032459	-0.210450	8096.354480	62245.117882	4403.750256	35385.996098
52.535000	-0.017789	-0.055343	-0.020412	-0.232505	8502.204201	64210.857303	4542.000581	37087.417174
53.035000	0.001661	-0.029693	-0.005113	-0.191511	8222.889130	62077.552670	4436.835414	33992.382062
53.535000	0.005643	-0.014068	-0.002007	-0.145606	7717.504848	58082.559212	4274.900818	30856.187957
54.035500	0.012072	-0.004143	0.007860	-0.100879	7296.574136	53821.897714	4154.297705	28103.299772
54.536500	0.014961	-0.000914	0.009425	-0.101698	7335.729346	54300.169595	4162.242221	28151.226966
55.036500	0.035573	0.007642	0.025071	-0.079491	7318.840598	52705.138794	4140.487579	26883.791592
55.536500	0.042497	0.018453	0.037784	-0.027188	6863.634798	48153.949250	4015.967352	24142.790494
56.036500	0.059908	0.025739	0.055574	-0.006142	6829.179913	46738.178307	4006.224462	23129.678886
56.537500	0.070775	0.035271	0.069493	0.020653	6681.598942	45024.228933	3968.397840	21908.878083
57.034500	0.090806	0.044057	0.085833	0.067914	6441.487403	41440.826182	3882.008678	19930.954770
57.537500	0.105001	0.054435	0.105402	0.104698	6253.404150	39158.707133	3836.511394	18533.709727
58.035000	0.120265	0.062874	0.124490	0.133324	6146.675322	37505.396995	3812.069562	17525.364728
58.535000	0.140776	0.073618	0.137911	0.167813	6038.485833	35656.560727	3759.946491	16395.566218
59.035500	0.154766	0.081960	0.153532	0.189631	5979.403453	34651.355093	3745.092936	15725.815775
59.536500	0.170287	0.089911	0.178874	0.235524	5759.965151	31983.109538	3697.312589	14422.173586
60.036000	0.182341	0.096503	0.184895	0.260495	5671.196049	30772.084774	3655.215507	13768.641953
60.536500	0.192795	0.105688	0.199556	0.267056	5697.675965	30941.847670	3672.984438	13603.082089
61.037000	0.206860	0.111470	0.212990	0.288119	5650.250818	29967.413478	3656.240845	13088.140123
61.535000	0.220861	0.119353	0.224343	0.332200	5454.878089	27791.353357	3587.649756	12088.002293
62.037500	0.232304	0.125184	0.243041	0.360251	5352.669443	26542.673470	3568.978790	11502.429179
62.535000	0.238056	0.130176	0.250537	0.365536	5355.491159	26526.629672	3573.355786	11396.270462
63.035500	0.250205	0.136862	0.269898	0.386645	5301.891438	25750.184891	3569.894132	10984.933791
63.535500	0.258908	0.142429	0.276675	0.394465	5307.123546	25631.206570	3567.834814	10837.550957
64.036000	0.259052	0.144488	0.272994	0.399447	5278.588929	25477.782366	3550.919704	10745.043339
64.535500	0.257285	0.147076	0.273935	0.406103	5229.650747	25265.983573	3539.944703	10623.082576
65.039000	0.261690	0.147838	0.280958	0.406820	5250.961601	25268.314376	3552.063214	10610.057817
65.537000	0.261994	0.150042	0.278838	0.416608	5196.517291	24878.574149	3529.323359	10434.346913
66.045500	0.269543	0.152856	0.288533	0.417964	5231.930848	24952.994038	3545.182044	10410.320099
66.534500	0.269963	0.155672	0.292305	0.423317	5203.681368	24823.656799	3542.152248	10316.183741
67.040500	0.270040	0.155262	0.296389	0.427113	5182.598485	24611.015312	3542.704242	10250.140396
67.535000	0.270463	0.157027	0.296948	0.438445	5121.773469	24134.836506	3522.333622	10056.344840
68.038500	0.272166	0.158185	0.293065	0.437603	5135.830866	24233.511910	3516.675318	10070.578453
68.535500	0.276784	0.160418	0.300713	0.442517	5134.189764	24101.346605	3521.762314	9987.946966
69.035000	0.277446	0.161825	0.298515	0.445500	5121.380771	24024.012865	3512.149853	9938.231962
69.536500	0.277290	0.161315	0.299561	0.451155	5089.607233	23724.297986	3503.696394	9844.938127
70.036500	0.283900	0.166880	0.305543	0.454204	5109.026188	23846.065261	3509.065214	9795.128997
70.537000	0.286553	0.167257	0.310572	0.456754	5109.588851	23740.806253	3513.631545	9753.738927
71.037500	0.286834	0.168243	0.309715	0.459255	5097.461151	23667.758584	3507.452043	9713.387690
71.535000	0.287368	0.168370	0.314453	0.466955	5058.728680	23306.309033	3502.042272	9590.600070
72.035500	0.289711	0.169451	0.315279	0.464249	5085.955454	23486.275811	3508.499088	9633.509035
72.535000	0.292002	0.171794	0.316203	0.469885	5067.880212	23329.659836	3499.895284	9544.437466
73.035500	0.291872	0.172568	0.318762	0.470095	5066.056694	23356.414355	3504.173784	9541.150198
73.535500	0.294978	0.174145	0.321732	0.478119	5039.755686	23052.833909	3494.999499	9416.383843
74.036000	0.299535	0.176729	0.326319	0.475889	5076.124605	23279.111633	3507.397045	9450.826944
74.536500	0.302337	0.177868	0.321821	0.478610	5076.560141	23204.453816	3494.274920	9408.826658
75.039000	0.303238	0.179137	0.327086	0.480164	5073.036972	23191.059628	3500.994245	9384.960326
75.537000	0.302600	0.177837	0.330430	0.485789	5039.499800	22867.809081	3496.855797	9299.262245
76.037500	0.306952	0.180536	0.329117	0.482639	5079.732312	23140.515875	3500.187023	9347.124222
76.537500	0.309144	0.181880	0.333463	0.485451	5076.377873	23071.678399	3502.978202	9304.382384
77.035500	0.311204	0.182420	0.335872	0.485153	5089.144325	23110.926679	3507.927332	9308.893398
77.535500	0.309233	0.181172	0.335503	0.484711	5080.861789	23073.219151	3508.062495	9315.603333
78.036000	0.312734	0.183639	0.341150	0.486800	5088.512885	23090.899173	3514.614882	9283.981765
78.536000	0.313127	0.184385	0.345150	0.489148	5077.923468	23016.012215	3517.678038	9248.622889
79.036500	0.314616	0.185857	0.341446	0.488800	5087.873639	23101.110086	3511.470512	9253.852017
79.537000	0.311742	0.183388	0.334160	0.492129	5054.445165	22831.309216	3492.149415	9204.002308
80.040000	0.317679	0.187979	0.341495	0.490519	5095.182927	23120.024761	3508.400814	9228.071984
80.537500	0.318557	0.187395	0.338166	0.492267	5090.446188	23010.966433	3499.136518	9201.953727
81.039500	0.319229	0.187415	0.347054	0.490620	5103.078695	23088.812396	3518.479029	9226.550866
81.540500	0.316850	0.187427	0.344561	0.496975	5055.846882	22794.035669	3502.201706	9132.129731
82.035000	0.320431	0.188761	0.346683	0.492664	5098.486080	23056.162845	3514.003449	9196.028116
82.536000	0.321373	0.189873	0.346186	0.494483	5093.707937	23023.135856	3509.733677	9168.987316
83.036000	0.320440	0.190375	0.342875	0.493896	5091.827896	23074.025150	3504.742234	9177.698815
83.536000	0.317956	0.190837	0.343426	0.499798	5046.669905	22821.144098	3495.027144	9090.615818
84.036000	0.320172	0.190953	0.346541	0.495337	5082.555263	23033.717707	3508.819453	9156.338650
84.537000	0.324638	0.191434	0.346066	0.496517	5100.421804	23001.119994	3505.785974	9138.891617
85.037000	0.322661	0.191658	0.349280	0.496518	5089.645673	23011.472302	3511.684565	9138.866979
85.537500	0.323687	0.193224	0.347319	0.503543	5057.286249	22758.463093	3495.294095	9035.969485
86.038000	0.325991	0.191514	0.342858	0.497127	5104.472161	22976.387101	3498.830957	9129.881686
86.535000	0.322328	0.192337	0.348571	0.498459	5077.328689	22952.691692	3506.815220	9110.267254
87.038000	0.327611	0.194263	0.353674	0.499922	5098.058351	22974.271412	3513.509379	9088.797955
87.536000	0.325938	0.193593	0.348429	0.500056	5088.232295	22936.904408	3503.636439	9086.843798
88.036000	0.324797	0.193032	0.346244	0.500121	5081.695112	22907.794696	3499.542471	9085.889009
88.536500	0.327826	0.195193	0.350957	0.502251	5086.565500	22909.235362	3504.244928	9054.771922
89.039000	0.325104	0.194310	0.349520	0.501580	5075.467522	22899.383008	3502.846120	9064.556370
89.537000	0.329733	0.195115	0.351032	0.502887	5093.471122	22876.166496	3503.219831	9045.512263
90.040000	0.331111	0.196146	0.354725	0.503912	5095.391579	22876.428998	3508.101639	9030.617750
90.539500	0.332488	0.196251	0.356151	0.505884	5092.154387	22790.123776	3507.098696	9002.053549
91.035000	0.328210	0.195736	0.357680	0.504310	5077.497172	22839.031012	3512.804940	9024.835773
91.535000	0.333161	0.197847	0.356819	0.505723	5096.693294	22871.342346	3508.620359	9004.378238
92.036000	0.330227	0.195571	0.356471	0.504562	5087.051927	22819.755928	3510.113619	9021.184015
92.535500	0.331538	0.195555	0.353684	0.505721	5087.879716	22765.553720	3502.888793	9004.411538
93.038500	0.332678	0.197163	0.355714	0.506096	5092.036647	22822.447983	3505.910705	8998.993234
93.536500	0.330757	0.195880	0.350384	0.511720	5051.363658	22505.807500	3486.119655	8918.278128
94.036500	0.334853	0.197789	0.356409	0.508876	5088.743870	22723.126597	3502.105308	8958.956912
94.537000	0.332501	0.198113	0.356389	0.509903	5070.474502	22690.870377	3500.202051	8944.246703
95.034500	0.337312	0.198647	0.356424	0.509505	5098.701204	22733.679864	3500.987859	8949.935761
95.534500	0.332313	0.197808	0.359473	0.509550	5071.360692	22693.063392	3506.470738	8949.302563
96.038000	0.336419	0.198895	0.356897	0.510900	5086.261886	22681.013172	3499.314888	8929.986709
96.535500	0.335690	0.200159	0.357778	0.513040	5070.747632	22640.806108	3497.031085	8899.481434
97.039000	0.336624	0.198630	0.360959	0.511928	5081.803563	22621.753407	3504.838407	8915.317980
97.536000	0.336632	0.199523	0.365897	0.512797	5077.146075	22622.858274	3512.307187	8902.946452
