sample name	sample
index	430
start time	 03-08-2021  12:05:45 PM


Wavelength (nm)	Absorbance
494.344910	0.659599
494.563924	0.659599
494.782919	0.659599
495.001897	-0.165709
495.220856	0.456070
495.439797	0.281192
495.658719	0.101629
495.877624	0.117186
496.096510	0.373283
496.315378	0.317110
496.534227	0.885946
496.753059	0.339592
496.971872	0.241625
497.190667	0.090922
497.409444	0.087184
497.628203	0.081666
497.846943	0.083779
498.065665	0.084873
498.284369	0.084103
498.503055	0.081671
498.721723	0.080375
498.940372	0.079060
499.159003	0.079514
499.377616	0.079450
499.596210	0.081340
499.814787	0.079662
500.033345	0.077343
500.251885	0.077112
500.470406	0.077585
500.688910	0.077602
500.907395	0.078878
501.125862	0.078188
501.344311	0.077081
501.562742	0.075866
501.781154	0.075777
501.999548	0.076314
502.217924	0.076484
502.436282	0.077059
502.654621	0.077472
502.872942	0.077111
503.091245	0.077643
503.309530	0.078674
503.527797	0.078214
503.746045	0.079118
503.964275	0.078919
504.182487	0.079035
504.400681	0.079054
504.618856	0.079937
504.837013	0.080529
505.055152	0.081154
505.273273	0.080728
505.491376	0.081414
505.709460	0.080870
505.927526	0.081285
506.145574	0.081264
506.363604	0.080578
506.581615	0.079875
506.799608	0.079683
507.017583	0.079044
507.235540	0.078956
507.453478	0.078016
507.671399	0.078226
507.889301	0.077813
508.107185	0.077696
508.325050	0.078322
508.542898	0.078489
508.760727	0.078334
508.978538	0.077946
509.196330	0.078032
509.414105	0.079244
509.631861	0.078678
509.849599	0.078934
510.067319	0.078879
510.285021	0.078630
510.502704	0.078927
510.720369	0.078921
510.938016	0.079417
511.155645	0.079906
511.373255	0.079591
511.590848	0.079233
511.808422	0.079789
512.025977	0.080243
512.243515	0.079981
512.461034	0.080553
512.678536	0.080488
512.896018	0.080645
513.113483	0.080462
513.330930	0.080938
513.548358	0.081579
513.765768	0.081232
513.983160	0.080842
514.200533	0.080669
514.417889	0.079883
514.635226	0.080545
514.852545	0.080258
515.069845	0.080052
515.287128	0.079525
515.504392	0.079987
515.721638	0.079690
515.938866	0.080413
516.156075	0.081442
516.373267	0.081736
516.590440	0.081359
516.807594	0.081772
517.024731	0.081869
517.241850	0.082279
517.458950	0.082109
517.676032	0.082460
517.893095	0.082084
518.110141	0.082214
518.327168	0.081775
518.544177	0.081953
518.761168	0.081749
518.978141	0.081977
519.195095	0.081864
519.412031	0.081641
519.628949	0.082227
519.845849	0.082240
520.062731	0.082011
520.279594	0.082310
520.496439	0.082216
520.713266	0.082512
520.930074	0.082647
521.146865	0.082928
521.363637	0.083294
521.580391	0.083171
521.797127	0.083301
522.013844	0.082942
522.230543	0.083387
522.447224	0.083393
522.663887	0.084053
522.880532	0.084264
523.097158	0.084116
523.313766	0.083813
523.530356	0.084130
523.746928	0.084120
523.963481	0.084870
524.180017	0.084937
524.396534	0.085052
524.613032	0.084759
524.829513	0.084924
525.045975	0.085179
525.262420	0.086297
525.478845	0.085870
525.695253	0.086457
525.911643	0.085925
526.128014	0.086197
526.344367	0.086853
526.560702	0.086673
526.777018	0.087303
526.993316	0.087957
527.209597	0.087848
527.425858	0.088308
527.642102	0.088237
527.858328	0.088803
528.074535	0.088326
528.290724	0.088536
528.506894	0.088754
528.723047	0.088697
528.939181	0.088485
529.155297	0.088191
529.371395	0.088130
529.587475	0.088738
529.803536	0.088828
530.019579	0.089088
530.235604	0.088681
530.451611	0.089404
530.667600	0.089548
530.883570	0.089822
531.099522	0.090082
531.315456	0.090093
531.531372	0.089937
531.747269	0.090282
531.963148	0.091371
532.179009	0.091461
532.394852	0.091658
532.610676	0.091249
532.826482	0.091566
533.042271	0.092079
533.258040	0.092407
533.473792	0.092367
533.689525	0.092266
533.905240	0.091555
534.120937	0.092167
534.336616	0.091771
534.552277	0.092388
534.767919	0.092172
534.983543	0.092201
535.199149	0.092635
535.414736	0.092834
535.630306	0.093515
535.845857	0.093838
536.061390	0.093231
536.276904	0.093299
536.492401	0.092876
536.707879	0.093006
536.923339	0.093462
537.138781	0.093915
537.354204	0.094105
537.569610	0.093519
537.784997	0.093827
538.000366	0.094511
538.215716	0.095099
538.431049	0.095269
538.646363	0.095826
538.861659	0.095926
539.076937	0.095706
539.292196	0.095612
539.507438	0.095834
539.722661	0.095835
539.937866	0.095993
540.153052	0.096028
540.368221	0.096902
540.583371	0.096713
540.798503	0.096499
541.013617	0.096399
541.228712	0.096850
541.443789	0.097176
541.658848	0.097289
541.873889	0.097616
542.088912	0.097538
542.303916	0.097236
542.518902	0.097771
542.733870	0.097724
542.948820	0.097869
543.163752	0.097981
543.378665	0.098179
543.593560	0.098415
543.808437	0.098312
544.023295	0.098445
544.238136	0.098446
544.452958	0.098443
544.667762	0.098727
544.882548	0.099319
545.097315	0.099771
545.312064	0.099443
545.526795	0.099563
545.741508	0.099328
545.956203	0.099476
546.170879	0.099713
546.385537	0.099645
546.600177	0.099772
546.814799	0.099760
547.029402	0.099412
547.243988	0.100203
547.458555	0.100245
547.673103	0.100595
547.887634	0.100729
548.102146	0.101069
548.316640	0.101351
548.531116	0.101837
548.745574	0.101654
548.960013	0.101926
549.174435	0.102002
549.388838	0.102121
549.603222	0.102184
549.817589	0.102405
550.031937	0.102370
550.246267	0.102259
550.460579	0.102208
550.674873	0.102747
550.889148	0.102778
551.103405	0.102679
551.317644	0.102845
551.531865	0.102797
551.746068	0.102768
551.960252	0.103011
552.174418	0.103207
552.388566	0.103060
552.602696	0.102863
552.816807	0.102751
553.030900	0.103100
553.244975	0.103048
553.459032	0.103449
553.673070	0.103275
553.887091	0.103199
554.101093	0.103551
554.315077	0.103933
554.529042	0.103850
554.742990	0.104227
554.956919	0.104470
555.170830	0.104626
555.384722	0.104813
555.598597	0.105117
555.812453	0.105380
556.026291	0.105373
556.240111	0.105395
556.453913	0.105835
556.667696	0.105781
556.881461	0.105558
557.095208	0.105558
557.308937	0.106134
557.522647	0.106619
557.736339	0.106688
557.950013	0.106264
558.163669	0.106374
558.377307	0.106284
558.590926	0.106248
558.804527	0.106533
559.018110	0.106820
559.231675	0.106488
559.445221	0.106438
559.658749	0.106529
559.872259	0.107272
560.085751	0.107368
560.299225	0.107531
560.512680	0.107887
560.726117	0.107930
560.939536	0.107936
561.152937	0.107909
561.366319	0.108160
561.579683	0.108379
561.793029	0.108358
562.006357	0.108309
562.219667	0.108647
562.432958	0.108721
562.646231	0.108672
562.859486	0.108983
563.072723	0.109182
563.285941	0.109077
563.499141	0.109117
563.712323	0.109136
563.925487	0.109636
564.138632	0.109651
564.351760	0.109750
564.564869	0.109898
564.777960	0.109869
564.991032	0.110219
565.204087	0.110290
565.417123	0.110323
565.630141	0.110512
565.843140	0.110398
566.056122	0.110525
566.269085	0.110712
566.482030	0.110793
566.694957	0.111032
566.907866	0.111097
567.120756	0.111702
567.333628	0.111795
567.546482	0.111712
567.759318	0.111913
567.972135	0.111984
568.184935	0.112409
568.397716	0.112559
568.610478	0.112487
568.823223	0.112198
569.035949	0.111604
569.248657	0.111536
569.461347	0.111944
569.674019	0.111780
569.886672	0.111603
570.099308	0.111441
570.311925	0.111459
570.524523	0.111699
570.737104	0.111928
570.949666	0.112197
571.162210	0.112816
571.374736	0.112663
571.587244	0.113249
571.799733	0.113379
572.012205	0.113253
572.224658	0.113367
572.437092	0.113380
572.649509	0.113451
572.861907	0.113559
573.074287	0.113356
573.286649	0.113337
573.498993	0.113437
573.711318	0.113681
573.923625	0.113999
574.135914	0.113861
574.348185	0.113965
574.560438	0.114388
574.772672	0.114459
574.984888	0.114523
575.197086	0.114795
575.409266	0.114931
575.621427	0.115281
575.833570	0.115254
576.045695	0.115610
576.257802	0.115795
576.469890	0.115683
576.681961	0.115958
576.894013	0.116000
577.106046	0.115862
577.318062	0.115543
577.530059	0.115583
577.742039	0.115722
577.954000	0.115692
578.165942	0.115859
578.377867	0.115908
578.589773	0.115772
578.801661	0.116076
579.013531	0.116328
579.225382	0.116653
579.437216	0.116447
579.649031	0.116419
579.860828	0.116706
580.072606	0.116851
580.284367	0.116999
580.496109	0.117238
580.707833	0.117199
580.919539	0.117517
581.131227	0.117415
581.342896	0.117640
581.554547	0.118079
581.766180	0.118265
581.977795	0.118210
582.189391	0.118615
582.400969	0.118577
582.612529	0.118588
582.824071	0.118425
583.035595	0.118361
583.247100	0.118514
583.458587	0.118843
583.670056	0.118885
583.881506	0.119102
584.092939	0.119148
584.304353	0.119706
584.515749	0.120048
584.727127	0.120504
584.938486	0.120638
585.149828	0.120773
585.361151	0.120491
585.572456	0.120566
585.783742	0.120628
585.995011	0.120696
586.206261	0.120800
586.417493	0.120901
586.628706	0.120926
586.839902	0.121126
587.051079	0.121094
587.262238	0.120883
587.473379	0.120681
587.684502	0.120812
587.895606	0.121079
588.106692	0.121145
588.317760	0.121249
588.528810	0.121283
588.739841	0.121287
588.950855	0.121682
589.161850	0.122051
589.372827	0.122222
589.583785	0.122454
589.794726	0.122456
590.005648	0.122542
590.216552	0.122813
590.427437	0.122779
590.638305	0.122915
590.849154	0.122727
591.059985	0.122698
591.270798	0.123110
591.481592	0.123032
591.692369	0.122594
591.903127	0.122371
592.113867	0.122016
592.324588	0.122298
592.535292	0.122270
592.745977	0.122615
592.956644	0.122975
593.167293	0.123058
593.377923	0.123155
593.588536	0.123786
593.799130	0.124097
594.009706	0.124365
594.220263	0.124579
594.430803	0.125049
594.641324	0.124953
594.851827	0.125065
595.062312	0.125463
595.272778	0.125580
595.483227	0.125699
595.693657	0.125827
595.904069	0.126062
596.114462	0.126080
596.324838	0.126180
596.535195	0.126589
596.745534	0.126338
596.955855	0.126359
597.166157	0.126643
597.376441	0.126753
597.586707	0.126829
597.796955	0.126825
598.007185	0.126683
598.217396	0.126504
598.427589	0.126474
598.637764	0.126825
598.847921	0.126577
599.058060	0.126409
599.268180	0.126184
599.478282	0.126586
599.688366	0.126851
599.898431	0.127229
600.108479	0.127486
600.318508	0.127574
600.528519	0.128118
600.738511	0.128245
600.948486	0.128663
601.158442	0.129114
601.368380	0.128915
601.578300	0.128972
601.788202	0.128981
601.998085	0.129213
602.207950	0.129194
602.417797	0.128787
602.627626	0.128942
602.837436	0.128866
603.047228	0.128815
603.257002	0.128948
603.466758	0.129053
603.676496	0.129270
603.886215	0.129570
604.095916	0.129819
604.305599	0.130180
604.515264	0.130500
604.724910	0.130897
604.934538	0.131106
605.144148	0.131215
605.353740	0.131381
605.563314	0.131615
605.772869	0.131572
605.982406	0.131718
606.191925	0.131581
606.401425	0.131475
606.610908	0.131309
606.820372	0.131020
607.029818	0.130962
607.239246	0.130926
607.448655	0.131026
607.658047	0.130910
607.867420	0.130557
608.076775	0.130518
608.286111	0.130678
608.495430	0.130769
608.704730	0.131070
608.914012	0.131472
609.123275	0.131538
609.332521	0.131697
609.541748	0.132093
609.750957	0.132477
609.960148	0.133090
610.169321	0.133071
610.378475	0.133093
610.587611	0.133144
610.796729	0.133031
611.005829	0.133343
611.214910	0.133233
611.423974	0.133336
611.633019	0.133643
611.842045	0.133382
612.051054	0.133528
612.260044	0.133590
612.469017	0.133722
612.677970	0.133974
612.886906	0.133710
613.095824	0.133880
613.304723	0.133874
613.513604	0.133915
613.722467	0.134055
613.931311	0.134049
614.140138	0.134209
614.348946	0.134181
614.557736	0.133976
614.766507	0.134392
614.975261	0.134279
615.183996	0.134316
615.392713	0.134544
615.601412	0.134676
615.810092	0.135083
616.018754	0.135473
616.227399	0.135911
616.436024	0.136222
616.644632	0.136076
616.853222	0.136403
617.061793	0.136409
617.270346	0.136356
617.478880	0.136393
617.687397	0.136342
617.895895	0.136201
618.104375	0.136133
618.312837	0.136157
618.521281	0.136374
618.729706	0.136438
618.938113	0.136598
619.146502	0.136748
619.354873	0.136919
619.563226	0.137162
619.771560	0.137366
619.979876	0.137465
620.188174	0.137667
620.396453	0.137827
620.604715	0.138059
620.812958	0.137928
621.021183	0.137675
621.229390	0.137784
621.437578	0.137541
621.645748	0.137317
621.853900	0.137364
622.062034	0.137324
622.270150	0.137210
622.478247	0.137040
622.686326	0.137413
622.894387	0.137500
623.102430	0.137604
623.310454	0.137829
623.518461	0.138112
623.726449	0.138175
623.934418	0.138405
624.142370	0.138595
624.350303	0.138570
624.558218	0.138493
624.766115	0.138827
624.973994	0.138713
625.181855	0.138923
625.389697	0.139051
625.597521	0.139175
625.805327	0.139128
626.013114	0.139114
626.220883	0.139405
626.428634	0.139532
626.636367	0.139507
626.844082	0.139780
627.051778	0.139764
627.259457	0.140079
627.467117	0.140251
627.674758	0.140497
627.882382	0.140909
628.089987	0.141139
628.297574	0.141371
628.505143	0.141570
628.712694	0.141735
628.920226	0.141875
629.127740	0.141640
629.335236	0.141720
629.542714	0.141639
629.750174	0.141385
629.957615	0.141224
630.165038	0.141283
630.372443	0.141485
630.579829	0.141738
630.787198	0.141881
630.994548	0.142270
631.201880	0.142268
631.409194	0.142515
631.616489	0.142964
631.823766	0.143141
632.031025	0.143140
632.238266	0.142894
632.445489	0.142683
632.652693	0.142641
632.859879	0.142464
633.067047	0.142786
633.274197	0.142633
633.481329	0.142652
633.688442	0.142591
633.895537	0.142840
634.102614	0.143232
634.309672	0.143357
634.516713	0.143456
634.723735	0.143489
634.930739	0.143608
635.137724	0.143807
635.344692	0.143751
635.551641	0.144076
635.758572	0.143989
635.965485	0.143925
636.172379	0.143973
636.379256	0.143987
636.586114	0.144278
636.792954	0.144238
636.999775	0.144307
637.206579	0.144588
637.413364	0.144627
637.620131	0.144532
637.826880	0.144668
638.033610	0.144979
638.240323	0.145196
638.447017	0.145245
638.653692	0.145551
638.860350	0.145514
639.066990	0.145253
639.273611	0.145369
639.480214	0.145576
639.686798	0.145534
639.893365	0.145435
640.099913	0.145341
640.306443	0.145282
640.512955	0.145063
640.719449	0.145178
640.925924	0.145650
641.132381	0.145634
641.338820	0.145813
641.545241	0.145903
641.751644	0.145977
641.958028	0.146420
642.164394	0.146766
642.370742	0.147021
642.577071	0.147012
642.783383	0.147041
642.989676	0.146955
643.195951	0.147211
643.402207	0.147484
643.608446	0.147492
643.814666	0.147405
644.020868	0.147184
644.227052	0.147020
644.433218	0.147397
644.639365	0.147429
644.845494	0.147670
645.051605	0.147674
645.257698	0.147705
645.463772	0.147812
645.669828	0.147998
645.875866	0.148228
646.081886	0.148175
646.287888	0.148151
646.493871	0.148160
646.699836	0.148108
646.905783	0.147908
647.111712	0.147961
647.317622	0.147953
647.523514	0.147869
647.729388	0.147849
647.935244	0.148137
648.141082	0.148308
648.346901	0.148505
648.552702	0.148468
648.758485	0.148879
648.964250	0.149022
649.169996	0.149499
649.375724	0.149593
649.581434	0.149881
649.787126	0.150109
649.992800	0.150250
650.198455	0.150224
650.404092	0.150727
650.609711	0.150670
650.815311	0.150716
651.020894	0.150603
651.226458	0.150752
651.432004	0.150830
651.637532	0.150943
651.843041	0.151093
652.048532	0.151259
652.254006	0.151294
652.459460	0.151434
652.664897	0.151494
652.870315	0.151521
653.075716	0.151776
653.281097	0.151650
653.486461	0.151680
653.691807	0.151758
653.897134	0.151853
654.102443	0.151947
654.307734	0.151963
654.513006	0.152159
654.718261	0.152500
654.923497	0.152495
655.128715	0.152697
655.333915	0.152767
655.539096	0.152876
655.744259	0.153038
655.949404	0.153199
656.154531	0.153586
656.359640	0.153578
656.564730	0.153415
656.769802	0.153561
656.974856	0.153927
657.179892	0.154105
657.384909	0.154247
657.589908	0.154226
657.794889	0.154305
657.999852	0.154234
658.204797	0.154443
658.409723	0.154823
658.614631	0.154956
658.819521	0.154920
659.024393	0.155050
659.229246	0.154956
659.434081	0.154985
659.638898	0.155112
659.843697	0.155221
660.048478	0.155071
660.253240	0.154957
660.457984	0.155079
660.662710	0.155077
660.867417	0.155115
661.072107	0.155342
661.276778	0.155413
661.481431	0.155660
661.686066	0.155714
661.890682	0.156096
662.095281	0.156378
662.299861	0.156372
662.504422	0.156476
662.708966	0.156486
662.913491	0.156540
663.117999	0.156851
663.322488	0.156716
663.526958	0.156986
663.731411	0.157101
663.935845	0.157171
664.140261	0.157508
664.344659	0.157602
664.549038	0.157669
664.753400	0.157717
664.957743	0.157761
665.162068	0.157885
665.366375	0.158019
665.570663	0.158180
665.774933	0.158377
665.979185	0.158307
666.183419	0.158686
666.387635	0.159013
666.591832	0.159255
666.796011	0.159552
667.000172	0.159777
667.204315	0.159955
667.408439	0.160273
667.612545	0.160440
667.816634	0.160789
668.020703	0.160912
668.224755	0.161185
668.428788	0.161438
668.632803	0.161381
668.836800	0.161551
669.040779	0.161598
669.244739	0.161560
669.448681	0.161530
669.652605	0.161471
669.856511	0.161450
670.060399	0.161383
670.264268	0.161555
670.468119	0.161768
670.671952	0.161753
670.875767	0.161903
671.079563	0.162033
671.283341	0.162190
671.487101	0.162350
671.690843	0.162331
671.894567	0.162340
672.098272	0.162313
672.301959	0.162271
672.505628	0.162235
672.709278	0.162291
672.912911	0.162112
673.116525	0.162020
673.320121	0.161942
673.523699	0.162137
673.727258	0.162177
673.930799	0.162170
674.134322	0.162153
674.337827	0.162293
674.541314	0.162381
674.744782	0.162728
674.948232	0.162880
675.151664	0.163141
675.355078	0.163240
675.558474	0.163344
675.761851	0.163358
675.965210	0.163739
676.168551	0.163869
676.371873	0.164064
676.575178	0.164151
676.778464	0.164362
676.981732	0.164329
677.184981	0.164294
677.388213	0.164642
677.591426	0.165053
677.794621	0.165166
677.997798	0.165485
678.200956	0.165387
678.404097	0.165443
678.607219	0.165571
678.810323	0.165781
679.013408	0.166069
679.216476	0.166173
679.419525	0.165950
679.622556	0.165843
679.825569	0.165921
680.028563	0.166013
680.231540	0.166024
680.434498	0.166095
680.637438	0.166004
680.840359	0.166130
681.043263	0.165983
681.246148	0.166302
681.449015	0.166314
681.651864	0.166321
681.854694	0.166368
682.057506	0.166427
682.260301	0.166443
682.463076	0.166675
682.665834	0.166802
682.868573	0.167073
683.071295	0.167232
683.273998	0.167442
683.476682	0.167630
683.679349	0.167788
683.881997	0.168011
684.084627	0.168239
684.287239	0.168302
684.489833	0.168267
684.692408	0.168325
684.894965	0.168192
685.097504	0.168635
685.300025	0.168781
685.502527	0.169009
685.705012	0.169370
685.907478	0.169422
686.109925	0.169528
686.312355	0.169830
686.514766	0.170103
686.717159	0.170411
686.919534	0.170385
687.121891	0.170272
687.324230	0.170564
687.526550	0.170556
687.728852	0.170830
687.931136	0.171040
688.133401	0.171088
688.335649	0.170987
688.537878	0.171023
688.740089	0.171065
688.942281	0.171364
689.144456	0.171374
689.346612	0.171244
689.548750	0.171202
689.750870	0.171275
689.952971	0.171250
690.155055	0.171426
690.357120	0.171616
690.559167	0.171818
690.761195	0.171746
690.963206	0.171723
691.165198	0.171831
691.367172	0.171912
691.569128	0.171920
691.771065	0.172138
691.972984	0.172122
692.174885	0.172200
692.376768	0.172198
692.578633	0.172433
692.780479	0.172612
692.982308	0.172826
693.184118	0.173025
693.385909	0.173129
