sample name	sample
index	674
start time	 03-22-2021  11:25:56 AM


Wavelength (nm)	Absorbance
494.344910	0.257808
494.563924	0.257808
494.782919	0.257808
495.001897	0.020323
495.220856	0.007319
495.439797	-0.005698
495.658719	-0.031563
495.877624	-0.083552
496.096510	-0.070292
496.315378	-0.062411
496.534227	-0.090513
496.753059	-0.084446
496.971872	-0.049872
497.190667	0.043771
497.409444	0.054547
497.628203	0.056923
497.846943	0.063910
498.065665	0.064257
498.284369	0.063721
498.503055	0.064468
498.721723	0.065151
498.940372	0.065575
499.159003	0.066258
499.377616	0.066284
499.596210	0.066885
499.814787	0.066252
500.033345	0.066473
500.251885	0.067525
500.470406	0.067987
500.688910	0.067455
500.907395	0.067525
501.125862	0.067846
501.344311	0.067489
501.562742	0.068346
501.781154	0.067015
501.999548	0.066771
502.217924	0.066590
502.436282	0.066387
502.654621	0.066776
502.872942	0.066699
503.091245	0.066088
503.309530	0.066903
503.527797	0.066079
503.746045	0.066789
503.964275	0.067044
504.182487	0.066685
504.400681	0.067162
504.618856	0.067457
504.837013	0.066906
505.055152	0.067031
505.273273	0.066556
505.491376	0.067408
505.709460	0.067767
505.927526	0.067288
506.145574	0.067131
506.363604	0.065985
506.581615	0.066048
506.799608	0.066453
507.017583	0.066707
507.235540	0.067481
507.453478	0.066521
507.671399	0.066193
507.889301	0.066971
508.107185	0.068439
508.325050	0.067885
508.542898	0.067340
508.760727	0.067307
508.978538	0.067180
509.196330	0.066211
509.414105	0.066706
509.631861	0.066171
509.849599	0.066291
510.067319	0.065387
510.285021	0.065830
510.502704	0.065861
510.720369	0.066317
510.938016	0.066443
511.155645	0.067227
511.373255	0.067172
511.590848	0.067903
511.808422	0.067629
512.025977	0.067540
512.243515	0.068512
512.461034	0.068038
512.678536	0.067278
512.896018	0.066939
513.113483	0.066377
513.330930	0.065832
513.548358	0.065665
513.765768	0.064981
513.983160	0.064525
514.200533	0.064332
514.417889	0.064815
514.635226	0.065245
514.852545	0.065436
515.069845	0.065873
515.287128	0.065997
515.504392	0.065868
515.721638	0.066174
515.938866	0.066265
516.156075	0.065746
516.373267	0.065919
516.590440	0.065784
516.807594	0.065219
517.024731	0.065136
517.241850	0.065484
517.458950	0.065697
517.676032	0.065710
517.893095	0.065826
518.110141	0.066197
518.327168	0.065918
518.544177	0.066440
518.761168	0.067270
518.978141	0.067163
519.195095	0.067309
519.412031	0.066919
519.628949	0.066848
519.845849	0.067127
520.062731	0.067089
520.279594	0.067539
520.496439	0.066997
520.713266	0.067561
520.930074	0.067164
521.146865	0.067418
521.363637	0.068206
521.580391	0.068584
521.797127	0.068137
522.013844	0.068189
522.230543	0.068639
522.447224	0.069354
522.663887	0.069071
522.880532	0.069902
523.097158	0.069713
523.313766	0.069221
523.530356	0.068722
523.746928	0.068703
523.963481	0.068850
524.180017	0.068350
524.396534	0.067595
524.613032	0.066959
524.829513	0.066335
525.045975	0.066363
525.262420	0.066632
525.478845	0.066832
525.695253	0.067528
525.911643	0.067595
526.128014	0.067715
526.344367	0.068266
526.560702	0.068592
526.777018	0.068919
526.993316	0.068479
527.209597	0.068367
527.425858	0.068698
527.642102	0.068559
527.858328	0.068510
528.074535	0.068565
528.290724	0.068433
528.506894	0.068923
528.723047	0.069427
528.939181	0.069613
529.155297	0.070081
529.371395	0.069902
529.587475	0.069945
529.803536	0.069795
530.019579	0.069540
530.235604	0.069988
530.451611	0.069690
530.667600	0.069586
530.883570	0.070126
531.099522	0.069962
531.315456	0.070124
531.531372	0.070169
531.747269	0.070243
531.963148	0.070639
532.179009	0.070564
532.394852	0.070382
532.610676	0.070158
532.826482	0.070521
533.042271	0.070299
533.258040	0.070068
533.473792	0.070226
533.689525	0.070226
533.905240	0.070438
534.120937	0.070332
534.336616	0.070481
534.552277	0.070830
534.767919	0.070826
534.983543	0.071460
535.199149	0.071382
535.414736	0.071338
535.630306	0.071424
535.845857	0.071671
536.061390	0.071605
536.276904	0.071954
536.492401	0.071906
536.707879	0.071519
536.923339	0.071550
537.138781	0.071809
537.354204	0.072112
537.569610	0.072442
537.784997	0.071890
538.000366	0.071708
538.215716	0.071340
538.431049	0.071346
538.646363	0.071226
538.861659	0.070931
539.076937	0.070970
539.292196	0.070727
539.507438	0.070745
539.722661	0.070932
539.937866	0.071356
540.153052	0.071234
540.368221	0.071539
540.583371	0.071758
540.798503	0.071297
541.013617	0.071472
541.228712	0.071825
541.443789	0.071658
541.658848	0.071837
541.873889	0.072033
542.088912	0.072317
542.303916	0.072060
542.518902	0.072028
542.733870	0.072684
542.948820	0.073240
543.163752	0.072767
543.378665	0.072422
543.593560	0.072477
543.808437	0.072308
544.023295	0.072741
544.238136	0.073033
544.452958	0.073128
544.667762	0.073098
544.882548	0.072673
545.097315	0.072580
545.312064	0.073062
545.526795	0.072877
545.741508	0.073201
545.956203	0.072980
546.170879	0.072689
546.385537	0.072946
546.600177	0.072896
546.814799	0.073246
547.029402	0.074002
547.243988	0.074140
547.458555	0.074472
547.673103	0.074150
547.887634	0.074202
548.102146	0.074761
548.316640	0.074310
548.531116	0.074687
548.745574	0.074388
548.960013	0.074219
549.174435	0.074244
549.388838	0.074328
549.603222	0.074651
549.817589	0.074533
550.031937	0.074460
550.246267	0.074625
550.460579	0.074263
550.674873	0.074361
550.889148	0.074190
551.103405	0.074234
551.317644	0.073899
551.531865	0.073564
551.746068	0.073842
551.960252	0.073557
552.174418	0.073729
552.388566	0.073776
552.602696	0.074162
552.816807	0.074073
553.030900	0.074050
553.244975	0.074191
553.459032	0.074593
553.673070	0.074401
553.887091	0.074396
554.101093	0.074503
554.315077	0.074785
554.529042	0.074520
554.742990	0.075278
554.956919	0.075135
555.170830	0.075238
555.384722	0.075111
555.598597	0.075319
555.812453	0.075583
556.026291	0.075254
556.240111	0.075258
556.453913	0.075430
556.667696	0.075154
556.881461	0.075249
557.095208	0.075412
557.308937	0.075379
557.522647	0.075376
557.736339	0.075486
557.950013	0.076011
558.163669	0.076122
558.377307	0.075968
558.590926	0.075992
558.804527	0.076067
559.018110	0.076078
559.231675	0.076117
559.445221	0.075958
559.658749	0.076148
559.872259	0.076084
560.085751	0.075971
560.299225	0.075748
560.512680	0.075366
560.726117	0.075569
560.939536	0.075715
561.152937	0.076150
561.366319	0.076193
561.579683	0.075685
561.793029	0.075862
562.006357	0.076155
562.219667	0.076845
562.432958	0.076923
562.646231	0.076728
562.859486	0.076610
563.072723	0.076244
563.285941	0.076572
563.499141	0.076769
563.712323	0.076356
563.925487	0.076240
564.138632	0.075918
564.351760	0.076064
564.564869	0.076286
564.777960	0.076233
564.991032	0.076235
565.204087	0.076227
565.417123	0.076161
565.630141	0.076482
565.843140	0.076535
566.056122	0.076481
566.269085	0.076447
566.482030	0.076452
566.694957	0.076435
566.907866	0.076705
567.120756	0.076660
567.333628	0.076900
567.546482	0.077211
567.759318	0.077252
567.972135	0.077344
568.184935	0.077567
568.397716	0.077701
568.610478	0.077612
568.823223	0.077568
569.035949	0.077785
569.248657	0.077777
569.461347	0.077505
569.674019	0.077426
569.886672	0.077793
570.099308	0.077932
570.311925	0.077664
570.524523	0.077836
570.737104	0.077817
570.949666	0.077772
571.162210	0.077930
571.374736	0.078127
571.587244	0.077720
571.799733	0.077769
572.012205	0.077798
572.224658	0.078188
572.437092	0.078533
572.649509	0.078147
572.861907	0.077887
573.074287	0.077781
573.286649	0.077782
573.498993	0.078319
573.711318	0.077802
573.923625	0.078039
574.135914	0.078187
574.348185	0.077849
574.560438	0.078274
574.772672	0.078450
574.984888	0.078421
575.197086	0.078192
575.409266	0.078103
575.621427	0.078471
575.833570	0.078052
576.045695	0.077894
576.257802	0.077855
576.469890	0.077646
576.681961	0.077632
576.894013	0.077680
577.106046	0.078151
577.318062	0.078303
577.530059	0.078472
577.742039	0.078332
577.954000	0.078270
578.165942	0.078343
578.377867	0.078776
578.589773	0.078962
578.801661	0.079000
579.013531	0.078649
579.225382	0.078413
579.437216	0.078201
579.649031	0.078793
579.860828	0.078578
580.072606	0.078884
580.284367	0.078678
580.496109	0.078808
580.707833	0.078851
580.919539	0.078788
581.131227	0.078889
581.342896	0.079130
581.554547	0.078637
581.766180	0.078944
581.977795	0.078372
582.189391	0.078217
582.400969	0.078139
582.612529	0.078435
582.824071	0.078734
583.035595	0.079075
583.247100	0.079132
583.458587	0.079368
583.670056	0.079375
583.881506	0.079972
584.092939	0.080327
584.304353	0.080317
584.515749	0.080342
584.727127	0.080332
584.938486	0.080430
585.149828	0.080362
585.361151	0.080478
585.572456	0.080625
585.783742	0.080598
585.995011	0.080705
586.206261	0.080774
586.417493	0.080748
586.628706	0.080737
586.839902	0.080666
587.051079	0.080471
587.262238	0.080714
587.473379	0.080746
587.684502	0.080843
587.895606	0.080788
588.106692	0.080821
588.317760	0.080507
588.528810	0.080133
588.739841	0.080073
588.950855	0.080491
589.161850	0.080378
589.372827	0.080072
589.583785	0.080159
589.794726	0.080297
590.005648	0.080325
590.216552	0.080543
590.427437	0.080947
590.638305	0.081173
590.849154	0.081025
591.059985	0.080773
591.270798	0.081072
591.481592	0.080824
591.692369	0.080823
591.903127	0.080977
592.113867	0.081113
592.324588	0.081276
592.535292	0.080995
592.745977	0.081156
592.956644	0.081678
593.167293	0.081950
593.377923	0.082151
593.588536	0.082346
593.799130	0.082499
594.009706	0.082553
594.220263	0.082429
594.430803	0.082658
594.641324	0.082439
594.851827	0.082380
595.062312	0.082057
595.272778	0.082449
595.483227	0.082272
595.693657	0.082416
595.904069	0.082476
596.114462	0.082832
596.324838	0.082729
596.535195	0.083101
596.745534	0.083353
596.955855	0.083649
597.166157	0.083388
597.376441	0.083312
597.586707	0.083058
597.796955	0.083060
598.007185	0.082731
598.217396	0.082746
598.427589	0.082480
598.637764	0.082078
598.847921	0.082135
599.058060	0.081925
599.268180	0.082002
599.478282	0.082050
599.688366	0.081945
599.898431	0.082083
600.108479	0.082127
600.318508	0.082133
600.528519	0.082199
600.738511	0.082338
600.948486	0.082681
601.158442	0.082836
601.368380	0.082984
601.578300	0.083031
601.788202	0.083259
601.998085	0.083232
602.207950	0.083004
602.417797	0.083289
602.627626	0.082965
602.837436	0.082840
603.047228	0.082982
603.257002	0.083067
603.466758	0.083219
603.676496	0.083145
603.886215	0.083334
604.095916	0.083785
604.305599	0.083659
604.515264	0.083990
604.724910	0.084275
604.934538	0.084216
605.144148	0.084089
605.353740	0.083987
605.563314	0.084074
605.772869	0.084204
605.982406	0.084247
606.191925	0.084142
606.401425	0.084022
606.610908	0.083818
606.820372	0.083771
607.029818	0.083679
607.239246	0.083709
607.448655	0.083838
607.658047	0.083657
607.867420	0.083705
608.076775	0.083749
608.286111	0.083749
608.495430	0.083647
608.704730	0.083660
608.914012	0.083627
609.123275	0.083661
609.332521	0.083379
609.541748	0.083328
609.750957	0.083056
609.960148	0.082937
610.169321	0.082772
610.378475	0.082572
610.587611	0.082560
610.796729	0.082743
611.005829	0.082731
611.214910	0.082932
611.423974	0.083343
611.633019	0.083609
611.842045	0.083727
612.051054	0.083725
612.260044	0.083985
612.469017	0.084015
612.677970	0.083937
612.886906	0.083976
613.095824	0.083882
613.304723	0.083848
613.513604	0.083628
613.722467	0.083768
613.931311	0.083854
614.140138	0.083935
614.348946	0.083955
614.557736	0.084187
614.766507	0.084362
614.975261	0.084205
615.183996	0.083834
615.392713	0.083896
615.601412	0.083959
615.810092	0.083911
616.018754	0.084069
616.227399	0.084192
616.436024	0.084036
616.644632	0.083800
616.853222	0.084038
617.061793	0.084338
617.270346	0.084532
617.478880	0.084482
617.687397	0.084739
617.895895	0.084833
618.104375	0.084694
618.312837	0.084711
618.521281	0.085083
618.729706	0.084954
618.938113	0.084936
619.146502	0.084896
619.354873	0.084819
619.563226	0.084742
619.771560	0.084664
619.979876	0.084892
620.188174	0.084887
620.396453	0.084759
620.604715	0.084856
620.812958	0.085001
621.021183	0.084984
621.229390	0.085213
621.437578	0.085417
621.645748	0.085573
621.853900	0.085715
622.062034	0.086051
622.270150	0.086086
622.478247	0.086268
622.686326	0.086181
622.894387	0.086126
623.102430	0.085971
623.310454	0.085922
623.518461	0.085788
623.726449	0.085359
623.934418	0.085158
624.142370	0.085193
624.350303	0.085065
624.558218	0.085146
624.766115	0.085155
624.973994	0.085354
625.181855	0.085437
625.389697	0.085524
625.597521	0.085783
625.805327	0.086011
626.013114	0.086116
626.220883	0.086172
626.428634	0.086141
626.636367	0.086253
626.844082	0.086201
627.051778	0.086148
627.259457	0.086021
627.467117	0.085774
627.674758	0.085626
627.882382	0.085534
628.089987	0.085500
628.297574	0.085409
628.505143	0.085319
628.712694	0.085238
628.920226	0.084986
629.127740	0.085104
629.335236	0.085440
629.542714	0.085477
629.750174	0.085421
629.957615	0.085390
630.165038	0.085445
630.372443	0.085551
630.579829	0.085482
630.787198	0.085494
630.994548	0.085509
631.201880	0.085729
631.409194	0.085451
631.616489	0.085575
631.823766	0.085718
632.031025	0.085739
632.238266	0.085834
632.445489	0.086072
632.652693	0.086537
632.859879	0.086499
633.067047	0.086073
633.274197	0.086316
633.481329	0.086393
633.688442	0.086697
633.895537	0.086594
634.102614	0.086581
634.309672	0.086424
634.516713	0.086200
634.723735	0.086317
634.930739	0.086480
635.137724	0.086361
635.344692	0.086356
635.551641	0.086137
635.758572	0.086241
635.965485	0.086016
636.172379	0.086350
636.379256	0.086516
636.586114	0.086431
636.792954	0.086607
636.999775	0.086822
637.206579	0.086882
637.413364	0.086873
637.620131	0.086814
637.826880	0.087040
638.033610	0.086947
638.240323	0.086899
638.447017	0.086892
638.653692	0.086698
638.860350	0.086550
639.066990	0.086473
639.273611	0.086495
639.480214	0.086710
639.686798	0.086841
639.893365	0.087001
640.099913	0.086970
640.306443	0.087249
640.512955	0.087537
640.719449	0.087711
640.925924	0.087707
641.132381	0.087663
641.338820	0.087650
641.545241	0.087593
641.751644	0.087455
641.958028	0.087347
642.164394	0.087158
642.370742	0.087150
642.577071	0.087305
642.783383	0.087502
642.989676	0.087523
643.195951	0.087622
643.402207	0.087563
643.608446	0.087750
643.814666	0.088018
644.020868	0.088142
644.227052	0.088079
644.433218	0.087810
644.639365	0.087854
644.845494	0.088088
645.051605	0.088054
645.257698	0.088298
645.463772	0.088240
645.669828	0.088086
645.875866	0.088072
646.081886	0.088204
646.287888	0.088347
646.493871	0.088279
646.699836	0.088377
646.905783	0.088600
647.111712	0.088488
647.317622	0.088484
647.523514	0.088620
647.729388	0.088641
647.935244	0.088620
648.141082	0.088815
648.346901	0.088929
648.552702	0.088628
648.758485	0.088474
648.964250	0.088499
649.169996	0.088478
649.375724	0.088505
649.581434	0.088647
649.787126	0.088512
649.992800	0.088385
650.198455	0.088271
650.404092	0.088509
650.609711	0.088456
650.815311	0.088485
651.020894	0.088418
651.226458	0.088381
651.432004	0.088124
651.637532	0.088227
651.843041	0.088257
652.048532	0.088173
652.254006	0.087917
652.459460	0.087967
652.664897	0.087936
652.870315	0.087992
653.075716	0.088086
653.281097	0.088317
653.486461	0.088330
653.691807	0.088269
653.897134	0.088347
654.102443	0.088640
654.307734	0.088580
654.513006	0.088715
654.718261	0.088941
654.923497	0.088946
655.128715	0.089016
655.333915	0.089179
655.539096	0.089406
655.744259	0.089588
655.949404	0.089507
656.154531	0.089697
656.359640	0.089844
656.564730	0.089671
656.769802	0.089936
656.974856	0.089964
657.179892	0.089909
657.384909	0.090040
657.589908	0.090041
657.794889	0.090239
657.999852	0.090549
658.204797	0.090559
658.409723	0.090568
658.614631	0.090570
658.819521	0.090629
659.024393	0.090878
659.229246	0.090768
659.434081	0.090673
659.638898	0.090741
659.843697	0.090515
660.048478	0.090516
660.253240	0.090816
660.457984	0.090831
660.662710	0.090862
660.867417	0.090759
661.072107	0.090799
661.276778	0.090961
661.481431	0.090943
661.686066	0.091007
661.890682	0.091093
662.095281	0.091042
662.299861	0.090810
662.504422	0.090735
662.708966	0.090624
662.913491	0.090492
663.117999	0.090505
663.322488	0.090485
663.526958	0.090394
663.731411	0.090327
663.935845	0.090180
664.140261	0.090312
664.344659	0.090358
664.549038	0.090437
664.753400	0.090579
664.957743	0.090706
665.162068	0.090746
665.366375	0.090683
665.570663	0.090685
665.774933	0.090782
665.979185	0.090948
666.183419	0.090831
666.387635	0.091030
666.591832	0.091200
666.796011	0.091241
667.000172	0.091257
667.204315	0.091429
667.408439	0.091548
667.612545	0.091573
667.816634	0.091360
668.020703	0.091645
668.224755	0.091474
668.428788	0.091289
668.632803	0.091172
668.836800	0.091207
669.040779	0.091253
669.244739	0.091176
669.448681	0.091284
669.652605	0.091506
669.856511	0.091359
670.060399	0.091483
670.264268	0.091745
670.468119	0.091738
670.671952	0.091770
670.875767	0.091907
671.079563	0.092036
671.283341	0.092181
671.487101	0.092266
671.690843	0.092372
671.894567	0.092381
672.098272	0.092274
672.301959	0.092455
672.505628	0.092531
672.709278	0.092524
672.912911	0.092615
673.116525	0.092558
673.320121	0.092525
673.523699	0.092693
673.727258	0.092923
673.930799	0.092798
674.134322	0.092863
674.337827	0.092803
674.541314	0.092799
674.744782	0.092716
674.948232	0.092573
675.151664	0.092578
675.355078	0.092383
675.558474	0.092202
675.761851	0.092317
675.965210	0.092279
676.168551	0.092293
676.371873	0.092369
676.575178	0.092398
676.778464	0.092645
676.981732	0.092575
677.184981	0.092539
677.388213	0.092622
677.591426	0.092755
677.794621	0.092828
677.997798	0.092970
678.200956	0.092911
678.404097	0.092945
678.607219	0.092897
678.810323	0.093107
679.013408	0.093290
679.216476	0.093180
679.419525	0.093151
679.622556	0.092950
679.825569	0.093037
680.028563	0.093182
680.231540	0.093357
680.434498	0.093412
680.637438	0.093433
680.840359	0.093421
681.043263	0.093701
681.246148	0.093658
681.449015	0.093800
681.651864	0.093800
681.854694	0.093674
682.057506	0.093651
682.260301	0.093725
682.463076	0.093654
682.665834	0.093807
682.868573	0.093695
683.071295	0.093902
683.273998	0.093911
683.476682	0.093676
683.679349	0.093756
683.881997	0.093803
684.084627	0.093820
684.287239	0.093742
684.489833	0.093521
684.692408	0.093477
684.894965	0.093327
685.097504	0.093420
685.300025	0.093831
685.502527	0.093744
685.705012	0.093773
685.907478	0.093723
686.109925	0.093902
686.312355	0.094163
686.514766	0.094252
686.717159	0.094410
686.919534	0.094354
687.121891	0.094163
687.324230	0.094366
687.526550	0.094181
687.728852	0.094068
687.931136	0.093990
688.133401	0.093898
688.335649	0.093816
688.537878	0.093808
688.740089	0.094019
688.942281	0.093982
689.144456	0.094022
689.346612	0.094298
689.548750	0.094555
689.750870	0.094679
689.952971	0.094756
690.155055	0.094995
690.357120	0.094979
690.559167	0.094936
690.761195	0.094981
690.963206	0.094957
691.165198	0.094896
691.367172	0.094810
691.569128	0.094750
691.771065	0.094774
691.972984	0.094673
692.174885	0.094897
692.376768	0.094926
692.578633	0.095069
692.780479	0.095071
692.982308	0.095050
693.184118	0.095156
693.385909	0.095326
