sample name	sample
index	922
start time	 04-12-2021  11:49:53 AM


Wavelength (nm)	Absorbance
494.344910	0.026329
494.563924	0.026329
494.782919	0.026329
495.001897	-0.043530
495.220856	-0.045272
495.439797	-0.051980
495.658719	-0.055196
495.877624	-0.041044
496.096510	-0.013769
496.315378	0.031404
496.534227	0.040334
496.753059	0.051639
496.971872	0.008133
497.190667	0.081070
497.409444	0.079017
497.628203	0.081868
497.846943	0.080831
498.065665	0.082097
498.284369	0.083380
498.503055	0.084159
498.721723	0.083588
498.940372	0.085460
499.159003	0.085269
499.377616	0.087030
499.596210	0.086378
499.814787	0.086929
500.033345	0.086229
500.251885	0.085082
500.470406	0.085271
500.688910	0.085982
500.907395	0.084726
501.125862	0.084823
501.344311	0.083672
501.562742	0.085206
501.781154	0.085315
501.999548	0.085489
502.217924	0.086107
502.436282	0.085552
502.654621	0.085645
502.872942	0.085801
503.091245	0.085790
503.309530	0.085995
503.527797	0.085360
503.746045	0.085600
503.964275	0.085921
504.182487	0.086259
504.400681	0.086676
504.618856	0.087510
504.837013	0.086849
505.055152	0.087040
505.273273	0.087975
505.491376	0.088184
505.709460	0.088405
505.927526	0.088835
506.145574	0.088753
506.363604	0.089139
506.581615	0.088575
506.799608	0.090160
507.017583	0.090707
507.235540	0.091307
507.453478	0.091212
507.671399	0.091275
507.889301	0.091260
508.107185	0.091482
508.325050	0.091372
508.542898	0.092428
508.760727	0.091290
508.978538	0.091321
509.196330	0.090884
509.414105	0.090343
509.631861	0.091136
509.849599	0.091212
510.067319	0.091647
510.285021	0.092750
510.502704	0.092497
510.720369	0.093255
510.938016	0.094144
511.155645	0.094864
511.373255	0.096517
511.590848	0.096498
511.808422	0.096756
512.025977	0.096715
512.243515	0.096133
512.461034	0.095804
512.678536	0.096472
512.896018	0.096149
513.113483	0.096139
513.330930	0.095031
513.548358	0.095008
513.765768	0.095215
513.983160	0.095793
514.200533	0.097054
514.417889	0.097310
514.635226	0.097578
514.852545	0.097527
515.069845	0.097346
515.287128	0.097651
515.504392	0.098179
515.721638	0.097677
515.938866	0.097540
516.156075	0.097371
516.373267	0.098420
516.590440	0.098329
516.807594	0.098667
517.024731	0.098561
517.241850	0.099756
517.458950	0.099906
517.676032	0.101093
517.893095	0.101228
518.110141	0.100996
518.327168	0.101072
518.544177	0.101174
518.761168	0.100963
518.978141	0.101749
519.195095	0.101991
519.412031	0.102313
519.628949	0.102244
519.845849	0.102830
520.062731	0.102825
520.279594	0.102849
520.496439	0.103154
520.713266	0.103685
520.930074	0.103924
521.146865	0.104066
521.363637	0.103842
521.580391	0.104401
521.797127	0.104067
522.013844	0.104131
522.230543	0.104794
522.447224	0.105173
522.663887	0.105183
522.880532	0.105478
523.097158	0.105503
523.313766	0.106467
523.530356	0.106248
523.746928	0.106981
523.963481	0.107876
524.180017	0.107955
524.396534	0.108360
524.613032	0.108714
524.829513	0.109224
525.045975	0.109475
525.262420	0.109868
525.478845	0.109968
525.695253	0.109945
525.911643	0.110410
526.128014	0.110650
526.344367	0.111121
526.560702	0.112002
526.777018	0.112071
526.993316	0.112361
527.209597	0.112377
527.425858	0.113334
527.642102	0.114131
527.858328	0.113803
528.074535	0.113957
528.290724	0.113790
528.506894	0.114096
528.723047	0.114468
528.939181	0.114985
529.155297	0.115485
529.371395	0.115731
529.587475	0.116018
529.803536	0.116832
530.019579	0.117378
530.235604	0.118312
530.451611	0.118387
530.667600	0.118732
530.883570	0.119102
531.099522	0.119067
531.315456	0.119289
531.531372	0.119271
531.747269	0.119457
531.963148	0.119962
532.179009	0.120087
532.394852	0.120542
532.610676	0.121090
532.826482	0.121022
533.042271	0.121848
533.258040	0.122531
533.473792	0.123567
533.689525	0.123948
533.905240	0.124035
534.120937	0.124879
534.336616	0.125363
534.552277	0.125744
534.767919	0.126340
534.983543	0.126001
535.199149	0.126739
535.414736	0.127150
535.630306	0.128307
535.845857	0.129026
536.061390	0.129188
536.276904	0.129290
536.492401	0.129503
536.707879	0.130002
536.923339	0.130588
537.138781	0.130323
537.354204	0.129966
537.569610	0.129723
537.784997	0.129389
538.000366	0.129821
538.215716	0.130239
538.431049	0.130608
538.646363	0.130963
538.861659	0.131472
539.076937	0.131491
539.292196	0.131824
539.507438	0.131527
539.722661	0.132030
539.937866	0.131813
540.153052	0.132374
540.368221	0.132810
540.583371	0.133068
540.798503	0.133091
541.013617	0.133798
541.228712	0.134301
541.443789	0.135143
541.658848	0.135420
541.873889	0.135782
542.088912	0.135982
542.303916	0.135980
542.518902	0.136308
542.733870	0.137069
542.948820	0.137462
543.163752	0.137478
543.378665	0.137905
543.593560	0.138733
543.808437	0.139300
544.023295	0.139568
544.238136	0.140099
544.452958	0.140504
544.667762	0.140649
544.882548	0.140850
545.097315	0.141178
545.312064	0.141393
545.526795	0.141467
545.741508	0.142103
545.956203	0.142633
546.170879	0.142700
546.385537	0.142770
546.600177	0.143012
546.814799	0.143354
547.029402	0.144167
547.243988	0.144292
547.458555	0.144488
547.673103	0.144141
547.887634	0.144209
548.102146	0.144489
548.316640	0.144984
548.531116	0.145174
548.745574	0.145450
548.960013	0.145460
549.174435	0.145902
549.388838	0.146405
549.603222	0.146506
549.817589	0.146491
550.031937	0.146763
550.246267	0.146769
550.460579	0.147049
550.674873	0.147357
550.889148	0.147888
551.103405	0.148106
551.317644	0.148272
551.531865	0.148224
551.746068	0.148819
551.960252	0.149004
552.174418	0.149800
552.388566	0.149839
552.602696	0.150107
552.816807	0.150249
553.030900	0.150470
553.244975	0.150949
553.459032	0.152113
553.673070	0.152144
553.887091	0.152859
554.101093	0.152629
554.315077	0.153277
554.529042	0.153261
554.742990	0.152986
554.956919	0.153314
555.170830	0.152907
555.384722	0.152640
555.598597	0.153056
555.812453	0.153036
556.026291	0.153645
556.240111	0.153798
556.453913	0.154208
556.667696	0.154661
556.881461	0.155003
557.095208	0.155388
557.308937	0.155519
557.522647	0.155608
557.736339	0.155787
557.950013	0.155922
558.163669	0.155752
558.377307	0.155825
558.590926	0.156333
558.804527	0.156490
559.018110	0.156589
559.231675	0.156812
559.445221	0.156903
559.658749	0.157211
559.872259	0.156903
560.085751	0.157284
560.299225	0.157692
560.512680	0.157759
560.726117	0.157891
560.939536	0.158234
561.152937	0.158699
561.366319	0.159458
561.579683	0.159831
561.793029	0.160188
562.006357	0.160351
562.219667	0.160676
562.432958	0.160835
562.646231	0.161202
562.859486	0.161282
563.072723	0.161826
563.285941	0.161551
563.499141	0.161747
563.712323	0.162270
563.925487	0.162586
564.138632	0.162765
564.351760	0.163134
564.564869	0.163039
564.777960	0.163617
564.991032	0.163957
565.204087	0.164316
565.417123	0.164220
565.630141	0.164316
565.843140	0.164812
566.056122	0.165065
566.269085	0.165322
566.482030	0.165570
566.694957	0.165747
566.907866	0.165609
567.120756	0.165761
567.333628	0.165852
567.546482	0.166133
567.759318	0.166337
567.972135	0.166446
568.184935	0.166537
568.397716	0.166757
568.610478	0.166896
568.823223	0.166770
569.035949	0.166857
569.248657	0.167382
569.461347	0.167316
569.674019	0.167246
569.886672	0.167588
570.099308	0.167927
570.311925	0.167847
570.524523	0.167769
570.737104	0.168149
570.949666	0.168509
571.162210	0.168734
571.374736	0.169385
571.587244	0.169537
571.799733	0.169096
572.012205	0.168936
572.224658	0.169417
572.437092	0.170002
572.649509	0.170114
572.861907	0.170202
573.074287	0.170183
573.286649	0.170217
573.498993	0.170023
573.711318	0.170477
573.923625	0.170863
574.135914	0.170863
574.348185	0.170469
574.560438	0.170717
574.772672	0.171220
574.984888	0.171210
575.197086	0.171297
575.409266	0.171886
575.621427	0.172333
575.833570	0.172620
576.045695	0.172665
576.257802	0.173014
576.469890	0.173136
576.681961	0.173327
576.894013	0.173781
577.106046	0.173887
577.318062	0.174405
577.530059	0.174489
577.742039	0.174824
577.954000	0.175166
578.165942	0.175900
578.377867	0.176114
578.589773	0.175846
578.801661	0.175977
579.013531	0.176029
579.225382	0.175819
579.437216	0.175745
579.649031	0.175566
579.860828	0.175689
580.072606	0.175804
580.284367	0.176197
580.496109	0.176412
580.707833	0.176592
580.919539	0.177097
581.131227	0.177200
581.342896	0.177194
581.554547	0.177304
581.766180	0.177731
581.977795	0.177779
582.189391	0.178025
582.400969	0.178567
582.612529	0.178889
582.824071	0.178932
583.035595	0.179358
583.247100	0.179869
583.458587	0.180248
583.670056	0.180569
583.881506	0.180614
584.092939	0.180418
584.304353	0.180400
584.515749	0.180397
584.727127	0.180619
584.938486	0.180684
585.149828	0.181097
585.361151	0.181575
585.572456	0.181268
585.783742	0.181402
585.995011	0.182152
586.206261	0.182637
586.417493	0.182906
586.628706	0.182897
586.839902	0.183342
587.051079	0.183421
587.262238	0.183155
587.473379	0.183640
587.684502	0.184171
587.895606	0.184293
588.106692	0.183981
588.317760	0.184166
588.528810	0.184629
588.739841	0.184663
588.950855	0.184715
589.161850	0.185364
589.372827	0.185762
589.583785	0.185552
589.794726	0.185489
590.005648	0.185840
590.216552	0.185981
590.427437	0.186317
590.638305	0.186519
590.849154	0.186819
591.059985	0.187197
591.270798	0.186949
591.481592	0.186969
591.692369	0.187348
591.903127	0.187424
592.113867	0.187497
592.324588	0.187621
592.535292	0.187629
592.745977	0.187700
592.956644	0.187678
593.167293	0.188240
593.377923	0.188891
593.588536	0.188919
593.799130	0.189057
594.009706	0.189153
594.220263	0.189330
594.430803	0.189893
594.641324	0.190066
594.851827	0.190121
595.062312	0.190380
595.272778	0.190438
595.483227	0.190719
595.693657	0.190903
595.904069	0.191281
596.114462	0.191285
596.324838	0.191224
596.535195	0.191525
596.745534	0.191660
596.955855	0.191967
597.166157	0.192205
597.376441	0.192123
597.586707	0.192364
597.796955	0.192371
598.007185	0.192058
598.217396	0.192041
598.427589	0.191871
598.637764	0.192141
598.847921	0.191810
599.058060	0.191909
599.268180	0.192322
599.478282	0.192342
599.688366	0.192497
599.898431	0.193055
600.108479	0.193272
600.318508	0.193639
600.528519	0.193480
600.738511	0.194207
600.948486	0.194242
601.158442	0.194421
601.368380	0.194705
601.578300	0.195325
601.788202	0.195504
601.998085	0.195959
602.207950	0.196243
602.417797	0.196765
602.627626	0.196955
602.837436	0.197472
603.047228	0.197394
603.257002	0.198000
603.466758	0.197715
603.676496	0.198386
603.886215	0.198358
604.095916	0.198719
604.305599	0.198444
604.515264	0.198114
604.724910	0.198325
604.934538	0.198769
605.144148	0.198982
605.353740	0.199193
605.563314	0.198827
605.772869	0.199168
605.982406	0.198955
606.191925	0.199224
606.401425	0.199614
606.610908	0.199754
606.820372	0.199766
607.029818	0.199654
607.239246	0.200223
607.448655	0.200475
607.658047	0.200347
607.867420	0.200807
608.076775	0.201349
608.286111	0.201276
608.495430	0.201376
608.704730	0.201299
608.914012	0.201451
609.123275	0.201464
609.332521	0.201623
609.541748	0.202103
609.750957	0.202363
609.960148	0.202272
610.169321	0.202696
610.378475	0.202792
610.587611	0.203499
610.796729	0.203469
611.005829	0.203310
611.214910	0.203496
611.423974	0.203652
611.633019	0.203783
611.842045	0.203916
612.051054	0.204099
612.260044	0.204311
612.469017	0.204064
612.677970	0.204177
612.886906	0.204455
613.095824	0.204865
613.304723	0.205035
613.513604	0.205308
613.722467	0.205652
613.931311	0.205833
614.140138	0.206115
614.348946	0.206372
614.557736	0.206973
614.766507	0.207600
614.975261	0.207691
615.183996	0.207891
615.392713	0.207868
615.601412	0.207822
615.810092	0.207836
616.018754	0.207612
616.227399	0.207903
616.436024	0.208078
616.644632	0.207914
616.853222	0.208048
617.061793	0.208213
617.270346	0.208345
617.478880	0.208730
617.687397	0.209102
617.895895	0.209580
618.104375	0.209751
618.312837	0.209783
618.521281	0.209793
618.729706	0.209836
618.938113	0.209707
619.146502	0.209994
619.354873	0.209993
619.563226	0.210149
619.771560	0.210201
619.979876	0.210458
620.188174	0.210950
620.396453	0.211505
620.604715	0.211621
620.812958	0.211930
621.021183	0.212088
621.229390	0.212496
621.437578	0.212600
621.645748	0.212840
621.853900	0.212886
622.062034	0.212458
622.270150	0.212444
622.478247	0.212758
622.686326	0.213139
622.894387	0.213465
623.102430	0.213559
623.310454	0.213715
623.518461	0.213626
623.726449	0.213735
623.934418	0.213936
624.142370	0.214031
624.350303	0.214223
624.558218	0.214225
624.766115	0.214109
624.973994	0.214424
625.181855	0.214581
625.389697	0.214871
625.597521	0.215021
625.805327	0.215475
626.013114	0.215676
626.220883	0.215885
626.428634	0.215929
626.636367	0.216359
626.844082	0.216057
627.051778	0.216033
627.259457	0.216106
627.467117	0.216349
627.674758	0.216354
627.882382	0.216732
628.089987	0.216886
628.297574	0.217320
628.505143	0.217461
628.712694	0.217919
628.920226	0.218324
629.127740	0.218657
629.335236	0.218744
629.542714	0.218957
629.750174	0.218791
629.957615	0.218783
630.165038	0.218822
630.372443	0.218723
630.579829	0.219006
630.787198	0.219234
630.994548	0.219509
631.201880	0.219794
631.409194	0.219937
631.616489	0.220164
631.823766	0.220161
632.031025	0.220451
632.238266	0.220820
632.445489	0.220969
632.652693	0.221347
632.859879	0.221308
633.067047	0.221419
633.274197	0.221581
633.481329	0.221667
633.688442	0.222053
633.895537	0.222166
634.102614	0.222374
634.309672	0.222244
634.516713	0.222017
634.723735	0.222322
634.930739	0.222644
635.137724	0.223082
635.344692	0.223398
635.551641	0.223439
635.758572	0.223472
635.965485	0.223614
636.172379	0.224080
636.379256	0.224151
636.586114	0.223994
636.792954	0.224007
636.999775	0.223958
637.206579	0.224149
637.413364	0.224663
637.620131	0.224856
637.826880	0.225040
638.033610	0.225067
638.240323	0.225623
638.447017	0.226097
638.653692	0.226349
638.860350	0.226726
639.066990	0.227145
639.273611	0.227140
639.480214	0.227453
639.686798	0.227567
639.893365	0.227766
640.099913	0.227974
640.306443	0.228306
640.512955	0.228442
640.719449	0.228448
640.925924	0.228459
641.132381	0.228782
641.338820	0.229075
641.545241	0.229510
641.751644	0.229893
641.958028	0.229722
642.164394	0.229836
642.370742	0.230019
642.577071	0.230194
642.783383	0.230262
642.989676	0.230506
643.195951	0.230605
643.402207	0.230604
643.608446	0.230564
643.814666	0.230969
644.020868	0.231436
644.227052	0.231542
644.433218	0.232079
644.639365	0.232480
644.845494	0.232498
645.051605	0.232527
645.257698	0.232581
645.463772	0.232807
645.669828	0.232925
645.875866	0.232663
646.081886	0.233165
646.287888	0.232992
646.493871	0.233166
646.699836	0.233411
646.905783	0.233670
647.111712	0.233759
647.317622	0.234015
647.523514	0.234204
647.729388	0.234676
647.935244	0.234843
648.141082	0.235261
648.346901	0.235410
648.552702	0.235749
648.758485	0.236067
648.964250	0.236554
649.169996	0.236740
649.375724	0.237051
649.581434	0.236930
649.787126	0.237276
649.992800	0.237285
650.198455	0.237321
650.404092	0.237528
650.609711	0.237751
650.815311	0.237988
651.020894	0.238221
651.226458	0.238378
651.432004	0.238993
651.637532	0.239054
651.843041	0.239159
652.048532	0.239659
652.254006	0.239785
652.459460	0.240014
652.664897	0.240236
652.870315	0.240572
653.075716	0.240731
653.281097	0.240690
653.486461	0.240792
653.691807	0.241001
653.897134	0.241211
654.102443	0.241485
654.307734	0.241623
654.513006	0.241774
654.718261	0.241785
654.923497	0.242225
655.128715	0.242459
655.333915	0.242918
655.539096	0.243470
655.744259	0.243724
655.949404	0.243818
656.154531	0.244105
656.359640	0.244342
656.564730	0.244779
656.769802	0.245084
656.974856	0.245476
657.179892	0.245294
657.384909	0.245366
657.589908	0.245567
657.794889	0.245883
657.999852	0.246188
658.204797	0.246554
658.409723	0.246787
658.614631	0.246784
658.819521	0.247040
659.024393	0.247505
659.229246	0.247945
659.434081	0.247999
659.638898	0.248358
659.843697	0.248417
660.048478	0.248370
660.253240	0.248676
660.457984	0.248969
660.662710	0.249015
660.867417	0.249178
661.072107	0.248872
661.276778	0.249065
661.481431	0.249232
661.686066	0.249246
661.890682	0.249398
662.095281	0.249142
662.299861	0.249262
662.504422	0.249417
662.708966	0.249766
662.913491	0.250326
663.117999	0.250692
663.322488	0.250703
663.526958	0.251174
663.731411	0.251605
663.935845	0.252335
664.140261	0.252597
664.344659	0.252944
664.549038	0.253347
664.753400	0.253586
664.957743	0.253926
665.162068	0.254527
665.366375	0.254859
665.570663	0.255059
665.774933	0.255157
665.979185	0.255567
666.183419	0.255987
666.387635	0.256144
666.591832	0.256435
666.796011	0.256814
667.000172	0.256814
667.204315	0.256976
667.408439	0.257342
667.612545	0.257393
667.816634	0.257571
668.020703	0.257542
668.224755	0.257497
668.428788	0.257827
668.632803	0.257741
668.836800	0.257687
669.040779	0.257858
669.244739	0.257935
669.448681	0.258322
669.652605	0.258435
669.856511	0.258913
670.060399	0.259274
670.264268	0.259533
670.468119	0.259930
670.671952	0.260504
670.875767	0.260866
671.079563	0.261200
671.283341	0.261560
671.487101	0.261857
671.690843	0.262123
671.894567	0.262424
672.098272	0.262467
672.301959	0.262671
672.505628	0.262977
672.709278	0.263364
672.912911	0.263458
673.116525	0.263734
673.320121	0.264113
673.523699	0.264404
673.727258	0.264421
673.930799	0.264889
674.134322	0.265093
674.337827	0.265440
674.541314	0.265600
674.744782	0.265924
674.948232	0.266061
675.151664	0.265984
675.355078	0.266072
675.558474	0.266285
675.761851	0.266593
675.965210	0.266976
676.168551	0.266976
676.371873	0.267277
676.575178	0.267798
676.778464	0.268136
676.981732	0.268454
677.184981	0.268820
677.388213	0.269455
677.591426	0.269475
677.794621	0.269720
677.997798	0.270128
678.200956	0.270466
678.404097	0.270376
678.607219	0.270447
678.810323	0.270840
679.013408	0.270778
679.216476	0.271099
679.419525	0.271362
679.622556	0.271456
679.825569	0.271896
680.028563	0.271904
680.231540	0.272029
680.434498	0.272243
680.637438	0.272641
680.840359	0.272955
681.043263	0.272946
681.246148	0.273247
681.449015	0.273397
681.651864	0.273250
681.854694	0.273514
682.057506	0.273938
682.260301	0.274215
682.463076	0.274261
682.665834	0.274702
682.868573	0.275065
683.071295	0.275142
683.273998	0.275536
683.476682	0.275793
683.679349	0.276129
683.881997	0.276242
684.084627	0.276491
684.287239	0.276614
684.489833	0.276722
684.692408	0.276899
684.894965	0.277164
685.097504	0.277218
685.300025	0.277496
685.502527	0.277647
685.705012	0.277974
685.907478	0.277930
686.109925	0.278253
686.312355	0.278517
686.514766	0.278546
686.717159	0.278725
686.919534	0.279206
687.121891	0.279267
687.324230	0.279386
687.526550	0.279744
687.728852	0.280355
687.931136	0.280694
688.133401	0.280815
688.335649	0.281204
688.537878	0.281624
688.740089	0.281637
688.942281	0.282198
689.144456	0.282358
689.346612	0.282356
689.548750	0.282542
689.750870	0.282692
689.952971	0.283258
690.155055	0.283514
690.357120	0.283436
690.559167	0.283616
690.761195	0.283772
690.963206	0.284273
691.165198	0.284612
691.367172	0.284887
691.569128	0.284848
691.771065	0.284839
691.972984	0.284940
692.174885	0.285296
692.376768	0.285605
692.578633	0.285800
692.780479	0.285762
692.982308	0.285854
693.184118	0.286102
693.385909	0.286594
