sample name	sample
index	1096
start time	 04-22-2021  11:59:09 AM


Wavelength (nm)	Absorbance
494.344910	0.133632
494.563924	0.133632
494.782919	0.133632
495.001897	0.272644
495.220856	0.120103
495.439797	0.095560
495.658719	0.137672
495.877624	0.145249
496.096510	0.135750
496.315378	0.091259
496.534227	0.077614
496.753059	0.037137
496.971872	0.062290
497.190667	0.124245
497.409444	0.127896
497.628203	0.130078
497.846943	0.129702
498.065665	0.131218
498.284369	0.130618
498.503055	0.130116
498.721723	0.131375
498.940372	0.131970
499.159003	0.131314
499.377616	0.131932
499.596210	0.131834
499.814787	0.132778
500.033345	0.132232
500.251885	0.132355
500.470406	0.132746
500.688910	0.132787
500.907395	0.133549
501.125862	0.133387
501.344311	0.133957
501.562742	0.132940
501.781154	0.132673
501.999548	0.133051
502.217924	0.133626
502.436282	0.135603
502.654621	0.135317
502.872942	0.135185
503.091245	0.136958
503.309530	0.136662
503.527797	0.137705
503.746045	0.138450
503.964275	0.138519
504.182487	0.137937
504.400681	0.136611
504.618856	0.137240
504.837013	0.136360
505.055152	0.135999
505.273273	0.137291
505.491376	0.137542
505.709460	0.137544
505.927526	0.138096
506.145574	0.139248
506.363604	0.139270
506.581615	0.139529
506.799608	0.140871
507.017583	0.141587
507.235540	0.140757
507.453478	0.141933
507.671399	0.142350
507.889301	0.142325
508.107185	0.141644
508.325050	0.142074
508.542898	0.142451
508.760727	0.142219
508.978538	0.141563
509.196330	0.142164
509.414105	0.141645
509.631861	0.142045
509.849599	0.142059
510.067319	0.143369
510.285021	0.143580
510.502704	0.143420
510.720369	0.143483
510.938016	0.143841
511.155645	0.144252
511.373255	0.144620
511.590848	0.143863
511.808422	0.144673
512.025977	0.144952
512.243515	0.145184
512.461034	0.145581
512.678536	0.145919
512.896018	0.146350
513.113483	0.146205
513.330930	0.146667
513.548358	0.146730
513.765768	0.146898
513.983160	0.146496
514.200533	0.146107
514.417889	0.146619
514.635226	0.146324
514.852545	0.147329
515.069845	0.147518
515.287128	0.146641
515.504392	0.146972
515.721638	0.147325
515.938866	0.147515
516.156075	0.148141
516.373267	0.147796
516.590440	0.148313
516.807594	0.147859
517.024731	0.147982
517.241850	0.149445
517.458950	0.149920
517.676032	0.149636
517.893095	0.149500
518.110141	0.150257
518.327168	0.151024
518.544177	0.151665
518.761168	0.151838
518.978141	0.152869
519.195095	0.152927
519.412031	0.153859
519.628949	0.154259
519.845849	0.155447
520.062731	0.156345
520.279594	0.157600
520.496439	0.157607
520.713266	0.157928
520.930074	0.157154
521.146865	0.157237
521.363637	0.156810
521.580391	0.156556
521.797127	0.156424
522.013844	0.156057
522.230543	0.155820
522.447224	0.156476
522.663887	0.157034
522.880532	0.158028
523.097158	0.158832
523.313766	0.159316
523.530356	0.160287
523.746928	0.160605
523.963481	0.160978
524.180017	0.161159
524.396534	0.161462
524.613032	0.161781
524.829513	0.161990
525.045975	0.161197
525.262420	0.160577
525.478845	0.161379
525.695253	0.162134
525.911643	0.163133
526.128014	0.163090
526.344367	0.163419
526.560702	0.162942
526.777018	0.163359
526.993316	0.164176
527.209597	0.165965
527.425858	0.165255
527.642102	0.165258
527.858328	0.164616
528.074535	0.165116
528.290724	0.165343
528.506894	0.166323
528.723047	0.166048
528.939181	0.166377
529.155297	0.166159
529.371395	0.166971
529.587475	0.167535
529.803536	0.168105
530.019579	0.168484
530.235604	0.169367
530.451611	0.170108
530.667600	0.171003
530.883570	0.171159
531.099522	0.171583
531.315456	0.172192
531.531372	0.172362
531.747269	0.172882
531.963148	0.173844
532.179009	0.174090
532.394852	0.173433
532.610676	0.173598
532.826482	0.173862
533.042271	0.174629
533.258040	0.174792
533.473792	0.174708
533.689525	0.174885
533.905240	0.174505
534.120937	0.174018
534.336616	0.174217
534.552277	0.174500
534.767919	0.174517
534.983543	0.175020
535.199149	0.175821
535.414736	0.176847
535.630306	0.176964
535.845857	0.176259
536.061390	0.176870
536.276904	0.177621
536.492401	0.178347
536.707879	0.178991
536.923339	0.178675
537.138781	0.178757
537.354204	0.179217
537.569610	0.179919
537.784997	0.181217
538.000366	0.182207
538.215716	0.183581
538.431049	0.183724
538.646363	0.184157
538.861659	0.184719
539.076937	0.185014
539.292196	0.184718
539.507438	0.184965
539.722661	0.185143
539.937866	0.184652
540.153052	0.184351
540.368221	0.184712
540.583371	0.185236
540.798503	0.185402
541.013617	0.185563
541.228712	0.186438
541.443789	0.186787
541.658848	0.187990
541.873889	0.188819
542.088912	0.189581
542.303916	0.189864
542.518902	0.190088
542.733870	0.190156
542.948820	0.189889
543.163752	0.189551
543.378665	0.189331
543.593560	0.189052
543.808437	0.189256
544.023295	0.189164
544.238136	0.188849
544.452958	0.189645
544.667762	0.189997
544.882548	0.190973
545.097315	0.191453
545.312064	0.191743
545.526795	0.191649
545.741508	0.191910
545.956203	0.191914
546.170879	0.192487
546.385537	0.191691
546.600177	0.192080
546.814799	0.192266
547.029402	0.193308
547.243988	0.194433
547.458555	0.194799
547.673103	0.195072
547.887634	0.195672
548.102146	0.196144
548.316640	0.196266
548.531116	0.196514
548.745574	0.196672
548.960013	0.196308
549.174435	0.195718
549.388838	0.196025
549.603222	0.195909
549.817589	0.195930
550.031937	0.195972
550.246267	0.196728
550.460579	0.197445
550.674873	0.197359
550.889148	0.197097
551.103405	0.197518
551.317644	0.198247
551.531865	0.198351
551.746068	0.198651
551.960252	0.198785
552.174418	0.199068
552.388566	0.199105
552.602696	0.199301
552.816807	0.199887
553.030900	0.200097
553.244975	0.199839
553.459032	0.200790
553.673070	0.200614
553.887091	0.201112
554.101093	0.201030
554.315077	0.200905
554.529042	0.201450
554.742990	0.201368
554.956919	0.201600
555.170830	0.201996
555.384722	0.201793
555.598597	0.202329
555.812453	0.202349
556.026291	0.202739
556.240111	0.203047
556.453913	0.203020
556.667696	0.203624
556.881461	0.203888
557.095208	0.203786
557.308937	0.204228
557.522647	0.204156
557.736339	0.204582
557.950013	0.204845
558.163669	0.204845
558.377307	0.205179
558.590926	0.205378
558.804527	0.205295
559.018110	0.205482
559.231675	0.205806
559.445221	0.205922
559.658749	0.206173
559.872259	0.206393
560.085751	0.206500
560.299225	0.206319
560.512680	0.206381
560.726117	0.206437
560.939536	0.206735
561.152937	0.206408
561.366319	0.206269
561.579683	0.206280
561.793029	0.206092
562.006357	0.206245
562.219667	0.206615
562.432958	0.206953
562.646231	0.207591
562.859486	0.208009
563.072723	0.208548
563.285941	0.209055
563.499141	0.208555
563.712323	0.208889
563.925487	0.208942
564.138632	0.208858
564.351760	0.208783
564.564869	0.208079
564.777960	0.208040
564.991032	0.207972
565.204087	0.207989
565.417123	0.208512
565.630141	0.208423
565.843140	0.208882
566.056122	0.209426
566.269085	0.209330
566.482030	0.210176
566.694957	0.210308
566.907866	0.210075
567.120756	0.210299
567.333628	0.210388
567.546482	0.210929
567.759318	0.211025
567.972135	0.211052
568.184935	0.211226
568.397716	0.211590
568.610478	0.211440
568.823223	0.212070
569.035949	0.212274
569.248657	0.212374
569.461347	0.212598
569.674019	0.212685
569.886672	0.212900
570.099308	0.213102
570.311925	0.213216
570.524523	0.213533
570.737104	0.213375
570.949666	0.213409
571.162210	0.213606
571.374736	0.213481
571.587244	0.213352
571.799733	0.214175
572.012205	0.214416
572.224658	0.214356
572.437092	0.214571
572.649509	0.214435
572.861907	0.214934
573.074287	0.214803
573.286649	0.215352
573.498993	0.215598
573.711318	0.214882
573.923625	0.214580
574.135914	0.215030
574.348185	0.215542
574.560438	0.215878
574.772672	0.215603
574.984888	0.216453
575.197086	0.215943
575.409266	0.216252
575.621427	0.216574
575.833570	0.217028
576.045695	0.216664
576.257802	0.216069
576.469890	0.216528
576.681961	0.217113
576.894013	0.217216
577.106046	0.217768
577.318062	0.217815
577.530059	0.217471
577.742039	0.217297
577.954000	0.217797
578.165942	0.218219
578.377867	0.218200
578.589773	0.217913
578.801661	0.218191
579.013531	0.218281
579.225382	0.218663
579.437216	0.219453
579.649031	0.219903
579.860828	0.220072
580.072606	0.220296
580.284367	0.220175
580.496109	0.220871
580.707833	0.220281
580.919539	0.220298
581.131227	0.220458
581.342896	0.220351
581.554547	0.220646
581.766180	0.220404
581.977795	0.220455
582.189391	0.220664
582.400969	0.220520
582.612529	0.220560
582.824071	0.220456
583.035595	0.220318
583.247100	0.220354
583.458587	0.220652
583.670056	0.220860
583.881506	0.221388
584.092939	0.221762
584.304353	0.221694
584.515749	0.222316
584.727127	0.222631
584.938486	0.222948
585.149828	0.223343
585.361151	0.222954
585.572456	0.223062
585.783742	0.222811
585.995011	0.222853
586.206261	0.223204
586.417493	0.223732
586.628706	0.223735
586.839902	0.223905
587.051079	0.224056
587.262238	0.224680
587.473379	0.224731
587.684502	0.224794
587.895606	0.225065
588.106692	0.224835
588.317760	0.224425
588.528810	0.224865
588.739841	0.225132
588.950855	0.224890
589.161850	0.224737
589.372827	0.225031
589.583785	0.225146
589.794726	0.225034
590.005648	0.225492
590.216552	0.225747
590.427437	0.225990
590.638305	0.225997
590.849154	0.226362
591.059985	0.226529
591.270798	0.226836
591.481592	0.227468
591.692369	0.228068
591.903127	0.228245
592.113867	0.228761
592.324588	0.228848
592.535292	0.229154
592.745977	0.229758
592.956644	0.230396
593.167293	0.230631
593.377923	0.230656
593.588536	0.230546
593.799130	0.230720
594.009706	0.230597
594.220263	0.230831
594.430803	0.230858
594.641324	0.230475
594.851827	0.230562
595.062312	0.229968
595.272778	0.229964
595.483227	0.229971
595.693657	0.229869
595.904069	0.230024
596.114462	0.229946
596.324838	0.230003
596.535195	0.230105
596.745534	0.229589
596.955855	0.230353
597.166157	0.230104
597.376441	0.230659
597.586707	0.231166
597.796955	0.231519
598.007185	0.231718
598.217396	0.231762
598.427589	0.232191
598.637764	0.232518
598.847921	0.232604
599.058060	0.232904
599.268180	0.232567
599.478282	0.232722
599.688366	0.232431
599.898431	0.232752
600.108479	0.232818
600.318508	0.232986
600.528519	0.232931
600.738511	0.232889
600.948486	0.233125
601.158442	0.233459
601.368380	0.233520
601.578300	0.233771
601.788202	0.233615
601.998085	0.234117
602.207950	0.234088
602.417797	0.234762
602.627626	0.235005
602.837436	0.234951
603.047228	0.235334
603.257002	0.235637
603.466758	0.235890
603.676496	0.236096
603.886215	0.236184
604.095916	0.236296
604.305599	0.236227
604.515264	0.236447
604.724910	0.236833
604.934538	0.236746
605.144148	0.236433
605.353740	0.236875
605.563314	0.237146
605.772869	0.237316
605.982406	0.237820
606.191925	0.237913
606.401425	0.238229
606.610908	0.238327
606.820372	0.238507
607.029818	0.238953
607.239246	0.238693
607.448655	0.238970
607.658047	0.238919
607.867420	0.238671
608.076775	0.239064
608.286111	0.238957
608.495430	0.239148
608.704730	0.239390
608.914012	0.239458
609.123275	0.239662
609.332521	0.239666
609.541748	0.240007
609.750957	0.240433
609.960148	0.240062
610.169321	0.240337
610.378475	0.240474
610.587611	0.240632
610.796729	0.240598
611.005829	0.240620
611.214910	0.240597
611.423974	0.240394
611.633019	0.240610
611.842045	0.241107
612.051054	0.241157
612.260044	0.241299
612.469017	0.241277
612.677970	0.241461
612.886906	0.241412
613.095824	0.241901
613.304723	0.242248
613.513604	0.241885
613.722467	0.242017
613.931311	0.242011
614.140138	0.241978
614.348946	0.242197
614.557736	0.242726
614.766507	0.243079
614.975261	0.242851
615.183996	0.242959
615.392713	0.243324
615.601412	0.243505
615.810092	0.243956
616.018754	0.244217
616.227399	0.244299
616.436024	0.243909
616.644632	0.243963
616.853222	0.244276
617.061793	0.244389
617.270346	0.244476
617.478880	0.244458
617.687397	0.244587
617.895895	0.244753
618.104375	0.244687
618.312837	0.245081
618.521281	0.245443
618.729706	0.245477
618.938113	0.245328
619.146502	0.245095
619.354873	0.245270
619.563226	0.245109
619.771560	0.245165
619.979876	0.245379
620.188174	0.245757
620.396453	0.245681
620.604715	0.245976
620.812958	0.246637
621.021183	0.247076
621.229390	0.247074
621.437578	0.247183
621.645748	0.247461
621.853900	0.247787
622.062034	0.247662
622.270150	0.248147
622.478247	0.248363
622.686326	0.248382
622.894387	0.248589
623.102430	0.249193
623.310454	0.249456
623.518461	0.249587
623.726449	0.249790
623.934418	0.250003
624.142370	0.249927
624.350303	0.249941
624.558218	0.250127
624.766115	0.250233
624.973994	0.250125
625.181855	0.250012
625.389697	0.250204
625.597521	0.250077
625.805327	0.250004
626.013114	0.250033
626.220883	0.250006
626.428634	0.250041
626.636367	0.250431
626.844082	0.250567
627.051778	0.251096
627.259457	0.251309
627.467117	0.251710
627.674758	0.252029
627.882382	0.252319
628.089987	0.252323
628.297574	0.252329
628.505143	0.252439
628.712694	0.252513
628.920226	0.252610
629.127740	0.252542
629.335236	0.252616
629.542714	0.252762
629.750174	0.252979
629.957615	0.253428
630.165038	0.253914
630.372443	0.254391
630.579829	0.254740
630.787198	0.254787
630.994548	0.255093
631.201880	0.255223
631.409194	0.255864
631.616489	0.255890
631.823766	0.256089
632.031025	0.256154
632.238266	0.255781
632.445489	0.255965
632.652693	0.256142
632.859879	0.256413
633.067047	0.256583
633.274197	0.256249
633.481329	0.256967
633.688442	0.257064
633.895537	0.257226
634.102614	0.257314
634.309672	0.257469
634.516713	0.257766
634.723735	0.257732
634.930739	0.257829
635.137724	0.258055
635.344692	0.257797
635.551641	0.257969
635.758572	0.257986
635.965485	0.258493
636.172379	0.258359
636.379256	0.258312
636.586114	0.258477
636.792954	0.258609
636.999775	0.259181
637.206579	0.259399
637.413364	0.259625
637.620131	0.259754
637.826880	0.259607
638.033610	0.259953
638.240323	0.260282
638.447017	0.260335
638.653692	0.260353
638.860350	0.259885
639.066990	0.259934
639.273611	0.259984
639.480214	0.260265
639.686798	0.260493
639.893365	0.260933
640.099913	0.261204
640.306443	0.261614
640.512955	0.262063
640.719449	0.262274
640.925924	0.262532
641.132381	0.262811
641.338820	0.262986
641.545241	0.263012
641.751644	0.262930
641.958028	0.262932
642.164394	0.262994
642.370742	0.263035
642.577071	0.263286
642.783383	0.263421
642.989676	0.263299
643.195951	0.263399
643.402207	0.263871
643.608446	0.264131
643.814666	0.264612
644.020868	0.264803
644.227052	0.265249
644.433218	0.265745
644.639365	0.265758
644.845494	0.266157
645.051605	0.266622
645.257698	0.266828
645.463772	0.267152
645.669828	0.267213
645.875866	0.267644
646.081886	0.267941
646.287888	0.268110
646.493871	0.268528
646.699836	0.268619
646.905783	0.268825
647.111712	0.269006
647.317622	0.269123
647.523514	0.269295
647.729388	0.269229
647.935244	0.269292
648.141082	0.269550
648.346901	0.269814
648.552702	0.270401
648.758485	0.270384
648.964250	0.270514
649.169996	0.270575
649.375724	0.270577
649.581434	0.270879
649.787126	0.271016
649.992800	0.271044
650.198455	0.271370
650.404092	0.271276
650.609711	0.271526
650.815311	0.271651
651.020894	0.271889
651.226458	0.272164
651.432004	0.272515
651.637532	0.272733
651.843041	0.273006
652.048532	0.272835
652.254006	0.273025
652.459460	0.273242
652.664897	0.273481
652.870315	0.273694
653.075716	0.273920
653.281097	0.273902
653.486461	0.273999
653.691807	0.273883
653.897134	0.274116
654.102443	0.274350
654.307734	0.274510
654.513006	0.274855
654.718261	0.274985
654.923497	0.275232
655.128715	0.275520
655.333915	0.275902
655.539096	0.276238
655.744259	0.276481
655.949404	0.276752
656.154531	0.276904
656.359640	0.276885
656.564730	0.277200
656.769802	0.277267
656.974856	0.277488
657.179892	0.277551
657.384909	0.277698
657.589908	0.277988
657.794889	0.277920
657.999852	0.278127
658.204797	0.278456
658.409723	0.278686
658.614631	0.279208
658.819521	0.279360
659.024393	0.279686
659.229246	0.279947
659.434081	0.280098
659.638898	0.280749
659.843697	0.281130
660.048478	0.281318
660.253240	0.281478
660.457984	0.281613
660.662710	0.281696
660.867417	0.281748
661.072107	0.281947
661.276778	0.282175
661.481431	0.282288
661.686066	0.282480
661.890682	0.282820
662.095281	0.283168
662.299861	0.283184
662.504422	0.283421
662.708966	0.283828
662.913491	0.283949
663.117999	0.284075
663.322488	0.284054
663.526958	0.284085
663.731411	0.284094
663.935845	0.284119
664.140261	0.284373
664.344659	0.284598
664.549038	0.284768
664.753400	0.285101
664.957743	0.285422
665.162068	0.285717
665.366375	0.285966
665.570663	0.286160
665.774933	0.286539
665.979185	0.286838
666.183419	0.286978
666.387635	0.287159
666.591832	0.287170
666.796011	0.287477
667.000172	0.287620
667.204315	0.287740
667.408439	0.288155
667.612545	0.288301
667.816634	0.288629
668.020703	0.288967
668.224755	0.289062
668.428788	0.289563
668.632803	0.289781
668.836800	0.290056
669.040779	0.290393
669.244739	0.290514
669.448681	0.290585
669.652605	0.290794
669.856511	0.290998
670.060399	0.291358
670.264268	0.291541
670.468119	0.291496
670.671952	0.291846
670.875767	0.292153
671.079563	0.292444
671.283341	0.292777
671.487101	0.293064
671.690843	0.293224
671.894567	0.293222
672.098272	0.293489
672.301959	0.293932
672.505628	0.294142
672.709278	0.294473
672.912911	0.294920
673.116525	0.295369
673.320121	0.295583
673.523699	0.296316
673.727258	0.296810
673.930799	0.297228
674.134322	0.297620
674.337827	0.298126
674.541314	0.298361
674.744782	0.298460
674.948232	0.298580
675.151664	0.298733
675.355078	0.298737
675.558474	0.299044
675.761851	0.299101
675.965210	0.299239
676.168551	0.299497
676.371873	0.299510
676.575178	0.299844
676.778464	0.300030
676.981732	0.300325
677.184981	0.300324
677.388213	0.300519
677.591426	0.300684
677.794621	0.300950
677.997798	0.300804
678.200956	0.301098
678.404097	0.301115
678.607219	0.301116
678.810323	0.301260
679.013408	0.301413
679.216476	0.301477
679.419525	0.301598
679.622556	0.301626
679.825569	0.302028
680.028563	0.302214
680.231540	0.302423
680.434498	0.302803
680.637438	0.302819
680.840359	0.303201
681.043263	0.303431
681.246148	0.303880
681.449015	0.304167
681.651864	0.304168
681.854694	0.304204
682.057506	0.304235
682.260301	0.304517
682.463076	0.305010
682.665834	0.305262
682.868573	0.305594
683.071295	0.305865
683.273998	0.305972
683.476682	0.306293
683.679349	0.306811
683.881997	0.307345
684.084627	0.307566
684.287239	0.307446
684.489833	0.307503
684.692408	0.307695
684.894965	0.307836
685.097504	0.308331
685.300025	0.308562
685.502527	0.308650
685.705012	0.308833
685.907478	0.309030
686.109925	0.309353
686.312355	0.309777
686.514766	0.310050
686.717159	0.310007
686.919534	0.310066
687.121891	0.310289
687.324230	0.310353
687.526550	0.310254
687.728852	0.310535
687.931136	0.310593
688.133401	0.310808
688.335649	0.310785
688.537878	0.311144
688.740089	0.311373
688.942281	0.311315
689.144456	0.311757
689.346612	0.312178
689.548750	0.312230
689.750870	0.312752
689.952971	0.312690
690.155055	0.313121
690.357120	0.313436
690.559167	0.313413
690.761195	0.313858
690.963206	0.314130
691.165198	0.314277
691.367172	0.314352
691.569128	0.314034
691.771065	0.314354
691.972984	0.314081
692.174885	0.314187
692.376768	0.314375
692.578633	0.314541
692.780479	0.314426
692.982308	0.314385
693.184118	0.314549
693.385909	0.314896
