sample name	sample
index	1443
start time	 05-10-2021  01:08:30 PM


Wavelength (nm)	Absorbance
494.344910	0.007442
494.563924	0.007442
494.782919	0.007442
495.001897	0.010818
495.220856	0.003428
495.439797	0.006623
495.658719	0.008933
495.877624	0.005265
496.096510	0.011180
496.315378	0.015800
496.534227	0.011434
496.753059	0.007413
496.971872	0.007373
497.190667	0.033694
497.409444	0.049377
497.628203	0.059689
497.846943	0.064480
498.065665	0.064525
498.284369	0.065024
498.503055	0.067726
498.721723	0.069224
498.940372	0.070668
499.159003	0.071951
499.377616	0.071804
499.596210	0.070934
499.814787	0.070415
500.033345	0.071207
500.251885	0.071816
500.470406	0.071572
500.688910	0.071840
500.907395	0.071394
501.125862	0.070900
501.344311	0.072237
501.562742	0.072969
501.781154	0.073021
501.999548	0.072300
502.217924	0.072454
502.436282	0.072479
502.654621	0.072332
502.872942	0.073325
503.091245	0.073133
503.309530	0.072820
503.527797	0.072347
503.746045	0.073104
503.964275	0.073979
504.182487	0.074477
504.400681	0.075668
504.618856	0.075260
504.837013	0.075654
505.055152	0.076102
505.273273	0.075464
505.491376	0.076121
505.709460	0.077099
505.927526	0.077415
506.145574	0.077351
506.363604	0.076566
506.581615	0.076792
506.799608	0.077472
507.017583	0.078231
507.235540	0.078949
507.453478	0.078773
507.671399	0.077972
507.889301	0.077243
508.107185	0.076853
508.325050	0.076721
508.542898	0.077376
508.760727	0.075550
508.978538	0.075048
509.196330	0.074675
509.414105	0.075150
509.631861	0.074558
509.849599	0.074481
510.067319	0.075436
510.285021	0.074812
510.502704	0.075023
510.720369	0.075648
510.938016	0.075172
511.155645	0.075138
511.373255	0.074799
511.590848	0.075631
511.808422	0.076255
512.025977	0.075433
512.243515	0.075989
512.461034	0.075607
512.678536	0.076128
512.896018	0.076390
513.113483	0.077114
513.330930	0.076601
513.548358	0.076000
513.765768	0.075626
513.983160	0.075912
514.200533	0.075915
514.417889	0.075979
514.635226	0.074866
514.852545	0.074644
515.069845	0.074732
515.287128	0.074924
515.504392	0.074735
515.721638	0.075309
515.938866	0.075785
516.156075	0.075364
516.373267	0.075339
516.590440	0.076000
516.807594	0.076653
517.024731	0.076625
517.241850	0.077216
517.458950	0.077119
517.676032	0.076821
517.893095	0.076119
518.110141	0.076620
518.327168	0.076279
518.544177	0.076492
518.761168	0.077455
518.978141	0.077539
519.195095	0.077491
519.412031	0.078106
519.628949	0.078204
519.845849	0.078656
520.062731	0.078753
520.279594	0.078683
520.496439	0.079007
520.713266	0.078007
520.930074	0.078525
521.146865	0.078118
521.363637	0.077887
521.580391	0.078612
521.797127	0.078552
522.013844	0.078567
522.230543	0.079119
522.447224	0.079422
522.663887	0.079275
522.880532	0.078452
523.097158	0.079362
523.313766	0.080377
523.530356	0.079936
523.746928	0.079909
523.963481	0.080214
524.180017	0.079834
524.396534	0.079996
524.613032	0.079972
524.829513	0.080436
525.045975	0.079858
525.262420	0.080309
525.478845	0.080465
525.695253	0.080781
525.911643	0.080452
526.128014	0.081375
526.344367	0.080899
526.560702	0.081345
526.777018	0.081311
526.993316	0.081825
527.209597	0.081336
527.425858	0.081699
527.642102	0.081355
527.858328	0.081401
528.074535	0.081682
528.290724	0.081686
528.506894	0.081604
528.723047	0.081563
528.939181	0.080806
529.155297	0.080657
529.371395	0.080639
529.587475	0.080887
529.803536	0.081034
530.019579	0.080378
530.235604	0.080686
530.451611	0.081433
530.667600	0.081552
530.883570	0.082292
531.099522	0.082312
531.315456	0.082625
531.531372	0.082924
531.747269	0.083461
531.963148	0.083366
532.179009	0.083713
532.394852	0.083441
532.610676	0.083296
532.826482	0.083244
533.042271	0.083706
533.258040	0.083676
533.473792	0.083777
533.689525	0.083587
533.905240	0.083867
534.120937	0.083901
534.336616	0.083710
534.552277	0.083481
534.767919	0.083873
534.983543	0.083376
535.199149	0.082859
535.414736	0.082799
535.630306	0.082792
535.845857	0.083033
536.061390	0.082964
536.276904	0.083317
536.492401	0.083983
536.707879	0.083433
536.923339	0.083775
537.138781	0.084436
537.354204	0.084582
537.569610	0.084586
537.784997	0.084467
538.000366	0.084490
538.215716	0.084818
538.431049	0.084642
538.646363	0.085145
538.861659	0.085171
539.076937	0.085262
539.292196	0.085024
539.507438	0.084996
539.722661	0.085467
539.937866	0.085214
540.153052	0.085293
540.368221	0.085843
540.583371	0.085441
540.798503	0.085480
541.013617	0.085119
541.228712	0.085343
541.443789	0.085427
541.658848	0.085131
541.873889	0.085309
542.088912	0.084871
542.303916	0.084539
542.518902	0.084866
542.733870	0.084679
542.948820	0.085096
543.163752	0.085442
543.378665	0.085969
543.593560	0.086321
543.808437	0.086621
544.023295	0.086504
544.238136	0.086557
544.452958	0.086656
544.667762	0.086548
544.882548	0.086589
545.097315	0.086511
545.312064	0.086345
545.526795	0.086296
545.741508	0.086339
545.956203	0.086635
546.170879	0.087020
546.385537	0.087229
546.600177	0.088054
546.814799	0.087961
547.029402	0.088695
547.243988	0.088960
547.458555	0.089214
547.673103	0.089288
547.887634	0.089237
548.102146	0.089318
548.316640	0.089638
548.531116	0.089604
548.745574	0.089401
548.960013	0.088693
549.174435	0.088997
549.388838	0.089305
549.603222	0.089243
549.817589	0.089500
550.031937	0.089988
550.246267	0.089803
550.460579	0.090005
550.674873	0.090581
550.889148	0.090635
551.103405	0.090400
551.317644	0.089742
551.531865	0.089847
551.746068	0.089758
551.960252	0.089295
552.174418	0.089724
552.388566	0.089601
552.602696	0.089559
552.816807	0.089420
553.030900	0.089830
553.244975	0.090426
553.459032	0.091020
553.673070	0.091535
553.887091	0.091786
554.101093	0.091480
554.315077	0.091159
554.529042	0.091353
554.742990	0.092025
554.956919	0.091875
555.170830	0.091650
555.384722	0.091044
555.598597	0.090762
555.812453	0.090698
556.026291	0.090633
556.240111	0.091055
556.453913	0.090692
556.667696	0.090524
556.881461	0.090742
557.095208	0.090609
557.308937	0.091086
557.522647	0.091306
557.736339	0.091601
557.950013	0.091736
558.163669	0.091756
558.377307	0.092122
558.590926	0.091998
558.804527	0.091567
559.018110	0.091905
559.231675	0.091808
559.445221	0.091763
559.658749	0.091473
559.872259	0.091415
560.085751	0.091361
560.299225	0.091442
560.512680	0.091464
560.726117	0.091688
560.939536	0.091716
561.152937	0.091577
561.366319	0.091881
561.579683	0.092151
561.793029	0.092644
562.006357	0.092681
562.219667	0.092917
562.432958	0.093168
562.646231	0.093420
562.859486	0.093351
563.072723	0.093857
563.285941	0.093896
563.499141	0.093915
563.712323	0.093562
563.925487	0.094147
564.138632	0.094252
564.351760	0.094478
564.564869	0.094326
564.777960	0.094776
564.991032	0.094782
565.204087	0.094889
565.417123	0.095032
565.630141	0.095359
565.843140	0.095371
566.056122	0.095531
566.269085	0.095428
566.482030	0.095509
566.694957	0.095217
566.907866	0.095240
567.120756	0.095208
567.333628	0.095169
567.546482	0.095101
567.759318	0.094989
567.972135	0.094989
568.184935	0.095334
568.397716	0.095376
568.610478	0.095833
568.823223	0.095825
569.035949	0.095457
569.248657	0.095660
569.461347	0.095456
569.674019	0.095387
569.886672	0.095287
570.099308	0.095310
570.311925	0.095505
570.524523	0.095220
570.737104	0.094901
570.949666	0.094908
571.162210	0.094801
571.374736	0.095155
571.587244	0.095194
571.799733	0.094838
572.012205	0.094688
572.224658	0.094576
572.437092	0.094777
572.649509	0.094903
572.861907	0.095207
573.074287	0.095439
573.286649	0.095474
573.498993	0.095950
573.711318	0.096014
573.923625	0.096376
574.135914	0.096700
574.348185	0.096485
574.560438	0.096875
574.772672	0.096825
574.984888	0.097227
575.197086	0.097291
575.409266	0.096792
575.621427	0.096888
575.833570	0.096890
576.045695	0.096769
576.257802	0.096982
576.469890	0.097044
576.681961	0.097191
576.894013	0.096968
577.106046	0.096931
577.318062	0.097161
577.530059	0.097819
577.742039	0.097658
577.954000	0.097536
578.165942	0.098106
578.377867	0.097855
578.589773	0.098129
578.801661	0.097711
579.013531	0.097995
579.225382	0.098110
579.437216	0.098109
579.649031	0.098457
579.860828	0.098788
580.072606	0.098539
580.284367	0.098844
580.496109	0.099074
580.707833	0.099359
580.919539	0.099558
581.131227	0.099659
581.342896	0.099260
581.554547	0.098947
581.766180	0.099155
581.977795	0.099124
582.189391	0.099400
582.400969	0.098927
582.612529	0.099056
582.824071	0.099473
583.035595	0.099813
583.247100	0.100392
583.458587	0.100779
583.670056	0.100655
583.881506	0.100899
584.092939	0.100551
584.304353	0.100835
584.515749	0.101220
584.727127	0.100949
584.938486	0.101074
585.149828	0.100841
585.361151	0.100767
585.572456	0.101003
585.783742	0.100953
585.995011	0.101179
586.206261	0.101493
586.417493	0.101339
586.628706	0.101366
586.839902	0.101309
587.051079	0.101505
587.262238	0.101750
587.473379	0.101586
587.684502	0.101477
587.895606	0.101668
588.106692	0.101551
588.317760	0.101849
588.528810	0.101725
588.739841	0.101545
588.950855	0.101691
589.161850	0.101938
589.372827	0.102300
589.583785	0.102697
589.794726	0.102912
590.005648	0.103256
590.216552	0.103174
590.427437	0.103206
590.638305	0.103220
590.849154	0.103251
591.059985	0.102980
591.270798	0.102896
591.481592	0.102798
591.692369	0.102675
591.903127	0.102601
592.113867	0.102433
592.324588	0.102596
592.535292	0.102851
592.745977	0.102934
592.956644	0.103291
593.167293	0.103231
593.377923	0.103346
593.588536	0.103446
593.799130	0.103060
594.009706	0.103438
594.220263	0.103102
594.430803	0.103035
594.641324	0.103037
594.851827	0.103133
595.062312	0.103598
595.272778	0.103758
595.483227	0.103720
595.693657	0.104017
595.904069	0.103781
596.114462	0.104038
596.324838	0.104165
596.535195	0.104143
596.745534	0.104095
596.955855	0.103796
597.166157	0.103724
597.376441	0.104074
597.586707	0.104329
597.796955	0.104664
598.007185	0.104610
598.217396	0.104716
598.427589	0.105038
598.637764	0.104924
598.847921	0.105652
599.058060	0.105646
599.268180	0.105502
599.478282	0.105701
599.688366	0.105667
599.898431	0.105913
600.108479	0.105648
600.318508	0.105293
600.528519	0.105432
600.738511	0.105178
600.948486	0.105210
601.158442	0.105151
601.368380	0.104744
601.578300	0.105044
601.788202	0.105270
601.998085	0.105463
602.207950	0.105479
602.417797	0.105199
602.627626	0.104715
602.837436	0.104748
603.047228	0.104649
603.257002	0.104919
603.466758	0.104630
603.676496	0.104451
603.886215	0.104765
604.095916	0.104962
604.305599	0.105416
604.515264	0.105895
604.724910	0.105724
604.934538	0.106275
605.144148	0.106224
605.353740	0.106331
605.563314	0.106509
605.772869	0.106228
605.982406	0.106226
606.191925	0.106080
606.401425	0.106119
606.610908	0.106594
606.820372	0.106548
607.029818	0.106753
607.239246	0.106840
607.448655	0.106715
607.658047	0.107194
607.867420	0.107442
608.076775	0.107653
608.286111	0.107607
608.495430	0.107418
608.704730	0.107445
608.914012	0.107460
609.123275	0.107621
609.332521	0.108143
609.541748	0.108057
609.750957	0.107924
609.960148	0.107820
610.169321	0.108192
610.378475	0.108284
610.587611	0.108187
610.796729	0.108202
611.005829	0.108073
611.214910	0.107902
611.423974	0.107871
611.633019	0.107808
611.842045	0.107796
612.051054	0.107445
612.260044	0.107802
612.469017	0.108145
612.677970	0.108347
612.886906	0.108561
613.095824	0.108488
613.304723	0.108419
613.513604	0.108760
613.722467	0.108802
613.931311	0.108925
614.140138	0.108878
614.348946	0.108665
614.557736	0.108624
614.766507	0.108650
614.975261	0.108807
615.183996	0.109212
615.392713	0.108991
615.601412	0.109557
615.810092	0.109862
616.018754	0.109989
616.227399	0.110277
616.436024	0.110646
616.644632	0.110881
616.853222	0.111069
617.061793	0.110936
617.270346	0.111441
617.478880	0.111255
617.687397	0.111063
617.895895	0.111034
618.104375	0.111115
618.312837	0.110997
618.521281	0.110760
618.729706	0.110809
618.938113	0.110825
619.146502	0.110714
619.354873	0.110919
619.563226	0.111032
619.771560	0.110921
619.979876	0.110872
620.188174	0.110843
620.396453	0.110896
620.604715	0.110740
620.812958	0.110538
621.021183	0.110370
621.229390	0.110321
621.437578	0.110535
621.645748	0.110597
621.853900	0.110605
622.062034	0.110617
622.270150	0.110497
622.478247	0.110679
622.686326	0.111112
622.894387	0.111289
623.102430	0.111326
623.310454	0.111179
623.518461	0.111522
623.726449	0.111642
623.934418	0.111809
624.142370	0.112143
624.350303	0.111952
624.558218	0.111808
624.766115	0.111714
624.973994	0.111654
625.181855	0.111826
625.389697	0.111817
625.597521	0.111657
625.805327	0.111395
626.013114	0.111336
626.220883	0.111673
626.428634	0.111727
626.636367	0.112131
626.844082	0.112078
627.051778	0.112133
627.259457	0.112004
627.467117	0.112247
627.674758	0.112758
627.882382	0.112761
628.089987	0.112917
628.297574	0.113061
628.505143	0.112970
628.712694	0.113039
628.920226	0.113155
629.127740	0.113291
629.335236	0.113344
629.542714	0.113217
629.750174	0.113217
629.957615	0.112971
630.165038	0.112860
630.372443	0.112947
630.579829	0.113086
630.787198	0.112933
630.994548	0.112876
631.201880	0.112842
631.409194	0.112687
631.616489	0.112767
631.823766	0.112748
632.031025	0.112818
632.238266	0.112785
632.445489	0.112997
632.652693	0.113154
632.859879	0.113394
633.067047	0.113271
633.274197	0.113451
633.481329	0.113590
633.688442	0.113576
633.895537	0.113912
634.102614	0.113887
634.309672	0.113625
634.516713	0.113703
634.723735	0.113803
634.930739	0.114163
635.137724	0.114238
635.344692	0.114252
635.551641	0.114655
635.758572	0.114512
635.965485	0.114595
636.172379	0.114792
636.379256	0.114617
636.586114	0.114503
636.792954	0.114454
636.999775	0.114260
637.206579	0.114477
637.413364	0.114490
637.620131	0.114533
637.826880	0.114741
638.033610	0.114757
638.240323	0.115084
638.447017	0.115282
638.653692	0.115489
638.860350	0.116127
639.066990	0.116187
639.273611	0.116374
639.480214	0.116521
639.686798	0.116553
639.893365	0.116867
640.099913	0.116794
640.306443	0.117023
640.512955	0.117074
640.719449	0.116943
640.925924	0.117089
641.132381	0.117055
641.338820	0.117418
641.545241	0.117414
641.751644	0.117267
641.958028	0.117638
642.164394	0.117436
642.370742	0.117401
642.577071	0.117544
642.783383	0.117502
642.989676	0.117499
643.195951	0.117352
643.402207	0.117620
643.608446	0.117688
643.814666	0.117409
644.020868	0.117365
644.227052	0.117459
644.433218	0.117272
644.639365	0.117396
644.845494	0.117309
645.051605	0.117089
645.257698	0.116914
645.463772	0.117075
645.669828	0.117127
645.875866	0.117272
646.081886	0.117258
646.287888	0.117418
646.493871	0.117362
646.699836	0.117440
646.905783	0.117669
647.111712	0.117653
647.317622	0.117649
647.523514	0.117655
647.729388	0.117594
647.935244	0.117569
648.141082	0.117652
648.346901	0.117790
648.552702	0.117901
648.758485	0.117879
648.964250	0.117980
649.169996	0.117817
649.375724	0.117648
649.581434	0.117830
649.787126	0.117991
649.992800	0.117919
650.198455	0.118002
650.404092	0.118022
650.609711	0.118022
650.815311	0.117914
651.020894	0.117887
651.226458	0.118130
651.432004	0.118208
651.637532	0.118164
651.843041	0.118149
652.048532	0.118050
652.254006	0.118051
652.459460	0.118232
652.664897	0.118495
652.870315	0.118817
653.075716	0.118864
653.281097	0.118901
653.486461	0.119003
653.691807	0.119188
653.897134	0.119099
654.102443	0.119274
654.307734	0.119512
654.513006	0.119711
654.718261	0.119853
654.923497	0.120230
655.128715	0.120374
655.333915	0.120381
655.539096	0.120490
655.744259	0.120751
655.949404	0.120889
656.154531	0.121069
656.359640	0.121099
656.564730	0.121330
656.769802	0.121266
656.974856	0.121169
657.179892	0.121426
657.384909	0.121611
657.589908	0.121951
657.794889	0.122128
657.999852	0.121903
658.204797	0.121961
658.409723	0.121959
658.614631	0.122040
658.819521	0.122233
659.024393	0.122251
659.229246	0.122133
659.434081	0.122026
659.638898	0.121980
659.843697	0.121909
660.048478	0.121945
660.253240	0.121913
660.457984	0.121984
660.662710	0.121992
660.867417	0.122098
661.072107	0.122321
661.276778	0.122314
661.481431	0.122500
661.686066	0.122874
661.890682	0.122839
662.095281	0.122879
662.299861	0.123005
662.504422	0.123239
662.708966	0.123195
662.913491	0.123191
663.117999	0.123093
663.322488	0.123006
663.526958	0.123151
663.731411	0.123360
663.935845	0.123430
664.140261	0.123317
664.344659	0.123357
664.549038	0.123649
664.753400	0.123790
664.957743	0.124093
665.162068	0.124095
665.366375	0.123793
665.570663	0.123811
665.774933	0.123898
665.979185	0.124124
666.183419	0.123994
666.387635	0.123847
666.591832	0.123749
666.796011	0.123710
667.000172	0.123653
667.204315	0.123915
667.408439	0.123729
667.612545	0.123486
667.816634	0.123457
668.020703	0.123540
668.224755	0.123708
668.428788	0.123706
668.632803	0.123614
668.836800	0.123875
669.040779	0.124005
669.244739	0.124300
669.448681	0.124731
669.652605	0.124839
669.856511	0.124986
670.060399	0.125024
670.264268	0.125125
670.468119	0.125335
670.671952	0.125321
670.875767	0.125277
671.079563	0.125522
671.283341	0.125398
671.487101	0.125382
671.690843	0.125360
671.894567	0.125363
672.098272	0.125472
672.301959	0.125685
672.505628	0.125773
672.709278	0.126025
672.912911	0.126041
673.116525	0.126328
673.320121	0.126420
673.523699	0.126513
673.727258	0.126516
673.930799	0.126598
674.134322	0.126434
674.337827	0.126546
674.541314	0.126191
674.744782	0.126179
674.948232	0.126014
675.151664	0.125989
675.355078	0.126133
675.558474	0.126190
675.761851	0.126166
675.965210	0.126115
676.168551	0.126227
676.371873	0.126499
676.575178	0.126668
676.778464	0.126757
676.981732	0.127182
677.184981	0.127172
677.388213	0.127406
677.591426	0.127682
677.794621	0.128108
677.997798	0.127981
678.200956	0.128047
678.404097	0.128200
678.607219	0.128395
678.810323	0.128250
679.013408	0.128452
679.216476	0.128550
679.419525	0.128657
679.622556	0.128546
679.825569	0.128780
680.028563	0.128801
680.231540	0.128832
680.434498	0.128993
680.637438	0.129055
680.840359	0.129046
681.043263	0.129094
681.246148	0.129168
681.449015	0.129061
681.651864	0.129217
681.854694	0.129386
682.057506	0.129400
682.260301	0.129507
682.463076	0.129620
682.665834	0.129776
682.868573	0.129733
683.071295	0.129640
683.273998	0.130116
683.476682	0.130005
683.679349	0.129977
683.881997	0.129970
684.084627	0.129887
684.287239	0.129832
684.489833	0.129591
684.692408	0.129541
684.894965	0.129611
685.097504	0.129402
685.300025	0.129631
685.502527	0.129658
685.705012	0.129522
685.907478	0.129451
686.109925	0.129590
686.312355	0.129803
686.514766	0.129958
686.717159	0.130062
686.919534	0.130255
687.121891	0.130257
687.324230	0.130282
687.526550	0.130358
687.728852	0.130237
687.931136	0.130252
688.133401	0.130093
688.335649	0.130252
688.537878	0.129926
688.740089	0.129849
688.942281	0.129614
689.144456	0.129643
689.346612	0.129576
689.548750	0.129675
689.750870	0.129621
689.952971	0.129749
690.155055	0.129772
690.357120	0.130003
690.559167	0.130067
690.761195	0.130469
690.963206	0.130470
691.165198	0.130769
691.367172	0.130865
691.569128	0.131002
691.771065	0.131009
691.972984	0.131049
692.174885	0.131310
692.376768	0.131352
692.578633	0.131229
692.780479	0.131429
692.982308	0.131340
693.184118	0.131659
693.385909	0.131846
