sample name	sample
index	432
start time	 03-08-2021  12:14:57 PM


Wavelength (nm)	Absorbance
494.344910	NaN
494.563924	NaN
494.782919	NaN
495.001897	NaN
495.220856	0.440110
495.439797	0.256949
495.658719	0.053174
495.877624	-0.004714
496.096510	-0.060642
496.315378	-0.049233
496.534227	-0.059305
496.753059	-0.139936
496.971872	-0.134996
497.190667	0.099956
497.409444	0.131615
497.628203	0.142260
497.846943	0.141930
498.065665	0.145545
498.284369	0.147093
498.503055	0.149797
498.721723	0.151602
498.940372	0.151992
499.159003	0.152816
499.377616	0.152079
499.596210	0.151066
499.814787	0.152993
500.033345	0.152252
500.251885	0.151730
500.470406	0.150274
500.688910	0.148489
500.907395	0.148715
501.125862	0.148010
501.344311	0.150316
501.562742	0.151400
501.781154	0.151718
501.999548	0.152569
502.217924	0.153237
502.436282	0.154136
502.654621	0.155504
502.872942	0.156434
503.091245	0.156791
503.309530	0.154830
503.527797	0.154390
503.746045	0.153558
503.964275	0.153704
504.182487	0.153134
504.400681	0.153337
504.618856	0.153402
504.837013	0.152307
505.055152	0.152719
505.273273	0.154493
505.491376	0.154907
505.709460	0.155782
505.927526	0.155604
506.145574	0.157085
506.363604	0.156521
506.581615	0.158112
506.799608	0.159456
507.017583	0.158241
507.235540	0.158689
507.453478	0.159214
507.671399	0.158464
507.889301	0.158710
508.107185	0.159158
508.325050	0.159503
508.542898	0.158907
508.760727	0.157990
508.978538	0.158994
509.196330	0.157700
509.414105	0.156983
509.631861	0.157015
509.849599	0.157409
510.067319	0.156836
510.285021	0.157112
510.502704	0.156804
510.720369	0.156997
510.938016	0.156757
511.155645	0.157039
511.373255	0.157717
511.590848	0.158360
511.808422	0.158597
512.025977	0.159381
512.243515	0.158930
512.461034	0.158592
512.678536	0.158931
512.896018	0.159818
513.113483	0.160731
513.330930	0.161661
513.548358	0.162452
513.765768	0.162383
513.983160	0.161919
514.200533	0.162394
514.417889	0.163114
514.635226	0.164398
514.852545	0.164387
515.069845	0.163428
515.287128	0.162751
515.504392	0.162522
515.721638	0.162853
515.938866	0.163010
516.156075	0.163667
516.373267	0.163250
516.590440	0.162793
516.807594	0.163224
517.024731	0.164369
517.241850	0.164210
517.458950	0.164166
517.676032	0.164155
517.893095	0.164375
518.110141	0.164009
518.327168	0.164974
518.544177	0.164886
518.761168	0.164960
518.978141	0.164440
519.195095	0.166136
519.412031	0.166096
519.628949	0.166494
519.845849	0.166883
520.062731	0.166951
520.279594	0.167325
520.496439	0.167863
520.713266	0.168404
520.930074	0.169380
521.146865	0.168555
521.363637	0.169583
521.580391	0.169470
521.797127	0.169581
522.013844	0.169827
522.230543	0.169713
522.447224	0.169207
522.663887	0.169466
522.880532	0.169472
523.097158	0.169572
523.313766	0.169734
523.530356	0.169715
523.746928	0.170024
523.963481	0.171406
524.180017	0.171788
524.396534	0.173587
524.613032	0.173231
524.829513	0.172884
525.045975	0.173349
525.262420	0.173549
525.478845	0.174047
525.695253	0.174527
525.911643	0.174278
526.128014	0.174594
526.344367	0.173951
526.560702	0.174302
526.777018	0.175417
526.993316	0.175784
527.209597	0.176357
527.425858	0.177210
527.642102	0.177606
527.858328	0.178241
528.074535	0.178650
528.290724	0.178868
528.506894	0.180613
528.723047	0.180853
528.939181	0.181275
529.155297	0.181341
529.371395	0.181148
529.587475	0.182072
529.803536	0.181957
530.019579	0.182376
530.235604	0.182892
530.451611	0.181966
530.667600	0.182063
530.883570	0.182077
531.099522	0.182354
531.315456	0.182994
531.531372	0.183110
531.747269	0.183814
531.963148	0.183840
532.179009	0.184531
532.394852	0.185119
532.610676	0.185812
532.826482	0.186255
533.042271	0.186860
533.258040	0.187581
533.473792	0.187669
533.689525	0.187183
533.905240	0.187328
534.120937	0.187784
534.336616	0.187819
534.552277	0.188172
534.767919	0.188580
534.983543	0.188811
535.199149	0.189131
535.414736	0.189370
535.630306	0.190714
535.845857	0.190901
536.061390	0.190449
536.276904	0.190947
536.492401	0.191258
536.707879	0.191341
536.923339	0.191589
537.138781	0.191413
537.354204	0.191812
537.569610	0.191837
537.784997	0.192399
538.000366	0.192854
538.215716	0.193440
538.431049	0.193474
538.646363	0.194179
538.861659	0.194678
539.076937	0.194948
539.292196	0.195213
539.507438	0.195142
539.722661	0.195860
539.937866	0.196351
540.153052	0.196357
540.368221	0.197043
540.583371	0.197316
540.798503	0.197385
541.013617	0.197902
541.228712	0.197877
541.443789	0.198513
541.658848	0.198697
541.873889	0.199388
542.088912	0.199943
542.303916	0.199609
542.518902	0.199799
542.733870	0.199940
542.948820	0.199758
543.163752	0.200534
543.378665	0.200842
543.593560	0.200927
543.808437	0.201145
544.023295	0.201544
544.238136	0.202246
544.452958	0.202983
544.667762	0.203270
544.882548	0.203606
545.097315	0.203629
545.312064	0.204059
545.526795	0.204365
545.741508	0.204346
545.956203	0.204531
546.170879	0.204529
546.385537	0.204420
546.600177	0.204852
546.814799	0.205054
547.029402	0.205078
547.243988	0.205513
547.458555	0.205846
547.673103	0.206118
547.887634	0.206625
548.102146	0.207044
548.316640	0.207422
548.531116	0.207553
548.745574	0.208454
548.960013	0.208805
549.174435	0.209028
549.388838	0.208953
549.603222	0.209439
549.817589	0.209226
550.031937	0.209109
550.246267	0.209610
550.460579	0.209711
550.674873	0.209713
550.889148	0.209958
551.103405	0.209868
551.317644	0.210721
551.531865	0.210893
551.746068	0.211064
551.960252	0.211433
552.174418	0.211638
552.388566	0.212025
552.602696	0.212003
552.816807	0.212769
553.030900	0.213113
553.244975	0.213400
553.459032	0.213340
553.673070	0.213571
553.887091	0.214080
554.101093	0.214171
554.315077	0.214519
554.529042	0.214687
554.742990	0.214403
554.956919	0.214350
555.170830	0.214281
555.384722	0.214494
555.598597	0.214959
555.812453	0.215103
556.026291	0.215693
556.240111	0.216057
556.453913	0.216826
556.667696	0.216995
556.881461	0.217628
557.095208	0.217930
557.308937	0.218933
557.522647	0.219504
557.736339	0.219636
557.950013	0.219291
558.163669	0.219332
558.377307	0.219773
558.590926	0.220371
558.804527	0.220216
559.018110	0.220385
559.231675	0.219746
559.445221	0.219397
559.658749	0.220041
559.872259	0.219779
560.085751	0.220359
560.299225	0.220130
560.512680	0.220084
560.726117	0.220496
560.939536	0.220938
561.152937	0.221718
561.366319	0.222463
561.579683	0.222445
561.793029	0.223413
562.006357	0.223028
562.219667	0.223224
562.432958	0.223803
562.646231	0.223818
562.859486	0.224060
563.072723	0.223916
563.285941	0.223984
563.499141	0.224284
563.712323	0.223991
563.925487	0.224445
564.138632	0.224832
564.351760	0.224555
564.564869	0.225040
564.777960	0.225090
564.991032	0.225552
565.204087	0.225738
565.417123	0.226208
565.630141	0.226302
565.843140	0.227008
566.056122	0.226974
566.269085	0.227647
566.482030	0.227711
566.694957	0.228035
566.907866	0.228031
567.120756	0.228245
567.333628	0.228681
567.546482	0.229516
567.759318	0.229491
567.972135	0.229702
568.184935	0.229739
568.397716	0.229921
568.610478	0.229888
568.823223	0.230461
569.035949	0.230577
569.248657	0.230447
569.461347	0.230250
569.674019	0.230519
569.886672	0.230984
570.099308	0.231066
570.311925	0.231472
570.524523	0.232006
570.737104	0.231857
570.949666	0.232370
571.162210	0.232251
571.374736	0.232854
571.587244	0.232780
571.799733	0.232716
572.012205	0.232751
572.224658	0.232670
572.437092	0.232492
572.649509	0.232838
572.861907	0.232948
573.074287	0.233498
573.286649	0.233544
573.498993	0.234021
573.711318	0.234242
573.923625	0.234491
574.135914	0.235258
574.348185	0.235773
574.560438	0.235996
574.772672	0.236012
574.984888	0.235936
575.197086	0.236152
575.409266	0.236206
575.621427	0.236375
575.833570	0.237027
576.045695	0.236759
576.257802	0.236667
576.469890	0.237012
576.681961	0.237090
576.894013	0.237439
577.106046	0.237667
577.318062	0.237743
577.530059	0.238088
577.742039	0.237952
577.954000	0.238243
578.165942	0.239102
578.377867	0.239372
578.589773	0.239746
578.801661	0.240043
579.013531	0.240279
579.225382	0.240655
579.437216	0.240818
579.649031	0.241274
579.860828	0.241494
580.072606	0.241508
580.284367	0.241668
580.496109	0.242124
580.707833	0.241987
580.919539	0.242126
581.131227	0.242134
581.342896	0.242316
581.554547	0.242649
581.766180	0.242989
581.977795	0.242906
582.189391	0.243214
582.400969	0.243416
582.612529	0.243684
582.824071	0.244278
583.035595	0.244579
583.247100	0.244807
583.458587	0.244801
583.670056	0.244949
583.881506	0.244987
584.092939	0.245051
584.304353	0.244995
584.515749	0.245391
584.727127	0.245160
584.938486	0.245425
585.149828	0.245942
585.361151	0.246234
585.572456	0.246228
585.783742	0.246722
585.995011	0.246803
586.206261	0.247408
586.417493	0.247464
586.628706	0.247959
586.839902	0.248265
587.051079	0.248353
587.262238	0.248701
587.473379	0.249054
587.684502	0.249111
587.895606	0.249305
588.106692	0.249215
588.317760	0.249482
588.528810	0.249641
588.739841	0.249765
588.950855	0.249845
589.161850	0.249966
589.372827	0.250391
589.583785	0.251017
589.794726	0.251278
590.005648	0.251354
590.216552	0.251496
590.427437	0.251455
590.638305	0.251255
590.849154	0.251592
591.059985	0.251878
591.270798	0.251784
591.481592	0.251653
591.692369	0.251937
591.903127	0.252192
592.113867	0.252616
592.324588	0.252985
592.535292	0.253676
592.745977	0.253965
592.956644	0.254069
593.167293	0.254064
593.377923	0.254266
593.588536	0.254590
593.799130	0.255057
594.009706	0.255426
594.220263	0.255597
594.430803	0.256124
594.641324	0.256304
594.851827	0.256469
595.062312	0.257104
595.272778	0.257746
595.483227	0.257909
595.693657	0.258271
595.904069	0.258437
596.114462	0.258756
596.324838	0.258883
596.535195	0.258950
596.745534	0.259517
596.955855	0.259517
597.166157	0.259536
597.376441	0.259508
597.586707	0.259295
597.796955	0.259453
598.007185	0.259692
598.217396	0.259695
598.427589	0.259873
598.637764	0.259610
598.847921	0.260050
599.058060	0.260270
599.268180	0.260513
599.478282	0.260741
599.688366	0.261126
599.898431	0.261301
600.108479	0.261725
600.318508	0.261965
600.528519	0.262362
600.738511	0.262746
600.948486	0.262640
601.158442	0.262997
601.368380	0.263346
601.578300	0.263566
601.788202	0.263689
601.998085	0.263568
602.207950	0.263767
602.417797	0.264052
602.627626	0.263825
602.837436	0.263978
603.047228	0.264173
603.257002	0.264322
603.466758	0.264103
603.676496	0.264620
603.886215	0.264746
604.095916	0.265289
604.305599	0.265375
604.515264	0.266247
604.724910	0.266864
604.934538	0.266947
605.144148	0.267188
605.353740	0.267534
605.563314	0.267300
605.772869	0.267775
605.982406	0.267833
606.191925	0.268194
606.401425	0.267705
606.610908	0.267631
606.820372	0.267853
607.029818	0.268058
607.239246	0.268232
607.448655	0.268956
607.658047	0.268976
607.867420	0.269096
608.076775	0.268877
608.286111	0.269533
608.495430	0.269888
608.704730	0.270345
608.914012	0.270375
609.123275	0.270716
609.332521	0.270933
609.541748	0.271229
609.750957	0.271178
609.960148	0.271650
610.169321	0.271614
610.378475	0.271542
610.587611	0.271537
610.796729	0.271870
611.005829	0.272081
611.214910	0.271840
611.423974	0.271888
611.633019	0.272291
611.842045	0.272517
612.051054	0.272629
612.260044	0.273112
612.469017	0.273256
612.677970	0.273341
612.886906	0.273455
613.095824	0.273702
613.304723	0.274038
613.513604	0.274132
613.722467	0.274155
613.931311	0.274294
614.140138	0.274394
614.348946	0.274862
614.557736	0.275132
614.766507	0.275206
614.975261	0.275506
615.183996	0.275900
615.392713	0.275917
615.601412	0.276109
615.810092	0.276361
616.018754	0.276334
616.227399	0.276083
616.436024	0.276352
616.644632	0.276489
616.853222	0.276707
617.061793	0.276684
617.270346	0.277221
617.478880	0.277552
617.687397	0.277941
617.895895	0.278237
618.104375	0.278775
618.312837	0.278892
618.521281	0.279134
618.729706	0.279263
618.938113	0.279339
619.146502	0.279494
619.354873	0.279409
619.563226	0.279568
619.771560	0.279886
619.979876	0.279727
620.188174	0.279682
620.396453	0.279630
620.604715	0.279552
620.812958	0.279714
621.021183	0.279832
621.229390	0.279970
621.437578	0.279976
621.645748	0.280077
621.853900	0.280384
622.062034	0.280649
622.270150	0.280732
622.478247	0.280879
622.686326	0.281001
622.894387	0.280909
623.102430	0.281351
623.310454	0.281435
623.518461	0.281709
623.726449	0.281843
623.934418	0.281919
624.142370	0.282519
624.350303	0.283241
624.558218	0.283756
624.766115	0.284165
624.973994	0.284275
625.181855	0.284530
625.389697	0.284657
625.597521	0.285114
625.805327	0.285503
626.013114	0.285745
626.220883	0.285711
626.428634	0.285633
626.636367	0.285796
626.844082	0.286107
627.051778	0.286420
627.259457	0.286477
627.467117	0.286476
627.674758	0.286730
627.882382	0.287104
628.089987	0.287073
628.297574	0.287445
628.505143	0.287848
628.712694	0.288171
628.920226	0.288416
629.127740	0.288893
629.335236	0.289145
629.542714	0.289287
629.750174	0.289322
629.957615	0.289663
630.165038	0.289693
630.372443	0.289733
630.579829	0.289629
630.787198	0.289618
630.994548	0.289385
631.201880	0.289338
631.409194	0.289249
631.616489	0.288922
631.823766	0.289312
632.031025	0.289375
632.238266	0.289416
632.445489	0.289409
632.652693	0.289562
632.859879	0.289950
633.067047	0.290486
633.274197	0.290781
633.481329	0.291288
633.688442	0.291277
633.895537	0.291604
634.102614	0.291844
634.309672	0.292082
634.516713	0.292494
634.723735	0.292579
634.930739	0.292704
635.137724	0.292976
635.344692	0.292952
635.551641	0.292827
635.758572	0.292795
635.965485	0.293069
636.172379	0.293410
636.379256	0.293155
636.586114	0.293030
636.792954	0.293104
636.999775	0.293328
637.206579	0.293862
637.413364	0.294238
637.620131	0.294489
637.826880	0.294556
638.033610	0.294664
638.240323	0.295095
638.447017	0.295657
638.653692	0.295724
638.860350	0.295877
639.066990	0.295892
639.273611	0.295873
639.480214	0.296032
639.686798	0.296124
639.893365	0.296238
640.099913	0.296415
640.306443	0.296596
640.512955	0.296856
640.719449	0.297083
640.925924	0.297422
641.132381	0.298133
641.338820	0.298466
641.545241	0.298807
641.751644	0.298946
641.958028	0.299340
642.164394	0.299339
642.370742	0.299531
642.577071	0.299651
642.783383	0.299704
642.989676	0.299680
643.195951	0.299658
643.402207	0.299810
643.608446	0.300166
643.814666	0.300274
644.020868	0.300771
644.227052	0.301233
644.433218	0.301410
644.639365	0.301668
644.845494	0.301842
645.051605	0.302299
645.257698	0.302742
645.463772	0.302875
645.669828	0.303311
645.875866	0.303066
646.081886	0.302911
646.287888	0.303027
646.493871	0.303302
646.699836	0.303484
646.905783	0.303841
647.111712	0.304029
647.317622	0.304206
647.523514	0.304179
647.729388	0.304718
647.935244	0.304957
648.141082	0.305341
648.346901	0.305543
648.552702	0.305869
648.758485	0.305961
648.964250	0.306002
649.169996	0.306353
649.375724	0.306601
649.581434	0.306846
649.787126	0.307298
649.992800	0.307659
650.198455	0.307769
650.404092	0.307927
650.609711	0.308068
650.815311	0.308231
651.020894	0.308281
651.226458	0.308339
651.432004	0.308681
651.637532	0.308465
651.843041	0.308497
652.048532	0.308684
652.254006	0.309029
652.459460	0.309316
652.664897	0.309614
652.870315	0.309943
653.075716	0.310186
653.281097	0.310138
653.486461	0.310736
653.691807	0.311271
653.897134	0.311649
654.102443	0.311705
654.307734	0.311774
654.513006	0.311701
654.718261	0.312083
654.923497	0.312327
655.128715	0.312901
655.333915	0.312999
655.539096	0.313008
655.744259	0.313302
655.949404	0.313553
656.154531	0.314017
656.359640	0.314509
656.564730	0.314803
656.769802	0.315048
656.974856	0.315139
657.179892	0.315271
657.384909	0.315291
657.589908	0.315478
657.794889	0.315712
657.999852	0.315827
658.204797	0.315914
658.409723	0.315829
658.614631	0.316037
658.819521	0.316234
659.024393	0.316461
659.229246	0.316761
659.434081	0.316547
659.638898	0.316899
659.843697	0.316976
660.048478	0.317500
660.253240	0.317905
660.457984	0.318357
660.662710	0.318587
660.867417	0.318921
661.072107	0.319137
661.276778	0.319554
661.481431	0.319590
661.686066	0.319865
661.890682	0.319687
662.095281	0.320041
662.299861	0.320142
662.504422	0.320344
662.708966	0.320689
662.913491	0.321134
663.117999	0.321328
663.322488	0.321622
663.526958	0.321777
663.731411	0.322415
663.935845	0.322334
664.140261	0.322413
664.344659	0.322501
664.549038	0.322621
664.753400	0.322549
664.957743	0.322893
665.162068	0.323239
665.366375	0.323733
665.570663	0.323696
665.774933	0.324405
665.979185	0.324752
666.183419	0.325302
666.387635	0.325508
666.591832	0.325922
666.796011	0.325998
667.000172	0.325971
667.204315	0.326285
667.408439	0.326663
667.612545	0.326771
667.816634	0.326943
668.020703	0.326741
668.224755	0.327139
668.428788	0.327456
668.632803	0.327919
668.836800	0.328474
669.040779	0.328779
669.244739	0.329032
669.448681	0.329188
669.652605	0.329568
669.856511	0.330076
670.060399	0.330294
670.264268	0.330470
670.468119	0.330423
670.671952	0.330776
670.875767	0.330727
671.079563	0.330849
671.283341	0.331003
671.487101	0.331126
671.690843	0.331262
671.894567	0.331323
672.098272	0.331582
672.301959	0.331973
672.505628	0.331661
672.709278	0.332050
672.912911	0.332131
673.116525	0.332194
673.320121	0.332416
673.523699	0.332649
673.727258	0.332862
673.930799	0.332766
674.134322	0.333004
674.337827	0.333571
674.541314	0.333712
674.744782	0.334298
674.948232	0.334640
675.151664	0.334852
675.355078	0.334894
675.558474	0.335235
675.761851	0.335855
675.965210	0.336337
676.168551	0.336470
676.371873	0.336852
676.575178	0.336866
676.778464	0.337378
676.981732	0.337846
677.184981	0.338330
677.388213	0.338729
677.591426	0.338717
677.794621	0.338986
677.997798	0.339163
678.200956	0.339532
678.404097	0.339997
678.607219	0.340188
678.810323	0.340246
679.013408	0.340563
679.216476	0.340610
679.419525	0.340853
679.622556	0.340723
679.825569	0.341237
680.028563	0.341480
680.231540	0.341647
680.434498	0.341813
680.637438	0.342115
680.840359	0.342341
681.043263	0.342677
681.246148	0.343285
681.449015	0.343749
681.651864	0.343766
681.854694	0.343596
682.057506	0.343690
682.260301	0.343812
682.463076	0.344181
682.665834	0.344449
682.868573	0.344878
683.071295	0.344941
683.273998	0.345151
683.476682	0.345615
683.679349	0.346082
683.881997	0.346621
684.084627	0.346828
684.287239	0.346852
684.489833	0.347181
684.692408	0.347161
684.894965	0.347383
685.097504	0.347743
685.300025	0.347877
685.502527	0.347895
685.705012	0.347998
685.907478	0.348352
686.109925	0.348593
686.312355	0.348530
686.514766	0.348789
686.717159	0.349214
686.919534	0.349450
687.121891	0.349634
687.324230	0.350077
687.526550	0.350234
687.728852	0.350606
687.931136	0.350750
688.133401	0.350875
688.335649	0.351227
688.537878	0.351468
688.740089	0.351793
688.942281	0.351929
689.144456	0.352259
689.346612	0.352456
689.548750	0.352529
689.750870	0.352892
689.952971	0.353553
690.155055	0.353598
690.357120	0.353773
690.559167	0.353758
690.761195	0.354281
690.963206	0.354030
691.165198	0.354023
691.367172	0.354076
691.569128	0.354121
691.771065	0.354139
691.972984	0.354212
692.174885	0.354283
692.376768	0.354424
692.578633	0.354258
692.780479	0.354645
692.982308	0.354933
693.184118	0.355326
693.385909	0.355526
693.587683	0.355811
