sample name	sample
index	1166
start time	 04-26-2021  10:36:47 AM


Wavelength (nm)	Absorbance
494.344910	-0.045619
494.563924	-0.045619
494.782919	-0.045619
495.001897	-0.008689
495.220856	-0.040168
495.439797	-0.056979
495.658719	-0.066287
495.877624	-0.076800
496.096510	-0.073942
496.315378	-0.055522
496.534227	-0.069150
496.753059	-0.055003
496.971872	-0.064708
497.190667	0.095859
497.409444	0.131029
497.628203	0.141914
497.846943	0.148757
498.065665	0.150274
498.284369	0.153564
498.503055	0.156175
498.721723	0.154728
498.940372	0.155771
499.159003	0.156711
499.377616	0.157240
499.596210	0.157883
499.814787	0.157581
500.033345	0.156863
500.251885	0.156940
500.470406	0.156668
500.688910	0.157792
500.907395	0.157522
501.125862	0.156575
501.344311	0.157809
501.562742	0.157672
501.781154	0.157127
501.999548	0.157488
502.217924	0.157542
502.436282	0.156425
502.654621	0.157657
502.872942	0.158105
503.091245	0.158959
503.309530	0.158297
503.527797	0.158153
503.746045	0.159310
503.964275	0.159605
504.182487	0.159694
504.400681	0.161183
504.618856	0.160060
504.837013	0.160350
505.055152	0.160647
505.273273	0.160988
505.491376	0.162074
505.709460	0.161463
505.927526	0.161762
506.145574	0.162025
506.363604	0.161811
506.581615	0.162285
506.799608	0.161948
507.017583	0.161438
507.235540	0.161697
507.453478	0.160495
507.671399	0.161343
507.889301	0.162360
508.107185	0.160819
508.325050	0.160958
508.542898	0.160994
508.760727	0.160558
508.978538	0.161570
509.196330	0.161307
509.414105	0.162521
509.631861	0.161974
509.849599	0.162129
510.067319	0.163352
510.285021	0.162887
510.502704	0.163295
510.720369	0.163662
510.938016	0.163148
511.155645	0.163708
511.373255	0.162486
511.590848	0.162761
511.808422	0.163045
512.025977	0.163131
512.243515	0.163474
512.461034	0.163148
512.678536	0.163871
512.896018	0.163007
513.113483	0.163060
513.330930	0.164393
513.548358	0.164697
513.765768	0.164834
513.983160	0.165035
514.200533	0.166672
514.417889	0.166411
514.635226	0.166752
514.852545	0.167086
515.069845	0.168108
515.287128	0.168035
515.504392	0.168266
515.721638	0.168433
515.938866	0.169502
516.156075	0.168942
516.373267	0.170158
516.590440	0.170247
516.807594	0.171288
517.024731	0.170639
517.241850	0.171540
517.458950	0.172361
517.676032	0.171348
517.893095	0.171006
518.110141	0.170821
518.327168	0.170418
518.544177	0.171121
518.761168	0.172222
518.978141	0.172927
519.195095	0.172710
519.412031	0.173616
519.628949	0.174712
519.845849	0.175212
520.062731	0.175789
520.279594	0.175675
520.496439	0.176078
520.713266	0.175174
520.930074	0.175308
521.146865	0.175568
521.363637	0.174770
521.580391	0.174802
521.797127	0.174456
522.013844	0.174798
522.230543	0.175997
522.447224	0.175857
522.663887	0.176319
522.880532	0.176905
523.097158	0.177335
523.313766	0.178411
523.530356	0.178916
523.746928	0.179525
523.963481	0.179211
524.180017	0.178837
524.396534	0.179487
524.613032	0.179731
524.829513	0.179771
525.045975	0.179674
525.262420	0.179552
525.478845	0.179517
525.695253	0.179440
525.911643	0.181167
526.128014	0.181932
526.344367	0.181921
526.560702	0.182304
526.777018	0.183042
526.993316	0.183408
527.209597	0.183334
527.425858	0.184334
527.642102	0.184987
527.858328	0.184649
528.074535	0.184303
528.290724	0.184487
528.506894	0.184881
528.723047	0.184513
528.939181	0.184912
529.155297	0.185996
529.371395	0.185593
529.587475	0.185988
529.803536	0.185976
530.019579	0.187029
530.235604	0.187200
530.451611	0.187069
530.667600	0.187143
530.883570	0.186989
531.099522	0.186969
531.315456	0.188251
531.531372	0.188690
531.747269	0.188915
531.963148	0.189274
532.179009	0.189727
532.394852	0.190533
532.610676	0.190723
532.826482	0.191500
533.042271	0.191616
533.258040	0.191520
533.473792	0.192078
533.689525	0.192284
533.905240	0.192386
534.120937	0.192750
534.336616	0.193085
534.552277	0.194154
534.767919	0.194899
534.983543	0.195585
535.199149	0.195683
535.414736	0.195708
535.630306	0.196357
535.845857	0.196436
536.061390	0.197040
536.276904	0.197477
536.492401	0.197832
536.707879	0.197936
536.923339	0.198079
537.138781	0.198230
537.354204	0.198741
537.569610	0.198632
537.784997	0.198737
538.000366	0.198695
538.215716	0.198765
538.431049	0.198926
538.646363	0.199052
538.861659	0.199410
539.076937	0.199514
539.292196	0.199627
539.507438	0.200571
539.722661	0.201143
539.937866	0.201569
540.153052	0.202149
540.368221	0.202071
540.583371	0.202629
540.798503	0.202360
541.013617	0.202890
541.228712	0.203448
541.443789	0.203442
541.658848	0.204071
541.873889	0.204590
542.088912	0.204950
542.303916	0.205423
542.518902	0.205902
542.733870	0.206684
542.948820	0.207057
543.163752	0.207105
543.378665	0.207504
543.593560	0.207876
543.808437	0.207675
544.023295	0.207348
544.238136	0.207337
544.452958	0.207329
544.667762	0.207891
544.882548	0.208533
545.097315	0.208720
545.312064	0.208280
545.526795	0.208488
545.741508	0.208679
545.956203	0.209193
546.170879	0.209338
546.385537	0.209097
546.600177	0.208773
546.814799	0.208978
547.029402	0.209313
547.243988	0.209679
547.458555	0.209651
547.673103	0.210361
547.887634	0.211072
548.102146	0.211516
548.316640	0.212321
548.531116	0.212664
548.745574	0.212933
548.960013	0.213633
549.174435	0.214151
549.388838	0.214572
549.603222	0.214722
549.817589	0.214637
550.031937	0.215034
550.246267	0.215067
550.460579	0.215718
550.674873	0.215940
550.889148	0.215631
551.103405	0.216029
551.317644	0.216349
551.531865	0.216407
551.746068	0.216427
551.960252	0.216702
552.174418	0.216661
552.388566	0.216762
552.602696	0.216786
552.816807	0.217050
553.030900	0.216736
553.244975	0.216257
553.459032	0.216459
553.673070	0.216777
553.887091	0.217396
554.101093	0.218194
554.315077	0.218269
554.529042	0.218751
554.742990	0.218910
554.956919	0.219386
555.170830	0.219916
555.384722	0.220326
555.598597	0.220645
555.812453	0.220313
556.026291	0.219887
556.240111	0.220155
556.453913	0.220375
556.667696	0.220673
556.881461	0.221046
557.095208	0.221468
557.308937	0.221163
557.522647	0.221149
557.736339	0.221907
557.950013	0.222592
558.163669	0.222614
558.377307	0.222701
558.590926	0.222637
558.804527	0.223240
559.018110	0.223931
559.231675	0.224750
559.445221	0.225197
559.658749	0.224574
559.872259	0.224475
560.085751	0.225015
560.299225	0.225006
560.512680	0.225300
560.726117	0.225202
560.939536	0.225088
561.152937	0.224953
561.366319	0.225168
561.579683	0.225946
561.793029	0.226685
562.006357	0.226747
562.219667	0.227160
562.432958	0.227301
562.646231	0.227217
562.859486	0.227114
563.072723	0.227758
563.285941	0.228148
563.499141	0.227691
563.712323	0.227332
563.925487	0.227352
564.138632	0.227146
564.351760	0.226892
564.564869	0.227046
564.777960	0.227400
564.991032	0.227700
565.204087	0.227426
565.417123	0.227992
565.630141	0.228383
565.843140	0.228407
566.056122	0.228851
566.269085	0.229664
566.482030	0.230081
566.694957	0.230295
566.907866	0.230410
567.120756	0.230886
567.333628	0.231368
567.546482	0.231698
567.759318	0.232071
567.972135	0.232219
568.184935	0.232514
568.397716	0.232835
568.610478	0.233288
568.823223	0.232929
569.035949	0.233085
569.248657	0.232861
569.461347	0.232792
569.674019	0.232474
569.886672	0.232577
570.099308	0.232397
570.311925	0.232418
570.524523	0.232101
570.737104	0.232573
570.949666	0.232687
571.162210	0.232980
571.374736	0.233557
571.587244	0.234230
571.799733	0.234417
572.012205	0.234986
572.224658	0.235247
572.437092	0.235391
572.649509	0.235652
572.861907	0.235464
573.074287	0.235667
573.286649	0.235456
573.498993	0.236117
573.711318	0.236215
573.923625	0.236152
574.135914	0.236532
574.348185	0.236815
574.560438	0.236938
574.772672	0.237630
574.984888	0.238146
575.197086	0.238661
575.409266	0.238176
575.621427	0.238594
575.833570	0.238990
576.045695	0.238528
576.257802	0.238566
576.469890	0.238661
576.681961	0.238486
576.894013	0.238421
577.106046	0.238281
577.318062	0.238635
577.530059	0.238312
577.742039	0.238567
577.954000	0.238850
578.165942	0.239533
578.377867	0.239761
578.589773	0.240005
578.801661	0.240086
579.013531	0.240352
579.225382	0.240266
579.437216	0.240928
579.649031	0.240696
579.860828	0.241046
580.072606	0.240562
580.284367	0.241010
580.496109	0.240968
580.707833	0.241309
580.919539	0.241543
581.131227	0.242020
581.342896	0.242145
581.554547	0.242243
581.766180	0.242979
581.977795	0.243326
582.189391	0.243225
582.400969	0.243703
582.612529	0.244126
582.824071	0.244450
583.035595	0.244121
583.247100	0.244098
583.458587	0.244344
583.670056	0.243968
583.881506	0.244440
584.092939	0.244341
584.304353	0.244270
584.515749	0.244172
584.727127	0.244253
584.938486	0.244687
585.149828	0.244921
585.361151	0.245618
585.572456	0.246090
585.783742	0.246431
585.995011	0.247239
586.206261	0.247583
586.417493	0.247867
586.628706	0.248146
586.839902	0.248647
587.051079	0.248861
587.262238	0.248644
587.473379	0.248860
587.684502	0.249394
587.895606	0.248908
588.106692	0.249111
588.317760	0.249437
588.528810	0.249457
588.739841	0.249557
588.950855	0.249923
589.161850	0.250507
589.372827	0.250306
589.583785	0.250042
589.794726	0.250549
590.005648	0.250660
590.216552	0.250636
590.427437	0.251047
590.638305	0.250886
590.849154	0.250579
591.059985	0.250664
591.270798	0.251088
591.481592	0.251156
591.692369	0.251536
591.903127	0.252132
592.113867	0.252475
592.324588	0.252095
592.535292	0.252896
592.745977	0.253192
592.956644	0.253249
593.167293	0.253726
593.377923	0.253873
593.588536	0.254234
593.799130	0.254670
594.009706	0.254629
594.220263	0.255003
594.430803	0.254908
594.641324	0.255452
594.851827	0.255632
595.062312	0.255566
595.272778	0.255889
595.483227	0.255701
595.693657	0.255878
595.904069	0.256277
596.114462	0.256610
596.324838	0.256880
596.535195	0.257164
596.745534	0.257349
596.955855	0.257579
597.166157	0.257606
597.376441	0.257771
597.586707	0.257389
597.796955	0.256862
598.007185	0.256880
598.217396	0.256831
598.427589	0.256822
598.637764	0.257189
598.847921	0.257105
599.058060	0.257142
599.268180	0.257408
599.478282	0.257722
599.688366	0.258174
599.898431	0.258416
600.108479	0.258904
600.318508	0.259332
600.528519	0.259566
600.738511	0.259879
600.948486	0.260376
601.158442	0.260131
601.368380	0.260498
601.578300	0.260786
601.788202	0.260971
601.998085	0.261003
602.207950	0.260814
602.417797	0.260653
602.627626	0.260638
602.837436	0.260553
603.047228	0.261301
603.257002	0.261278
603.466758	0.261360
603.676496	0.261343
603.886215	0.261211
604.095916	0.261461
604.305599	0.261527
604.515264	0.261857
604.724910	0.261908
604.934538	0.262002
605.144148	0.261932
605.353740	0.262159
605.563314	0.262323
605.772869	0.262327
605.982406	0.262262
606.191925	0.262536
606.401425	0.262614
606.610908	0.262651
606.820372	0.262432
607.029818	0.262669
607.239246	0.263031
607.448655	0.263432
607.658047	0.263526
607.867420	0.263745
608.076775	0.263792
608.286111	0.263850
608.495430	0.264213
608.704730	0.264467
608.914012	0.264702
609.123275	0.264502
609.332521	0.264802
609.541748	0.265249
609.750957	0.265286
609.960148	0.265517
610.169321	0.265520
610.378475	0.265614
610.587611	0.265806
610.796729	0.265982
611.005829	0.266272
611.214910	0.265859
611.423974	0.266044
611.633019	0.266276
611.842045	0.266417
612.051054	0.267020
612.260044	0.267020
612.469017	0.266981
612.677970	0.266887
612.886906	0.266845
613.095824	0.266951
613.304723	0.267028
613.513604	0.267325
613.722467	0.267438
613.931311	0.267779
614.140138	0.268304
614.348946	0.268171
614.557736	0.268450
614.766507	0.268478
614.975261	0.268773
615.183996	0.269062
615.392713	0.269099
615.601412	0.269163
615.810092	0.268809
616.018754	0.268707
616.227399	0.269137
616.436024	0.269349
616.644632	0.269524
616.853222	0.269519
617.061793	0.269431
617.270346	0.269640
617.478880	0.269772
617.687397	0.269992
617.895895	0.269981
618.104375	0.270277
618.312837	0.270370
618.521281	0.270703
618.729706	0.271130
618.938113	0.271483
619.146502	0.271860
619.354873	0.272144
619.563226	0.272059
619.771560	0.272432
619.979876	0.272453
620.188174	0.272394
620.396453	0.272686
620.604715	0.272779
620.812958	0.272864
621.021183	0.272950
621.229390	0.272835
621.437578	0.273113
621.645748	0.272989
621.853900	0.272920
622.062034	0.273450
622.270150	0.273349
622.478247	0.273554
622.686326	0.273706
622.894387	0.273585
623.102430	0.273727
623.310454	0.274060
623.518461	0.274418
623.726449	0.274974
623.934418	0.275167
624.142370	0.275535
624.350303	0.275710
624.558218	0.276038
624.766115	0.276236
624.973994	0.276355
625.181855	0.276400
625.389697	0.276285
625.597521	0.276208
625.805327	0.276174
626.013114	0.275940
626.220883	0.276043
626.428634	0.276029
626.636367	0.276413
626.844082	0.276924
627.051778	0.276995
627.259457	0.277548
627.467117	0.277995
627.674758	0.278121
627.882382	0.278722
628.089987	0.278925
628.297574	0.279173
628.505143	0.279164
628.712694	0.279091
628.920226	0.279435
629.127740	0.279301
629.335236	0.279190
629.542714	0.279371
629.750174	0.279339
629.957615	0.279487
630.165038	0.279337
630.372443	0.279444
630.579829	0.279725
630.787198	0.279862
630.994548	0.280278
631.201880	0.280863
631.409194	0.281006
631.616489	0.281283
631.823766	0.281536
632.031025	0.281743
632.238266	0.281974
632.445489	0.281956
632.652693	0.282014
632.859879	0.282125
633.067047	0.281701
633.274197	0.281802
633.481329	0.282151
633.688442	0.282371
633.895537	0.282869
634.102614	0.283056
634.309672	0.283426
634.516713	0.283642
634.723735	0.283524
634.930739	0.283781
635.137724	0.283852
635.344692	0.283720
635.551641	0.283539
635.758572	0.283394
635.965485	0.283568
636.172379	0.283651
636.379256	0.283743
636.586114	0.284409
636.792954	0.284647
636.999775	0.284710
637.206579	0.284677
637.413364	0.285153
637.620131	0.285469
637.826880	0.285585
638.033610	0.285884
638.240323	0.285879
638.447017	0.285749
638.653692	0.285978
638.860350	0.286313
639.066990	0.286507
639.273611	0.286262
639.480214	0.286404
639.686798	0.286550
639.893365	0.286955
640.099913	0.287390
640.306443	0.287631
640.512955	0.287831
640.719449	0.288108
640.925924	0.288678
641.132381	0.289129
641.338820	0.289548
641.545241	0.289968
641.751644	0.289741
641.958028	0.289854
642.164394	0.290057
642.370742	0.290362
642.577071	0.290620
642.783383	0.290635
642.989676	0.290903
643.195951	0.291035
643.402207	0.291266
643.608446	0.291838
643.814666	0.292089
644.020868	0.292385
644.227052	0.292240
644.433218	0.292272
644.639365	0.292612
644.845494	0.292725
645.051605	0.292848
645.257698	0.292816
645.463772	0.292501
645.669828	0.292462
645.875866	0.292438
646.081886	0.292976
646.287888	0.293229
646.493871	0.293187
646.699836	0.293163
646.905783	0.293154
647.111712	0.293273
647.317622	0.293518
647.523514	0.293785
647.729388	0.293841
647.935244	0.293983
648.141082	0.294198
648.346901	0.294436
648.552702	0.294625
648.758485	0.294690
648.964250	0.295125
649.169996	0.295490
649.375724	0.295641
649.581434	0.295992
649.787126	0.296257
649.992800	0.296316
650.198455	0.296353
650.404092	0.296731
650.609711	0.297193
650.815311	0.297142
651.020894	0.297195
651.226458	0.297509
651.432004	0.297663
651.637532	0.297353
651.843041	0.297564
652.048532	0.297705
652.254006	0.297815
652.459460	0.297978
652.664897	0.298077
652.870315	0.298332
653.075716	0.298533
653.281097	0.298659
653.486461	0.299219
653.691807	0.299599
653.897134	0.299811
654.102443	0.300088
654.307734	0.300307
654.513006	0.300691
654.718261	0.300875
654.923497	0.301296
655.128715	0.301624
655.333915	0.301960
655.539096	0.302144
655.744259	0.302475
655.949404	0.302877
656.154531	0.302927
656.359640	0.303238
656.564730	0.303561
656.769802	0.303549
656.974856	0.303949
657.179892	0.304029
657.384909	0.303990
657.589908	0.304307
657.794889	0.304418
657.999852	0.304942
658.204797	0.305030
658.409723	0.305375
658.614631	0.305653
658.819521	0.305827
659.024393	0.305940
659.229246	0.306313
659.434081	0.306556
659.638898	0.306878
659.843697	0.307004
660.048478	0.307062
660.253240	0.307126
660.457984	0.307401
660.662710	0.307442
660.867417	0.307743
661.072107	0.308335
661.276778	0.308594
661.481431	0.308638
661.686066	0.308678
661.890682	0.309126
662.095281	0.309553
662.299861	0.309880
662.504422	0.310364
662.708966	0.310469
662.913491	0.310495
663.117999	0.310595
663.322488	0.311096
663.526958	0.311630
663.731411	0.311822
663.935845	0.312021
664.140261	0.311992
664.344659	0.312263
664.549038	0.312736
664.753400	0.313113
664.957743	0.313620
665.162068	0.313763
665.366375	0.313824
665.570663	0.313976
665.774933	0.314229
665.979185	0.314399
666.183419	0.314463
666.387635	0.314676
666.591832	0.314378
666.796011	0.314370
667.000172	0.314358
667.204315	0.314380
667.408439	0.314381
667.612545	0.314462
667.816634	0.314772
668.020703	0.315014
668.224755	0.315032
668.428788	0.315840
668.632803	0.316229
668.836800	0.316701
669.040779	0.317276
669.244739	0.317755
669.448681	0.318068
669.652605	0.318268
669.856511	0.318536
670.060399	0.319041
670.264268	0.319172
670.468119	0.319434
670.671952	0.319491
670.875767	0.319480
671.079563	0.319590
671.283341	0.319566
671.487101	0.319984
671.690843	0.320280
671.894567	0.320405
672.098272	0.320449
672.301959	0.320375
672.505628	0.320586
672.709278	0.320966
672.912911	0.321223
673.116525	0.321645
673.320121	0.321938
673.523699	0.321943
673.727258	0.322261
673.930799	0.322483
674.134322	0.322957
674.337827	0.323323
674.541314	0.323505
674.744782	0.323938
674.948232	0.324166
675.151664	0.324165
675.355078	0.324543
675.558474	0.324630
675.761851	0.324855
675.965210	0.324997
676.168551	0.325147
676.371873	0.325567
676.575178	0.325689
676.778464	0.325982
676.981732	0.326040
677.184981	0.326332
677.388213	0.326629
677.591426	0.326907
677.794621	0.327372
677.997798	0.327505
678.200956	0.327613
678.404097	0.328027
678.607219	0.328366
678.810323	0.328920
679.013408	0.328937
679.216476	0.329128
679.419525	0.329379
679.622556	0.329434
679.825569	0.329809
680.028563	0.330064
680.231540	0.330235
680.434498	0.330495
680.637438	0.330713
680.840359	0.330940
681.043263	0.331117
681.246148	0.331046
681.449015	0.331223
681.651864	0.331337
681.854694	0.331302
682.057506	0.331484
682.260301	0.331481
682.463076	0.332018
682.665834	0.332177
682.868573	0.332730
683.071295	0.333097
683.273998	0.333185
683.476682	0.333418
683.679349	0.333656
683.881997	0.333710
684.084627	0.334106
684.287239	0.333959
684.489833	0.334268
684.692408	0.334078
684.894965	0.334304
685.097504	0.334686
685.300025	0.335057
685.502527	0.335277
685.705012	0.335779
685.907478	0.335761
686.109925	0.336019
686.312355	0.336344
686.514766	0.336485
686.717159	0.336852
686.919534	0.337053
687.121891	0.337244
687.324230	0.337651
687.526550	0.337842
687.728852	0.338169
687.931136	0.338410
688.133401	0.338606
688.335649	0.339059
688.537878	0.338965
688.740089	0.338958
688.942281	0.339147
689.144456	0.339409
689.346612	0.339286
689.548750	0.339408
689.750870	0.339391
689.952971	0.339414
690.155055	0.339386
690.357120	0.339437
690.559167	0.339678
690.761195	0.339614
690.963206	0.339411
691.165198	0.339601
691.367172	0.339557
691.569128	0.339656
691.771065	0.340159
691.972984	0.340247
692.174885	0.340560
692.376768	0.340846
692.578633	0.341154
692.780479	0.341552
692.982308	0.341737
693.184118	0.342173
