sample name	sample
index	697
start time	 03-22-2021  12:43:00 PM


Wavelength (nm)	Absorbance
494.344910	NaN
494.563924	NaN
494.782919	NaN
495.001897	-0.200986
495.220856	-0.493735
495.439797	-0.381379
495.658719	-0.232053
495.877624	-0.172513
496.096510	-0.196473
496.315378	-0.084590
496.534227	-0.106927
496.753059	-0.144297
496.971872	-0.186196
497.190667	0.052145
497.409444	0.061438
497.628203	0.061346
497.846943	0.062738
498.065665	0.063152
498.284369	0.062255
498.503055	0.063041
498.721723	0.064406
498.940372	0.064162
499.159003	0.063849
499.377616	0.063668
499.596210	0.063767
499.814787	0.064070
500.033345	0.063505
500.251885	0.063696
500.470406	0.063860
500.688910	0.062907
500.907395	0.063557
501.125862	0.063683
501.344311	0.063877
501.562742	0.064257
501.781154	0.064095
501.999548	0.064722
502.217924	0.064113
502.436282	0.063656
502.654621	0.063033
502.872942	0.062380
503.091245	0.061911
503.309530	0.061430
503.527797	0.061239
503.746045	0.060834
503.964275	0.061108
504.182487	0.061664
504.400681	0.061790
504.618856	0.062772
504.837013	0.062600
505.055152	0.062362
505.273273	0.062361
505.491376	0.062250
505.709460	0.062992
505.927526	0.063235
506.145574	0.063406
506.363604	0.062921
506.581615	0.062735
506.799608	0.063177
507.017583	0.062937
507.235540	0.064050
507.453478	0.063948
507.671399	0.063469
507.889301	0.063306
508.107185	0.063498
508.325050	0.063005
508.542898	0.062836
508.760727	0.062499
508.978538	0.062877
509.196330	0.062019
509.414105	0.062571
509.631861	0.063095
509.849599	0.063402
510.067319	0.063036
510.285021	0.063927
510.502704	0.063781
510.720369	0.064187
510.938016	0.064858
511.155645	0.064247
511.373255	0.063444
511.590848	0.063450
511.808422	0.063081
512.025977	0.063482
512.243515	0.063042
512.461034	0.063791
512.678536	0.064246
512.896018	0.063596
513.113483	0.064214
513.330930	0.064540
513.548358	0.064782
513.765768	0.063984
513.983160	0.064043
514.200533	0.063922
514.417889	0.062960
514.635226	0.062284
514.852545	0.062472
515.069845	0.062913
515.287128	0.063114
515.504392	0.062351
515.721638	0.063057
515.938866	0.062780
516.156075	0.062936
516.373267	0.063195
516.590440	0.062954
516.807594	0.063265
517.024731	0.062853
517.241850	0.062006
517.458950	0.062280
517.676032	0.061669
517.893095	0.061515
518.110141	0.060787
518.327168	0.061358
518.544177	0.062166
518.761168	0.061812
518.978141	0.062201
519.195095	0.062889
519.412031	0.062962
519.628949	0.063399
519.845849	0.063307
520.062731	0.063946
520.279594	0.063915
520.496439	0.063639
520.713266	0.063633
520.930074	0.063602
521.146865	0.063851
521.363637	0.064196
521.580391	0.063490
521.797127	0.063463
522.013844	0.063864
522.230543	0.063913
522.447224	0.063811
522.663887	0.063572
522.880532	0.063372
523.097158	0.063035
523.313766	0.063345
523.530356	0.064007
523.746928	0.064106
523.963481	0.063812
524.180017	0.064014
524.396534	0.063983
524.613032	0.064170
524.829513	0.064615
525.045975	0.064720
525.262420	0.064229
525.478845	0.064639
525.695253	0.064366
525.911643	0.064503
526.128014	0.064496
526.344367	0.065006
526.560702	0.065258
526.777018	0.064780
526.993316	0.064953
527.209597	0.064828
527.425858	0.064535
527.642102	0.064271
527.858328	0.064252
528.074535	0.064037
528.290724	0.063624
528.506894	0.063523
528.723047	0.063720
528.939181	0.064093
529.155297	0.063637
529.371395	0.064137
529.587475	0.064970
529.803536	0.064895
530.019579	0.065224
530.235604	0.064755
530.451611	0.064901
530.667600	0.065044
530.883570	0.065043
531.099522	0.065373
531.315456	0.065366
531.531372	0.065043
531.747269	0.065193
531.963148	0.064427
532.179009	0.065063
532.394852	0.065287
532.610676	0.065064
532.826482	0.064538
533.042271	0.065173
533.258040	0.064831
533.473792	0.065587
533.689525	0.065396
533.905240	0.066090
534.120937	0.066338
534.336616	0.066000
534.552277	0.065899
534.767919	0.066500
534.983543	0.066342
535.199149	0.066442
535.414736	0.066364
535.630306	0.066775
535.845857	0.066494
536.061390	0.066448
536.276904	0.066637
536.492401	0.066866
536.707879	0.066359
536.923339	0.066372
537.138781	0.066282
537.354204	0.065842
537.569610	0.066043
537.784997	0.066125
538.000366	0.066217
538.215716	0.066492
538.431049	0.066650
538.646363	0.066936
538.861659	0.066894
539.076937	0.067398
539.292196	0.067476
539.507438	0.067136
539.722661	0.067508
539.937866	0.067907
540.153052	0.067951
540.368221	0.067915
540.583371	0.068039
540.798503	0.068034
541.013617	0.067808
541.228712	0.067982
541.443789	0.068269
541.658848	0.068073
541.873889	0.067681
542.088912	0.067678
542.303916	0.067811
542.518902	0.067944
542.733870	0.067751
542.948820	0.068235
543.163752	0.068209
543.378665	0.068212
543.593560	0.068458
543.808437	0.068500
544.023295	0.068906
544.238136	0.069012
544.452958	0.068886
544.667762	0.068912
544.882548	0.068522
545.097315	0.068527
545.312064	0.068500
545.526795	0.068269
545.741508	0.068650
545.956203	0.068262
546.170879	0.068220
546.385537	0.068029
546.600177	0.068215
546.814799	0.068508
547.029402	0.068722
547.243988	0.069072
547.458555	0.068952
547.673103	0.068518
547.887634	0.068445
548.102146	0.068230
548.316640	0.068687
548.531116	0.068575
548.745574	0.068056
548.960013	0.068103
549.174435	0.068141
549.388838	0.068183
549.603222	0.068021
549.817589	0.067872
550.031937	0.068368
550.246267	0.067951
550.460579	0.068024
550.674873	0.068351
550.889148	0.068148
551.103405	0.067959
551.317644	0.068308
551.531865	0.068959
551.746068	0.069403
551.960252	0.069015
552.174418	0.069352
552.388566	0.069689
552.602696	0.069764
552.816807	0.070152
553.030900	0.070100
553.244975	0.069815
553.459032	0.069384
553.673070	0.069403
553.887091	0.069867
554.101093	0.070139
554.315077	0.069772
554.529042	0.069638
554.742990	0.069546
554.956919	0.069525
555.170830	0.069801
555.384722	0.070222
555.598597	0.070235
555.812453	0.070034
556.026291	0.070013
556.240111	0.070313
556.453913	0.070543
556.667696	0.070228
556.881461	0.070243
557.095208	0.070386
557.308937	0.070302
557.522647	0.070442
557.736339	0.070659
557.950013	0.070562
558.163669	0.070643
558.377307	0.070882
558.590926	0.071456
558.804527	0.071875
559.018110	0.071820
559.231675	0.071399
559.445221	0.071370
559.658749	0.071210
559.872259	0.070993
560.085751	0.071007
560.299225	0.070754
560.512680	0.070602
560.726117	0.070807
560.939536	0.070793
561.152937	0.071338
561.366319	0.071357
561.579683	0.071659
561.793029	0.071840
562.006357	0.071897
562.219667	0.072052
562.432958	0.071866
562.646231	0.071455
562.859486	0.071718
563.072723	0.071932
563.285941	0.072251
563.499141	0.071913
563.712323	0.072262
563.925487	0.072234
564.138632	0.072262
564.351760	0.072702
564.564869	0.072717
564.777960	0.072320
564.991032	0.072402
565.204087	0.072240
565.417123	0.072444
565.630141	0.071959
565.843140	0.071916
566.056122	0.071981
566.269085	0.071508
566.482030	0.071551
566.694957	0.071699
566.907866	0.071350
567.120756	0.071208
567.333628	0.071163
567.546482	0.071266
567.759318	0.071800
567.972135	0.071695
568.184935	0.072154
568.397716	0.072417
568.610478	0.072553
568.823223	0.072578
569.035949	0.072850
569.248657	0.072900
569.461347	0.072797
569.674019	0.072417
569.886672	0.072436
570.099308	0.072299
570.311925	0.072155
570.524523	0.072097
570.737104	0.072170
570.949666	0.071545
571.162210	0.071716
571.374736	0.072311
571.587244	0.072595
571.799733	0.072809
572.012205	0.072739
572.224658	0.072778
572.437092	0.072914
572.649509	0.073410
572.861907	0.073955
573.074287	0.074029
573.286649	0.073880
573.498993	0.073775
573.711318	0.073620
573.923625	0.073843
574.135914	0.073963
574.348185	0.074133
574.560438	0.073492
574.772672	0.073436
574.984888	0.073226
575.197086	0.073033
575.409266	0.072940
575.621427	0.073224
575.833570	0.072989
576.045695	0.072861
576.257802	0.072625
576.469890	0.072741
576.681961	0.072523
576.894013	0.072343
577.106046	0.072543
577.318062	0.072786
577.530059	0.072326
577.742039	0.072547
577.954000	0.072497
578.165942	0.072679
578.377867	0.072921
578.589773	0.073161
578.801661	0.073387
579.013531	0.073610
579.225382	0.073580
579.437216	0.073799
579.649031	0.074085
579.860828	0.074301
580.072606	0.074489
580.284367	0.074511
580.496109	0.074536
580.707833	0.074846
580.919539	0.074724
581.131227	0.074644
581.342896	0.074897
581.554547	0.074899
581.766180	0.075049
581.977795	0.074779
582.189391	0.074560
582.400969	0.074719
582.612529	0.074744
582.824071	0.074859
583.035595	0.075150
583.247100	0.075336
583.458587	0.075121
583.670056	0.075187
583.881506	0.075526
584.092939	0.076039
584.304353	0.076188
584.515749	0.076188
584.727127	0.076204
584.938486	0.075852
585.149828	0.075973
585.361151	0.076132
585.572456	0.076196
585.783742	0.076127
585.995011	0.075709
586.206261	0.075660
586.417493	0.075631
586.628706	0.075617
586.839902	0.075649
587.051079	0.075453
587.262238	0.075452
587.473379	0.075297
587.684502	0.075300
587.895606	0.075542
588.106692	0.075563
588.317760	0.075531
588.528810	0.075541
588.739841	0.075867
588.950855	0.075871
589.161850	0.075829
589.372827	0.075928
589.583785	0.076226
589.794726	0.076414
590.005648	0.076410
590.216552	0.076816
590.427437	0.076984
590.638305	0.076805
590.849154	0.076858
591.059985	0.076948
591.270798	0.077035
591.481592	0.076705
591.692369	0.076510
591.903127	0.076392
592.113867	0.076159
592.324588	0.075956
592.535292	0.075888
592.745977	0.075896
592.956644	0.076025
593.167293	0.076025
593.377923	0.076232
593.588536	0.076439
593.799130	0.076931
594.009706	0.076764
594.220263	0.076894
594.430803	0.077408
594.641324	0.077237
594.851827	0.077126
595.062312	0.077172
595.272778	0.076994
595.483227	0.076547
595.693657	0.075772
595.904069	0.076089
596.114462	0.075973
596.324838	0.075783
596.535195	0.075873
596.745534	0.075952
596.955855	0.075909
597.166157	0.075931
597.376441	0.076162
597.586707	0.076773
597.796955	0.076628
598.007185	0.076849
598.217396	0.076826
598.427589	0.077123
598.637764	0.077491
598.847921	0.077539
599.058060	0.077953
599.268180	0.078276
599.478282	0.078080
599.688366	0.077991
599.898431	0.078119
600.108479	0.078240
600.318508	0.078363
600.528519	0.078287
600.738511	0.078772
600.948486	0.078732
601.158442	0.078703
601.368380	0.079016
601.578300	0.079231
601.788202	0.078740
601.998085	0.078687
602.207950	0.078425
602.417797	0.078113
602.627626	0.077774
602.837436	0.077778
603.047228	0.077906
603.257002	0.078044
603.466758	0.078215
603.676496	0.078803
603.886215	0.079045
604.095916	0.079290
604.305599	0.079608
604.515264	0.079737
604.724910	0.079849
604.934538	0.079841
605.144148	0.079542
605.353740	0.079423
605.563314	0.079227
605.772869	0.079135
605.982406	0.079358
606.191925	0.079380
606.401425	0.079649
606.610908	0.079573
606.820372	0.079614
607.029818	0.079993
607.239246	0.080097
607.448655	0.080264
607.658047	0.080434
607.867420	0.080344
608.076775	0.080240
608.286111	0.079570
608.495430	0.079560
608.704730	0.079286
608.914012	0.079136
609.123275	0.079191
609.332521	0.079285
609.541748	0.079031
609.750957	0.078852
609.960148	0.079033
610.169321	0.079434
610.378475	0.079560
610.587611	0.079917
610.796729	0.079920
611.005829	0.080145
611.214910	0.080045
611.423974	0.080322
611.633019	0.080698
611.842045	0.080551
612.051054	0.080481
612.260044	0.080530
612.469017	0.080675
612.677970	0.080782
612.886906	0.080623
613.095824	0.080805
613.304723	0.080827
613.513604	0.080486
613.722467	0.080552
613.931311	0.080481
614.140138	0.080314
614.348946	0.079968
614.557736	0.079646
614.766507	0.079479
614.975261	0.079172
615.183996	0.079079
615.392713	0.078973
615.601412	0.079345
615.810092	0.079546
616.018754	0.079574
616.227399	0.079592
616.436024	0.079823
616.644632	0.079930
616.853222	0.080287
617.061793	0.080422
617.270346	0.080542
617.478880	0.080322
617.687397	0.080664
617.895895	0.080813
618.104375	0.081207
618.312837	0.081293
618.521281	0.081293
618.729706	0.081140
618.938113	0.081309
619.146502	0.081368
619.354873	0.081464
619.563226	0.081019
619.771560	0.081119
619.979876	0.080981
620.188174	0.080966
620.396453	0.080967
620.604715	0.081124
620.812958	0.081037
621.021183	0.081250
621.229390	0.081153
621.437578	0.081227
621.645748	0.081231
621.853900	0.081437
622.062034	0.081528
622.270150	0.081603
622.478247	0.081540
622.686326	0.081674
622.894387	0.081454
623.102430	0.081683
623.310454	0.081841
623.518461	0.081848
623.726449	0.081644
623.934418	0.081701
624.142370	0.081728
624.350303	0.081787
624.558218	0.081484
624.766115	0.081663
624.973994	0.081573
625.181855	0.081464
625.389697	0.081433
625.597521	0.081483
625.805327	0.081632
626.013114	0.081848
626.220883	0.081746
626.428634	0.082027
626.636367	0.082130
626.844082	0.082342
627.051778	0.082614
627.259457	0.082652
627.467117	0.082687
627.674758	0.082698
627.882382	0.082675
628.089987	0.082968
628.297574	0.082896
628.505143	0.082990
628.712694	0.082736
628.920226	0.082777
629.127740	0.082913
629.335236	0.083029
629.542714	0.083072
629.750174	0.083109
629.957615	0.082937
630.165038	0.083012
630.372443	0.082989
630.579829	0.082997
630.787198	0.082844
630.994548	0.082773
631.201880	0.082533
631.409194	0.082399
631.616489	0.082424
631.823766	0.082552
632.031025	0.082499
632.238266	0.082509
632.445489	0.082503
632.652693	0.082544
632.859879	0.082686
633.067047	0.082947
633.274197	0.082978
633.481329	0.083082
633.688442	0.083048
633.895537	0.083085
634.102614	0.082947
634.309672	0.083065
634.516713	0.083271
634.723735	0.083065
634.930739	0.083114
635.137724	0.083158
635.344692	0.082941
635.551641	0.083108
635.758572	0.083030
635.965485	0.083226
636.172379	0.083540
636.379256	0.083423
636.586114	0.083528
636.792954	0.083437
636.999775	0.083549
637.206579	0.083532
637.413364	0.083524
637.620131	0.083580
637.826880	0.083428
638.033610	0.083079
638.240323	0.082980
638.447017	0.082659
638.653692	0.082699
638.860350	0.082634
639.066990	0.082830
639.273611	0.082835
639.480214	0.083045
639.686798	0.083041
639.893365	0.083339
640.099913	0.083695
640.306443	0.084034
640.512955	0.084305
640.719449	0.084396
640.925924	0.084452
641.132381	0.084657
641.338820	0.084656
641.545241	0.084830
641.751644	0.084636
641.958028	0.084555
642.164394	0.084471
642.370742	0.084149
642.577071	0.084033
642.783383	0.084145
642.989676	0.083921
643.195951	0.084034
643.402207	0.083932
643.608446	0.083895
643.814666	0.083831
644.020868	0.084013
644.227052	0.084106
644.433218	0.084223
644.639365	0.084111
644.845494	0.084337
645.051605	0.084151
645.257698	0.084361
645.463772	0.084488
645.669828	0.084450
645.875866	0.084583
646.081886	0.084813
646.287888	0.084926
646.493871	0.085062
646.699836	0.084947
646.905783	0.085121
647.111712	0.085179
647.317622	0.085190
647.523514	0.085278
647.729388	0.085390
647.935244	0.085412
648.141082	0.085460
648.346901	0.085376
648.552702	0.085431
648.758485	0.085488
648.964250	0.085669
649.169996	0.085766
649.375724	0.085823
649.581434	0.085544
649.787126	0.085279
649.992800	0.085295
650.198455	0.085156
650.404092	0.085003
650.609711	0.085039
650.815311	0.084863
651.020894	0.084844
651.226458	0.084906
651.432004	0.085057
651.637532	0.085280
651.843041	0.085307
652.048532	0.085433
652.254006	0.085466
652.459460	0.085379
652.664897	0.085581
652.870315	0.085730
653.075716	0.085799
653.281097	0.085866
653.486461	0.085968
653.691807	0.086049
653.897134	0.086300
654.102443	0.086603
654.307734	0.086606
654.513006	0.086557
654.718261	0.086431
654.923497	0.086380
655.128715	0.086542
655.333915	0.086686
655.539096	0.086718
655.744259	0.086774
655.949404	0.086904
656.154531	0.087157
656.359640	0.086976
656.564730	0.087177
656.769802	0.087105
656.974856	0.087057
657.179892	0.086919
657.384909	0.086824
657.589908	0.086915
657.794889	0.086740
657.999852	0.086669
658.204797	0.087019
658.409723	0.087033
658.614631	0.087362
658.819521	0.087418
659.024393	0.087549
659.229246	0.087666
659.434081	0.087532
659.638898	0.087660
659.843697	0.087621
660.048478	0.087471
660.253240	0.087486
660.457984	0.087357
660.662710	0.087286
660.867417	0.087106
661.072107	0.086944
661.276778	0.086944
661.481431	0.086681
661.686066	0.086641
661.890682	0.086876
662.095281	0.086771
662.299861	0.086809
662.504422	0.086784
662.708966	0.086922
662.913491	0.087036
663.117999	0.087031
663.322488	0.087163
663.526958	0.087369
663.731411	0.087080
663.935845	0.087197
664.140261	0.087359
664.344659	0.087542
664.549038	0.087657
664.753400	0.087766
664.957743	0.088026
665.162068	0.088325
665.366375	0.088419
665.570663	0.088572
665.774933	0.088714
665.979185	0.088517
666.183419	0.088511
666.387635	0.088388
666.591832	0.088439
666.796011	0.088474
667.000172	0.088457
667.204315	0.088738
667.408439	0.088886
667.612545	0.088779
667.816634	0.088887
668.020703	0.088896
668.224755	0.089054
668.428788	0.088980
668.632803	0.088883
668.836800	0.088942
669.040779	0.088793
669.244739	0.088810
669.448681	0.089024
669.652605	0.089313
669.856511	0.089209
670.060399	0.089298
670.264268	0.089464
670.468119	0.089554
670.671952	0.089628
670.875767	0.089549
671.079563	0.089684
671.283341	0.089742
671.487101	0.089717
671.690843	0.090406
671.894567	0.090571
672.098272	0.091085
672.301959	0.091348
672.505628	0.091331
672.709278	0.091520
672.912911	0.091454
673.116525	0.091563
673.320121	0.091453
673.523699	0.091152
673.727258	0.091095
673.930799	0.090660
674.134322	0.090585
674.337827	0.090645
674.541314	0.090681
674.744782	0.090893
674.948232	0.090904
675.151664	0.091078
675.355078	0.091157
675.558474	0.091081
675.761851	0.091235
675.965210	0.091418
676.168551	0.091332
676.371873	0.091059
676.575178	0.090769
676.778464	0.090610
676.981732	0.090447
677.184981	0.090502
677.388213	0.090924
677.591426	0.090624
677.794621	0.090440
677.997798	0.090502
678.200956	0.090802
678.404097	0.090988
678.607219	0.090901
678.810323	0.091086
679.013408	0.090938
679.216476	0.090694
679.419525	0.090848
679.622556	0.090856
679.825569	0.090972
680.028563	0.090770
680.231540	0.090838
680.434498	0.091044
680.637438	0.091116
680.840359	0.091358
681.043263	0.091417
681.246148	0.091552
681.449015	0.091490
681.651864	0.091514
681.854694	0.091802
682.057506	0.091866
682.260301	0.091996
682.463076	0.091859
682.665834	0.091749
682.868573	0.091827
683.071295	0.091877
683.273998	0.092048
683.476682	0.092282
683.679349	0.092343
683.881997	0.092518
684.084627	0.092332
684.287239	0.092487
684.489833	0.092628
684.692408	0.092620
684.894965	0.092763
685.097504	0.092739
685.300025	0.092699
685.502527	0.092679
685.705012	0.092477
685.907478	0.092662
686.109925	0.092532
686.312355	0.092459
686.514766	0.092576
686.717159	0.092617
686.919534	0.092670
687.121891	0.092660
687.324230	0.092530
687.526550	0.092581
687.728852	0.092658
687.931136	0.092943
688.133401	0.092860
688.335649	0.092929
688.537878	0.092725
688.740089	0.092695
688.942281	0.092605
689.144456	0.092772
689.346612	0.092853
689.548750	0.092782
689.750870	0.092769
689.952971	0.092927
690.155055	0.092782
690.357120	0.092904
690.559167	0.093062
690.761195	0.093014
690.963206	0.093002
691.165198	0.093165
691.367172	0.093166
691.569128	0.093056
691.771065	0.093178
691.972984	0.093229
692.174885	0.093422
692.376768	0.093466
692.578633	0.093544
692.780479	0.093588
692.982308	0.093504
693.184118	0.093620
693.385909	0.093801
