sample name	sample
index	579
start time	 03-16-2021  03:39:21 PM


Wavelength (nm)	Absorbance
494.344910	0.106884
494.563924	0.106884
494.782919	0.106884
495.001897	-0.083456
495.220856	0.060569
495.439797	0.057095
495.658719	0.031663
495.877624	0.026648
496.096510	0.047787
496.315378	0.071611
496.534227	0.004665
496.753059	0.013267
496.971872	-0.038218
497.190667	0.085332
497.409444	0.113284
497.628203	0.121432
497.846943	0.125589
498.065665	0.125292
498.284369	0.127594
498.503055	0.130367
498.721723	0.132316
498.940372	0.133653
499.159003	0.133004
499.377616	0.132671
499.596210	0.132706
499.814787	0.132388
500.033345	0.132997
500.251885	0.131431
500.470406	0.131987
500.688910	0.131140
500.907395	0.131289
501.125862	0.132979
501.344311	0.133881
501.562742	0.133613
501.781154	0.133429
501.999548	0.133424
502.217924	0.134568
502.436282	0.134531
502.654621	0.134611
502.872942	0.135061
503.091245	0.134334
503.309530	0.133740
503.527797	0.133868
503.746045	0.133709
503.964275	0.134268
504.182487	0.135493
504.400681	0.135667
504.618856	0.136445
504.837013	0.134928
505.055152	0.136291
505.273273	0.136958
505.491376	0.136802
505.709460	0.137069
505.927526	0.136891
506.145574	0.136497
506.363604	0.135739
506.581615	0.135845
506.799608	0.137084
507.017583	0.136137
507.235540	0.135777
507.453478	0.136401
507.671399	0.137396
507.889301	0.137420
508.107185	0.137159
508.325050	0.137920
508.542898	0.137573
508.760727	0.137821
508.978538	0.137557
509.196330	0.138441
509.414105	0.139264
509.631861	0.139366
509.849599	0.139297
510.067319	0.139435
510.285021	0.139884
510.502704	0.139982
510.720369	0.139968
510.938016	0.141546
511.155645	0.141272
511.373255	0.140979
511.590848	0.140659
511.808422	0.142473
512.025977	0.143063
512.243515	0.142667
512.461034	0.143694
512.678536	0.143330
512.896018	0.142891
513.113483	0.143527
513.330930	0.143720
513.548358	0.142931
513.765768	0.141634
513.983160	0.142043
514.200533	0.142154
514.417889	0.141679
514.635226	0.142877
514.852545	0.142732
515.069845	0.142086
515.287128	0.141846
515.504392	0.143374
515.721638	0.143842
515.938866	0.143613
516.156075	0.143824
516.373267	0.143474
516.590440	0.143359
516.807594	0.143661
517.024731	0.144220
517.241850	0.144459
517.458950	0.144417
517.676032	0.144786
517.893095	0.144703
518.110141	0.145061
518.327168	0.146114
518.544177	0.146019
518.761168	0.145843
518.978141	0.146294
519.195095	0.146552
519.412031	0.147052
519.628949	0.148186
519.845849	0.148720
520.062731	0.149765
520.279594	0.150356
520.496439	0.150963
520.713266	0.151915
520.930074	0.151961
521.146865	0.152549
521.363637	0.152717
521.580391	0.153384
521.797127	0.153657
522.013844	0.153690
522.230543	0.153944
522.447224	0.153211
522.663887	0.153074
522.880532	0.153543
523.097158	0.154073
523.313766	0.154204
523.530356	0.153279
523.746928	0.154130
523.963481	0.154095
524.180017	0.153984
524.396534	0.154468
524.613032	0.154578
524.829513	0.155143
525.045975	0.156007
525.262420	0.156375
525.478845	0.156831
525.695253	0.156471
525.911643	0.156507
526.128014	0.157084
526.344367	0.158111
526.560702	0.158540
526.777018	0.158480
526.993316	0.157729
527.209597	0.159244
527.425858	0.159357
527.642102	0.159554
527.858328	0.159900
528.074535	0.159770
528.290724	0.159986
528.506894	0.160466
528.723047	0.160441
528.939181	0.161922
529.155297	0.160678
529.371395	0.161070
529.587475	0.161630
529.803536	0.162168
530.019579	0.162437
530.235604	0.162625
530.451611	0.162971
530.667600	0.163662
530.883570	0.162828
531.099522	0.164183
531.315456	0.164458
531.531372	0.164273
531.747269	0.164285
531.963148	0.165049
532.179009	0.165728
532.394852	0.165795
532.610676	0.166082
532.826482	0.166999
533.042271	0.167003
533.258040	0.167466
533.473792	0.168086
533.689525	0.169227
533.905240	0.169395
534.120937	0.169646
534.336616	0.170156
534.552277	0.170201
534.767919	0.170114
534.983543	0.169774
535.199149	0.169670
535.414736	0.169976
535.630306	0.169295
535.845857	0.169817
536.061390	0.169932
536.276904	0.170414
536.492401	0.170723
536.707879	0.170922
536.923339	0.172031
537.138781	0.172744
537.354204	0.172691
537.569610	0.173688
537.784997	0.173619
538.000366	0.173360
538.215716	0.173697
538.431049	0.174248
538.646363	0.174724
538.861659	0.174723
539.076937	0.175126
539.292196	0.176010
539.507438	0.175706
539.722661	0.176073
539.937866	0.176944
540.153052	0.176683
540.368221	0.177147
540.583371	0.176924
540.798503	0.177295
541.013617	0.177504
541.228712	0.178110
541.443789	0.178701
541.658848	0.178694
541.873889	0.178700
542.088912	0.179447
542.303916	0.179721
542.518902	0.180901
542.733870	0.181001
542.948820	0.181079
543.163752	0.180823
543.378665	0.181378
543.593560	0.181323
543.808437	0.181310
544.023295	0.180876
544.238136	0.181217
544.452958	0.181527
544.667762	0.181593
544.882548	0.181949
545.097315	0.182767
545.312064	0.182517
545.526795	0.183178
545.741508	0.184439
545.956203	0.184601
546.170879	0.185150
546.385537	0.185305
546.600177	0.185830
546.814799	0.185751
547.029402	0.185435
547.243988	0.185805
547.458555	0.185900
547.673103	0.185507
547.887634	0.186183
548.102146	0.185405
548.316640	0.184805
548.531116	0.184707
548.745574	0.185332
548.960013	0.185917
549.174435	0.185897
549.388838	0.186278
549.603222	0.186227
549.817589	0.186288
550.031937	0.187272
550.246267	0.187910
550.460579	0.188053
550.674873	0.188185
550.889148	0.188913
551.103405	0.189323
551.317644	0.189904
551.531865	0.190554
551.746068	0.191093
551.960252	0.190868
552.174418	0.191682
552.388566	0.192417
552.602696	0.192784
552.816807	0.192395
553.030900	0.193002
553.244975	0.192757
553.459032	0.193215
553.673070	0.193569
553.887091	0.193948
554.101093	0.193520
554.315077	0.193462
554.529042	0.193810
554.742990	0.193817
554.956919	0.193553
555.170830	0.193839
555.384722	0.193902
555.598597	0.193668
555.812453	0.193788
556.026291	0.194670
556.240111	0.194652
556.453913	0.194763
556.667696	0.195251
556.881461	0.195856
557.095208	0.196110
557.308937	0.196191
557.522647	0.196968
557.736339	0.197406
557.950013	0.197124
558.163669	0.197423
558.377307	0.197359
558.590926	0.197572
558.804527	0.197312
559.018110	0.197193
559.231675	0.197390
559.445221	0.197237
559.658749	0.196626
559.872259	0.197053
560.085751	0.197017
560.299225	0.197184
560.512680	0.196763
560.726117	0.197058
560.939536	0.197444
561.152937	0.197751
561.366319	0.197513
561.579683	0.198683
561.793029	0.198497
562.006357	0.199605
562.219667	0.199848
562.432958	0.200723
562.646231	0.200782
562.859486	0.200897
563.072723	0.200770
563.285941	0.201430
563.499141	0.200827
563.712323	0.201235
563.925487	0.201310
564.138632	0.201326
564.351760	0.201167
564.564869	0.201624
564.777960	0.202148
564.991032	0.202761
565.204087	0.202847
565.417123	0.203275
565.630141	0.203402
565.843140	0.202974
566.056122	0.203349
566.269085	0.203695
566.482030	0.203510
566.694957	0.203418
566.907866	0.202938
567.120756	0.203188
567.333628	0.203649
567.546482	0.203580
567.759318	0.204050
567.972135	0.203996
568.184935	0.204072
568.397716	0.204304
568.610478	0.204778
568.823223	0.204828
569.035949	0.204891
569.248657	0.204906
569.461347	0.205735
569.674019	0.205599
569.886672	0.206026
570.099308	0.205983
570.311925	0.206324
570.524523	0.206356
570.737104	0.206936
570.949666	0.207173
571.162210	0.207063
571.374736	0.206237
571.587244	0.206271
571.799733	0.206490
572.012205	0.206267
572.224658	0.206007
572.437092	0.205688
572.649509	0.205608
572.861907	0.205579
573.074287	0.206044
573.286649	0.206365
573.498993	0.206629
573.711318	0.206539
573.923625	0.206943
574.135914	0.207414
574.348185	0.207595
574.560438	0.207366
574.772672	0.207200
574.984888	0.206775
575.197086	0.206444
575.409266	0.206598
575.621427	0.206686
575.833570	0.206566
576.045695	0.207098
576.257802	0.207333
576.469890	0.207633
576.681961	0.208326
576.894013	0.209007
577.106046	0.209654
577.318062	0.209576
577.530059	0.209732
577.742039	0.210333
577.954000	0.209775
578.165942	0.209867
578.377867	0.210208
578.589773	0.210441
578.801661	0.210618
579.013531	0.210465
579.225382	0.210562
579.437216	0.210195
579.649031	0.209889
579.860828	0.210390
580.072606	0.210844
580.284367	0.211175
580.496109	0.210781
580.707833	0.210622
580.919539	0.211170
581.131227	0.211703
581.342896	0.212523
581.554547	0.213363
581.766180	0.213332
581.977795	0.213327
582.189391	0.213599
582.400969	0.213792
582.612529	0.213761
582.824071	0.213798
583.035595	0.213657
583.247100	0.213444
583.458587	0.212848
583.670056	0.212597
583.881506	0.212472
584.092939	0.212536
584.304353	0.212586
584.515749	0.212991
584.727127	0.213081
584.938486	0.213065
585.149828	0.213310
585.361151	0.214166
585.572456	0.214738
585.783742	0.215191
585.995011	0.215305
586.206261	0.215707
586.417493	0.215992
586.628706	0.216222
586.839902	0.216533
587.051079	0.216295
587.262238	0.216032
587.473379	0.215739
587.684502	0.215909
587.895606	0.215563
588.106692	0.215574
588.317760	0.215495
588.528810	0.215753
588.739841	0.215691
588.950855	0.216140
589.161850	0.216301
589.372827	0.216605
589.583785	0.216257
589.794726	0.216481
590.005648	0.217013
590.216552	0.217032
590.427437	0.217262
590.638305	0.217598
590.849154	0.217724
591.059985	0.217894
591.270798	0.218347
591.481592	0.218557
591.692369	0.218638
591.903127	0.218472
592.113867	0.218311
592.324588	0.217902
592.535292	0.217669
592.745977	0.217646
592.956644	0.217915
593.167293	0.217905
593.377923	0.218120
593.588536	0.218416
593.799130	0.218131
594.009706	0.218608
594.220263	0.219003
594.430803	0.219439
594.641324	0.219832
594.851827	0.219604
595.062312	0.219604
595.272778	0.220034
595.483227	0.220282
595.693657	0.221062
595.904069	0.221359
596.114462	0.221404
596.324838	0.221874
596.535195	0.222042
596.745534	0.222584
596.955855	0.223089
597.166157	0.223442
597.376441	0.223709
597.586707	0.223574
597.796955	0.223496
598.007185	0.223900
598.217396	0.223970
598.427589	0.223866
598.637764	0.223748
598.847921	0.223365
599.058060	0.223497
599.268180	0.223805
599.478282	0.224157
599.688366	0.224439
599.898431	0.224381
600.108479	0.224406
600.318508	0.224860
600.528519	0.225091
600.738511	0.225584
600.948486	0.225323
601.158442	0.225026
601.368380	0.224978
601.578300	0.224767
601.788202	0.225344
601.998085	0.225859
602.207950	0.225445
602.417797	0.225830
602.627626	0.225981
602.837436	0.225990
603.047228	0.226283
603.257002	0.226157
603.466758	0.226336
603.676496	0.226280
603.886215	0.225568
604.095916	0.225687
604.305599	0.225414
604.515264	0.225512
604.724910	0.225798
604.934538	0.225886
605.144148	0.226392
605.353740	0.226825
605.563314	0.226821
605.772869	0.227328
605.982406	0.228205
606.191925	0.228490
606.401425	0.228429
606.610908	0.228605
606.820372	0.229229
607.029818	0.229555
607.239246	0.229370
607.448655	0.229548
607.658047	0.229839
607.867420	0.229658
608.076775	0.229897
608.286111	0.230207
608.495430	0.230352
608.704730	0.230112
608.914012	0.229595
609.123275	0.230092
609.332521	0.230394
609.541748	0.230486
609.750957	0.230800
609.960148	0.230762
610.169321	0.230846
610.378475	0.231160
610.587611	0.231187
610.796729	0.231624
611.005829	0.231833
611.214910	0.231987
611.423974	0.231938
611.633019	0.232023
611.842045	0.232148
612.051054	0.232473
612.260044	0.232671
612.469017	0.232951
612.677970	0.233237
612.886906	0.233253
613.095824	0.233031
613.304723	0.233035
613.513604	0.232931
613.722467	0.233119
613.931311	0.233050
614.140138	0.232849
614.348946	0.232679
614.557736	0.232761
614.766507	0.232932
614.975261	0.233510
615.183996	0.233707
615.392713	0.234028
615.601412	0.233978
615.810092	0.234139
616.018754	0.234448
616.227399	0.234816
616.436024	0.234741
616.644632	0.234940
616.853222	0.234794
617.061793	0.235178
617.270346	0.235219
617.478880	0.235603
617.687397	0.235542
617.895895	0.235641
618.104375	0.235677
618.312837	0.236039
618.521281	0.235898
618.729706	0.235915
618.938113	0.235898
619.146502	0.236070
619.354873	0.236194
619.563226	0.236601
619.771560	0.236611
619.979876	0.236454
620.188174	0.236528
620.396453	0.236591
620.604715	0.236816
620.812958	0.236949
621.021183	0.236932
621.229390	0.237047
621.437578	0.237158
621.645748	0.237595
621.853900	0.238002
622.062034	0.238321
622.270150	0.238651
622.478247	0.238711
622.686326	0.238758
622.894387	0.239045
623.102430	0.239240
623.310454	0.239840
623.518461	0.239682
623.726449	0.239697
623.934418	0.239754
624.142370	0.239872
624.350303	0.240399
624.558218	0.240777
624.766115	0.241320
624.973994	0.241220
625.181855	0.241239
625.389697	0.241687
625.597521	0.241952
625.805327	0.241883
626.013114	0.241934
626.220883	0.241853
626.428634	0.242087
626.636367	0.241744
626.844082	0.242007
627.051778	0.241993
627.259457	0.241616
627.467117	0.241780
627.674758	0.242163
627.882382	0.242259
628.089987	0.242189
628.297574	0.241874
628.505143	0.242017
628.712694	0.242394
628.920226	0.242276
629.127740	0.242652
629.335236	0.243047
629.542714	0.243238
629.750174	0.243338
629.957615	0.243615
630.165038	0.243852
630.372443	0.244141
630.579829	0.243985
630.787198	0.244340
630.994548	0.244577
631.201880	0.244413
631.409194	0.244428
631.616489	0.244527
631.823766	0.244886
632.031025	0.245245
632.238266	0.245321
632.445489	0.245635
632.652693	0.245657
632.859879	0.246066
633.067047	0.246096
633.274197	0.246150
633.481329	0.246347
633.688442	0.246491
633.895537	0.246753
634.102614	0.246909
634.309672	0.246892
634.516713	0.247189
634.723735	0.247082
634.930739	0.247597
635.137724	0.247672
635.344692	0.247927
635.551641	0.247880
635.758572	0.248054
635.965485	0.248116
636.172379	0.248303
636.379256	0.248413
636.586114	0.248713
636.792954	0.248467
636.999775	0.248711
637.206579	0.249006
637.413364	0.249333
637.620131	0.249116
637.826880	0.249232
638.033610	0.249293
638.240323	0.249366
638.447017	0.249393
638.653692	0.249574
638.860350	0.249982
639.066990	0.250106
639.273611	0.250148
639.480214	0.250680
639.686798	0.251093
639.893365	0.251387
640.099913	0.251490
640.306443	0.251635
640.512955	0.252181
640.719449	0.252008
640.925924	0.252004
641.132381	0.252082
641.338820	0.251939
641.545241	0.252130
641.751644	0.252633
641.958028	0.252797
642.164394	0.253257
642.370742	0.253635
642.577071	0.254075
642.783383	0.254456
642.989676	0.254604
643.195951	0.255122
643.402207	0.255009
643.608446	0.254795
643.814666	0.255064
644.020868	0.254741
644.227052	0.254621
644.433218	0.254631
644.639365	0.254893
644.845494	0.255254
645.051605	0.255308
645.257698	0.255703
645.463772	0.256063
645.669828	0.256316
645.875866	0.256828
646.081886	0.256905
646.287888	0.257033
646.493871	0.256897
646.699836	0.256832
646.905783	0.256792
647.111712	0.256779
647.317622	0.256769
647.523514	0.256800
647.729388	0.256692
647.935244	0.256831
648.141082	0.257190
648.346901	0.257205
648.552702	0.257174
648.758485	0.257428
648.964250	0.257783
649.169996	0.258042
649.375724	0.258099
649.581434	0.258339
649.787126	0.258572
649.992800	0.258697
650.198455	0.259328
650.404092	0.259505
650.609711	0.259853
650.815311	0.259719
651.020894	0.259950
651.226458	0.260352
651.432004	0.260575
651.637532	0.260611
651.843041	0.260755
652.048532	0.260666
652.254006	0.260992
652.459460	0.261196
652.664897	0.261282
652.870315	0.261442
653.075716	0.261530
653.281097	0.261743
653.486461	0.262203
653.691807	0.262536
653.897134	0.263002
654.102443	0.263596
654.307734	0.263773
654.513006	0.264258
654.718261	0.264593
654.923497	0.264692
655.128715	0.264605
655.333915	0.265023
655.539096	0.265018
655.744259	0.264790
655.949404	0.264791
656.154531	0.264522
656.359640	0.264465
656.564730	0.264473
656.769802	0.264506
656.974856	0.264960
657.179892	0.264655
657.384909	0.264757
657.589908	0.265202
657.794889	0.265499
657.999852	0.265986
658.204797	0.266184
658.409723	0.266473
658.614631	0.266800
658.819521	0.266905
659.024393	0.267319
659.229246	0.267536
659.434081	0.267953
659.638898	0.268113
659.843697	0.268660
660.048478	0.268962
660.253240	0.269100
660.457984	0.269525
660.662710	0.269719
660.867417	0.269843
661.072107	0.270068
661.276778	0.270219
661.481431	0.270350
661.686066	0.270220
661.890682	0.270514
662.095281	0.270825
662.299861	0.270815
662.504422	0.270955
662.708966	0.271079
662.913491	0.271334
663.117999	0.271548
663.322488	0.271889
663.526958	0.272041
663.731411	0.272118
663.935845	0.272154
664.140261	0.272280
664.344659	0.272646
664.549038	0.272880
664.753400	0.272967
664.957743	0.272961
665.162068	0.272846
665.366375	0.273138
665.570663	0.273079
665.774933	0.273170
665.979185	0.273682
666.183419	0.273823
666.387635	0.274132
666.591832	0.274410
666.796011	0.274755
667.000172	0.274991
667.204315	0.275048
667.408439	0.275789
667.612545	0.276208
667.816634	0.276283
668.020703	0.276520
668.224755	0.276467
668.428788	0.276626
668.632803	0.276762
668.836800	0.277182
669.040779	0.277445
669.244739	0.277435
669.448681	0.277594
669.652605	0.277807
669.856511	0.278240
670.060399	0.278452
670.264268	0.278644
670.468119	0.279104
670.671952	0.279178
670.875767	0.279193
671.079563	0.279627
671.283341	0.279781
671.487101	0.280226
671.690843	0.280230
671.894567	0.280731
672.098272	0.280686
672.301959	0.280825
672.505628	0.281336
672.709278	0.281592
672.912911	0.281695
673.116525	0.282052
673.320121	0.281932
673.523699	0.282030
673.727258	0.282007
673.930799	0.282483
674.134322	0.282409
674.337827	0.282496
674.541314	0.282761
674.744782	0.282983
674.948232	0.282990
675.151664	0.283492
675.355078	0.283670
675.558474	0.284330
675.761851	0.284784
675.965210	0.285138
676.168551	0.284958
676.371873	0.285252
676.575178	0.285563
676.778464	0.285819
676.981732	0.285713
677.184981	0.286129
677.388213	0.286122
677.591426	0.286125
677.794621	0.286241
677.997798	0.286565
678.200956	0.286807
678.404097	0.286847
678.607219	0.286971
678.810323	0.287253
679.013408	0.287560
679.216476	0.287455
679.419525	0.287716
679.622556	0.287948
679.825569	0.288285
680.028563	0.288588
680.231540	0.288704
680.434498	0.288904
680.637438	0.289240
680.840359	0.289393
681.043263	0.289766
681.246148	0.289869
681.449015	0.289885
681.651864	0.290260
681.854694	0.290321
682.057506	0.290721
682.260301	0.291018
682.463076	0.291217
682.665834	0.291380
682.868573	0.291796
683.071295	0.292110
683.273998	0.292506
683.476682	0.292356
683.679349	0.292568
683.881997	0.292438
684.084627	0.292578
684.287239	0.292586
684.489833	0.292443
684.692408	0.292531
684.894965	0.292612
685.097504	0.292582
685.300025	0.292835
685.502527	0.292989
685.705012	0.293497
685.907478	0.293402
686.109925	0.293543
686.312355	0.293966
686.514766	0.294210
686.717159	0.294455
686.919534	0.294678
687.121891	0.294947
687.324230	0.295301
687.526550	0.295548
687.728852	0.296079
687.931136	0.296125
688.133401	0.296324
688.335649	0.296329
688.537878	0.296464
688.740089	0.296905
688.942281	0.297165
689.144456	0.296893
689.346612	0.297105
689.548750	0.297370
689.750870	0.297718
689.952971	0.297863
690.155055	0.298070
690.357120	0.298252
690.559167	0.298363
690.761195	0.298388
690.963206	0.298969
691.165198	0.299000
691.367172	0.299155
691.569128	0.299223
691.771065	0.299478
691.972984	0.299782
692.174885	0.300194
692.376768	0.300368
692.578633	0.300559
692.780479	0.300434
692.982308	0.300571
693.184118	0.300562
693.385909	0.300624
