sample name	sample
index	745
start time	 03-25-2021  03:58:38 PM
880	0.184690
Peak Time (s)	91.538
Peak Height 	0.1847
calc peak height	90,93
Baseline Time (s)	9.035
Baseline Value 	-0.006058
subtract baseline	10,4
Abs	0.159701
Peak Time (s)	92.537
Peak Height 	0.1597
calc peak height	90,93
Baseline Time (s)	8.536
Baseline Value 	0.003949
subtract baseline	10,3
PK_550	0.088030
Peak Time (s)	90.535
Peak Height 	0.08803
calc peak height	90,93
Baseline Time (s)	9.035
Baseline Value 	6.4259E-4
subtract baseline	10,2
PK_880	0.174000
Peak Time (s)	90.535
Peak Height 	0.174
calc peak height	90,93
Baseline Time (s)	9.537
Baseline Value 	0.001928
subtract baseline	10,1


Time (s)	A880-A510	A880-A775	A880-A975	A880	I510	I775	I975	I880	
0.038500	0.000408	-0.001043	-0.002417	0.000973	7181.068786	44015.756564	3965.172255	23502.466694
0.536500	-0.002456	-0.001155	-0.004396	0.003364	7129.536462	43779.702750	3954.191471	23389.305568
1.036500	-0.003706	-0.000877	-0.006956	0.006643	7085.617734	43498.297872	3939.692313	23235.090550
1.537000	-0.000155	-0.001668	-0.002303	0.001299	7172.297896	43925.865928	3964.635047	23486.989850
2.037000	0.001646	0.000502	0.000098	0.001785	7185.271914	44085.195655	3969.480879	23463.978467
2.537500	-0.000480	-0.000717	0.001260	0.000796	7174.056837	44063.411368	3974.946388	23510.860872
3.035000	-0.002374	-0.000941	-0.001553	0.005817	7106.480897	43569.567445	3955.165563	23273.815300
3.535000	0.000195	-0.000586	-0.000828	0.000593	7182.714433	44095.047240	3970.156536	23520.520544
4.035500	0.000482	-0.000901	0.002533	0.000479	7186.673384	44075.964785	3979.003708	23525.925941
4.536000	0.000362	-0.001049	-0.002174	-0.000043	7190.644441	44111.453992	3968.355614	23550.733046
5.036000	-0.001191	-0.000151	-0.006133	0.004084	7134.849699	43806.424512	3948.067122	23355.338040
5.536500	0.000340	0.000110	-0.000482	0.000341	7186.635883	44185.008390	3971.672347	23532.481954
6.036500	-0.002027	-0.000805	0.002462	0.000247	7164.238340	44107.118225	3979.416477	23536.966076
6.536500	0.000091	-0.000663	0.002198	-0.000274	7190.245714	44169.961499	3980.073441	23561.707391
7.037000	0.000668	-0.000318	0.002833	0.000075	7192.498690	44169.607406	3980.805009	23545.115850
7.535500	0.000653	-0.000595	-0.003653	-0.000433	7197.375305	44191.563320	3965.599157	23569.280279
8.035000	0.000773	-0.000060	-0.001307	-0.000460	7198.840067	44245.013014	3971.611478	23570.603949
8.535500	-0.000045	-0.000739	0.000000	-0.000804	7194.139940	44213.073826	3975.812447	23586.963238
9.035000	0.000733	0.000000	-0.002636	0.000000	7193.885042	44206.953555	3967.076786	23548.689849
9.536500	0.000000	0.000683	0.000286	0.000106	7185.598849	44261.876691	3974.223479	23543.667465
10.036000	0.000533	-0.000096	0.000846	-0.000004	7191.949762	44198.254042	3975.930551	23548.896593
10.536500	-0.000064	-0.000761	-0.001094	-0.000780	7193.722785	44208.749723	3972.965152	23585.833410
11.037000	0.000808	0.000639	0.000995	0.000273	7191.928368	44241.785043	3975.603059	23535.710748
11.537000	-0.001963	0.000162	-0.002222	0.004302	7125.204971	43815.331723	3957.287918	23345.080517
12.037500	0.001608	0.000803	0.000115	0.000972	7192.924789	44190.856857	3971.585193	23502.490876
12.535000	0.000244	-0.000532	-0.002041	-0.000369	7192.694545	44191.458931	3969.517768	23566.236812
13.035500	0.002360	0.000662	0.001194	0.000186	7208.165270	44252.172691	3976.331391	23539.821329
13.538000	-0.001445	0.000275	0.001266	0.005428	7119.274821	43719.992470	3963.222331	23292.076283
14.035500	0.000481	-0.000003	-0.006979	0.002571	7166.048024	43962.975392	3949.726873	23426.747768
14.536000	0.000048	-0.000393	0.000647	0.002134	7166.082264	43967.422361	3969.987497	23447.426482
15.036500	0.002243	0.000937	0.000753	0.000582	7203.079016	44240.666957	3974.200860	23521.018197
15.536500	-0.001163	-0.000221	-0.004306	0.003653	7139.326698	43840.337042	3953.693941	23375.649474
16.040000	0.001076	0.000095	-0.002542	-0.000065	7197.932978	44222.203530	3967.478969	23551.791224
16.537500	0.000396	-0.000878	-0.002506	-0.000933	7199.786536	44212.223515	3969.769381	23593.119451
17.034500	0.003739	0.000016	-0.001194	-0.003508	7258.822669	44543.214260	3979.669761	23716.217046
17.535000	0.001519	0.000229	0.000618	0.002227	7179.657681	44017.471340	3969.677270	23443.033086
18.035000	0.001226	0.000366	-0.000779	0.001013	7188.744043	44145.451245	3969.211983	23500.548480
18.535500	-0.000063	-0.000020	-0.003664	0.000620	7179.900622	44146.156299	3962.916098	23519.223377
19.036000	0.000030	-0.000901	-0.000116	0.000747	7179.571364	44050.618832	3971.571079	23513.205175
19.536000	-0.001311	0.000025	-0.004176	0.002297	7151.155575	43991.565924	3957.413390	23439.726266
20.036000	-0.000464	0.000509	0.000452	0.001340	7168.858475	44128.036582	3971.506526	23485.056506
20.537000	0.001192	0.000332	0.001175	0.001149	7187.064749	44129.361378	3973.831504	23494.094895
21.037000	-0.000410	-0.000689	0.004163	0.000336	7179.278718	44109.686078	3983.548625	23532.721096
21.534500	-0.000003	-0.000146	-0.001783	0.002297	7163.976475	43975.385968	3963.428879	23439.700933
22.037500	-0.000315	0.000085	-0.002087	0.000753	7176.108672	44143.499821	3966.561527	23512.907766
22.535000	0.000170	0.000118	-0.000849	0.000621	7182.188777	44159.210512	3970.028896	23519.172754
23.035500	-0.000664	-0.000423	-0.000261	0.000679	7173.395851	44102.416299	3971.376924	23516.438841
23.535500	-0.000218	0.000297	0.001091	0.002753	7157.396159	43974.216062	3969.544518	23418.162872
24.036000	0.000893	-0.000508	0.001211	0.000823	7187.332839	44080.662572	3974.753009	23509.590329
24.536000	0.000959	-0.000132	0.000505	0.000799	7188.219424	44118.575949	3973.015864	23510.707371
25.036500	0.001258	0.000007	-0.002766	0.000908	7190.099811	44121.382005	3964.453081	23505.538229
25.537000	0.001499	0.000390	0.000837	0.003156	7170.312269	43944.921283	3967.878983	23399.131977
26.034500	0.000280	-0.000089	0.001465	0.000896	7180.558001	44113.440792	3975.213718	23506.109218
26.534500	0.000843	0.000644	0.000297	0.001093	7184.169562	44164.278468	3971.741838	23496.767677
27.035000	0.002780	0.000474	0.003529	-0.001103	7225.171215	44357.075080	3985.614846	23601.217213
27.535000	0.002604	0.000230	0.003546	-0.001473	7227.106248	44369.192117	3986.613813	23618.891175
28.036000	0.000056	-0.000373	0.000716	-0.000733	7194.436144	44241.167992	3977.457034	23583.573061
28.536000	0.002142	0.000687	0.003141	0.000244	7205.429327	44249.108802	3981.162040	23537.088111
29.036500	-0.000791	-0.000385	-0.003623	0.000449	7174.415246	44127.833828	3963.449983	23527.359525
29.536500	0.001476	-0.000137	0.003675	-0.000691	7208.098915	44259.604410	3984.931063	23581.578654
30.036500	0.002351	0.000324	0.001790	-0.000146	7211.384577	44251.666675	3978.701899	23555.641874
30.537500	0.002143	0.000287	-0.002790	0.002128	7186.784800	44032.301086	3961.317128	23447.690621
31.037000	0.001402	-0.001023	0.001238	0.001298	7187.661109	43986.854568	3973.611220	23487.020744
31.535000	0.001281	-0.000153	0.006142	-0.000892	7208.158847	44277.251600	3991.811699	23591.174163
32.035000	-0.000740	-0.000066	0.000562	-0.000783	7187.062674	44275.117344	3977.191512	23585.945967
32.535500	0.001482	-0.000717	0.001854	-0.000564	7206.901106	44192.409347	3979.934371	23575.525769
33.035500	0.000662	0.000536	-0.001212	0.000503	7188.208653	44210.060840	3969.408977	23524.771207
33.536500	0.001152	0.000456	0.002511	0.001114	7187.021220	44144.491894	3977.326674	23495.787379
34.036000	-0.000126	0.000530	-0.000390	0.002398	7161.788472	44029.799829	3966.692937	23434.957703
34.536500	-0.000561	0.000734	0.001140	0.001911	7162.295551	44095.174297	3971.804496	23457.979970
35.037000	-0.000472	0.000059	0.001736	0.001593	7166.286765	44061.412354	3974.128579	23473.035446
35.537500	-0.000430	0.000111	-0.001637	0.001401	7168.591867	44084.513418	3966.060692	23482.151349
36.035000	0.001166	-0.000005	0.004156	0.001870	7179.689253	44029.038819	3979.597704	23459.910817
36.535000	0.000410	0.000862	-0.002082	0.002334	7167.678997	44067.344666	3962.583339	23437.987300
37.035500	0.000206	0.000122	0.004724	0.001882	7170.124419	44040.009900	3981.022367	23459.376343
37.535500	0.000051	-0.000749	-0.003404	0.002617	7161.367561	43888.259218	3958.547364	23424.570081
38.035500	-0.000059	0.000492	-0.000688	0.001880	7167.536552	44075.246749	3967.249441	23459.477412
38.536000	-0.000007	0.000642	-0.002587	0.001950	7167.354433	44082.846560	3962.278517	23456.143730
39.036500	0.001378	0.000022	0.000457	0.001594	7184.512456	44057.857391	3970.876468	23473.028557
39.537000	-0.000650	-0.000621	-0.002689	0.002771	7152.978549	43885.769992	3959.954521	23417.280129
40.037000	0.000829	-0.000194	0.003178	0.001123	7183.736003	44081.939504	3979.006411	23495.320047
40.534500	-0.000385	0.000072	-0.001262	0.001338	7169.655483	44086.831495	3967.166797	23485.138023
41.035000	-0.000051	0.000059	0.000645	0.001496	7171.389423	44070.674647	3971.602768	23477.673367
41.535500	-0.001121	-0.000521	0.001337	0.002990	7146.217744	43874.523628	3969.565553	23406.928541
42.035500	-0.000414	-0.000720	-0.005153	0.000621	7176.432000	44079.724480	3959.168402	23519.172900
42.536000	0.000177	0.000396	0.001366	0.001519	7173.404547	44100.394343	3973.376355	23476.563543
43.036000	-0.000158	-0.000155	0.002158	0.001261	7172.647708	44072.525453	3976.048741	23488.779737
43.536500	-0.000062	0.000741	0.004610	0.002502	7161.384310	44039.871123	3979.142623	23430.015819
44.037000	-0.000558	-0.000309	0.000645	-0.000787	7188.906053	44252.415729	3977.414051	23586.154733
44.536500	0.000468	0.000266	0.003498	-0.000028	7191.542340	44234.925515	3982.773490	23550.016315
45.036500	0.000940	-0.000725	0.002796	-0.000580	7201.685747	44193.150032	3982.388882	23576.292167
45.534500	-0.001803	-0.000604	0.001333	0.003129	7138.200778	43853.700084	3969.203634	23400.388986
46.035000	0.001272	-0.000447	-0.000373	-0.000059	7199.805360	44170.082495	3972.965600	23551.480159
46.535500	0.000645	-0.000007	0.001714	-0.000343	7196.410604	44238.922059	3979.011816	23565.021253
47.035500	0.000003	0.000196	0.000630	0.002371	7163.320084	44000.778667	3969.343754	23436.230202
47.536000	-0.004536	-0.000805	-0.002634	0.004089	7102.279598	43744.407343	3956.787376	23355.086808
48.035500	0.000611	-0.000223	0.007690	0.000145	7191.244160	44171.980361	3993.132684	23541.790586
48.536500	-0.000631	-0.000312	-0.001172	-0.000566	7186.002665	44231.109277	3972.223824	23575.629519
49.037000	0.001534	-0.000116	0.005227	0.000013	7201.692170	44194.754560	3987.115921	23548.083544
49.537000	-0.000448	-0.000601	0.007677	0.003113	7151.605143	43855.401805	3985.440694	23401.121267
50.034500	0.000838	-0.000222	0.002659	-0.003678	7231.485813	44536.748502	3990.012051	23724.399249
50.535000	-0.007409	-0.004846	0.006516	-0.008269	7195.145402	44533.570739	4012.039876	23945.786591
51.034500	-0.047652	-0.007414	-0.002661	0.286047	4886.207113	23929.898797	3437.044179	13582.021349
51.535500	-0.057166	-0.014643	-0.000342	0.044817	6288.782825	38925.080161	3864.610911	21523.151607
52.038500	-0.062899	-0.029083	-0.002687	-0.153962	8187.432242	57959.303883	4434.312237	32338.512653
52.536000	-0.022731	-0.082031	0.020339	-0.262708	10351.411716	65504.096116	4989.350685	40717.569027
53.036000	-0.004771	-0.027417	0.029229	-0.181166	9336.145697	61741.994016	4662.651635	34242.141031
53.536000	0.002154	-0.006902	0.033310	-0.113871	8500.443284	55735.943801	4419.619837	29741.759624
54.036500	0.015589	-0.000975	0.039966	-0.113307	8669.009507	56392.148601	4441.532776	29706.931549
54.537000	0.044055	0.013226	0.045028	-0.090884	8749.878198	55389.404470	4379.889802	28357.456954
55.037000	0.069306	0.022403	0.060966	-0.074404	8869.286469	54514.649602	4378.006375	27409.174666
55.535000	0.086918	0.034384	0.074072	-0.050299	8780.652400	53094.435499	4340.255786	26085.341726
56.035000	0.098177	0.043568	0.083425	-0.017981	8502.149012	50491.990998	4264.453402	24421.952643
56.535500	0.104410	0.049854	0.089905	0.014718	8170.763955	47685.452965	4182.674673	22860.338060
57.036000	0.110888	0.056804	0.101204	0.047752	7857.924212	45076.467303	4118.522120	21397.672973
57.536000	0.115388	0.059809	0.108489	0.070238	7656.648606	43227.489494	4075.527959	20463.804455
58.036500	0.121328	0.064772	0.116898	0.081965	7593.635042	42604.630307	4066.340368	19995.602941
58.536500	0.124993	0.068799	0.118568	0.099256	7448.560809	41411.221038	4024.021193	19327.963707
59.037000	0.128204	0.069589	0.131316	0.109860	7371.727850	40551.312046	4029.740278	18931.474441
59.537000	0.134535	0.074054	0.135668	0.138924	7143.503589	38479.449152	3965.509301	17893.092551
60.035000	0.107566	0.066397	0.129709	0.144880	6833.444900	37382.324260	3935.821934	17688.748318
60.534500	0.123783	0.072363	0.131110	0.116651	7257.667994	40204.888897	4011.179308	18682.569581
61.035500	0.128416	0.072907	0.133813	0.096067	7518.380634	42063.209035	4074.121405	19449.090243
61.535500	0.142101	0.079715	0.134993	0.095645	7670.981059	42720.297434	4078.580511	19465.224557
62.035500	0.147175	0.082150	0.136679	0.133113	7327.821128	39636.282310	3982.875515	18095.163443
62.536500	0.147041	0.083126	0.139994	0.143641	7220.361944	38837.755382	3964.522659	17731.025017
63.044000	0.152273	0.084646	0.141068	0.145236	7256.726763	38831.574118	3963.209713	17676.625975
63.536000	0.153476	0.085513	0.136877	0.147588	7245.201006	38708.929835	3946.839832	17596.743080
64.037000	0.155383	0.087205	0.139372	0.151269	7227.468263	38545.490605	3943.898463	17472.626229
64.535000	0.157819	0.087819	0.141873	0.153852	7226.008886	38384.366157	3943.697182	17386.162981
65.035000	0.158718	0.088702	0.142055	0.153879	7234.712728	38454.361673	3944.079827	17385.262641
65.538000	0.157271	0.088144	0.137569	0.160896	7150.988673	37840.060385	3915.964698	17152.940990
66.035000	0.161140	0.089447	0.136976	0.157822	7219.544333	38193.708580	3921.965762	17254.251277
66.536000	0.161937	0.089141	0.140005	0.160619	7199.687422	37942.660060	3922.529031	17162.048889
67.036500	0.162221	0.089000	0.142666	0.161765	7191.147122	37838.950685	3926.211951	17124.423890
67.536000	0.162986	0.090841	0.141156	0.169831	7119.557981	37342.088924	3903.145053	16862.492102
68.037000	0.164468	0.090366	0.145237	0.167191	7159.825128	37514.133367	3919.282772	16947.697342
68.537000	0.160994	0.089508	0.146769	0.171504	7084.075894	37104.776252	3912.575771	16808.790361
69.043000	0.163201	0.089501	0.144776	0.172918	7091.722494	36993.091477	3904.415463	16763.530746
69.535000	0.155481	0.088424	0.140477	0.180045	6950.734636	36355.657522	3877.518914	16537.723927
70.035500	0.159976	0.090258	0.147217	0.178689	7005.717152	36602.057546	3896.504376	16580.401327
70.535500	0.160334	0.089330	0.147630	0.182494	6973.234702	36237.115435	3888.506669	16460.992335
71.035500	0.159432	0.089678	0.146409	0.182869	6961.262984	36235.006173	3884.764843	16449.274848
71.535500	0.154522	0.088409	0.147791	0.189620	6853.579536	35625.554138	3872.276908	16240.118257
72.036000	0.159858	0.089298	0.149855	0.186120	6934.914297	35957.709515	3885.220440	16348.149553
72.539000	0.159187	0.089222	0.146510	0.190558	6887.682880	35616.157043	3867.163385	16211.314249
73.036500	0.159627	0.089725	0.147212	0.188172	6913.732696	35834.304991	3874.287528	16284.702980
73.537000	0.157813	0.089089	0.148855	0.194086	6842.890709	35341.760834	3864.445985	16103.553769
74.037500	0.160253	0.089045	0.151636	0.188622	6915.371525	35748.843232	3883.535969	16270.845016
74.538000	0.160456	0.089189	0.146751	0.191798	6887.950575	35520.447090	3864.866655	16173.334238
75.035000	0.160466	0.090036	0.152765	0.188433	6919.093217	35838.114161	3886.619489	16276.672896
75.538000	0.164996	0.090692	0.158422	0.188714	6958.640680	35866.547166	3899.301493	16268.014487
76.036000	0.162014	0.089918	0.159352	0.187382	6943.236360	35908.875833	3904.683533	16309.101166
76.536000	0.159552	0.090151	0.157859	0.186510	6928.442531	35992.854812	3903.201324	16336.056508
77.036500	0.161788	0.089321	0.152570	0.185176	6961.731377	36031.357829	3893.824777	16377.446760
77.537000	0.162935	0.089069	0.154275	0.183962	6983.879555	36104.695007	3900.737500	16415.186607
78.037000	0.162693	0.089319	0.153828	0.183988	6981.363183	36121.892836	3899.615696	16414.394012
78.537500	0.162531	0.089907	0.152769	0.182977	6989.357964	36244.274104	3899.501792	16445.908103
79.037500	0.162444	0.089222	0.151684	0.182064	6997.146861	36261.838751	3899.092931	16474.440753
79.534500	0.163306	0.089613	0.155210	0.181515	7010.486599	36333.995495	3908.807419	16491.594470
80.035500	0.164047	0.090581	0.156620	0.181227	7020.254848	36430.778765	3912.883657	16500.642391
80.535500	0.162950	0.089634	0.148142	0.184507	6978.905112	36106.269854	3884.987159	16398.238098
81.036000	0.165674	0.089568	0.154420	0.179628	7050.992044	36475.967267	3911.438250	16550.825330
81.536000	0.164980	0.088702	0.156933	0.178223	7057.803888	36517.652076	3920.890159	16595.103173
82.036500	0.167417	0.089552	0.152808	0.178655	7077.054953	36550.020631	3909.903970	16581.466632
82.536000	0.163182	0.088562	0.147180	0.182712	6997.999799	36161.520129	3886.938873	16454.170708
83.037000	0.166650	0.088939	0.153818	0.177529	7080.511173	36589.746636	3915.038012	16617.009421
83.537000	0.168898	0.088934	0.157064	0.177759	7099.999942	36571.492886	3922.332416	16609.743414
84.035000	0.166179	0.088483	0.154484	0.176824	7082.759060	36609.011521	3918.346395	16639.303829
84.535000	0.166449	0.088158	0.150252	0.182460	7031.360238	36149.913374	3894.761757	16462.039470
85.035500	0.168809	0.089629	0.156646	0.178435	7092.593515	36572.983705	3919.680755	16588.400937
85.538500	0.165551	0.087636	0.155072	0.183177	7016.015356	36055.233727	3904.504269	16439.659994
86.036000	0.170796	0.089104	0.153957	0.177859	7117.440779	36576.983617	3914.580229	16606.594273
86.536000	0.168174	0.088101	0.151931	0.182938	7043.255125	36109.030408	3897.603871	16447.112711
87.036500	0.170757	0.088151	0.156685	0.177657	7119.017946	36518.826083	3921.660045	16612.965983
87.539000	0.168823	0.088316	0.156611	0.183700	7042.170708	36067.230444	3906.931049	16423.347119
88.037500	0.172699	0.088368	0.160869	0.178432	7130.381693	36475.745268	3929.961816	16588.518404
88.534000	0.169860	0.087795	0.154652	0.182217	7066.298140	36140.764883	3905.793769	16469.646620
89.035500	0.172793	0.088716	0.154881	0.179110	7124.697646	36450.194016	3913.792836	16567.140702
89.535500	0.169722	0.087546	0.148888	0.184885	7039.451168	35918.383287	3885.848330	16386.481354
90.035500	0.173513	0.087718	0.154916	0.179015	7132.638572	36380.608696	3914.106144	16570.130056
90.535500	0.174000	0.088030	0.157274	0.179425	7133.386566	36372.972758	3918.804109	16557.210276
91.036000	0.171166	0.087405	0.156994	0.179071	7109.264323	36352.158205	3918.983976	16568.369589
91.538500	0.165532	0.086750	0.152229	0.184690	7001.510764	35872.741009	3894.166023	16392.537912
92.036500	0.172103	0.086188	0.155975	0.178953	7119.500667	36267.699468	3916.806933	16572.072963
92.536500	0.170724	0.087275	0.159701	0.180087	7095.139138	36264.084592	3923.081627	16536.398691
93.063500	0.172722	0.087906	0.159098	0.180804	7107.546391	36257.481798	3919.882862	16513.900098
93.534500	0.171816	0.087115	0.155612	0.180165	7104.957289	36245.877259	3913.014688	16533.966464
94.035000	0.171219	0.087663	0.154781	0.182010	7081.359565	36146.432990	3906.596258	16476.113777
94.535500	0.166669	0.085826	0.154148	0.186578	6994.414969	35660.113877	3894.237340	16333.957962
95.035500	0.171529	0.085935	0.151668	0.181144	7092.706365	36080.579899	3901.239385	16503.231732
95.536000	0.171420	0.086338	0.155530	0.182632	7077.300661	35997.868276	3906.899875	16456.666709
96.036500	0.170623	0.086270	0.161096	0.182837	7067.670311	35977.104296	3919.798187	16450.277615
