sample name	sample
index	73
start time	 02-11-2021  03:56:03 PM
880	-0.048276
Peak Time (s)	92.535
Peak Height 	-0.04828
calc peak height	90,93
Baseline Time (s)	10.037
Baseline Value 	-0.002536
subtract baseline	10,4
Abs	0.009771
Peak Time (s)	90.537
Peak Height 	0.009771
calc peak height	90,93
Baseline Time (s)	9.037
Baseline Value 	-0.001411
subtract baseline	10,3
PK_550	-0.000996
Peak Time (s)	90.037
Peak Height 	-9.958E-4
calc peak height	90,93
Baseline Time (s)	11.536
Baseline Value 	6.9475E-4
subtract baseline	10,2
PK_880	0.000949
Peak Time (s)	92.535
Peak Height 	9.4909E-4
calc peak height	90,93
Baseline Time (s)	11.035
Baseline Value 	0.003285
subtract baseline	10,1


Time (s)	A880-A510	A880-A775	A880-A975	A880	I510	I775	I975	I880	
0.034000	-0.002975	-0.000630	0.004360	0.001435	4494.529613	19451.529119	3298.769358	10688.567534
0.537500	-0.004693	-0.001642	0.005591	0.002753	4483.682037	19363.201959	3298.694599	10665.062920
1.038000	-0.001587	-0.001136	-0.008336	0.002517	4495.628062	19391.263897	3287.038536	10669.257393
1.538500	-0.009400	-0.000066	0.003825	0.006470	4453.964237	19282.387230	3293.982209	10599.136591
2.035500	-0.003117	-0.000605	0.007654	0.000663	4496.791384	19481.880423	3302.303672	10702.377098
2.536000	-0.005998	-0.001415	0.015940	-0.000536	4490.764591	19496.691455	3310.677345	10723.870067
3.036000	-0.002424	0.001250	0.020001	-0.000691	4504.160161	19604.547192	3314.456886	10726.636761
3.538500	-0.001714	-0.001381	0.010599	-0.001326	4509.021458	19528.136969	3306.635741	10738.046375
4.036500	-0.002494	-0.001524	-0.000401	-0.001523	4506.915275	19530.202926	3297.213509	10741.590625
4.534000	-0.002638	-0.000833	0.003771	-0.000384	4502.283479	19513.107656	3299.835338	10721.138055
5.037000	-0.002805	-0.000368	0.004139	-0.000272	4501.277523	19526.555000	3300.057654	10719.120185
5.548500	0.000332	0.000354	0.004433	0.000377	4510.268281	19529.353384	3299.749166	10707.496007
6.035000	0.001179	-0.000655	0.001665	-0.000525	4516.615686	19525.276823	3298.135014	10723.670962
6.535000	-0.000659	-0.000592	0.009090	-0.000610	4510.250148	19530.910634	3304.676504	10725.190216
7.041000	-0.003033	0.001452	-0.002345	0.000819	4496.534263	19554.441943	3293.539609	10699.579899
7.538500	-0.000882	0.000434	0.000477	0.000397	4505.801559	19531.649177	3296.317033	10707.138619
8.036000	-0.003101	-0.000083	0.006494	0.000045	4499.075142	19525.365300	3301.831017	10713.451733
8.536500	0.000853	0.000856	0.002678	0.001460	4508.231615	19507.180782	3297.296307	10688.127935
9.037000	-0.002923	-0.001318	0.000000	-0.001294	4504.538629	19529.311105	3297.361599	10737.474423
9.592000	0.000851	-0.000719	-0.000134	-0.000767	4516.304709	19532.057377	3296.792615	10728.010908
10.037500	0.000449	0.000485	0.003437	0.000000	4512.058497	19548.766860	3299.212716	10714.249621
10.535000	-0.000622	0.000707	0.002921	0.000293	4507.118294	19546.068378	3298.512787	10708.998956
11.035000	0.000000	-0.000003	-0.003193	-0.000094	4510.768640	19533.703489	3293.595054	10715.927457
11.535500	-0.000499	0.000000	-0.000803	0.000056	4508.420800	19528.099139	3295.511308	10713.246220
12.036000	-0.001396	-0.000170	0.017816	-0.000067	4505.622453	19526.319012	3311.934690	10715.458651
12.535500	-0.002320	-0.000302	0.011126	-0.000042	4502.195582	19520.302013	3305.968260	10715.000974
13.037500	0.004023	-0.000119	0.010085	-0.001764	4531.540101	19593.221726	3306.569778	10745.937065
13.536000	-0.002226	0.000833	0.013432	0.000037	4502.251364	19560.659096	3307.936810	10713.581680
14.037000	-0.004563	0.000626	0.004419	0.002756	4484.130518	19449.041302	3297.679554	10665.004683
14.537000	-0.002386	-0.000592	0.011172	0.001688	4495.737354	19443.365449	3304.486723	10684.054717
15.038000	-0.000342	-0.000644	0.001934	-0.000699	4511.724199	19532.323834	3298.517745	10726.789781
15.549000	-0.001797	0.000704	0.009712	0.002841	4493.714473	19448.838145	3302.199013	10663.503422
16.037500	-0.001919	-0.000370	0.001524	-0.000688	4505.973945	19542.393883	3298.153346	10726.588544
16.797000	-0.004538	-0.000575	0.001353	-0.000775	4496.852305	19537.853897	3298.080618	10728.147713
17.915500	0.000880	0.000873	0.004450	-0.002300	4521.994141	19651.899559	3302.092924	10755.578025
18.066000	0.000858	0.000821	0.015783	-0.002483	4522.582596	19656.922782	3312.277588	10758.879345
18.162500	-0.000452	-0.000382	0.005583	-0.003274	4520.689956	19641.095911	3303.936674	10773.157928
18.537000	0.001462	0.001452	0.005426	0.001153	4511.550973	19541.682220	3299.938190	10693.612717
19.040000	-0.005762	-0.000184	0.016560	0.000154	4489.138361	19517.337862	3310.614532	10711.492039
19.537500	-0.002740	-0.000641	0.005612	-0.000342	4501.766519	19518.845472	3301.399674	10720.385527
20.078500	-0.001108	0.000350	0.001344	0.000855	4503.335385	19510.955144	3296.668572	10698.943936
20.538000	-0.004815	-0.000489	0.002323	0.000205	4492.342548	19503.728029	3298.072579	10710.571842
21.038500	-0.001091	-0.000516	0.001030	-0.000176	4507.119184	19517.251857	3297.286547	10717.410432
21.654500	-0.002714	-0.000277	0.007100	0.000089	4500.304869	19516.252405	3302.321247	10712.657152
22.065000	0.001339	0.002325	0.014908	0.001818	4508.696301	19549.641964	3307.666932	10681.737635
22.537000	0.001723	0.000784	0.002125	0.001013	4513.002643	19521.485981	3297.205246	10696.114851
23.037500	-0.001515	0.000775	-0.009619	0.000783	4502.127695	19529.967396	3287.417204	10700.236499
23.765500	0.002261	-0.000266	0.001847	0.000183	4517.979408	19513.125436	3297.680983	10710.976545
24.086500	0.002035	-0.000066	0.003372	0.000826	4514.815044	19496.162808	3298.442159	10699.450220
24.537500	-0.000156	0.000212	0.014191	0.001556	4504.238819	19478.991200	3307.263992	10686.417189
25.035000	-0.004647	0.000567	0.003148	0.000589	4491.570195	19529.394803	3298.453503	10703.692642
25.535500	-0.003450	-0.000522	0.009004	-0.000649	4500.311786	19535.081532	3304.634658	10725.886523
26.036000	-0.000993	-0.000443	-0.008969	0.000354	4505.557382	19499.807054	3288.323303	10707.910188
26.535500	-0.001826	-0.000580	0.016763	0.000747	4501.134387	19479.590051	3310.265919	10700.864946
27.036000	-0.002185	-0.000456	0.009843	-0.000285	4503.560391	19523.705382	3305.053073	10719.361313
27.536500	-0.000242	0.001020	0.009179	0.002085	4502.021862	19489.595390	3302.393683	10676.970217
28.036500	-0.001161	0.000551	0.012500	-0.002721	4516.092401	19655.728908	3309.558243	10763.180126
28.539500	-0.001029	-0.000070	0.013819	-0.001032	4510.440272	19567.032366	3309.229168	10732.764005
29.037500	-0.001734	0.001312	0.014510	0.000652	4501.808318	19555.493855	3308.347186	10702.578548
29.534500	-0.002974	0.000384	0.016830	0.000807	4496.789507	19514.114249	3310.272907	10699.807249
30.035000	-0.000852	0.000906	-0.000201	0.000417	4505.836639	19548.926913	3295.717099	10706.773831
30.535500	0.002944	0.000634	-0.000329	-0.000600	4523.323723	19577.440522	3296.481648	10725.016170
31.035500	-0.000183	0.001627	0.001782	0.000566	4507.718310	19570.842708	3297.295102	10704.114644
31.536000	-0.000930	-0.000321	0.004374	0.002077	4499.570362	19438.898029	3298.227056	10677.112919
32.036500	-0.005545	-0.000279	0.001861	0.000767	4487.721376	19490.294254	3297.189324	10700.505810
32.536500	-0.001955	0.000464	0.008272	0.000796	4500.492176	19517.530014	3302.726666	10699.988665
33.039500	-0.000916	-0.000324	0.013987	-0.001071	4510.993201	19558.824732	3309.413389	10733.475772
33.537500	-0.000420	-0.000261	-0.006185	0.000321	4507.747165	19508.016921	3290.699819	10708.494956
34.034500	-0.004093	-0.000498	-0.001849	-0.002080	4503.154402	19590.807097	3296.446859	10751.624381
34.534500	-0.001562	-0.000319	0.007567	-0.000320	4505.937037	19530.273734	3303.086847	10719.989997
35.035000	-0.000177	0.000637	0.018306	0.000613	4507.567417	19531.150229	3311.763310	10703.261498
35.535500	-0.002568	0.000437	0.005991	0.000905	4497.898479	19512.389969	3300.644368	10698.052556
36.035500	0.001499	-0.000171	0.007685	0.000328	4514.676503	19511.157587	3302.622901	10708.365307
36.536500	-0.000360	0.000046	-0.002053	0.000387	4507.726265	19517.239295	3294.158099	10707.323045
37.036500	-0.004047	-0.002041	0.014908	-0.000650	4498.168052	19477.151471	3309.858021	10725.900119
37.536500	-0.000825	-0.000105	0.009398	0.000631	4505.162115	19502.158951	3303.857404	10702.953533
38.037000	0.000503	0.000221	0.008085	-0.000074	4512.519231	19541.490343	3303.324501	10715.567693
38.537000	-0.001160	-0.000413	0.007151	0.000820	4503.270314	19483.175593	3301.727699	10699.557490
39.034500	-0.001141	0.001472	0.009475	0.001629	4500.426413	19524.236721	3303.051163	10685.107809
39.535000	-0.000155	-0.000517	0.005982	-0.000367	4511.198839	19524.508891	3301.743708	10720.829487
40.035000	-0.003783	-0.000973	0.004236	-0.000862	4499.879314	19525.998484	3300.653681	10729.708807
40.535500	0.000113	0.001048	0.005977	0.001729	4504.584530	19504.220239	3299.915881	10683.315516
41.036000	0.001926	0.000447	-0.000727	0.000989	4513.831075	19509.545350	3294.776814	10696.549577
41.536500	0.001569	-0.000204	0.016974	0.000286	4515.086840	19511.538888	3310.866008	10709.125656
42.036500	-0.004160	0.000250	0.011001	0.000291	4494.386675	19528.691014	3305.565320	10709.039626
42.539500	-0.001915	-0.000933	0.009746	-0.000308	4504.615806	19506.376632	3304.986955	10719.766649
43.037000	-0.000884	0.000069	0.011014	0.001106	4503.237557	19490.670483	3304.859073	10694.453949
43.534500	-0.003886	-0.000645	-0.000463	0.000126	4495.960828	19500.803905	3295.743023	10711.997184
44.035000	0.001248	0.000123	0.010988	0.000473	4513.239655	19516.849864	3305.393268	10705.772958
44.536000	0.001217	0.000078	0.008747	-0.002159	4522.707550	19615.898879	3305.737527	10753.037236
45.035500	0.002005	0.000991	0.006634	-0.000785	4520.572463	19598.223398	3302.677383	10728.338394
45.535000	-0.000466	-0.000016	0.019387	-0.001992	4515.971745	19605.898758	3315.077632	10750.043613
46.035500	-0.001599	0.000883	0.006200	-0.001116	4508.681874	19606.792832	3302.587528	10734.282565
46.536000	-0.000561	-0.000405	-0.006581	0.000948	4504.972633	19478.620867	3289.834672	10697.274641
47.036500	-0.000627	0.000153	0.004877	-0.000777	4510.973142	19565.821334	3301.138214	10728.193707
47.537000	0.001677	0.000307	0.005811	-0.000396	4517.957718	19557.105067	3301.619735	10721.350725
48.037000	-0.001673	-0.001277	0.008603	0.000217	4503.595076	19473.272702	3303.523371	10710.360165
48.537500	-0.003451	0.000112	-0.002921	0.002190	4490.121045	19451.051467	3291.882336	10675.090688
49.038000	-0.001880	-0.000656	0.001874	-0.002173	4511.492573	19588.306298	3299.741799	10753.295930
49.535500	0.002561	0.001916	0.013323	0.001255	4515.166980	19555.472761	3306.762107	10691.779059
50.035500	0.000848	0.000590	0.004347	-0.000538	4515.457947	19573.385695	3300.468633	10723.892987
50.536000	-0.000090	-0.000194	0.011277	-0.000648	4512.456087	19547.601843	3306.636568	10725.881407
51.035500	-0.001669	-0.000564	0.003512	-0.000664	4506.792346	19534.083673	3299.854273	10726.166481
51.536500	-0.053493	-0.027031	0.011980	0.298263	3636.898790	10784.042267	3116.117784	6847.049363
52.039500	-0.013525	-0.014127	0.007251	-0.017006	4523.094221	19640.578560	3317.683315	11025.110379
52.536500	0.011738	-0.006138	0.012090	-0.207281	5542.461240	29303.452696	3541.476436	15475.731871
53.037000	-0.008815	-0.011256	0.011457	-0.133220	5032.379795	24909.536316	3443.765691	13508.768370
53.535000	-0.011258	-0.011272	-0.003565	-0.100324	4868.619186	23306.098058	3389.372933	12737.073900
54.035000	-0.013939	-0.007517	-0.005517	-0.127443	4980.438814	24806.654583	3417.191676	13368.991364
54.534500	-0.023946	-0.010687	0.001118	-0.135086	4969.345331	25033.083114	3433.706635	13554.334627
55.035500	-0.023138	-0.009956	0.001873	-0.126890	4935.064759	24656.554500	3425.032514	13355.714769
55.535500	-0.023881	-0.007034	0.006110	-0.103223	4825.849352	23643.582538	3403.071703	12802.772185
56.036000	-0.021271	-0.005815	0.007044	-0.096863	4809.604743	23399.891633	3397.111435	12659.231040
56.537000	-0.021683	-0.006010	0.013313	-0.092144	4787.612003	23169.728786	3398.806131	12554.094973
57.037000	-0.019132	-0.002410	0.009472	-0.076000	4730.578196	22593.745577	3377.411601	12202.905479
57.537500	-0.016282	-0.004208	0.011039	-0.070921	4721.397661	22284.953545	3373.752418	12095.098554
58.034500	-0.021217	-0.002713	-0.003305	-0.060696	4660.175698	21899.947874	3348.965434	11881.825188
58.535000	-0.008033	-0.002610	-0.002358	-0.056348	4695.598495	21715.538999	3345.643676	11792.654627
59.035000	-0.017175	-0.004981	-0.001046	-0.048238	4627.103459	21267.801072	3339.080616	11628.688584
59.535500	-0.020449	-0.004471	0.010056	-0.081606	4748.382137	22754.834722	3383.933106	12323.388139
60.036000	-0.010958	-0.003654	-0.004530	-0.051200	4663.209921	21449.740276	3338.581210	11688.227561
60.536000	-0.014271	-0.003044	0.004902	-0.058405	4678.751942	21785.872604	3354.806617	11834.745908
61.036000	-0.023993	-0.005449	-0.003219	-0.049091	4604.044534	21284.063884	3337.818021	11645.789723
61.539000	-0.028564	-0.007907	0.005411	-0.051889	4597.255467	21298.466038	3348.876628	11702.133925
62.036500	-0.026617	-0.007302	0.003091	-0.056900	4624.069484	21537.389337	3351.522642	11803.923251
62.537000	-0.007031	-0.006038	0.004387	-0.042357	4643.776687	20977.330009	3338.651683	11511.694557
63.034500	-0.007534	-0.003057	-0.005084	-0.057448	4702.088048	21743.829089	3344.064691	11815.145491
63.534500	-0.006963	-0.002165	0.004926	-0.053003	4686.412080	21590.574973	3349.493690	11724.663114
64.054000	-0.007286	-0.002157	-0.008542	-0.052045	4681.254925	21549.824869	3335.562379	11705.274313
64.535000	-0.006518	-0.002042	-0.003473	-0.048190	4668.902416	21390.224382	3336.717096	11627.731902
65.036000	-0.005209	-0.001807	0.013135	-0.045942	4665.160418	21304.930056	3350.622551	11582.836022
65.536000	-0.001971	-0.001616	0.013598	-0.044742	4673.292604	21262.341542	3349.897525	11558.964665
66.039500	-0.000508	-0.002868	-0.002641	-0.046401	4685.817054	21279.487002	3335.806867	11591.982728
66.537000	0.000868	-0.000470	0.003110	-0.045446	4687.518088	21340.541560	3340.389947	11572.961183
67.037000	0.002842	-0.001302	0.012671	-0.046594	4700.144962	21353.920001	3350.806704	11595.827122
67.537500	0.002464	-0.001066	0.010193	-0.047061	4700.506780	21383.788087	3348.832147	11605.163127
68.035000	0.008220	-0.000497	0.004781	-0.048592	4730.350720	21473.170840	3345.043655	11635.796997
68.535000	0.006355	-0.000145	0.011024	-0.047097	4716.524111	21424.433289	3349.681974	11605.864155
69.035500	0.002742	0.001837	0.007562	-0.049859	4713.041358	21627.463171	3348.994887	11661.217954
69.536000	0.003665	0.000875	0.008604	-0.052481	4727.599509	21699.060927	3352.604029	11714.101865
70.036000	0.001986	-0.000370	0.002672	-0.055260	4732.141974	21765.387002	3349.496547	11770.480902
70.539000	0.001505	-0.000519	0.001691	-0.054105	4725.391495	21708.949242	3347.404627	11747.001408
71.036500	-0.002712	-0.001877	-0.000690	-0.059288	4729.374409	21875.019094	3350.151325	11852.867412
71.536500	0.002431	-0.000153	0.009273	-0.059886	4753.229205	21976.522728	3360.663722	11865.158806
72.037500	0.002726	-0.001450	0.002617	-0.061623	4761.749346	21995.843698	3355.735403	11900.972411
72.534500	0.001894	-0.002271	0.011333	-0.059752	4750.424682	21878.092651	3362.608379	11862.402338
73.035500	0.000990	-0.000381	0.014634	-0.061928	4755.742020	22056.207120	3368.185692	11907.263292
73.535000	0.005481	-0.000557	0.004509	-0.063194	4780.014070	22104.253224	3359.198331	11933.470710
74.036000	0.000712	-0.000208	0.008823	-0.063226	4760.018420	22121.054736	3363.584124	11934.131220
74.536000	0.000571	-0.001464	0.005560	-0.065085	4767.246482	22147.734035	3362.162921	11972.760851
75.036500	0.003141	-0.001237	-0.000088	-0.063636	4771.978082	22093.787517	3355.046060	11942.648517
75.539000	-0.000138	-0.000935	0.006766	-0.064662	4762.482370	22152.415948	3362.955047	11963.956372
76.037000	-0.001180	-0.002229	0.004775	-0.065662	4762.306130	22139.442868	3361.953154	11984.788563
76.537000	0.002796	-0.001120	0.005109	-0.064350	4773.535782	22130.424200	3360.964860	11957.462025
77.037500	-0.000501	-0.001725	0.000698	-0.063289	4755.198527	22056.984866	3355.483634	11935.448781
77.534500	-0.002324	-0.002183	0.003724	-0.064166	4751.240910	22075.395979	3359.385944	11953.639948
78.035000	-0.003484	-0.002495	-0.000742	-0.063619	4744.123573	22037.586570	3354.379181	11942.284545
78.535000	0.002103	-0.001474	0.004167	-0.061921	4760.380980	22007.855668	3357.579978	11907.129794
79.036000	0.000705	-0.000744	0.003949	-0.060305	4747.771992	21968.977667	3355.748623	11873.782380
79.536000	-0.000290	-0.001264	0.003201	-0.060379	4743.932906	21949.461029	3355.078594	11875.309065
80.036500	0.002188	-0.000751	0.009073	-0.058558	4746.670282	21892.290074	3359.126292	11837.881935
80.536000	-0.000403	-0.002740	-0.000856	-0.056356	4726.804428	21710.267062	3347.115366	11792.825184
81.037000	-0.000888	-0.001976	0.004299	-0.055267	4720.332267	21696.237530	3351.103780	11770.637114
81.537500	-0.000236	-0.002208	0.009592	-0.056243	4727.025235	21728.395329	3357.326489	11790.515533
82.035000	0.001866	-0.001992	0.000325	-0.055461	4732.476025	21703.910052	3347.394935	11774.577162
82.535000	0.004994	-0.001105	0.013138	-0.051156	4727.617099	21556.812499	3355.788972	11687.344063
83.035000	0.002940	-0.001896	-0.002842	-0.054399	4732.527755	21662.235534	3343.282859	11752.981949
83.535500	0.000756	-0.000720	0.012167	-0.051810	4712.898716	21601.414418	3355.472669	11700.532344
84.036000	-0.000909	-0.001115	0.001731	-0.053074	4711.259887	21638.792006	3346.437299	11726.106321
84.536000	-0.001055	-0.000274	0.005120	-0.048915	4693.757190	21496.444701	3345.686796	11642.261955
85.039000	0.000763	0.001110	0.010358	-0.050072	4705.835136	21605.354327	3351.955861	11665.505346
85.536000	0.002030	-0.000511	0.005145	-0.051001	4714.804301	21575.653656	3347.746406	11684.221394
86.037000	-0.001910	-0.000323	0.001984	-0.049992	4694.657560	21540.453226	3343.688793	11663.908486
86.534500	-0.002755	-0.000669	0.001997	-0.046964	4679.050023	21396.485590	3340.779511	11603.220007
87.035000	-0.000546	-0.000208	0.005451	-0.046491	4686.024273	21395.970071	3343.655433	11593.766658
87.535000	-0.001562	-0.001697	0.001214	-0.050589	4698.485529	21507.203506	3343.521476	11675.917997
88.035500	-0.000635	-0.002100	0.009245	-0.050415	4701.541936	21482.567111	3351.196493	11672.412912
88.538500	-0.006440	-0.002439	0.005798	-0.050385	4677.994214	21466.800408	3347.782848	11671.812411
89.036000	0.003174	-0.001585	0.006477	-0.049797	4714.559235	21478.179945	3347.871722	11659.984140
89.536500	-0.000145	-0.000534	-0.006573	-0.049207	4698.627332	21497.816665	3334.737874	11648.120851
90.036500	-0.002546	-0.000996	0.007503	-0.048661	4686.712483	21454.812096	3347.763534	11637.168403
90.536500	0.000787	-0.002021	0.009771	-0.049618	4704.084693	21451.935653	3350.929026	11656.383638
91.034000	-0.003044	-0.002201	0.006045	-0.049502	4688.096315	21439.289365	3347.161276	11654.048027
91.537500	0.000051	-0.003662	0.006763	-0.049931	4702.364686	21395.384020	3348.283080	11662.673496
92.035500	-0.001771	-0.003173	0.001489	-0.049468	4693.098180	21396.476233	3342.702238	11653.359541
92.535500	0.000949	-0.002352	-0.002832	-0.048276	4699.288269	21380.718430	3337.410192	11629.454135
93.035500	-0.001993	-0.003024	-0.000957	-0.044436	4671.976907	21190.142042	3335.539313	11552.872798
93.536000	-0.001536	-0.001907	-0.000165	-0.047340	4685.459040	21359.886682	3339.064986	11610.729036
94.039000	-0.000299	-0.001714	-0.002720	-0.047385	4690.628202	21369.990826	3336.668106	11611.630491
94.536500	-0.000780	-0.002269	0.004703	-0.047319	4688.422461	21343.642895	3343.733274	11610.309081
95.037000	-0.005327	-0.003435	0.007359	-0.042628	4651.558419	21097.109953	3341.766756	11517.058383
95.536000	-0.004535	-0.002764	-0.001368	-0.046832	4671.398729	21302.119055	3337.429798	11600.590538
96.034500	-0.000915	-0.003356	0.001573	-0.046677	4685.292485	21270.550402	3340.095884	11597.489949
