sample name	sample
index	488
start time	 03-11-2021  02:03:18 PM
880	0.027328
Peak Time (s)	92.035
Peak Height 	0.02733
calc peak height	90,93
Baseline Time (s)	8.534
Baseline Value 	-0.004561
subtract baseline	10,4
Abs	0.037583
Peak Time (s)	92.035
Peak Height 	0.03758
calc peak height	90,93
Baseline Time (s)	9.536
Baseline Value 	0.00259
subtract baseline	10,3
PK_550	0.021544
Peak Time (s)	90.035
Peak Height 	0.02154
calc peak height	90,93
Baseline Time (s)	9.536
Baseline Value 	8.321E-5
subtract baseline	10,2
PK_880	0.039264
Peak Time (s)	92.536
Peak Height 	0.03926
calc peak height	90,93
Baseline Time (s)	10.539
Baseline Value 	0.002456
subtract baseline	10,1


Time (s)	A880-A510	A880-A775	A880-A975	A880	I510	I775	I975	I880	
0.035000	-0.000344	-0.000859	-0.003358	0.002413	7059.182434	45376.634236	3957.026527	24141.379411
0.535500	-0.004125	-0.000304	-0.001935	0.006522	6984.090677	45030.832185	3950.218172	23941.214758
1.036000	-0.004057	-0.000105	0.005513	0.004335	7005.411907	45262.672053	3974.830539	24047.507636
1.536500	0.000454	0.000008	0.004400	0.002032	7070.514608	45498.647295	3977.907673	24159.999408
2.036500	-0.000200	-0.000549	-0.000458	0.001253	7071.718741	45520.497684	3967.395276	24198.213987
2.537000	-0.002768	0.000008	-0.001918	0.003524	7025.368969	45352.824586	3957.863581	24087.068775
3.037000	0.001411	0.000500	0.003051	-0.000663	7105.832807	45812.175402	3981.401638	24292.444654
3.537500	-0.001015	0.000319	-0.001786	0.001312	7063.314511	45599.915564	3963.841958	24195.337769
4.035000	-0.000684	-0.000000	0.001897	0.000842	7071.010026	45614.657254	3974.513100	24218.365993
4.535000	0.001724	0.000467	-0.000687	0.001482	7088.084451	45597.779606	3966.220281	24186.998666
5.035500	-0.001921	-0.000018	-0.001110	0.000774	7059.771580	45619.641823	3966.951694	24221.743294
5.536000	0.000194	0.000089	0.004773	0.000498	7082.805306	45657.327012	3982.861314	24235.312035
6.036000	0.000461	-0.000115	0.001692	-0.000206	7092.184809	45706.445883	3976.691882	24269.917512
6.536500	0.001604	0.000123	0.000946	-0.000107	7102.303215	45720.062930	3974.506198	24265.025257
7.036500	0.000666	0.000562	0.002490	0.000526	7087.099987	45701.129487	3976.863710	24233.929379
7.539500	-0.000834	0.000808	0.000912	0.000718	7070.772174	45706.390090	3972.293763	24224.497599
8.034500	0.000496	0.000298	0.000070	0.000024	7090.304422	45724.538225	3971.913598	24258.623708
8.534500	-0.000563	0.000120	-0.000141	0.000000	7080.299260	45709.287975	3971.429288	24259.781816
9.035000	0.001245	-0.000196	0.001518	-0.000584	7103.452110	45735.675255	3977.219914	24288.525571
9.535500	-0.000241	0.000000	0.000000	-0.000255	7085.873472	45722.655228	3972.450874	24272.353443
10.035500	-0.000248	-0.000207	-0.001426	0.001245	7071.331576	45554.862781	3964.933930	24198.605698
10.538500	0.000000	-0.000283	-0.000027	-0.000645	7091.979418	45733.188427	3973.386717	24291.557154
11.036000	0.000673	0.000789	0.005087	0.000150	7090.800088	45760.484687	3984.582003	24252.399305
11.536500	0.001040	0.001141	0.002943	0.000180	7094.061243	45792.239028	3978.934664	24250.946803
12.037000	-0.000182	0.000222	0.000298	0.001507	7069.446990	45571.262996	3968.684398	24185.771376
12.537000	-0.000803	0.000435	0.001989	0.000256	7075.518251	45715.107877	3976.263999	24247.175806
13.036500	-0.000191	0.000058	0.009720	-0.002269	7105.873569	45927.225460	4003.107289	24371.749372
13.540500	-0.000661	0.000160	0.003026	-0.000020	7079.551117	45715.255626	3979.666524	24260.788433
14.035500	-0.000967	0.000693	0.003156	0.002554	7051.841622	45514.664854	3973.342547	24134.442456
14.535500	-0.002119	0.000548	0.004854	0.003080	7035.794992	45448.995437	3976.371809	24108.763286
15.038500	-0.001494	-0.000367	0.000620	0.000441	7067.075730	45618.064157	3972.255222	24238.098251
15.543000	-0.000860	0.000594	-0.002676	0.000762	7070.088361	45680.990579	3962.972370	24222.306676
16.039500	0.000378	0.000688	-0.002304	0.002850	7061.914869	45485.275666	3958.597094	24120.002855
16.537500	-0.000291	0.000510	0.001508	0.001123	7072.102694	45637.302637	3972.786559	24204.612199
17.036500	0.001762	0.000338	0.001711	0.000432	7098.615319	45688.288062	3975.093136	24238.541310
17.537000	0.002627	0.000907	0.007106	-0.002012	7130.809521	45985.818697	3995.526861	24359.007695
18.034500	-0.002574	0.000022	0.006357	0.001930	7042.434944	45510.111629	3983.254184	24165.002508
18.534500	-0.000871	0.000515	0.001912	0.001800	7060.003058	45571.220259	3972.081965	24171.392174
19.035500	-0.001663	-0.000516	0.007489	0.001531	7054.986421	45496.484896	3987.247623	24184.588757
19.538000	-0.001350	0.000653	0.002666	0.001850	7054.927279	45579.843472	3973.895436	24168.923041
20.035500	0.000444	0.000190	-0.000685	0.001966	7071.052913	45523.031095	3964.984418	24163.235572
20.535500	0.001031	0.000736	0.003560	0.002004	7076.353699	45572.923006	3975.807937	24161.407994
21.036500	0.000142	0.000467	0.001912	0.002150	7066.377836	45532.083510	3971.178569	24154.226847
21.536500	-0.002133	0.000082	0.002383	0.001519	7050.590551	45556.255235	3974.020907	24185.157852
22.037000	-0.001642	0.000249	0.001016	0.001134	7058.995916	45610.499942	3971.488194	24204.046533
22.537000	-0.000420	-0.000279	0.003815	0.001254	7069.593091	45546.884781	3978.411589	24198.181741
23.037500	-0.000995	0.000524	0.003410	0.001467	7062.009190	45604.797337	3976.807886	24187.705651
23.535500	-0.000175	0.000282	0.003444	0.001392	7070.622565	45588.357919	3977.091207	24191.375549
24.035500	-0.001285	0.000566	0.005097	0.001926	7054.811416	45563.761459	3979.990350	24165.189309
24.535500	0.001168	0.000036	0.003725	0.001271	7084.750665	45576.119373	3978.133070	24197.344839
25.036000	-0.000593	-0.000065	0.001068	0.001282	7067.658552	45565.081677	3971.241314	24196.773308
25.536000	-0.000060	0.000589	0.001992	0.001567	7070.037569	45601.352220	3972.886417	24182.788369
26.036500	-0.001453	-0.000040	-0.000637	0.001284	7059.377103	45567.464867	3966.855968	24196.709686
26.536500	-0.002538	0.000430	0.001527	0.001506	7046.840844	45591.714779	3971.848013	24185.819538
27.037000	-0.001036	0.000966	0.004639	0.002133	7055.223631	45582.765582	3978.267854	24155.076656
27.537500	0.000146	0.000373	0.004092	0.001493	7072.740854	45587.412520	3978.507229	24186.439049
28.035000	0.000456	0.000230	0.004466	0.001184	7078.709247	45603.744254	3980.279008	24201.600016
28.535500	0.000772	0.000745	0.006058	0.000245	7090.844012	45746.785516	3986.869178	24247.751400
29.049000	0.000751	0.000397	-0.000793	0.000752	7085.726976	45662.562969	3967.819096	24222.804511
29.535500	-0.001913	0.000359	-0.001301	0.000232	7065.064954	45710.070170	3967.851027	24248.377733
30.036000	-0.001724	-0.000282	0.002663	0.002466	7045.433593	45427.782938	3972.299479	24138.757885
30.536500	-0.000450	0.000848	0.005024	0.001100	7070.777115	45672.669419	3981.945214	24205.699943
31.036500	-0.001123	0.000575	0.002969	0.000285	7072.152152	45726.083317	3978.728271	24245.763218
31.536500	-0.001356	0.000152	0.001741	0.002738	7046.360743	45443.746846	3969.228060	24125.468023
32.037500	-0.001989	0.000492	0.002056	0.003638	7031.699130	45388.883970	3967.724506	24081.482260
32.590000	-0.001095	0.000266	0.005369	0.000218	7073.072928	45702.244278	3985.141433	24249.061079
33.035000	0.001992	0.000480	0.005285	0.000783	7097.442362	45667.724163	3983.450128	24221.293766
33.538000	0.001112	-0.000194	0.002412	0.000356	7093.050692	45643.394233	3977.100674	24242.251153
34.035000	-0.002383	0.000160	0.002330	0.003950	7024.970589	45325.989445	3967.627885	24066.273886
34.536000	0.000465	0.000094	0.003226	-0.001319	7103.022504	45836.820605	3983.561553	24324.798534
35.036500	0.000872	0.000270	0.003387	0.001890	7075.918756	45538.375864	3975.655579	24166.992974
35.536500	-0.000578	0.000041	0.002570	0.002477	7056.322722	45458.403683	3972.033732	24138.243025
36.036500	0.001277	0.000928	0.002486	0.003722	7062.172188	45423.326081	3968.614527	24077.398846
36.537000	-0.003655	0.000424	0.002720	0.001983	7031.597892	45544.269742	3973.693863	24162.415482
37.037000	0.001059	0.000054	0.003635	0.002232	7074.419111	45483.597987	3975.413123	24150.209606
37.537500	-0.000986	0.001172	0.004191	0.003154	7045.918883	45502.820738	3974.466830	24105.140283
38.038000	-0.001998	0.000695	0.001033	0.003345	7034.419461	45437.501989	3965.854901	24095.815529
38.535000	-0.001613	0.000351	0.001099	0.002230	7048.767329	45512.996037	3968.883802	24150.339346
39.035500	0.000594	0.001008	-0.002278	0.002860	7063.896889	45515.607122	3958.636393	24119.498191
39.536000	-0.001055	0.000619	0.001227	0.002362	7052.844515	45526.310940	3968.873284	24143.864460
40.036000	-0.001452	0.000558	0.002216	0.002469	7048.013900	45509.740673	3971.141388	24138.603720
40.536500	-0.000951	0.000199	0.004306	0.002184	7055.545279	45502.505062	3977.272434	24152.559025
41.036500	-0.001274	0.000029	-0.000267	0.001836	7055.789308	45520.054255	3966.389699	24169.633723
41.537000	-0.002767	0.000357	0.003266	0.001799	7041.837745	45555.776283	3975.577135	24171.422739
42.037500	-0.000643	0.000917	0.003937	0.002543	7055.052282	45537.678594	3975.387422	24134.979969
42.535000	0.000450	0.001271	0.004124	0.002749	7063.572374	45552.249536	3975.338294	24124.905391
43.035000	-0.000566	0.000203	-0.000813	0.002139	7059.679334	45507.317859	3964.213861	24154.771304
43.535500	0.001149	0.000550	0.000495	0.002322	7074.413478	45523.405182	3967.094138	24145.793168
44.036000	-0.002524	0.000375	-0.000071	0.001967	7042.558910	45541.108641	3966.556569	24163.198423
44.536000	-0.000882	-0.000159	0.002342	0.001376	7063.968828	45546.649544	3974.282453	24192.162905
45.036500	0.000948	0.001104	0.003959	0.000225	7092.729587	45784.101177	3981.450852	24248.702065
45.537000	0.000410	0.001297	0.001674	0.001209	7078.023507	45706.140809	3972.990319	24200.362888
46.066500	-0.001870	0.000199	-0.002865	0.006910	7001.729940	45041.944826	3946.894364	23922.418278
46.537500	-0.000848	0.000720	0.002759	0.001043	7067.500643	45665.718704	3976.221395	24208.526829
47.034500	-0.000860	-0.000380	0.004034	-0.000008	7077.512129	45660.867858	3982.252962	24260.173947
47.535500	0.001372	0.001065	0.007130	0.000818	7091.095155	45721.780911	3988.169954	24219.561970
48.035500	-0.002916	0.000996	0.002191	0.007092	6990.120930	45101.592502	3959.240304	23913.598248
48.536000	-0.000941	0.000854	0.003353	0.001954	7057.856755	45589.432207	3975.402605	24163.854663
49.036000	-0.000647	-0.000123	0.000316	0.002635	7054.135656	45426.817873	3965.834624	24130.490371
49.536500	0.000004	0.000223	0.000174	0.000493	7081.017313	45670.899656	3970.970679	24235.523322
50.036500	-0.002657	-0.000155	0.002038	0.004824	7014.052457	45210.134230	3964.639110	24023.698036
50.536500	0.001525	0.000774	0.004873	0.001217	7088.712877	45653.829672	3981.248969	24199.951838
51.037000	0.002371	0.000632	0.003465	-0.000539	7113.961831	45812.930351	3982.154465	24286.336932
51.537000	0.000521	0.000888	0.001866	-0.001656	7106.827942	45948.638736	3980.900201	24341.420007
52.037500	-0.003091	-0.000539	0.004933	0.006128	6997.582199	45046.225057	3968.720237	23960.341015
52.535500	-0.024524	-0.010103	0.005643	0.065236	6301.998993	38888.764812	3828.356577	21278.901662
53.035500	-0.078020	-0.032132	-0.002304	0.057867	5958.022192	37695.713353	3827.057987	21593.615116
53.536000	-0.028382	-0.005744	0.000055	0.130059	5802.672681	34217.273910	3682.391935	18728.801038
54.036000	-0.029350	-0.013870	-0.009540	-0.056230	7353.743371	50077.681082	4098.764431	27214.115090
54.536500	-0.030695	-0.122275	-0.002804	-0.287819	10475.950611	65535.000000	5009.479228	44351.526559
55.037000	-0.023793	-0.058864	0.006335	-0.214574	9401.047108	64133.706614	4713.557331	37916.382122
55.537000	-0.025172	-0.025578	-0.000767	-0.147197	8447.451533	59514.193356	4420.358239	32882.510249
56.037000	-0.031486	-0.018543	-0.009338	-0.118342	8015.023227	56742.194646	4290.954397	30954.335179
56.540500	-0.013431	-0.013040	0.000694	-0.117752	8225.393497	57354.281056	4322.556278	30916.227657
57.034500	-0.004060	-0.011083	-0.001842	-0.127222	8462.023123	58804.880887	4346.205536	31534.117654
57.535500	0.008077	-0.003093	0.005969	-0.115699	8469.908860	58352.267174	4333.500242	30784.068302
58.035500	0.007964	-0.000014	0.003413	-0.099542	8264.672673	56708.662630	4271.065366	29765.259426
58.535500	0.016493	0.001883	0.009606	-0.101573	8396.999130	57197.071815	4298.170960	29891.269639
59.036500	0.027452	0.008901	0.012931	-0.082350	8293.177199	55693.770207	4246.231956	28722.090925
59.536500	0.023063	0.009592	0.012169	-0.055021	7912.513733	52555.506915	4158.973206	27146.462855
60.036500	0.023857	0.013023	0.013198	-0.034092	7684.894677	50596.463672	4100.485567	26005.144337
60.537000	0.023154	0.009023	0.020490	-0.063407	8011.541315	53456.563681	4210.188146	27619.453416
61.037000	0.028427	0.009307	0.022968	-0.078074	8252.254846	55225.820422	4264.833655	28468.980038
61.534500	0.024576	0.012967	0.022325	-0.046764	7835.096618	52001.058309	4164.697093	26689.612121
62.035500	0.027473	0.015071	0.027844	-0.031271	7693.679302	50511.703725	4134.915895	25855.419154
62.535500	0.020195	0.013649	0.023996	-0.031230	7613.380735	50351.798035	4123.490410	25853.283733
63.035500	0.016422	0.012978	0.023606	-0.027501	7532.457151	49873.880375	4111.495649	25656.918175
63.536000	0.028368	0.020613	0.020062	0.000349	7365.464686	47739.621097	4023.740127	24242.615131
64.049500	0.029899	0.022860	0.015312	-0.000547	7390.560968	48064.932162	4013.399557	24286.719348
64.536500	0.034656	0.023298	0.016478	-0.005563	7493.021153	48635.094901	4030.032396	24535.313928
65.056500	0.038337	0.024365	0.023993	-0.001996	7494.227164	48372.871886	4040.780037	24358.225662
65.544000	0.040394	0.024014	0.028132	0.003096	7462.154260	47807.101239	4038.178572	24107.974662
66.040000	0.038124	0.025185	0.030094	0.008221	7384.925984	47400.524435	4029.577471	23859.009159
66.535000	0.038500	0.024508	0.025737	0.011628	7353.661254	46984.395975	4008.732319	23695.153571
67.035500	0.040374	0.025747	0.028925	0.016214	7325.855462	46646.283988	4005.016554	23476.553408
67.535500	0.039781	0.027479	0.026728	0.022156	7259.582769	46224.737637	3983.632026	23196.790422
68.035500	0.036108	0.025681	0.024197	0.029962	7145.555424	45278.167574	3957.041555	22835.001568
68.536500	0.038647	0.026553	0.027299	0.028399	7185.963187	45516.221756	3968.964414	22906.932619
69.036500	0.038952	0.025809	0.031753	0.029802	7175.112301	45306.176265	3976.829592	22842.353453
69.537000	0.039931	0.026935	0.026063	0.032249	7160.645160	45177.546972	3955.970686	22730.242563
70.036500	0.033496	0.026807	0.021637	0.039407	7028.994956	44474.945422	3926.943296	22405.872866
70.537500	0.037600	0.026270	0.030932	0.034630	7114.538922	44882.361734	3962.307299	22621.736863
71.035000	0.038130	0.026509	0.026512	0.035910	7107.247766	44782.004860	3947.844272	22563.656498
71.535000	0.038021	0.026441	0.029684	0.036221	7103.176510	44745.500381	3955.081715	22549.592814
72.035500	0.033585	0.026488	0.029786	0.043168	6994.133193	44086.686401	3937.848408	22237.579753
72.535000	0.037336	0.025499	0.023073	0.037185	7087.197223	44562.388305	3936.024420	22505.973465
73.036000	0.037581	0.025346	0.030357	0.036777	7093.518689	44586.896910	3955.378343	22524.437738
73.536500	0.037972	0.025696	0.026525	0.037829	7087.126866	44519.730961	3943.051339	22476.940482
74.036500	0.033343	0.024048	0.023524	0.042653	6996.720861	43904.762432	3923.590053	22260.552359
74.537000	0.036634	0.024259	0.028542	0.037962	7072.923813	44369.620349	3947.788826	22470.907187
75.040000	0.036191	0.024739	0.036072	0.038159	7066.758429	44396.623930	3966.430340	22462.031473
75.537500	0.034326	0.024416	0.031803	0.038073	7049.684153	44374.073982	3955.759111	22465.932057
76.035000	0.034334	0.024240	0.024059	0.040263	7028.825337	44148.944099	3930.823142	22367.448382
76.535000	0.036885	0.023839	0.031592	0.036974	7084.882190	44423.846050	3958.016319	22515.546863
77.036000	0.036067	0.024299	0.034142	0.037437	7072.514168	44423.554617	3963.336458	22494.609723
77.535500	0.036023	0.023227	0.030161	0.036064	7085.340108	44452.372127	3956.690687	22556.701403
78.036000	0.034125	0.022663	0.035581	0.037013	7057.915107	44307.978256	3968.110835	22513.757037
78.536000	0.035891	0.023510	0.035336	0.035448	7090.020027	44538.349295	3971.503153	22584.604255
79.037000	0.035636	0.022661	0.036277	0.033919	7102.363592	44603.536098	3977.883178	22654.093874
79.539500	0.034841	0.023181	0.036861	0.033601	7097.735453	44683.960351	3980.220102	22668.556037
80.037000	0.036023	0.022277	0.039321	0.033797	7107.305080	44578.366990	3986.112823	22659.642339
80.535000	0.037083	0.023059	0.038237	0.032389	7131.344762	44788.765163	3986.956866	22723.823629
81.035000	0.037663	0.022270	0.034289	0.031236	7148.318987	44823.925291	3979.684255	22776.570521
81.535000	0.036892	0.022936	0.036048	0.030940	7143.653742	44916.810181	3985.026858	22790.124157
82.036000	0.038721	0.023161	0.032317	0.030421	7166.729020	44988.740110	3976.686546	22813.920971
82.536000	0.038187	0.023319	0.032787	0.029287	7172.644003	45113.996851	3980.844463	22866.036895
83.036500	0.038962	0.022910	0.034613	0.028717	7185.928157	45129.649222	3987.084368	22892.267112
83.536500	0.037671	0.022764	0.034127	0.027357	7186.614984	45247.763974	3989.368773	22955.036028
84.037000	0.035210	0.022065	0.033114	0.026633	7169.464964	45250.219620	3988.614294	22988.515917
84.537000	0.036728	0.022329	0.035922	0.025869	7192.018687	45350.502261	3997.989704	23023.900539
85.037500	0.038383	0.022121	0.033955	0.025686	7210.259695	45347.986246	3993.297902	23032.376058
85.535000	0.036554	0.022083	0.036358	0.024809	7200.808154	45430.033832	4001.941831	23073.115905
86.035500	0.034122	0.021469	0.035650	0.028322	7142.165213	45028.175232	3990.827244	22910.466734
86.535000	0.036791	0.022111	0.033965	0.023614	7215.047028	45549.754651	3998.775891	23128.717928
87.036000	0.038518	0.022771	0.036990	0.023765	7230.769637	45599.766039	4006.382312	23121.676809
87.536000	0.037660	0.021909	0.033611	0.022801	7231.841208	45609.805143	3999.987862	23166.671199
88.036000	0.034792	0.021919	0.030076	0.027820	7153.662362	45120.557219	3977.617742	22933.627281
88.536500	0.037502	0.021388	0.036246	0.022180	7236.469544	45619.560816	4008.618037	23195.653286
89.037000	0.038380	0.022328	0.038423	0.023230	7234.744152	45608.822226	4011.620790	23146.630885
89.537000	0.039038	0.022273	0.037244	0.023068	7242.961865	45619.298095	4008.910981	23154.183411
90.035000	0.038776	0.021544	0.034538	0.024893	7222.083780	45369.091353	3996.914928	23069.195799
90.535000	0.039062	0.021504	0.036252	0.022667	7247.221763	45583.192751	4007.337625	23172.897588
91.035000	0.038136	0.021402	0.037280	0.022428	7240.339956	45596.676460	4010.713039	23184.088758
91.535000	0.038864	0.021500	0.033243	0.023607	7235.810090	45490.590432	3996.889761	23129.027763
92.035500	0.037543	0.021207	0.037583	0.027328	7185.636548	45099.229582	3998.521954	22956.364809
92.536000	0.039264	0.021317	0.037185	0.024277	7233.118614	45407.201863	4005.543245	23097.865827
93.036500	0.039505	0.020729	0.033252	0.024694	7231.350730	45308.963059	3994.055686	23078.446766
93.539500	0.039703	0.021037	0.031824	0.025301	7227.271222	45279.841994	3988.723532	23050.268738
94.034000	0.037155	0.020895	0.033878	0.027133	7183.724243	45087.877877	3989.304015	22965.377444
94.537500	0.037385	0.020865	0.036567	0.026930	7188.014725	45104.677467	3996.896527	22974.780682
95.035000	0.037175	0.021014	0.036414	0.027732	7178.005709	45041.277731	3994.383575	22937.713497
95.571000	0.039604	0.020971	0.040596	0.028607	7193.381422	44952.402954	4003.104363	22897.343579
96.035500	0.038045	0.021175	0.040179	0.032416	7140.501433	44605.175306	3991.970307	22722.620702
96.536000	0.038015	0.021162	0.035762	0.030629	7157.740684	44775.718658	3985.093734	22804.413478
97.036000	0.038332	0.020299	0.033055	0.030736	7159.807588	44682.335352	3977.784233	22799.507720
97.536500	0.039161	0.019814	0.038210	0.031786	7157.624723	44535.113030	3988.465154	22751.418058
