sample name	sample
index	897
start time	 04-08-2021  03:23:50 PM


Wavelength (nm)	Absorbance
494.344910	NaN
494.563924	NaN
494.782919	NaN
495.001897	NaN
495.220856	NaN
495.439797	1.400538
495.658719	0.049003
495.877624	-0.293737
496.096510	-0.176488
496.315378	-0.191257
496.534227	-0.278662
496.753059	-0.228570
496.971872	-0.144335
497.190667	0.188182
497.409444	0.195868
497.628203	0.197548
497.846943	0.200414
498.065665	0.198721
498.284369	0.197904
498.503055	0.199597
498.721723	0.198019
498.940372	0.200230
499.159003	0.201403
499.377616	0.201085
499.596210	0.199682
499.814787	0.199757
500.033345	0.200302
500.251885	0.200551
500.470406	0.199445
500.688910	0.200552
500.907395	0.198107
501.125862	0.196920
501.344311	0.197482
501.562742	0.199292
501.781154	0.199325
501.999548	0.199092
502.217924	0.199093
502.436282	0.200628
502.654621	0.200911
502.872942	0.202196
503.091245	0.201608
503.309530	0.201704
503.527797	0.201978
503.746045	0.202344
503.964275	0.203094
504.182487	0.204297
504.400681	0.202226
504.618856	0.202216
504.837013	0.203091
505.055152	0.204223
505.273273	0.204753
505.491376	0.203903
505.709460	0.204134
505.927526	0.204686
506.145574	0.204120
506.363604	0.206076
506.581615	0.206216
506.799608	0.206441
507.017583	0.205990
507.235540	0.205638
507.453478	0.205667
507.671399	0.204704
507.889301	0.204971
508.107185	0.204557
508.325050	0.203957
508.542898	0.203824
508.760727	0.203148
508.978538	0.204595
509.196330	0.205317
509.414105	0.206159
509.631861	0.207190
509.849599	0.207137
510.067319	0.207727
510.285021	0.208010
510.502704	0.208520
510.720369	0.208338
510.938016	0.207524
511.155645	0.207501
511.373255	0.207470
511.590848	0.207791
511.808422	0.207732
512.025977	0.207838
512.243515	0.207535
512.461034	0.207224
512.678536	0.208102
512.896018	0.208501
513.113483	0.207820
513.330930	0.208511
513.548358	0.207909
513.765768	0.208014
513.983160	0.208115
514.200533	0.208835
514.417889	0.209265
514.635226	0.209103
514.852545	0.209789
515.069845	0.210746
515.287128	0.210581
515.504392	0.211634
515.721638	0.211865
515.938866	0.212640
516.156075	0.213088
516.373267	0.213632
516.590440	0.213204
516.807594	0.212799
517.024731	0.213281
517.241850	0.213865
517.458950	0.213663
517.676032	0.213218
517.893095	0.213045
518.110141	0.213587
518.327168	0.213032
518.544177	0.214990
518.761168	0.215492
518.978141	0.215473
519.195095	0.216111
519.412031	0.216097
519.628949	0.216760
519.845849	0.217170
520.062731	0.216787
520.279594	0.217800
520.496439	0.216865
520.713266	0.217385
520.930074	0.217517
521.146865	0.216951
521.363637	0.217886
521.580391	0.218780
521.797127	0.218994
522.013844	0.218994
522.230543	0.219468
522.447224	0.219882
522.663887	0.220130
522.880532	0.220726
523.097158	0.220692
523.313766	0.220446
523.530356	0.220351
523.746928	0.221219
523.963481	0.222480
524.180017	0.222115
524.396534	0.222684
524.613032	0.222255
524.829513	0.222486
525.045975	0.223852
525.262420	0.223711
525.478845	0.223891
525.695253	0.223915
525.911643	0.223563
526.128014	0.224102
526.344367	0.224409
526.560702	0.225312
526.777018	0.225715
526.993316	0.226456
527.209597	0.227504
527.425858	0.228187
527.642102	0.228111
527.858328	0.228257
528.074535	0.228044
528.290724	0.228745
528.506894	0.228234
528.723047	0.228378
528.939181	0.227163
529.155297	0.227275
529.371395	0.226964
529.587475	0.227425
529.803536	0.228073
530.019579	0.228214
530.235604	0.228007
530.451611	0.229616
530.667600	0.229828
530.883570	0.231029
531.099522	0.231307
531.315456	0.231913
531.531372	0.232287
531.747269	0.232548
531.963148	0.233504
532.179009	0.234281
532.394852	0.234330
532.610676	0.234864
532.826482	0.234967
533.042271	0.235638
533.258040	0.236585
533.473792	0.236668
533.689525	0.237000
533.905240	0.237709
534.120937	0.237857
534.336616	0.237669
534.552277	0.237737
534.767919	0.238510
534.983543	0.238481
535.199149	0.238470
535.414736	0.239477
535.630306	0.240487
535.845857	0.240232
536.061390	0.240870
536.276904	0.241001
536.492401	0.241647
536.707879	0.241312
536.923339	0.242042
537.138781	0.242355
537.354204	0.242359
537.569610	0.242440
537.784997	0.243285
538.000366	0.242893
538.215716	0.243753
538.431049	0.243960
538.646363	0.243688
538.861659	0.243722
539.076937	0.244266
539.292196	0.244439
539.507438	0.244229
539.722661	0.244049
539.937866	0.245356
540.153052	0.244938
540.368221	0.245108
540.583371	0.246337
540.798503	0.246401
541.013617	0.246611
541.228712	0.247442
541.443789	0.248211
541.658848	0.248835
541.873889	0.247852
542.088912	0.249093
542.303916	0.249400
542.518902	0.250247
542.733870	0.250889
542.948820	0.251279
543.163752	0.251288
543.378665	0.251309
543.593560	0.251343
543.808437	0.252236
544.023295	0.252131
544.238136	0.252710
544.452958	0.252598
544.667762	0.253066
544.882548	0.253189
545.097315	0.253396
545.312064	0.254001
545.526795	0.254370
545.741508	0.254701
545.956203	0.255207
546.170879	0.254873
546.385537	0.254999
546.600177	0.255001
546.814799	0.254756
547.029402	0.254947
547.243988	0.254412
547.458555	0.254702
547.673103	0.254752
547.887634	0.255122
548.102146	0.255433
548.316640	0.255701
548.531116	0.256015
548.745574	0.256728
548.960013	0.256602
549.174435	0.256969
549.388838	0.257309
549.603222	0.257907
549.817589	0.257799
550.031937	0.258601
550.246267	0.258453
550.460579	0.258289
550.674873	0.258295
550.889148	0.258858
551.103405	0.259819
551.317644	0.260005
551.531865	0.259936
551.746068	0.259689
551.960252	0.259809
552.174418	0.260271
552.388566	0.260964
552.602696	0.261327
552.816807	0.261789
553.030900	0.261989
553.244975	0.262015
553.459032	0.262328
553.673070	0.263367
553.887091	0.263842
554.101093	0.264671
554.315077	0.265140
554.529042	0.265616
554.742990	0.265636
554.956919	0.265491
555.170830	0.265859
555.384722	0.266132
555.598597	0.265863
555.812453	0.265933
556.026291	0.265860
556.240111	0.265722
556.453913	0.265739
556.667696	0.266093
556.881461	0.266497
557.095208	0.266604
557.308937	0.266250
557.522647	0.266696
557.736339	0.266647
557.950013	0.266605
558.163669	0.266786
558.377307	0.267498
558.590926	0.267677
558.804527	0.267560
559.018110	0.268342
559.231675	0.269197
559.445221	0.269473
559.658749	0.269833
559.872259	0.270280
560.085751	0.270965
560.299225	0.270407
560.512680	0.270530
560.726117	0.270852
560.939536	0.270842
561.152937	0.271049
561.366319	0.270873
561.579683	0.271084
561.793029	0.271158
562.006357	0.271020
562.219667	0.271568
562.432958	0.271490
562.646231	0.271874
562.859486	0.271971
563.072723	0.272390
563.285941	0.273002
563.499141	0.273626
563.712323	0.273583
563.925487	0.273859
564.138632	0.273944
564.351760	0.274876
564.564869	0.274543
564.777960	0.274768
564.991032	0.274739
565.204087	0.274393
565.417123	0.274020
565.630141	0.274254
565.843140	0.274338
566.056122	0.274375
566.269085	0.274191
566.482030	0.274795
566.694957	0.274930
566.907866	0.275196
567.120756	0.275940
567.333628	0.276224
567.546482	0.276524
567.759318	0.276791
567.972135	0.277380
568.184935	0.277451
568.397716	0.277674
568.610478	0.278338
568.823223	0.278666
569.035949	0.278848
569.248657	0.278929
569.461347	0.279099
569.674019	0.279289
569.886672	0.279118
570.099308	0.279741
570.311925	0.279949
570.524523	0.279576
570.737104	0.279430
570.949666	0.279212
571.162210	0.279618
571.374736	0.279616
571.587244	0.279617
571.799733	0.279766
572.012205	0.279491
572.224658	0.279871
572.437092	0.280066
572.649509	0.280281
572.861907	0.280333
573.074287	0.280355
573.286649	0.281065
573.498993	0.281296
573.711318	0.281903
573.923625	0.282229
574.135914	0.282082
574.348185	0.282441
574.560438	0.282184
574.772672	0.282677
574.984888	0.282934
575.197086	0.282786
575.409266	0.283253
575.621427	0.283076
575.833570	0.283313
576.045695	0.283494
576.257802	0.283791
576.469890	0.284466
576.681961	0.284434
576.894013	0.284555
577.106046	0.284388
577.318062	0.284056
577.530059	0.284245
577.742039	0.284043
577.954000	0.284460
578.165942	0.284282
578.377867	0.284455
578.589773	0.284520
578.801661	0.284838
579.013531	0.285141
579.225382	0.285974
579.437216	0.285820
579.649031	0.286281
579.860828	0.285779
580.072606	0.286122
580.284367	0.286511
580.496109	0.287088
580.707833	0.287164
580.919539	0.287789
581.131227	0.287873
581.342896	0.288244
581.554547	0.288206
581.766180	0.288767
581.977795	0.288884
582.189391	0.288537
582.400969	0.288523
582.612529	0.288461
582.824071	0.288401
583.035595	0.288379
583.247100	0.289165
583.458587	0.289361
583.670056	0.289843
583.881506	0.290254
584.092939	0.290475
584.304353	0.290846
584.515749	0.291128
584.727127	0.291242
584.938486	0.291247
585.149828	0.290752
585.361151	0.290990
585.572456	0.291049
585.783742	0.290530
585.995011	0.291185
586.206261	0.291476
586.417493	0.291557
586.628706	0.292112
586.839902	0.292312
587.051079	0.292764
587.262238	0.292842
587.473379	0.293040
587.684502	0.293617
587.895606	0.293191
588.106692	0.293142
588.317760	0.293437
588.528810	0.293014
588.739841	0.292853
588.950855	0.293249
589.161850	0.293605
589.372827	0.293714
589.583785	0.293890
589.794726	0.294079
590.005648	0.294285
590.216552	0.294141
590.427437	0.294525
590.638305	0.294916
590.849154	0.294879
591.059985	0.294705
591.270798	0.294522
591.481592	0.294624
591.692369	0.294869
591.903127	0.294654
592.113867	0.294796
592.324588	0.294588
592.535292	0.294646
592.745977	0.294484
592.956644	0.294302
593.167293	0.294362
593.377923	0.294463
593.588536	0.294373
593.799130	0.294944
594.009706	0.294930
594.220263	0.295414
594.430803	0.296200
594.641324	0.296288
594.851827	0.296804
595.062312	0.297191
595.272778	0.297318
595.483227	0.297706
595.693657	0.298227
595.904069	0.298925
596.114462	0.298870
596.324838	0.298496
596.535195	0.298908
596.745534	0.299220
596.955855	0.299136
597.166157	0.299347
597.376441	0.299694
597.586707	0.299245
597.796955	0.299385
598.007185	0.299513
598.217396	0.299949
598.427589	0.300066
598.637764	0.300194
598.847921	0.300779
599.058060	0.300640
599.268180	0.300564
599.478282	0.300590
599.688366	0.300648
599.898431	0.301061
600.108479	0.300958
600.318508	0.300920
600.528519	0.300845
600.738511	0.300874
600.948486	0.301335
601.158442	0.301446
601.368380	0.301948
601.578300	0.301816
601.788202	0.301794
601.998085	0.301928
602.207950	0.302540
602.417797	0.303325
602.627626	0.303557
602.837436	0.303626
603.047228	0.304046
603.257002	0.304136
603.466758	0.304912
603.676496	0.305450
603.886215	0.305613
604.095916	0.305409
604.305599	0.305317
604.515264	0.305464
604.724910	0.305595
604.934538	0.305643
605.144148	0.305539
605.353740	0.305228
605.563314	0.305109
605.772869	0.305271
605.982406	0.305474
606.191925	0.305444
606.401425	0.305500
606.610908	0.305684
606.820372	0.305388
607.029818	0.305518
607.239246	0.305584
607.448655	0.305657
607.658047	0.305772
607.867420	0.305645
608.076775	0.305815
608.286111	0.305735
608.495430	0.305492
608.704730	0.305916
608.914012	0.306127
609.123275	0.306310
609.332521	0.306338
609.541748	0.306425
609.750957	0.306615
609.960148	0.306656
610.169321	0.306701
610.378475	0.307162
610.587611	0.307526
610.796729	0.307629
611.005829	0.307725
611.214910	0.307776
611.423974	0.307896
611.633019	0.308079
611.842045	0.308123
612.051054	0.308319
612.260044	0.308543
612.469017	0.308526
612.677970	0.308704
612.886906	0.309028
613.095824	0.309516
613.304723	0.310346
613.513604	0.310272
613.722467	0.310158
613.931311	0.310486
614.140138	0.310575
614.348946	0.310420
614.557736	0.310518
614.766507	0.310463
614.975261	0.310472
615.183996	0.310082
615.392713	0.310363
615.601412	0.310748
615.810092	0.310667
616.018754	0.310613
616.227399	0.310754
616.436024	0.310479
616.644632	0.310793
616.853222	0.310897
617.061793	0.310756
617.270346	0.310683
617.478880	0.310753
617.687397	0.310928
617.895895	0.311331
618.104375	0.311930
618.312837	0.312409
618.521281	0.312346
618.729706	0.312368
618.938113	0.312504
619.146502	0.312934
619.354873	0.313253
619.563226	0.313834
619.771560	0.313883
619.979876	0.313941
620.188174	0.314192
620.396453	0.314595
620.604715	0.314782
620.812958	0.315101
621.021183	0.315474
621.229390	0.315375
621.437578	0.315002
621.645748	0.315098
621.853900	0.315138
622.062034	0.315149
622.270150	0.315154
622.478247	0.315402
622.686326	0.315352
622.894387	0.315340
623.102430	0.315424
623.310454	0.315556
623.518461	0.315211
623.726449	0.315158
623.934418	0.315325
624.142370	0.315298
624.350303	0.315349
624.558218	0.315571
624.766115	0.315677
624.973994	0.315958
625.181855	0.316507
625.389697	0.317236
625.597521	0.317580
625.805327	0.317899
626.013114	0.318242
626.220883	0.318582
626.428634	0.318896
626.636367	0.319038
626.844082	0.319345
627.051778	0.319017
627.259457	0.319019
627.467117	0.318770
627.674758	0.318819
627.882382	0.318922
628.089987	0.318749
628.297574	0.318861
628.505143	0.319084
628.712694	0.318927
628.920226	0.319141
629.127740	0.319047
629.335236	0.319453
629.542714	0.319503
629.750174	0.319459
629.957615	0.319423
630.165038	0.319483
630.372443	0.319269
630.579829	0.319849
630.787198	0.319872
630.994548	0.320155
631.201880	0.320284
631.409194	0.320743
631.616489	0.321131
631.823766	0.321874
632.031025	0.321539
632.238266	0.321721
632.445489	0.321725
632.652693	0.322215
632.859879	0.322487
633.067047	0.322473
633.274197	0.322177
633.481329	0.322199
633.688442	0.321947
633.895537	0.322698
634.102614	0.323086
634.309672	0.323178
634.516713	0.323478
634.723735	0.323672
634.930739	0.323885
635.137724	0.324446
635.344692	0.324782
635.551641	0.325250
635.758572	0.325608
635.965485	0.325625
636.172379	0.325973
636.379256	0.326003
636.586114	0.326047
636.792954	0.326492
636.999775	0.326486
637.206579	0.326517
637.413364	0.326488
637.620131	0.326554
637.826880	0.327024
638.033610	0.327387
638.240323	0.327418
638.447017	0.327714
638.653692	0.327573
638.860350	0.328124
639.066990	0.328180
639.273611	0.328376
639.480214	0.328389
639.686798	0.328570
639.893365	0.328327
640.099913	0.328354
640.306443	0.328612
640.512955	0.329008
640.719449	0.328872
640.925924	0.329050
641.132381	0.329273
641.338820	0.329517
641.545241	0.329464
641.751644	0.329557
641.958028	0.329974
642.164394	0.330122
642.370742	0.329999
642.577071	0.330120
642.783383	0.330534
642.989676	0.330846
643.195951	0.330932
643.402207	0.331105
643.608446	0.331304
643.814666	0.331631
644.020868	0.331689
644.227052	0.332050
644.433218	0.332087
644.639365	0.331953
644.845494	0.332161
645.051605	0.332477
645.257698	0.332659
645.463772	0.332740
645.669828	0.332868
645.875866	0.332933
646.081886	0.333359
646.287888	0.333513
646.493871	0.333956
646.699836	0.334257
646.905783	0.334208
647.111712	0.334416
647.317622	0.334921
647.523514	0.334953
647.729388	0.335133
647.935244	0.335404
648.141082	0.336029
648.346901	0.336155
648.552702	0.336145
648.758485	0.336566
648.964250	0.336937
649.169996	0.336920
649.375724	0.337244
649.581434	0.337521
649.787126	0.337588
649.992800	0.337353
650.198455	0.337698
650.404092	0.338042
650.609711	0.338103
650.815311	0.338084
651.020894	0.338299
651.226458	0.338422
651.432004	0.338544
651.637532	0.338749
651.843041	0.339202
652.048532	0.339440
652.254006	0.339241
652.459460	0.339395
652.664897	0.339716
652.870315	0.339909
653.075716	0.339942
653.281097	0.340253
653.486461	0.340193
653.691807	0.339996
653.897134	0.339849
654.102443	0.340030
654.307734	0.340343
654.513006	0.340446
654.718261	0.340807
654.923497	0.340979
655.128715	0.341314
655.333915	0.341857
655.539096	0.342417
655.744259	0.342481
655.949404	0.342844
656.154531	0.342840
656.359640	0.342952
656.564730	0.343181
656.769802	0.343604
656.974856	0.343868
657.179892	0.343917
657.384909	0.344090
657.589908	0.344587
657.794889	0.344738
657.999852	0.345432
658.204797	0.346093
658.409723	0.346002
658.614631	0.346343
658.819521	0.346587
659.024393	0.346762
659.229246	0.347092
659.434081	0.347296
659.638898	0.347893
659.843697	0.347593
660.048478	0.347573
660.253240	0.348117
660.457984	0.348374
660.662710	0.348393
660.867417	0.348827
661.072107	0.349051
661.276778	0.349451
661.481431	0.349497
661.686066	0.350086
661.890682	0.350432
662.095281	0.350939
662.299861	0.350663
662.504422	0.350805
662.708966	0.350701
662.913491	0.350646
663.117999	0.350811
663.322488	0.350831
663.526958	0.350924
663.731411	0.351225
663.935845	0.351004
664.140261	0.351660
664.344659	0.351995
664.549038	0.352237
664.753400	0.352522
664.957743	0.352844
665.162068	0.353452
665.366375	0.353587
665.570663	0.353349
665.774933	0.353648
665.979185	0.353836
666.183419	0.353945
666.387635	0.354349
666.591832	0.354638
666.796011	0.354286
667.000172	0.353872
667.204315	0.353925
667.408439	0.354426
667.612545	0.354500
667.816634	0.354591
668.020703	0.354778
668.224755	0.355180
668.428788	0.355415
668.632803	0.356210
668.836800	0.356739
669.040779	0.357407
669.244739	0.357447
669.448681	0.357643
669.652605	0.357798
669.856511	0.358395
670.060399	0.358431
670.264268	0.358703
670.468119	0.358656
670.671952	0.359037
670.875767	0.359068
671.079563	0.359419
671.283341	0.359516
671.487101	0.359888
671.690843	0.359878
671.894567	0.359861
672.098272	0.359844
672.301959	0.360189
672.505628	0.360306
672.709278	0.360629
672.912911	0.360662
673.116525	0.361053
673.320121	0.361426
673.523699	0.361608
673.727258	0.361934
673.930799	0.362303
674.134322	0.362610
674.337827	0.362988
674.541314	0.363077
674.744782	0.363513
674.948232	0.363738
675.151664	0.363640
675.355078	0.363824
675.558474	0.364300
675.761851	0.364713
675.965210	0.364793
676.168551	0.364572
676.371873	0.364809
676.575178	0.365142
676.778464	0.365541
676.981732	0.365488
677.184981	0.365805
677.388213	0.365814
677.591426	0.365587
677.794621	0.365789
677.997798	0.366180
678.200956	0.366328
678.404097	0.366304
678.607219	0.366246
678.810323	0.366925
679.013408	0.367148
679.216476	0.367194
679.419525	0.367520
679.622556	0.368030
679.825569	0.368255
680.028563	0.368424
680.231540	0.368817
680.434498	0.369329
680.637438	0.369416
680.840359	0.369670
681.043263	0.370139
681.246148	0.370598
681.449015	0.370467
681.651864	0.370715
681.854694	0.370888
682.057506	0.370998
682.260301	0.371274
682.463076	0.371410
682.665834	0.371417
682.868573	0.371698
683.071295	0.371835
683.273998	0.372288
683.476682	0.372607
683.679349	0.372964
683.881997	0.373218
684.084627	0.373322
684.287239	0.373800
684.489833	0.374365
684.692408	0.374298
684.894965	0.374352
685.097504	0.374371
685.300025	0.374422
685.502527	0.374451
685.705012	0.374797
685.907478	0.375000
686.109925	0.375178
686.312355	0.375308
686.514766	0.375828
686.717159	0.376357
686.919534	0.376622
687.121891	0.377043
687.324230	0.377141
687.526550	0.377093
687.728852	0.377391
687.931136	0.377548
688.133401	0.377595
688.335649	0.377700
688.537878	0.377706
688.740089	0.377786
688.942281	0.377951
689.144456	0.378256
689.346612	0.378683
689.548750	0.378941
689.750870	0.379346
689.952971	0.379322
690.155055	0.379588
690.357120	0.379895
690.559167	0.380371
690.761195	0.380660
690.963206	0.381062
691.165198	0.381161
691.367172	0.381105
691.569128	0.381316
691.771065	0.381791
691.972984	0.381745
692.174885	0.382016
692.376768	0.382108
692.578633	0.381917
692.780479	0.382015
692.982308	0.382151
693.184118	0.382423
693.385909	0.382260
693.587683	0.382249
