sample name	sample
index	456
start time	 03-11-2021  11:28:32 AM
880	0.436526
Peak Time (s)	91.538
Peak Height 	0.4365
calc peak height	90,93
Baseline Time (s)	9.535
Baseline Value 	-0.005408
subtract baseline	10,4
Abs	0.293742
Peak Time (s)	92.536
Peak Height 	0.2937
calc peak height	90,93
Baseline Time (s)	8.535
Baseline Value 	0.001349
subtract baseline	10,3
PK_550	0.142743
Peak Time (s)	90.035
Peak Height 	0.1427
calc peak height	90,93
Baseline Time (s)	11.037
Baseline Value 	3.0154E-4
subtract baseline	10,2
PK_880	0.275392
Peak Time (s)	91.035
Peak Height 	0.2754
calc peak height	90,93
Baseline Time (s)	10.536
Baseline Value 	0.001582
subtract baseline	10,1


Time (s)	A880-A510	A880-A775	A880-A975	A880	I510	I775	I975	I880	
0.035500	-0.004761	-0.001053	-0.004225	0.006227	6987.629558	45264.164043	3910.932837	24014.682301
0.535500	-0.001604	-0.000170	-0.003852	0.006816	7012.495399	45292.917796	3910.362063	23985.916947
1.039000	-0.001824	-0.000641	-0.008521	0.004306	7034.793977	45492.670598	3904.669710	24108.765509
1.537000	0.000455	0.000110	0.000307	0.001960	7080.194119	45797.792364	3934.445057	24224.219291
2.037000	-0.003433	-0.000389	0.000646	0.005582	7006.724442	45392.222501	3925.614943	24046.222200
2.537000	-0.001800	-0.000097	0.002423	0.002331	7054.353894	45740.595207	3939.161130	24205.887195
3.037500	0.000616	0.000006	-0.001747	-0.000750	7108.612180	46056.249128	3936.214804	24358.343548
3.535000	-0.001096	-0.000886	0.000211	0.000423	7080.044115	45851.203661	3938.338054	24300.152904
4.035000	-0.001057	0.000377	0.001946	0.001328	7071.514882	45886.759025	3940.589770	24255.432514
4.535000	0.001741	0.000123	0.001890	0.001081	7101.598157	45886.048351	3941.106682	24267.613605
5.035500	0.000603	-0.000106	-0.004672	0.001105	7090.099525	45860.968892	3923.364364	24266.430651
5.535500	0.000357	0.000017	-0.001349	0.001065	7088.055942	45877.118782	3932.392435	24268.413211
6.036000	-0.001865	0.000517	-0.000467	0.000999	7066.794695	45933.219845	3934.948370	24271.663567
6.536000	0.001127	0.000731	-0.004326	0.000955	7096.771741	45958.813778	3924.693077	24273.850702
7.036500	0.000039	-0.000073	-0.001483	0.000424	7091.251632	45931.786887	3933.759466	24300.140478
7.537000	-0.002450	-0.000964	0.001467	-0.000448	7075.283907	45929.869375	3944.111466	24343.342575
8.037500	-0.001329	-0.000800	-0.000963	-0.000312	7085.001265	45932.627677	3937.151026	24336.596880
8.535000	-0.001562	-0.000623	0.000000	-0.000093	7080.533851	45928.420744	3939.163678	24325.717166
9.035000	-0.000609	0.000328	-0.001598	0.000513	7083.967146	45962.712872	3933.208901	24295.729455
9.535000	0.000441	0.000134	-0.001304	0.000000	7099.431151	45994.392635	3935.386013	24321.130172
10.035500	0.000916	-0.000750	-0.000028	-0.000724	7111.329991	45978.416770	3940.799692	24357.027279
10.536000	0.000000	0.000208	0.001516	0.000371	7091.391210	45964.854544	3942.019322	24302.748079
11.036500	0.002144	0.000000	0.000190	0.000228	7114.069344	45958.399279	3938.808299	24309.815432
11.536500	-0.000490	-0.000441	0.000532	-0.000013	7090.347061	45938.675218	3940.392620	24321.798984
12.036500	0.000359	0.000537	0.001567	0.000605	7092.630226	45974.275810	3941.521637	24291.165924
12.537000	0.000547	-0.000600	0.000179	-0.000845	7108.865399	46005.399257	3941.690023	24363.051645
13.037500	0.001154	0.000098	0.001690	-0.001435	7120.777184	46133.570491	3947.411208	24392.375081
13.535000	0.001310	0.000670	0.001955	0.000443	7103.662442	46003.685195	3943.017015	24299.203232
14.035500	0.000388	-0.000202	-0.001378	0.001310	7085.948573	45831.207246	3931.653654	24256.297605
14.535500	-0.001909	0.000096	0.000259	0.002942	7047.293673	45699.352014	3931.665756	24175.787287
15.038500	0.000086	0.000119	0.000714	0.000376	7092.201064	45955.631419	3939.831538	24302.525755
15.547500	0.000516	-0.000730	0.003840	-0.000293	7103.076013	45937.615396	3950.164068	24335.641428
16.037500	-0.001172	0.000132	-0.001255	0.000270	7080.808216	45967.373618	3934.788488	24307.734575
16.536500	0.000075	-0.000119	0.001283	-0.000131	7097.106533	45982.206750	3942.750735	24327.618355
17.037000	0.001180	-0.000227	0.003754	-0.000120	7107.959099	45970.491487	3949.456014	24327.083095
17.537000	0.002966	0.000788	0.004007	-0.001460	7139.107522	46204.847535	3953.817760	24393.618471
18.034500	-0.002937	-0.000135	-0.005484	0.003595	7030.869068	45612.295487	3914.571587	24143.687465
18.535000	-0.000729	-0.000139	-0.000453	0.001471	7073.337016	45821.465709	3933.712594	24248.335802
19.035000	-0.000712	0.000393	0.004080	0.002152	7066.797956	45806.766318	3944.147753	24214.740616
19.538000	0.000198	0.000931	0.002872	0.002150	7075.782833	45860.263949	3940.871593	24214.851132
20.035500	-0.000275	0.000496	-0.000522	0.002253	7070.107531	45806.985020	3931.419616	24209.769969
20.536500	-0.000308	0.000364	-0.000502	0.001923	7073.030684	45826.489244	3932.359814	24226.019704
21.036500	-0.002178	0.000049	-0.000148	0.001406	7059.716588	45846.444130	3934.709150	24251.535450
21.537000	-0.000628	0.000826	0.000136	0.002354	7065.644763	45829.638992	3932.918212	24204.779295
22.037000	0.001341	0.000546	0.000817	0.002205	7086.523094	45816.642182	3935.159118	24212.137649
22.534500	-0.001257	-0.000391	-0.000393	0.001565	7067.204143	45787.227286	3933.619570	24243.678870
23.035000	-0.001079	0.000715	0.000373	0.002400	7060.758365	45814.073999	3933.435348	24202.507032
23.535000	-0.001018	-0.000240	-0.001649	0.001074	7074.404189	45850.784951	3931.559065	24267.974934
24.036000	-0.002939	0.000194	0.003430	0.001701	7049.366209	45831.738329	3943.606724	24236.990443
24.535500	-0.001253	-0.000016	0.000675	0.001447	7068.413118	45836.003527	3936.821951	24249.512738
25.036000	0.000608	-0.000067	0.002420	0.001374	7087.486609	45838.161313	3941.750339	24253.129935
25.536000	0.000029	-0.000065	-0.001005	0.001540	7080.130332	45822.012869	3932.038485	24244.926225
26.036500	-0.001377	0.000139	0.001204	0.001905	7062.694534	45806.159081	3937.016914	24226.941137
26.537000	-0.002983	-0.000144	-0.003990	0.001935	7046.640049	45775.112593	3922.970960	24225.442641
27.037000	0.000079	0.000202	-0.001401	0.001851	7077.556498	45817.657857	3930.135520	24229.572348
27.534500	-0.002075	-0.000187	-0.001321	0.001380	7060.993895	45825.734386	3931.617592	24252.837911
28.037500	-0.000294	-0.000509	-0.000119	0.003704	7055.659611	45564.710300	3928.601016	24138.328872
28.535500	0.000360	0.000326	0.000267	0.000630	7092.386346	45950.906934	3937.928435	24289.917156
29.046500	-0.000283	-0.000429	0.006346	0.000116	7091.115264	45926.953216	3955.914483	24315.386306
29.535500	-0.000083	-0.000780	0.001797	-0.000678	7100.963011	45970.986003	3945.637553	24354.774330
30.036500	-0.002111	-0.000029	0.001240	0.003566	7039.221666	45625.654683	3932.628728	24145.128778
30.536500	0.000980	0.000405	-0.000900	0.000482	7100.001769	45973.410301	3935.173922	24297.253162
31.037000	-0.001422	-0.000066	0.004088	0.000136	7079.663472	45960.986414	3949.668191	24314.376649
31.537000	-0.000792	0.000375	0.000544	0.002466	7062.927100	45773.935308	3933.717241	24199.270752
32.037500	-0.003135	-0.000438	-0.004716	0.005174	7013.570181	45427.321673	3912.420090	24066.191194
32.537500	0.000085	-0.000595	0.002879	0.000158	7094.336201	45906.402190	3946.307892	24313.301690
33.068000	0.003693	-0.000406	0.000351	0.000351	7128.277881	45905.929372	3938.912512	24303.724917
33.538000	-0.000683	0.000143	0.001059	0.000640	7081.981766	45931.678543	3940.046709	24289.417548
34.036000	-0.002849	-0.000043	0.003797	0.005537	7012.830042	45430.603972	3934.210416	24048.454543
34.536500	0.000337	0.000123	0.002011	0.000673	7091.738403	45926.480672	3942.543825	24287.818403
35.036500	-0.000797	0.000185	0.000345	0.001212	7075.210535	45879.194591	3936.566343	24261.131050
35.536500	-0.000165	0.000482	0.002811	0.002942	7064.413553	45737.479644	3938.557512	24175.813996
36.040000	-0.001405	0.000328	0.001559	0.003963	7042.244821	45621.664237	3932.418204	24125.616049
36.534500	-0.001231	-0.000345	-0.001215	0.002652	7056.781726	45684.456241	3928.481931	24190.070621
37.037500	-0.001956	-0.000293	0.000695	0.002508	7051.091355	45703.863619	3934.013266	24197.201565
37.535000	-0.001271	-0.000501	0.000007	0.002601	7056.900306	45674.143447	3931.904820	24192.598746
38.038000	0.000787	0.000440	0.001771	0.003195	7071.285478	45708.362736	3935.060087	24163.356644
38.535500	-0.000762	0.000513	0.003374	0.003484	7053.226442	45687.063755	3938.614007	24149.123604
39.038500	-0.001573	-0.000253	0.002735	0.002672	7053.235138	45691.618481	3939.084787	24189.105783
39.536000	-0.003814	-0.000301	-0.000621	0.002580	7032.218215	45695.931818	3930.270167	24193.615651
40.036000	-0.001146	0.000256	-0.000165	0.003213	7052.119347	45688.404774	3929.796306	24162.460635
40.536500	-0.000948	0.000452	-0.004509	0.003429	7051.939994	45686.444909	3917.601538	24151.822322
41.036500	-0.001352	-0.000152	0.001863	0.003126	7050.955679	45656.797119	3935.496009	24166.749800
41.534500	0.000164	0.000448	0.000199	0.003111	7065.980048	45717.430019	3931.049744	24167.485364
42.035000	-0.001149	0.000218	-0.001612	0.002930	7054.860973	45712.559086	3926.671095	24176.377256
42.540500	-0.002493	0.000698	0.003754	0.003296	7038.123365	45723.840459	3940.154003	24158.369065
43.035500	-0.001243	-0.000191	0.004257	0.002569	7057.485599	45707.879792	3943.494697	24194.174069
43.595500	-0.001903	-0.001141	-0.001326	0.001739	7059.162127	45696.059443	3930.640486	24235.130771
44.036000	-0.000267	-0.000006	-0.000023	0.003455	7058.365613	45638.816142	3929.527410	24150.576740
44.536500	-0.001843	0.000525	0.004983	0.003142	7045.993737	45722.000932	3943.912285	24165.986052
45.036500	0.003733	0.000451	0.008512	-0.001742	7149.612648	46199.341531	3967.024267	24407.629631
45.536500	-0.000330	0.000171	0.006206	0.001021	7081.700335	45896.721480	3953.043450	24270.562861
46.037000	-0.001221	0.000237	-0.000447	0.001303	7070.140932	45875.361616	3934.182099	24256.647623
46.540500	0.002270	0.000127	0.004545	0.000676	7110.880671	45926.582059	3949.441365	24287.666644
47.041000	0.002837	0.000352	0.003700	0.000779	7115.490529	45938.641691	3946.854101	24282.545779
47.538000	-0.000858	-0.000919	0.001229	0.000688	7079.784869	45821.851845	3940.380984	24287.067379
48.541500	0.000246	-0.000118	0.001591	0.000607	7091.483703	45909.100433	3941.580543	24291.054177
49.130000	0.000955	0.000283	0.002207	0.000616	7098.420452	45947.979497	3943.232255	24290.614036
49.218500	-0.001493	-0.000268	0.000859	0.001824	7062.352776	45773.875066	3936.301802	24230.935305
49.536500	-0.001626	-0.000088	0.001303	0.003938	7040.318583	45583.173122	3931.794824	24126.829531
50.037000	0.000900	0.000232	0.002906	0.002535	7078.906732	45752.999537	3939.917933	24195.850102
50.537000	0.000439	0.000257	0.004771	0.001105	7088.478533	45896.918100	3948.886806	24266.434592
51.038500	0.000194	0.000069	0.000932	0.000807	7089.001867	45907.881107	3939.251210	24281.181323
51.534500	0.000561	-0.000095	0.006213	0.000245	7098.186799	45947.322234	3955.192159	24308.976308
52.038000	-0.000212	0.000746	0.003565	0.001325	7079.869802	45923.667713	3944.997424	24255.570106
52.538500	0.002985	0.000901	0.002693	0.003006	7094.859239	45772.507313	3938.064493	24172.657485
53.035500	0.004324	0.000331	0.003696	0.012674	7013.171850	44772.712649	3914.840105	23702.033551
53.538500	-0.041519	-0.005936	-0.016887	0.199919	5261.226009	29701.971941	3476.514251	16379.904856
54.036500	-0.023959	-0.016646	-0.027315	-0.101902	7940.396010	55334.951937	4159.378917	30013.550281
54.536000	-0.028188	-0.173642	-0.026830	-0.336036	11531.265837	65535.000000	5160.247544	49460.223091
55.037000	-0.075517	-0.240797	-0.063842	-0.403192	11939.341754	65535.000000	5332.592891	57263.810717
55.537000	-0.032025	-0.150042	-0.014522	-0.312436	10996.410500	65535.000000	5098.704204	46992.145029
56.037500	-0.026177	-0.131596	-0.004518	-0.293991	10761.922285	65535.000000	5053.723763	45154.291885
56.537500	-0.020664	-0.092994	-0.006294	-0.255388	10177.462789	65535.000000	4850.284272	41551.704865
57.035000	-0.010603	-0.098340	-0.008067	-0.260735	10444.069659	65535.000000	4867.536067	42031.776198
57.535500	-0.000111	-0.080571	0.003236	-0.242897	10315.795634	65525.243466	4836.099919	40452.931005
58.036000	0.009050	-0.050049	0.010360	-0.202193	9788.912696	64073.011622	4681.791729	37083.880714
58.536000	0.017312	-0.022969	0.014564	-0.153822	9171.921687	61144.247467	4496.183826	33469.919037
59.036500	0.024063	-0.011076	0.021916	-0.113471	8697.161010	57447.298551	4369.317673	30748.335489
59.536500	0.034340	-0.000598	0.031277	-0.071631	8283.411421	53644.032636	4253.516427	28180.992919
60.037000	0.036682	0.005923	0.038853	0.007919	7389.499774	45783.413043	4025.778013	23932.211868
60.540000	0.050334	0.012057	0.053263	0.031412	7286.552965	44101.294257	3999.627147	22819.186438
61.037000	0.066732	0.021662	0.071229	0.078031	6984.623696	40731.713245	3920.627271	20781.126680
61.535000	0.091176	0.034924	0.088726	0.114603	6869.247895	38752.522873	3870.853742	19328.605895
62.035000	0.120200	0.052768	0.124474	0.175532	6580.661625	35362.284595	3808.406403	17164.500401
62.535000	0.146990	0.068528	0.152110	0.227082	6370.873041	32790.967460	3752.361037	15556.301389
63.035500	0.168151	0.079880	0.178286	0.270618	6191.298813	30652.797040	3713.564212	14339.131951
63.536000	0.183487	0.092701	0.190483	0.300076	6082.643055	29608.146999	3676.499214	13582.127863
64.036500	0.198571	0.104267	0.204981	0.324627	6011.746374	28820.140197	3655.579526	12989.283418
64.537000	0.209083	0.110990	0.213607	0.344699	5941.707571	28034.220061	3632.345155	12528.880461
65.037500	0.221497	0.117333	0.226969	0.358490	5931.745740	27606.121362	3631.485034	12224.663367
65.540500	0.223026	0.121042	0.233990	0.366936	5882.188618	27337.676911	3628.639236	12043.074320
66.041000	0.229826	0.124173	0.240234	0.373419	5884.438876	27149.413381	3628.161021	11906.049870
66.535000	0.236992	0.126932	0.239979	0.378696	5897.904112	27008.995765	3617.202253	11796.025733
67.035500	0.239157	0.131560	0.248682	0.385581	5864.366890	26883.795751	3620.789534	11654.474872
67.536000	0.240938	0.133865	0.252991	0.392037	5831.504686	26655.217564	3616.556117	11523.756044
68.036000	0.249955	0.135946	0.261734	0.396622	5862.642782	26518.390965	3624.772989	11432.087978
68.536000	0.250678	0.138162	0.256674	0.400707	5838.994365	26416.803431	3606.802554	11351.249088
69.036500	0.252432	0.138177	0.257395	0.403419	5832.286229	26270.967667	3602.939991	11297.991965
69.536500	0.254398	0.140252	0.263977	0.408699	5809.196276	26098.787395	3605.463236	11195.240785
70.037500	0.257627	0.142112	0.265073	0.412243	5807.014547	26008.847101	3600.724406	11126.987209
70.537500	0.259434	0.143975	0.270070	0.415204	5799.015615	25950.371674	3604.664276	11070.373300
71.035000	0.260908	0.145010	0.271058	0.418791	5784.432562	25815.063836	3599.636926	11002.302706
71.535000	0.262565	0.144819	0.270283	0.422630	5769.459134	25603.017263	3590.789324	10930.091722
72.035500	0.261442	0.144985	0.273446	0.424221	5750.924788	25528.512888	3593.795159	10900.351546
72.536000	0.264179	0.146204	0.276442	0.425977	5757.608714	25500.486948	3596.170538	10867.633450
73.036500	0.268394	0.147937	0.272393	0.428615	5768.387365	25453.325526	3583.430162	10818.756219
73.536500	0.268234	0.149114	0.271512	0.431308	5748.918854	25374.651956	3576.700766	10769.171131
74.037000	0.269013	0.148213	0.271829	0.430774	5757.862624	25355.570654	3578.297481	10778.972993
74.537000	0.269736	0.147770	0.276661	0.431500	5757.841625	25295.096288	3586.048755	10765.631515
75.039500	0.271858	0.149501	0.281318	0.433618	5757.865835	25275.151693	3590.879335	10726.864744
75.540500	0.270069	0.149908	0.274784	0.436044	5729.251425	25171.124628	3573.959249	10682.679340
76.035000	0.271226	0.148133	0.280922	0.434058	5750.561043	25181.982365	3589.285168	10718.829428
76.535000	0.274721	0.151766	0.283135	0.437305	5752.252838	25201.855988	3587.318718	10659.822664
77.036000	0.270142	0.149173	0.282339	0.434991	5736.868231	25187.505086	3590.207946	10701.827104
77.536000	0.271643	0.149552	0.285271	0.435948	5740.555485	25157.755946	3593.981480	10684.421430
78.036000	0.273540	0.150296	0.278272	0.437926	5740.001814	25094.481438	3576.966513	10648.573532
78.536500	0.274571	0.150472	0.279252	0.437316	5751.154191	25134.758741	3579.954238	10659.611048
79.037000	0.273831	0.149266	0.281893	0.436833	5749.406367	25097.738560	3585.857166	10668.361414
79.534000	0.275125	0.150083	0.282484	0.437440	5754.084508	25108.505458	3585.827042	10657.380478
80.037000	0.273880	0.148877	0.280994	0.437116	5747.818380	25063.389081	3583.620391	10663.246233
80.535000	0.274296	0.149397	0.286725	0.437703	5746.650413	25059.919410	3593.403941	10652.609631
81.034500	0.276025	0.148352	0.281864	0.436986	5763.324827	25043.132070	3585.512013	10665.592521
81.535500	0.273991	0.148901	0.272139	0.439264	5734.002443	24955.058164	3563.073744	10624.433406
82.036000	0.272895	0.147534	0.283135	0.435978	5748.853783	25052.894207	3589.844684	10683.884550
82.536000	0.278417	0.148406	0.283239	0.437520	5776.051357	25018.652798	3587.107454	10655.924004
83.036500	0.274285	0.146535	0.288856	0.435652	5760.548517	25018.497926	3601.447023	10689.808840
83.536000	0.271789	0.145174	0.281176	0.436089	5740.587749	24926.948508	3585.909393	10681.868666
84.039500	0.273106	0.145446	0.287940	0.435222	5755.446501	24984.941484	3600.508477	10697.632601
84.537500	0.277076	0.146993	0.288987	0.435569	5780.243269	25046.141576	3601.861307	10691.320121
85.034500	0.276562	0.146333	0.288599	0.436218	5772.259259	24979.355244	3599.858123	10679.520392
85.535000	0.277941	0.146761	0.286274	0.437832	5770.642219	24919.009785	3592.294220	10650.274471
86.035000	0.275593	0.146076	0.284241	0.435855	5768.108652	24984.763120	3592.189492	10686.123721
86.538000	0.274411	0.145257	0.282976	0.434986	5765.962794	24987.287247	3591.433739	10701.926218
87.036000	0.272614	0.144408	0.283811	0.434823	5754.804883	24952.368875	3593.340457	10704.892079
87.536000	0.274086	0.142904	0.287830	0.434889	5764.410281	24872.669083	3600.939733	10703.694658
88.036500	0.275513	0.143836	0.292037	0.434522	5776.695100	24938.564326	3609.817924	10710.369972
88.536500	0.276466	0.143372	0.286466	0.434261	5785.042263	24928.262263	3599.519580	10715.132516
89.037000	0.274095	0.143462	0.288715	0.434336	5768.255790	24929.050226	3603.721823	10713.772903
89.537000	0.272358	0.142050	0.287520	0.435198	5750.505656	24813.770168	3599.744822	10698.059926
90.034500	0.274928	0.142743	0.291109	0.434120	5775.440817	24903.485351	3608.791915	10717.706185
90.534500	0.273554	0.141419	0.286995	0.433698	5768.917913	24857.734345	3601.627424	10725.411700
91.035000	0.275392	0.142528	0.293032	0.434564	5775.578271	24870.024289	3611.680162	10709.602825
91.538000	0.274715	0.142025	0.288178	0.436526	5757.523386	24745.491150	3598.454272	10673.939834
92.036000	0.273862	0.141045	0.292056	0.434398	5766.229649	24803.360291	3610.095909	10712.629840
92.536000	0.272429	0.139922	0.293742	0.433288	5764.022573	24802.723647	3615.571730	10732.886887
93.036500	0.273566	0.138855	0.288779	0.433123	5772.931362	24757.171586	3606.197731	10735.902950
93.536500	0.273394	0.139929	0.290660	0.436276	5750.226449	24652.622154	3603.730309	10678.476656
94.037000	0.273378	0.139011	0.287034	0.433337	5770.183857	24754.290639	3602.401286	10732.003870
94.537500	0.276306	0.138707	0.288226	0.433383	5789.993089	24736.658573	3604.620933	10731.166304
95.035000	0.273291	0.138137	0.281829	0.432880	5772.715447	24733.280802	3593.265542	10740.357621
95.544000	0.271710	0.137290	0.288468	0.436070	5740.187837	24530.857955	3599.891260	10682.216881
96.035500	0.274264	0.136735	0.291171	0.432928	5779.066953	24660.323625	3611.239351	10739.473581
96.535500	0.273129	0.135094	0.284581	0.431714	5779.614053	24638.944809	3600.797358	10761.719199
97.035500	0.273863	0.138594	0.290776	0.434509	5765.482247	24674.348726	3607.387237	10710.618225
97.545000	0.271444	0.136275	0.292957	0.437026	5731.907178	24432.693254	3606.731323	10664.865923
