sample name	sample
index	504
start time	 03-11-2021  02:54:35 PM
880	0.474922
Peak Time (s)	92.537
Peak Height 	0.4749
calc peak height	90,93
Baseline Time (s)	10.037
Baseline Value 	-0.004618
subtract baseline	10,4
Abs	0.318864
Peak Time (s)	91.036
Peak Height 	0.3189
calc peak height	90,93
Baseline Time (s)	8.536
Baseline Value 	5.5016E-4
subtract baseline	10,3
PK_550	0.162833
Peak Time (s)	92.537
Peak Height 	0.1628
calc peak height	90,93
Baseline Time (s)	10.037
Baseline Value 	6.725E-5
subtract baseline	10,2
PK_880	0.306966
Peak Time (s)	92.537
Peak Height 	0.307
calc peak height	90,93
Baseline Time (s)	11.537
Baseline Value 	0.001282
subtract baseline	10,1


Time (s)	A880-A510	A880-A775	A880-A975	A880	I510	I775	I975	I880	
0.039000	-0.003145	-0.000593	0.000537	0.006476	7005.506474	45145.333453	3974.027672	24031.289453
0.537000	-0.002559	0.000172	-0.003108	0.005388	7021.361400	45325.688399	3967.509472	24084.294260
1.036500	-0.000722	-0.000158	-0.004566	0.004296	7049.261019	45400.130316	3966.582493	24137.652629
1.537000	-0.003227	-0.000373	-0.003039	0.006105	7008.252596	45202.872673	3965.866624	24049.387403
2.034500	-0.000836	0.000110	0.002423	0.001825	7071.846166	45668.506413	3990.867283	24258.803650
2.535000	0.000086	-0.000099	-0.000955	0.000779	7090.785858	45750.857298	3984.830690	24310.297626
3.039500	0.000376	0.000765	0.001608	-0.000966	7110.469839	46008.593409	3996.006437	24396.466140
3.535000	-0.002256	0.000118	-0.000581	0.005738	7020.920380	45286.291803	3973.058468	24067.245669
4.035500	0.001089	0.000515	0.002114	0.000896	7099.344489	45799.864437	3992.477907	24304.524523
4.536000	-0.000488	0.001002	-0.000461	0.001320	7080.045893	45806.090727	3984.708524	24283.641978
5.047000	-0.000097	-0.000376	0.001688	0.000308	7093.564491	45769.990382	3992.898198	24333.504709
5.536500	0.001248	-0.000298	0.001931	0.000255	7107.090351	45782.881539	3993.666655	24336.126929
6.040500	0.000499	0.000554	0.005022	0.000445	7098.004877	45848.250478	4001.240094	24326.766079
6.537000	0.000555	-0.000148	0.003810	0.000130	7101.589115	45810.036825	3998.892050	24342.301130
7.040000	0.000958	0.000421	0.000678	0.000447	7102.421598	45834.904301	3989.913709	24326.659497
7.537500	-0.001554	-0.000547	0.001161	-0.000616	7088.426456	45844.271513	3993.930749	24379.191168
8.040000	0.000921	0.000592	0.001575	-0.000134	7107.692986	45909.130426	3993.754032	24355.340447
8.535500	0.000229	0.000026	0.000000	-0.000014	7099.831360	45841.404519	3989.351646	24349.411345
9.037000	-0.002117	-0.000039	-0.002353	0.004556	7033.476747	45386.271366	3971.553107	24124.935085
9.536500	-0.000777	0.000358	0.002483	-0.000087	7090.818221	45881.366164	3995.994938	24353.018255
10.036500	0.001562	0.000000	0.004299	0.000000	7112.609275	45837.445475	4000.512365	24348.729931
10.537000	0.000911	-0.000519	-0.001955	-0.000201	7108.248584	45806.110356	3984.779910	24358.669262
11.037000	-0.002942	-0.000154	-0.001531	0.004262	7028.430909	45403.756654	3974.402364	24139.304090
11.537000	0.000000	0.000511	0.000106	0.000195	7095.596957	45868.679977	3989.083868	24339.095165
12.037500	0.000479	0.000922	0.001030	0.000817	7094.222018	45847.802379	3989.867955	24308.438131
12.535500	-0.000342	-0.000122	-0.002362	0.000200	7092.246816	45805.666396	3982.696922	24338.871306
13.035000	0.000001	-0.000456	-0.000416	0.004289	7056.243322	45371.703665	3977.188051	24137.995879
13.535500	0.000569	0.000563	0.001967	0.000158	7101.464754	45877.431950	3994.014976	24340.942930
14.036000	-0.001376	0.000028	-0.003138	0.000544	7078.967159	45786.639330	3979.814907	24321.907637
14.536500	-0.001182	0.000135	0.005844	0.002784	7059.324730	45576.846765	3997.274524	24211.713272
15.037000	-0.004387	0.000107	-0.000410	0.004799	7009.626892	45376.863211	3975.895848	24113.053474
15.551000	0.000283	-0.000037	-0.001460	-0.000418	7104.270067	45875.061633	3986.618323	24369.388824
16.037000	-0.000564	0.000043	0.004384	-0.000543	7097.274522	45895.288157	4002.156866	24375.552584
16.537000	0.001360	0.000491	0.000946	0.000240	7108.322943	45862.244432	3991.145802	24336.866581
17.034500	-0.002672	-0.000321	0.003191	0.005131	7022.744441	45302.710548	3984.301676	24096.869529
17.535000	0.003329	0.000213	0.007199	-0.003273	7161.779924	46182.869356	4016.784421	24510.941007
18.035500	0.000074	0.000121	-0.000064	0.000569	7092.702264	45793.269132	3987.677916	24320.664826
18.535500	-0.001723	-0.000215	0.001484	0.001022	7071.035768	45715.527906	3990.514023	24298.338683
19.036500	0.000058	0.000269	0.002005	0.002374	7075.155198	45630.139902	3988.360270	24231.800786
19.536500	-0.000416	0.000735	0.003019	0.001730	7076.793977	45739.326331	3992.661613	24263.473672
20.036500	-0.000360	-0.000067	-0.000816	0.001500	7079.544546	45683.100519	3983.329391	24274.805496
20.537000	0.001854	-0.000076	0.001199	0.001517	7100.737017	45680.483959	3988.492196	24273.943896
21.040000	-0.001873	0.000578	-0.000265	0.003083	7049.849918	45590.877304	3980.672704	24197.017170
21.534500	-0.000343	0.000638	-0.000236	0.002008	7074.820357	45702.498522	3983.515420	24249.825399
22.035000	-0.001192	0.000561	0.003952	0.001683	7069.783857	45726.848813	3995.212882	24265.792374
22.535500	-0.002035	-0.000171	-0.000993	0.001573	7062.751651	45665.599245	3982.684976	24271.176147
23.035500	0.000076	0.000667	0.004930	0.001979	7079.134258	45708.155697	3996.991116	24251.245472
23.535500	-0.001171	-0.000080	0.001366	0.001324	7073.439341	45699.084660	3989.423392	24283.447179
24.036500	0.000870	0.000368	0.002078	0.001717	7089.303357	45704.480012	3990.252339	24264.104793
24.536000	0.000282	0.001133	-0.000027	0.002183	7079.145079	45733.924059	3983.603847	24241.197190
25.037000	0.002367	0.000820	0.002943	0.002169	7099.399283	45704.509693	3991.323345	24241.900295
25.539500	-0.001325	0.000055	0.004653	0.001483	7070.436147	45696.754132	3997.562958	24275.643330
26.035000	0.000532	0.000216	-0.000335	0.001914	7084.148524	45670.152818	3983.502355	24254.432999
26.535000	0.000949	0.000352	0.003233	0.001902	7088.279763	45684.676958	3992.770025	24255.011389
27.035000	0.000104	-0.000268	0.000051	0.001466	7084.336029	45666.646433	3985.652716	24276.445884
27.535500	0.000800	0.000310	0.000853	0.001446	7091.244467	45725.465038	3987.778892	24277.425816
28.036000	0.003022	0.000505	0.003472	-0.001729	7143.662388	46058.563305	4002.876264	24434.296079
28.536000	-0.000058	0.000192	0.001050	-0.000117	7098.048901	45867.961557	3992.345292	24354.510313
29.036000	0.003548	0.000747	-0.001224	0.000676	7125.341339	45844.509387	3984.402583	24315.385794
29.536500	-0.001818	0.000299	0.002332	0.004461	7037.232975	45428.663498	3983.813167	24129.581936
30.039500	0.000582	0.000730	0.002315	0.000266	7100.540915	45883.253153	3994.639922	24335.598382
30.537500	-0.000250	0.000687	0.006378	0.000472	7090.510949	45858.652573	4004.727070	24325.425836
31.037000	-0.003305	0.000377	-0.001064	0.006307	7005.591062	45256.074642	3970.373826	24039.521506
31.535000	-0.001744	0.000817	0.001528	0.004031	7042.036861	45521.389506	3982.849523	24150.618646
32.035500	0.001132	0.000850	0.000383	0.002081	7088.319783	45716.134869	3984.923937	24246.204712
32.568000	0.000135	-0.000227	0.002710	-0.000125	7099.996928	45827.343932	3996.687586	24354.900671
33.035500	-0.003150	-0.000381	0.002812	0.005626	7013.500515	45248.560416	3982.044848	24072.681424
33.536500	-0.002363	-0.000016	0.003391	0.002533	7050.431307	45586.636917	3991.540927	24224.017421
34.036500	0.001368	0.000265	0.004180	0.000510	7105.785523	45813.224476	3998.868157	24323.551752
34.539500	-0.001329	-0.000092	0.005986	0.001102	7074.045533	45719.768604	4002.045286	24294.366114
35.037000	-0.002856	-0.000490	0.000853	0.002650	7044.599331	45528.672102	3984.669827	24218.273165
35.537500	0.001558	0.000641	0.006019	0.003250	7081.160548	45580.710977	3996.513658	24188.828200
36.035000	-0.000538	0.000160	0.003445	0.002248	7070.643070	45631.841093	3992.422840	24238.010571
36.535000	0.001128	0.001015	0.003330	0.003167	7077.819895	45625.553956	3989.739334	24192.904969
37.038000	-0.000757	-0.000240	0.003346	0.002291	7068.120274	45588.302584	3992.052658	24235.889043
37.536000	-0.002149	-0.000530	0.000980	0.002178	7055.868263	45570.921447	3986.214780	24241.430557
38.035500	0.000027	0.000646	0.004973	0.003038	7068.480462	45601.972696	3994.342176	24199.221749
38.536500	0.001477	0.000852	0.005321	0.003278	7080.113385	45598.686698	3994.623018	24187.479027
39.039500	-0.000368	0.000783	0.002548	0.002731	7067.634540	45645.533525	3988.842170	24214.278638
39.537000	0.000929	0.000749	0.007105	0.002861	7078.854754	45629.499926	4000.367425	24207.914207
40.037000	-0.000432	0.000157	0.001467	0.002567	7068.595880	45600.194106	3986.468201	24222.324303
40.534500	-0.001754	0.000024	0.002818	0.002082	7060.573232	45634.752289	3991.224022	24246.167111
41.035000	-0.000667	0.000108	0.000171	0.003092	7061.311197	45543.959852	3981.771441	24196.595832
41.535000	-0.000730	0.000185	0.001879	0.002368	7067.651091	45622.580577	3988.051472	24232.131251
42.035500	0.001703	0.001025	0.000625	0.003185	7083.185010	45624.857088	3982.701811	24192.049746
42.535500	0.001857	0.000701	0.004929	0.002850	7087.896551	45625.878147	3994.716042	24208.461253
43.036000	-0.000098	0.000513	0.001347	0.003604	7061.860717	45533.495318	3983.482060	24171.520111
43.539000	-0.001303	-0.000759	-0.001320	0.001596	7069.553959	45605.614104	3981.782940	24270.057655
44.039500	-0.000560	0.000566	0.001194	0.002853	7064.619982	45612.229440	3985.023105	24208.287359
44.534000	0.003090	0.000878	0.001167	-0.001769	7144.707574	46099.438324	3996.949356	24436.246387
45.037500	-0.002652	0.000147	0.000257	0.005513	7019.296917	45311.035004	3975.775713	24078.192738
45.537500	-0.000894	0.000398	0.000523	0.002560	7064.226394	45624.563623	3984.049460	24222.675344
46.035500	0.000608	-0.000266	0.001053	0.000312	7100.338192	45780.361349	3991.237397	24333.307803
46.535500	0.000377	0.001064	0.005670	0.000777	7093.616271	45865.838105	4002.069936	24310.398817
47.035500	-0.002088	-0.000108	-0.001938	0.006071	7019.350080	45231.866240	3968.748863	24051.005351
47.536000	0.000198	0.000815	0.000001	0.002273	7077.477000	45693.812174	3983.441797	24236.780332
48.052500	0.001429	0.000435	0.004696	0.000561	7105.875595	45825.021442	4000.084104	24321.035090
48.536500	-0.000024	0.000922	0.001855	0.003798	7060.695419	45554.437698	3984.291158	24161.977180
49.037000	-0.005496	-0.000454	0.003091	0.006407	6983.990872	45165.594256	3980.753695	24034.661162
49.551000	0.001724	0.000465	0.004237	0.001311	7101.474191	45754.008731	3996.924327	24284.078330
50.035000	0.001995	0.000121	0.004996	0.000288	7114.012228	45821.010396	4001.585179	24334.516955
50.535000	0.001881	0.000907	0.005115	0.000845	7107.515560	45843.583599	4000.437898	24307.056108
51.035500	-0.001230	-0.000050	0.001766	0.005353	7034.328055	45307.421373	3980.058121	24085.999079
51.535500	0.000634	0.000465	0.008736	0.000955	7094.385017	45789.149175	4009.662671	24301.635788
52.036000	0.002272	0.001315	0.001647	0.001262	7107.263478	45842.705657	3990.314084	24286.519402
52.538500	-0.002499	-0.002290	0.003561	-0.004690	7118.709588	46075.014168	4010.903491	24581.583467
53.036500	-0.043585	-0.010882	-0.006227	0.241826	5075.484716	26926.870193	3499.559065	15191.885082
53.537000	-0.038709	-0.011654	-0.016299	0.064869	6206.769340	38912.411406	3797.445088	21373.179011
54.037000	-0.040691	-0.020811	-0.008212	-0.093300	7638.059318	53624.049644	4232.916502	29488.281335
54.537000	0.001350	-0.045725	0.027789	-0.197893	9541.108953	63824.356180	4756.306109	36727.798454
55.034500	0.019238	-0.005752	0.050685	-0.098251	8401.531169	56012.508819	4449.750699	29793.089056
55.535000	0.036637	0.010703	0.065947	-0.036272	7864.797175	50734.143824	4288.004542	26216.825027
56.035500	0.064357	0.021303	0.076831	-0.028873	8102.634443	51087.481726	4299.481720	25822.980810
56.536000	0.090343	0.038454	0.101201	0.053729	7466.722714	44355.916509	4119.322957	21853.088747
57.039000	0.103258	0.050851	0.115425	0.104373	7086.725620	40867.202543	4018.326293	19767.253615
57.536000	0.136948	0.067460	0.140664	0.122498	7239.502235	40735.131849	4037.394863	19077.897821
58.036500	0.162067	0.085877	0.164151	0.151618	7199.704370	39815.832795	4022.270604	18028.893322
58.537000	0.188564	0.100849	0.187008	0.196075	7025.512550	37397.427622	3966.062052	16557.119434
59.037500	0.203494	0.113543	0.209519	0.263426	6556.393725	33326.347197	3857.929884	14595.614273
59.537000	0.216767	0.121245	0.225440	0.308088	6301.438504	30849.949048	3794.269370	13452.924891
60.035000	0.227713	0.128634	0.240945	0.327454	6236.124334	30091.610434	3786.034321	12992.809530
60.535500	0.242546	0.135671	0.251784	0.346178	6206.367748	29371.536816	3769.440539	12567.036833
61.035500	0.250485	0.141860	0.267342	0.359703	6164.108502	28929.297439	3773.689517	12270.703814
61.538500	0.258506	0.146897	0.273467	0.371993	6132.177647	28499.393820	3760.864226	12009.327465
62.036000	0.269269	0.153713	0.279968	0.391741	6065.984699	27750.407970	3733.913505	11604.500570
62.536500	0.268413	0.155402	0.285661	0.389960	6072.744863	27949.257525	3749.019586	11640.273085
63.036500	0.278332	0.161476	0.295026	0.401247	6062.757784	27651.185334	3745.108704	11416.115314
63.558500	0.287305	0.164265	0.288662	0.414810	6029.507971	27046.444856	3705.585217	11154.350622
64.037000	0.293730	0.167015	0.286595	0.403264	6161.726668	27852.158249	3724.158737	11376.659819
64.537500	0.295311	0.168837	0.293140	0.408347	6135.536137	27666.015518	3727.061564	11278.067040
65.037500	0.294941	0.169241	0.297990	0.413482	6094.775498	27398.430277	3726.494456	11179.610952
65.535500	0.294474	0.168985	0.286857	0.417342	6063.100481	27168.064675	3697.219584	11106.378098
66.038000	0.294847	0.168727	0.291377	0.422286	6029.980810	26879.970375	3696.405286	11013.519921
66.536000	0.296366	0.168301	0.291248	0.426923	6007.590629	26602.832233	3687.319359	10927.386090
67.036500	0.295546	0.168127	0.290663	0.434909	5945.214138	26163.006039	3671.225879	10781.181513
67.536000	0.294660	0.168940	0.296789	0.434588	5941.250196	26223.657433	3683.302164	10787.006628
68.037000	0.297943	0.168371	0.299288	0.437656	5942.754931	26029.680039	3682.227698	10731.499931
68.537000	0.300896	0.169391	0.300633	0.440472	5943.714394	25934.515488	3679.459070	10680.893333
69.037500	0.297359	0.169163	0.297257	0.441702	5910.488889	25857.572881	3670.855559	10658.909959
69.535000	0.299715	0.169458	0.299535	0.444452	5907.751464	25728.536872	3669.978087	10609.940021
70.034500	0.298835	0.170415	0.300656	0.444819	5899.134481	25759.509659	3671.378926	10603.437762
70.538500	0.300149	0.169890	0.303425	0.445473	5903.697747	25697.738695	3675.322859	10591.852780
71.036000	0.298212	0.170189	0.306718	0.452323	5843.522897	25357.491079	3668.702030	10471.518566
71.536000	0.300653	0.168498	0.308382	0.446295	5901.494328	25582.138328	3683.086235	10577.307383
72.036500	0.302601	0.169441	0.306113	0.446398	5914.268982	25625.940969	3678.623290	10575.484227
72.536500	0.303338	0.169790	0.306823	0.446559	5918.269980	25635.750603	3679.653809	10572.643441
73.037000	0.296994	0.168568	0.305058	0.450729	5846.075091	25356.101078	3668.580243	10499.358368
73.537000	0.301721	0.168307	0.309873	0.445281	5915.919867	25625.076924	3687.826357	10595.253726
74.034500	0.301350	0.169107	0.307252	0.446032	5908.134033	25627.580397	3681.451426	10581.950537
74.535000	0.301229	0.168680	0.311222	0.445351	5912.014820	25640.808635	3690.254789	10594.000719
75.038000	0.302865	0.167932	0.303769	0.450565	5887.305308	25331.769355	3666.498237	10502.225986
75.535500	0.305034	0.170058	0.311785	0.446763	5928.663295	25639.089025	3688.642444	10569.048537
76.035500	0.305546	0.169576	0.306997	0.445931	5938.048183	25657.355556	3681.162321	10583.740125
76.536000	0.300340	0.168238	0.312342	0.444891	5909.044582	25641.777801	3693.267233	10602.158855
77.036500	0.300751	0.170164	0.305317	0.452267	5861.165371	25359.063984	3666.214245	10472.498863
77.536500	0.303825	0.168883	0.305143	0.446612	5921.292196	25585.705175	3676.405451	10571.715094
78.036500	0.301943	0.168836	0.311121	0.446234	5910.841864	25602.941401	3688.384737	10578.383487
78.537000	0.305791	0.168904	0.308140	0.446407	5936.434009	25597.501757	3682.418840	10575.333461
79.037500	0.302119	0.167878	0.303992	0.452058	5871.944664	25252.278067	3664.153808	10476.144878
79.537500	0.302325	0.167870	0.314475	0.446893	5908.927533	25518.420427	3693.519070	10566.748961
80.035000	0.304063	0.167942	0.303718	0.447096	5919.586962	25511.636119	3672.841615	10563.174060
80.536000	0.302754	0.167422	0.309990	0.448236	5902.600139	25425.585818	3682.457829	10543.078183
81.035500	0.300898	0.166139	0.306791	0.453606	5853.049884	25084.290611	3666.463758	10449.197899
81.536000	0.302804	0.166898	0.312460	0.450039	5890.502430	25305.630183	3683.716225	10511.425513
82.036500	0.304946	0.166586	0.307788	0.450777	5900.182929	25251.702782	3673.564387	10498.507238
82.537000	0.303819	0.163901	0.309337	0.449558	5900.825436	25176.625192	3678.743132	10519.868755
83.037000	0.303013	0.164770	0.312366	0.452689	5873.742490	25061.267222	3678.551835	10465.143579
83.537500	0.302783	0.164171	0.306478	0.452011	5876.811100	25065.281490	3668.835695	10476.968184
84.037500	0.303837	0.166156	0.314091	0.454776	5865.107375	25025.609117	3677.873010	10428.892361
84.535000	0.302466	0.163976	0.305682	0.453384	5865.242507	24985.642362	3664.824663	10453.046807
85.035000	0.300717	0.163628	0.311086	0.459824	5809.856077	24644.287572	3662.916293	10341.926891
85.536000	0.302261	0.162856	0.316874	0.455342	5850.516268	24830.177305	3682.039414	10419.096273
86.036000	0.301386	0.163747	0.310747	0.457530	5829.779343	24764.999768	3666.522664	10381.319216
86.536500	0.306891	0.164175	0.310137	0.459570	5853.243220	24684.219317	3661.638291	10346.267045
87.036500	0.304357	0.163283	0.316146	0.463382	5810.407870	24450.364561	3665.685902	10281.232035
87.536500	0.304888	0.163591	0.308625	0.461273	5828.150495	24570.242887	3655.753988	10317.145418
88.037500	0.307471	0.163449	0.309743	0.462667	5836.179072	24493.952343	3655.250072	10293.381178
88.537500	0.304040	0.163061	0.313329	0.464633	5799.915145	24377.597375	3658.208637	10259.995683
89.035000	0.302285	0.161579	0.310398	0.470682	5748.269479	24009.653045	3641.950851	10158.243117
89.535500	0.304462	0.163015	0.318309	0.466538	5790.022783	24281.655536	3663.853652	10227.791814
90.035500	0.306336	0.162020	0.312769	0.467414	5796.676669	24190.049281	3652.120729	10213.039193
90.536000	0.305256	0.162613	0.317183	0.469316	5776.854838	24126.177771	3656.692913	10181.094316
91.036000	0.305779	0.162301	0.318864	0.474324	5747.290450	23868.640075	3650.641808	10097.640997
91.536500	0.306516	0.161760	0.317554	0.471900	5768.097684	23959.447399	3652.664305	10137.920822
92.037000	0.306214	0.161617	0.315675	0.473416	5756.110847	23879.378281	3646.520419	10112.700987
92.537000	0.306966	0.162833	0.317178	0.474922	5751.155822	23865.453541	3646.514858	10087.739960
93.040000	0.305453	0.161932	0.314119	0.475793	5735.550162	23780.369238	3639.463358	10073.346499
93.535000	0.306186	0.160395	0.321636	0.475839	5740.036894	23704.642150	3652.923286	10072.586211
94.035500	0.304525	0.161213	0.316780	0.478222	5713.712565	23630.084949	3639.877866	10033.354033
94.535500	0.309298	0.160611	0.310498	0.479538	5736.204923	23539.068115	3626.418092	10011.783427
95.107500	0.310431	0.159985	0.315796	0.480461	5737.579269	23465.845360	3634.141119	9996.694262
95.567500	0.307848	0.159677	0.311634	0.481416	5714.555918	23406.306266	3625.116490	9981.114875
96.036500	0.306612	0.160022	0.315531	0.482836	5697.388062	23355.796333	3629.471333	9957.998963
96.536500	0.310950	0.160331	0.317829	0.485108	5710.731259	23263.831354	3629.517019	9921.189541
97.037000	0.305315	0.158514	0.304098	0.491138	5636.233689	22900.493569	3595.455960	9824.413694
97.540000	0.304054	0.157978	0.319020	0.485766	5662.254749	23123.631964	3630.458043	9910.561302
98.037500	0.310507	0.158317	0.316875	0.487909	5689.816167	23040.152483	3622.926537	9876.077142
