sample name	sample
index	1207
start time	 04-26-2021  01:01:26 PM
880	0.497081
Peak Time (s)	92.035
Peak Height 	0.4971
calc peak height	90,93
Baseline Time (s)	10.036
Baseline Value 	-0.002751
subtract baseline	10,4
Abs	0.306895
Peak Time (s)	91.535
Peak Height 	0.3069
calc peak height	90,93
Baseline Time (s)	8.537
Baseline Value 	0.002944
subtract baseline	10,3
PK_550	0.149037
Peak Time (s)	92.035
Peak Height 	0.149
calc peak height	90,93
Baseline Time (s)	11.536
Baseline Value 	6.5209E-4
subtract baseline	10,2
PK_880	0.301230
Peak Time (s)	92.535
Peak Height 	0.3012
calc peak height	90,93
Baseline Time (s)	11.036
Baseline Value 	0.001281
subtract baseline	10,1


Time (s)	A880-A510	A880-A775	A880-A975	A880	I510	I775	I975	I880	
0.035000	-0.004143	-0.001111	-0.004786	0.004005	6119.189203	43252.955344	3865.266359	22450.253672
0.535000	-0.003946	-0.000406	0.001598	0.005053	6112.895604	43221.106226	3877.234301	22403.141664
1.036000	-0.004024	-0.001226	-0.001023	0.004090	6119.433775	43234.341844	3873.500067	22446.414089
1.536000	-0.001513	-0.000512	-0.002872	0.001278	6159.037910	43562.968002	3875.666592	22573.306845
2.036000	-0.000928	-0.001079	-0.006072	0.003582	6146.194578	43295.190188	3863.343563	22469.286223
2.536500	-0.002071	-0.000232	0.002871	0.001139	6155.897311	43602.137345	3889.010051	22579.594022
3.036500	0.001079	-0.000429	0.001055	-0.002233	6205.045430	43900.644946	3892.571339	22732.923318
3.537000	-0.001709	-0.000451	-0.002420	0.000884	6160.523968	43605.572703	3877.576752	22591.185083
4.037000	-0.002599	0.000605	-0.006803	0.004149	6129.551341	43399.172960	3860.461032	22443.776593
4.534500	-0.001504	-0.000044	-0.001090	0.001051	6160.812464	43628.139222	3880.205501	22583.620046
5.035500	-0.002048	-0.000444	0.003701	0.000695	6159.400963	43623.951039	3891.924446	22599.732555
5.535500	-0.000281	0.000885	-0.000832	0.001203	6168.836446	43700.932537	3880.444721	22576.723914
6.035000	-0.000556	-0.000412	-0.003393	-0.000240	6177.622010	43714.729706	3877.916431	22642.180833
6.536000	-0.002077	0.000321	-0.003675	0.001107	6156.098354	43657.028529	3874.244544	22581.066595
7.036500	0.000873	0.000016	0.000975	0.000565	6182.317789	43679.269686	3885.997160	22605.633199
7.536500	-0.000686	0.000434	-0.000930	0.000482	6171.216105	43726.387072	3881.857438	22609.415446
8.037000	-0.000859	0.000079	-0.002334	0.000701	6168.267063	43672.409572	3878.183606	22599.480238
8.537000	-0.001786	0.000403	0.000000	0.000370	6163.796043	43733.956908	3884.222610	22614.484092
9.037500	0.001264	0.000068	-0.003806	0.000343	6186.945039	43705.005290	3875.669294	22615.688523
9.535000	-0.001038	-0.000201	0.000894	-0.000025	6172.376166	43714.269303	3887.156834	22632.414464
10.035500	-0.000628	-0.000166	-0.002739	0.000000	6175.272292	43715.244017	3878.851914	22631.269354
10.535500	0.000125	-0.000124	0.007264	-0.000088	6181.599044	43727.397235	3901.929554	22635.248270
11.036000	0.000000	0.000556	-0.000787	0.000130	6179.019627	43770.843934	3882.979242	22625.368527
11.536000	0.000219	0.000000	0.003104	-0.000131	6182.636474	43743.161612	3892.450757	22637.232115
12.036500	0.000989	0.000475	0.000406	0.000101	6186.696613	43765.911385	3885.756443	22626.673034
12.536500	0.001542	0.000295	0.000025	0.000135	6190.612184	43745.798808	3884.813747	22625.129355
13.037000	0.000683	0.000067	0.001938	-0.000509	6188.995193	43784.971904	3890.647426	22654.403886
13.540000	-0.000666	0.000423	0.003795	-0.000289	6177.155594	43797.758581	3894.398495	22644.394976
14.035000	-0.003550	0.000248	-0.002537	0.003965	6123.864922	43383.037425	3870.381086	22452.028099
14.535000	-0.000278	0.000508	-0.000579	0.001899	6163.635367	43600.320340	3879.441623	22545.222638
15.038000	0.001658	0.000116	-0.002685	-0.000727	6198.020339	43810.148703	3880.618872	22664.322008
15.535500	-0.001425	0.000518	-0.002737	-0.000308	6171.594821	43808.500906	3879.554098	22645.274235
16.036000	0.000663	0.000162	-0.000035	-0.000725	6190.477101	43814.260475	3886.635791	22664.240370
16.536500	-0.000469	0.000496	-0.001665	-0.000067	6176.968978	43783.728188	3881.434444	22634.313393
17.036500	0.001381	0.000569	0.003159	-0.003149	6214.306204	44081.699176	3899.518025	22774.775036
17.537000	0.001519	0.000524	0.000890	0.001068	6183.401415	43679.763580	3884.659358	22582.853350
18.039500	-0.001907	0.000797	0.000875	0.001273	6156.132396	43686.095467	3884.159641	22573.551097
18.535000	-0.001421	-0.000308	0.000745	0.000910	6162.485928	43616.487735	3884.687760	22589.980384
19.035000	0.000297	0.000241	-0.001044	0.001114	6173.853726	43648.917393	3880.165823	22580.755347
19.535000	-0.002372	0.000317	0.001797	0.001398	6151.722396	43629.386015	3885.972751	22567.893566
20.035500	-0.001668	0.000612	0.000111	0.001390	6157.037757	43657.782947	3882.157216	22568.247487
20.536000	-0.000294	0.000760	-0.002805	0.001556	6166.090374	43656.099500	3875.193781	22560.754076
21.036000	-0.000666	0.000313	0.002239	0.001492	6163.785617	43620.232452	3886.765927	22563.646569
21.536500	-0.002790	-0.000740	-0.001820	0.000297	6156.820557	43633.487552	3880.259742	22617.786649
22.037000	-0.000886	0.000554	-0.003116	0.001036	6165.553501	43685.557647	3875.663803	22584.297794
22.536500	-0.001519	-0.000534	-0.006550	0.000364	6165.839922	43646.557861	3869.458755	22614.751149
23.037500	-0.001918	0.000002	0.000355	0.000870	6159.059452	43649.304609	3883.892553	22591.789975
23.535000	-0.001043	0.000808	-0.005756	0.001423	6161.475772	43673.160457	3868.867239	22566.780068
24.035000	-0.002216	0.000830	0.000531	0.001312	6153.529312	43685.586376	3883.288040	22571.792585
24.535500	0.000175	0.000714	0.000918	0.001101	6173.024949	43694.411097	3884.645982	22581.328444
25.036000	-0.000569	0.000203	0.000230	0.001134	6167.191540	43643.419301	3883.009968	22579.852960
25.536000	0.000146	0.000002	0.002285	0.000643	6176.260165	43670.691628	3888.806671	22602.097403
26.036500	-0.001444	-0.000070	-0.001507	0.000961	6161.926032	43634.050752	3879.463484	22587.667487
26.536500	-0.001719	0.000450	0.001512	0.000940	6160.027808	43684.802770	3886.365689	22588.627209
27.036500	0.000078	0.000242	0.000010	-0.001322	6190.565493	43878.099063	3888.097877	22691.395359
27.539000	0.002211	0.000717	0.004427	-0.001140	6205.341831	43905.665404	3897.808233	22683.090756
28.037500	-0.004184	0.000946	-0.002342	0.006015	6104.056086	43257.322954	3866.234444	22360.013201
28.535000	-0.000212	0.000411	-0.002180	-0.000296	6180.635431	43797.311709	3880.788221	22644.733597
29.035000	0.000514	0.000609	-0.003392	0.000468	6180.349505	43744.112285	3876.322195	22610.037333
29.535500	0.000519	0.000402	0.001875	-0.000405	6186.967223	43806.723635	3890.264384	22649.661856
30.036000	-0.002318	-0.000486	-0.000183	0.005197	6123.866849	43200.337101	3872.898927	22396.674866
30.536000	-0.000775	0.000806	-0.000073	0.002761	6153.473036	43547.589083	3878.637550	22506.313914
31.036500	-0.003193	0.000177	-0.003110	0.001469	6145.061988	43609.613339	3874.702861	22564.687181
31.536500	-0.000028	0.000198	0.006410	-0.000277	6181.870791	43775.474211	3900.393397	22643.845372
32.037000	-0.002777	0.000887	-0.002720	0.005528	6118.023707	43297.121781	3866.478553	22381.855767
32.537500	0.000771	0.000358	0.001682	0.000196	6184.337705	43746.031097	3888.449348	22622.375537
33.034500	-0.000279	0.000988	-0.000561	-0.000204	6179.434855	43843.006226	3884.251460	22640.549442
33.535000	-0.000145	0.000636	-0.000158	0.000999	6171.390665	43696.668236	3882.432945	22585.939686
34.037500	-0.003109	-0.000106	-0.000680	0.004138	6125.850253	43333.965521	3874.163933	22444.248285
34.536000	-0.001463	0.001029	0.002250	0.002275	6151.956246	43613.905783	3885.006163	22528.211409
35.036000	-0.001069	-0.000746	-0.000456	0.001050	6164.075793	43562.445782	3881.644211	22583.651269
35.536000	-0.000807	-0.000365	-0.003424	0.001212	6164.823146	43582.873999	3874.572588	22576.295985
36.036500	-0.004742	-0.000112	0.004423	0.003184	6120.824721	43422.253222	3887.885321	22487.195904
36.536500	-0.001292	0.000326	0.002638	0.001691	6157.600470	43602.697450	3887.219269	22554.609929
37.040000	-0.000026	0.000500	0.001929	0.001918	6165.381758	43597.823441	3885.089272	22544.359892
37.534500	-0.000766	0.000181	-0.003007	0.001611	6162.136561	43596.673182	3874.613074	22558.253294
38.034500	0.000554	0.000462	0.003145	0.002562	6164.908326	43533.931844	3886.390787	22515.268617
38.535000	-0.000131	0.000137	-0.002542	0.001724	6166.050056	43581.898314	3875.404443	22553.117597
39.035500	-0.001286	0.000871	0.000720	0.001988	6155.431538	43626.023790	3882.184482	22541.225041
39.535500	-0.001100	0.000306	-0.000496	0.001874	6157.672705	43583.757690	3879.687831	22546.375325
40.036000	0.000687	0.000663	-0.002656	0.002257	6168.196557	43581.373274	3873.949656	22529.061638
40.536000	-0.000096	-0.000379	-0.002863	0.001698	6166.510741	43536.109057	3874.741627	22554.298864
41.036000	-0.001590	0.000702	-0.003800	0.002102	6152.302105	43599.512729	3871.727840	22536.064109
41.537000	-0.001620	-0.000329	0.000287	0.001259	6158.381272	43581.886046	3882.853771	22574.173586
42.037500	-0.000284	0.000846	0.002186	0.002565	6158.603659	43569.635561	3884.200972	22515.129704
42.535000	-0.000487	0.001133	-0.002990	0.002640	6156.524897	43589.431858	3872.338516	22511.737395
43.035000	0.001193	0.000795	0.002045	0.002342	6171.356178	43585.663502	3884.387827	22525.200578
43.537500	0.001900	0.000534	-0.002085	-0.002866	6216.101362	44051.583842	3886.842408	22761.847916
44.035500	-0.001126	0.000722	0.002333	-0.000076	6172.103333	43805.911429	3890.560720	22634.739397
44.536000	-0.001100	0.001193	0.001031	0.001134	6163.211541	43736.373862	3884.829688	22579.843482
45.036000	0.001295	0.000761	0.003606	0.000448	6186.385389	43760.253294	3892.274264	22610.937137
45.536500	0.001568	0.000940	0.003241	0.000051	6191.446445	43814.399545	3892.347663	22628.941655
46.036500	-0.001130	0.000603	-0.003424	0.004411	6138.523570	43374.591679	3867.399145	22431.993590
46.540000	0.000159	0.000451	0.003231	0.000607	6176.630234	43716.235833	3891.051260	22603.744229
47.037000	-0.001596	0.000490	0.001218	0.002882	6146.430899	43506.668910	3881.284099	22500.818217
47.537500	0.000689	0.000378	0.003114	0.002080	6169.534241	43571.148334	3887.418518	22537.025847
48.038000	-0.001417	0.000515	-0.002806	0.004632	6134.741106	43345.849426	3868.287445	22422.069114
48.535500	0.000554	0.000290	-0.001952	0.000289	6181.993818	43730.890364	3879.978141	22618.137659
49.036000	-0.001484	0.001901	0.002581	0.001054	6160.930945	43810.480657	3888.542508	22583.466034
49.536000	0.000342	0.001146	0.003735	-0.002268	6199.727648	44052.934217	3898.815531	22734.544573
50.036500	-0.001605	0.000081	-0.003248	0.007640	6111.086563	43026.715688	3860.601376	22287.378266
50.537000	0.002451	-0.007196	0.002140	0.038828	5917.102656	39627.506423	3805.029871	20944.632067
51.039500	0.014007	-0.022975	-0.020769	0.363626	4370.870189	19678.247343	3304.795744	11447.284261
51.537500	0.002851	-0.034283	-0.028442	-0.054188	6639.217953	45644.602738	3945.402396	25251.973332
52.037500	0.005902	-0.093352	-0.016862	-0.274461	9147.822615	64845.903234	4685.000565	40011.581808
52.538000	0.009503	-0.080768	-0.007242	-0.257297	8955.961740	64196.199843	4654.210708	38573.865352
53.034500	0.017600	-0.046908	0.005504	-0.189252	8176.190386	59558.084913	4444.133037	33401.878192
53.535500	0.024375	-0.031443	0.014813	-0.138459	7668.406434	55133.572322	4303.196261	30036.379339
54.036000	0.026775	-0.018989	0.020684	-0.070543	7001.829201	48874.182995	4116.003230	26109.408393
54.536000	0.034725	-0.013992	0.031056	-0.070870	7080.598626	49440.994367	4146.406224	26126.877750
55.036500	0.050972	-0.008192	0.044542	-0.073922	7270.185477	50398.855124	4194.894383	26290.585702
55.537000	0.075447	0.001942	0.069365	-0.009914	6890.658751	44860.181222	4082.926110	23086.646711
56.037000	0.091422	0.013287	0.091096	0.066016	6377.117430	39065.230460	3943.798692	19850.265739
56.537000	0.108912	0.027663	0.116382	0.139420	5958.043635	34472.212277	3834.021198	17215.993110
57.038000	0.129087	0.036994	0.130414	0.188758	5759.959321	31695.801041	3760.865810	15679.716219
57.535000	0.150728	0.049026	0.145462	0.250893	5506.067617	28560.736478	3672.110271	13977.459929
58.035000	0.174741	0.066296	0.167263	0.298891	5366.481773	26809.548312	3626.743794	12819.515485
58.535000	0.204319	0.081868	0.203213	0.327699	5370.835992	26092.481161	3638.841786	12183.525072
59.035500	0.222130	0.095231	0.216433	0.365550	5259.779280	24822.233473	3597.942472	11409.540863
59.536000	0.238916	0.106128	0.229200	0.401239	5159.615205	23607.139069	3561.911969	10739.034585
60.036500	0.250030	0.115461	0.250323	0.449821	4973.508784	21819.859658	3521.177786	9910.489891
60.539500	0.266281	0.120767	0.265890	0.464796	4979.590569	21403.842583	3522.029421	9673.237331
61.037000	0.268334	0.123881	0.264162	0.478549	4924.522527	20956.600381	3500.144127	9462.425283
61.537500	0.272799	0.127384	0.271315	0.478853	4943.938221	21089.945058	3509.730888	9457.848005
62.037500	0.275739	0.130839	0.272354	0.471204	4994.189828	21560.402966	3522.109964	9574.189495
62.535000	0.276795	0.134666	0.274627	0.468997	5009.917823	21821.155542	3528.591344	9608.132445
63.055500	0.280365	0.139841	0.285777	0.464807	5047.814451	22233.097887	3551.296633	9673.071916
63.535500	0.282959	0.138190	0.278814	0.462043	5074.377176	22282.616791	3545.001127	9716.249351
64.036000	0.283907	0.140052	0.280683	0.467827	5050.387545	22108.575734	3539.186092	9626.197576
64.536000	0.287957	0.143217	0.285679	0.469201	5063.632716	22187.893931	3544.564156	9604.997289
65.039500	0.287509	0.143570	0.289195	0.467572	5069.498685	22275.967488	3552.280193	9630.147254
65.537000	0.287993	0.144455	0.279239	0.471392	5052.960787	22145.629717	3531.822507	9571.299407
66.037500	0.290910	0.145359	0.294439	0.474774	5050.660823	22036.239435	3549.332594	9519.625641
66.537500	0.286125	0.144769	0.289248	0.475917	5021.615373	21960.151572	3539.889257	9502.260247
67.034500	0.288706	0.143372	0.285270	0.476639	5030.679600	21867.482290	3532.969769	9491.305782
67.534500	0.289767	0.146640	0.291885	0.480799	5015.587739	21828.634355	3536.573730	9428.570319
68.035500	0.290967	0.146405	0.286684	0.484001	5005.898544	21679.633553	3524.321417	9380.698894
68.535500	0.287834	0.146747	0.294451	0.483574	4992.866769	21712.857474	3536.267411	9387.056825
69.036000	0.290767	0.147329	0.294700	0.485018	5000.027535	21675.563053	3534.510144	9365.555914
69.536500	0.290329	0.147376	0.298533	0.486800	4989.359559	21600.821391	3537.526943	9339.120519
70.039500	0.291055	0.148322	0.293070	0.489359	4980.595488	21531.597871	3525.806638	9301.360998
70.537000	0.288123	0.147877	0.295806	0.488496	4970.746209	21549.509395	3531.037885	9314.067054
71.034500	0.293638	0.150139	0.301784	0.491824	4981.156521	21503.832913	3534.917731	9265.180771
71.535000	0.294124	0.150791	0.295106	0.493958	4973.304777	21440.522662	3522.107330	9234.030957
72.035000	0.295250	0.151032	0.292745	0.496403	4967.045170	21346.815330	3515.228191	9198.532266
72.535500	0.293375	0.151195	0.298672	0.496573	4957.374355	21346.527157	3523.477150	9196.077417
73.035500	0.293935	0.151948	0.296115	0.497922	4953.653948	21321.251608	3517.868801	9176.579665
73.536000	0.290838	0.150522	0.292587	0.497965	4938.915654	21259.140854	3512.786005	9175.965569
74.036000	0.291694	0.152060	0.293823	0.502127	4923.515287	21148.683151	3508.651240	9116.205467
74.536500	0.294844	0.151747	0.294283	0.500260	4946.935338	21214.026088	3511.937762	9142.939837
75.037000	0.295187	0.151343	0.304012	0.500110	4949.247949	21203.298082	3526.083797	9145.088226
75.537000	0.293263	0.151521	0.299925	0.499862	4941.386768	21221.244689	3520.546902	9148.649380
76.034500	0.293215	0.150293	0.297678	0.498685	4946.678216	21219.099978	3519.013448	9165.581016
76.535000	0.294911	0.149926	0.301082	0.498395	4956.020959	21215.861496	3524.325996	9169.756266
77.035500	0.295544	0.152117	0.304341	0.498367	4959.143870	21309.572618	3529.091800	9170.169423
77.535500	0.295925	0.151884	0.303476	0.498524	4960.201359	21293.060927	3527.605305	9167.897312
78.035500	0.296369	0.150878	0.301979	0.497606	4966.648173	21289.342651	3526.766374	9181.143288
78.536000	0.295339	0.152467	0.304389	0.498264	4958.657938	21328.714071	3529.309760	9171.640065
79.036500	0.293122	0.150634	0.305293	0.496302	4957.455336	21334.216539	3533.497131	9199.996622
79.539500	0.297258	0.151556	0.295907	0.496503	4976.111325	21364.835326	3519.602330	9197.091916
80.037000	0.296197	0.152024	0.299391	0.499561	4956.589848	21255.129002	3520.213161	9152.974074
80.537000	0.298787	0.152361	0.302162	0.497798	4977.225980	21344.019435	3526.753378	9178.369071
81.035000	0.295752	0.151504	0.304596	0.496534	4968.800801	21361.259287	3532.137002	9196.632253
81.535000	0.295977	0.150891	0.297838	0.496270	4971.127692	21346.477772	3522.712601	9200.463052
82.035000	0.293006	0.149735	0.294306	0.496411	4956.393943	21291.510709	3517.442570	9198.412997
82.535500	0.294131	0.150848	0.304776	0.496300	4962.233034	21343.413975	3532.742875	9200.033168
83.035500	0.294760	0.151384	0.299264	0.496398	4964.745108	21361.977121	3524.584443	9198.608490
83.535500	0.296468	0.149714	0.305321	0.495112	4978.974693	21345.670583	3535.285435	9217.260466
84.039000	0.300629	0.151783	0.303879	0.497879	4985.632432	21316.101401	3529.130118	9177.206004
84.536000	0.296571	0.151114	0.303662	0.497131	4969.856561	21319.429330	3529.901656	9187.999865
85.037500	0.295009	0.151333	0.299746	0.497157	4962.333482	21327.603473	3524.184068	9187.629272
85.537500	0.300734	0.151032	0.297817	0.497074	4989.987936	21318.378114	3521.525350	9188.830694
86.035000	0.297091	0.149664	0.299507	0.497326	4971.404626	21249.912510	3523.595633	9185.192019
86.538000	0.297970	0.151357	0.303800	0.498241	4971.230017	21282.759871	3528.487132	9171.980245
87.035500	0.293827	0.148699	0.299288	0.495138	4966.295199	21301.578872	3526.442101	9216.879554
87.536000	0.298262	0.149231	0.301257	0.496471	4981.049008	21267.677145	3527.365104	9197.550013
88.036000	0.297093	0.149373	0.305359	0.496828	4973.778208	21258.618138	3532.824089	9192.388479
88.536500	0.298749	0.150092	0.303480	0.497046	4980.626121	21279.784331	3529.761312	9189.227485
89.036500	0.301834	0.148702	0.297690	0.495886	5000.984083	21270.056893	3523.051144	9206.023516
89.537000	0.298429	0.148439	0.309538	0.495677	4985.640634	21267.796897	3540.673637	9209.054380
90.034500	0.298356	0.146942	0.304461	0.496056	4983.480348	21188.702072	3532.638731	9203.557057
90.534500	0.299619	0.148990	0.302786	0.496959	4985.201443	21236.915114	3528.876628	9190.484463
91.035000	0.300238	0.148290	0.301884	0.496081	4992.373870	21244.458088	3528.843044	9203.204992
91.535500	0.299954	0.148882	0.306895	0.496798	4987.573542	21239.154089	3535.119167	9192.816316
92.035500	0.298616	0.149037	0.303755	0.497081	4979.831090	21233.798069	3530.111509	9188.732658
92.535500	0.301230	0.148153	0.306134	0.496971	4992.861581	21201.169520	3533.748297	9190.313938
93.036000	0.299808	0.147709	0.305299	0.496610	4987.777006	21197.697047	3533.055649	9195.540659
93.536500	0.298358	0.148534	0.310986	0.496937	4979.284336	21218.639189	3540.952982	9190.808314
94.036000	0.299520	0.148218	0.297220	0.499629	4971.997824	21092.332844	3517.008078	9151.993685
94.540000	0.299147	0.147995	0.305739	0.498685	4974.713313	21122.555388	3530.665001	9165.577045
95.037500	0.303215	0.149648	0.306744	0.500066	4987.538265	21133.957575	3530.116243	9145.719737
95.538000	0.301579	0.147949	0.308435	0.499275	4983.499914	21095.929501	3533.745215	9157.087206
96.034500	0.301876	0.146674	0.302762	0.500469	4979.215905	20992.864807	3523.757167	9139.932947
