sample name	sample
index	991
start time	 04-14-2021  04:14:36 PM


Wavelength (nm)	Absorbance
494.344910	NaN
494.563924	NaN
494.782919	NaN
495.001897	NaN
495.220856	0.276750
495.439797	0.047097
495.658719	-0.155589
495.877624	-0.196862
496.096510	-0.330577
496.315378	-0.349908
496.534227	-0.355842
496.753059	-0.295609
496.971872	-0.232874
497.190667	0.064968
497.409444	0.071162
497.628203	0.072692
497.846943	0.070666
498.065665	0.069651
498.284369	0.069233
498.503055	0.068180
498.721723	0.068457
498.940372	0.069435
499.159003	0.068527
499.377616	0.069139
499.596210	0.069398
499.814787	0.070006
500.033345	0.070457
500.251885	0.072018
500.470406	0.072755
500.688910	0.072266
500.907395	0.071471
501.125862	0.071740
501.344311	0.071115
501.562742	0.070962
501.781154	0.070521
501.999548	0.070492
502.217924	0.068831
502.436282	0.069627
502.654621	0.069759
502.872942	0.070238
503.091245	0.071025
503.309530	0.072058
503.527797	0.072627
503.746045	0.072414
503.964275	0.071956
504.182487	0.073092
504.400681	0.072201
504.618856	0.072810
504.837013	0.072893
505.055152	0.072987
505.273273	0.072482
505.491376	0.072024
505.709460	0.072036
505.927526	0.073093
506.145574	0.072288
506.363604	0.072554
506.581615	0.071537
506.799608	0.071727
507.017583	0.070414
507.235540	0.070133
507.453478	0.070177
507.671399	0.070913
507.889301	0.070568
508.107185	0.070797
508.325050	0.071105
508.542898	0.071134
508.760727	0.070999
508.978538	0.072186
509.196330	0.072555
509.414105	0.073156
509.631861	0.073536
509.849599	0.073911
510.067319	0.073881
510.285021	0.075160
510.502704	0.076628
510.720369	0.077154
510.938016	0.077242
511.155645	0.077400
511.373255	0.077498
511.590848	0.077159
511.808422	0.077464
512.025977	0.077903
512.243515	0.076822
512.461034	0.075781
512.678536	0.074610
512.896018	0.074395
513.113483	0.074727
513.330930	0.074132
513.548358	0.074706
513.765768	0.074637
513.983160	0.074777
514.200533	0.075415
514.417889	0.075504
514.635226	0.076357
514.852545	0.076269
515.069845	0.076089
515.287128	0.076721
515.504392	0.076533
515.721638	0.076125
515.938866	0.077396
516.156075	0.077971
516.373267	0.078881
516.590440	0.079651
516.807594	0.079382
517.024731	0.079166
517.241850	0.079683
517.458950	0.079815
517.676032	0.080952
517.893095	0.079704
518.110141	0.078869
518.327168	0.078471
518.544177	0.078946
518.761168	0.079028
518.978141	0.079214
519.195095	0.079537
519.412031	0.079538
519.628949	0.078840
519.845849	0.079496
520.062731	0.080352
520.279594	0.080495
520.496439	0.080466
520.713266	0.081237
520.930074	0.081550
521.146865	0.080769
521.363637	0.081150
521.580391	0.081957
521.797127	0.081759
522.013844	0.081169
522.230543	0.081303
522.447224	0.080678
522.663887	0.080919
522.880532	0.081211
523.097158	0.081193
523.313766	0.080540
523.530356	0.079505
523.746928	0.079886
523.963481	0.080281
524.180017	0.081035
524.396534	0.082331
524.613032	0.082092
524.829513	0.082045
525.045975	0.082550
525.262420	0.083140
525.478845	0.083166
525.695253	0.082854
525.911643	0.082840
526.128014	0.082627
526.344367	0.081840
526.560702	0.082179
526.777018	0.082985
526.993316	0.082863
527.209597	0.082402
527.425858	0.082969
527.642102	0.083221
527.858328	0.083565
528.074535	0.083026
528.290724	0.083352
528.506894	0.082948
528.723047	0.082006
528.939181	0.082057
529.155297	0.083398
529.371395	0.083569
529.587475	0.083910
529.803536	0.083660
530.019579	0.083977
530.235604	0.083895
530.451611	0.085181
530.667600	0.085949
530.883570	0.086410
531.099522	0.085850
531.315456	0.085970
531.531372	0.086213
531.747269	0.086222
531.963148	0.086642
532.179009	0.086996
532.394852	0.086810
532.610676	0.087123
532.826482	0.087289
533.042271	0.087865
533.258040	0.088940
533.473792	0.088866
533.689525	0.089883
533.905240	0.089563
534.120937	0.089496
534.336616	0.089778
534.552277	0.089509
534.767919	0.090032
534.983543	0.090342
535.199149	0.090074
535.414736	0.090082
535.630306	0.089665
535.845857	0.090623
536.061390	0.091017
536.276904	0.090739
536.492401	0.090804
536.707879	0.090584
536.923339	0.090451
537.138781	0.089983
537.354204	0.090351
537.569610	0.090787
537.784997	0.090454
538.000366	0.090071
538.215716	0.089873
538.431049	0.090678
538.646363	0.091131
538.861659	0.090944
539.076937	0.091281
539.292196	0.091766
539.507438	0.091541
539.722661	0.091540
539.937866	0.092244
540.153052	0.092719
540.368221	0.092700
540.583371	0.092138
540.798503	0.092741
541.013617	0.093329
541.228712	0.093148
541.443789	0.093749
541.658848	0.094467
541.873889	0.094588
542.088912	0.095012
542.303916	0.095048
542.518902	0.095605
542.733870	0.095769
542.948820	0.095788
543.163752	0.095104
543.378665	0.094500
543.593560	0.094465
543.808437	0.094611
544.023295	0.094896
544.238136	0.094392
544.452958	0.094365
544.667762	0.093748
544.882548	0.093502
545.097315	0.094831
545.312064	0.094952
545.526795	0.095149
545.741508	0.094822
545.956203	0.094616
546.170879	0.095206
546.385537	0.095396
546.600177	0.095889
546.814799	0.096003
547.029402	0.095488
547.243988	0.095945
547.458555	0.096177
547.673103	0.096352
547.887634	0.096688
548.102146	0.096759
548.316640	0.097263
548.531116	0.097457
548.745574	0.097791
548.960013	0.098497
549.174435	0.098921
549.388838	0.098870
549.603222	0.098789
549.817589	0.098958
550.031937	0.099477
550.246267	0.099426
550.460579	0.099553
550.674873	0.099469
550.889148	0.098990
551.103405	0.099112
551.317644	0.099124
551.531865	0.099728
551.746068	0.099624
551.960252	0.099653
552.174418	0.099527
552.388566	0.099812
552.602696	0.100100
552.816807	0.100449
553.030900	0.099895
553.244975	0.099946
553.459032	0.099907
553.673070	0.099921
553.887091	0.099298
554.101093	0.099599
554.315077	0.099406
554.529042	0.099961
554.742990	0.100219
554.956919	0.100731
555.170830	0.100832
555.384722	0.100950
555.598597	0.101032
555.812453	0.101588
556.026291	0.101680
556.240111	0.101953
556.453913	0.101810
556.667696	0.101583
556.881461	0.101644
557.095208	0.101899
557.308937	0.102349
557.522647	0.102275
557.736339	0.102752
557.950013	0.102988
558.163669	0.102871
558.377307	0.102698
558.590926	0.103332
558.804527	0.103764
559.018110	0.103699
559.231675	0.103793
559.445221	0.103900
559.658749	0.103379
559.872259	0.103121
560.085751	0.103625
560.299225	0.104015
560.512680	0.103867
560.726117	0.103945
560.939536	0.104137
561.152937	0.103869
561.366319	0.103792
561.579683	0.104131
561.793029	0.104189
562.006357	0.104044
562.219667	0.104023
562.432958	0.104242
562.646231	0.104407
562.859486	0.104908
563.072723	0.105541
563.285941	0.105845
563.499141	0.106197
563.712323	0.106429
563.925487	0.106471
564.138632	0.106528
564.351760	0.106381
564.564869	0.106285
564.777960	0.106412
564.991032	0.106372
565.204087	0.106922
565.417123	0.106837
565.630141	0.107073
565.843140	0.106812
566.056122	0.106867
566.269085	0.107011
566.482030	0.106869
566.694957	0.106687
566.907866	0.106540
567.120756	0.106399
567.333628	0.106304
567.546482	0.106183
567.759318	0.106708
567.972135	0.107094
568.184935	0.107330
568.397716	0.107701
568.610478	0.107783
568.823223	0.107729
569.035949	0.108147
569.248657	0.108485
569.461347	0.108606
569.674019	0.108814
569.886672	0.108823
570.099308	0.108949
570.311925	0.108842
570.524523	0.108797
570.737104	0.108763
570.949666	0.108765
571.162210	0.109224
571.374736	0.109507
571.587244	0.109392
571.799733	0.109444
572.012205	0.109521
572.224658	0.109724
572.437092	0.109779
572.649509	0.109880
572.861907	0.109850
573.074287	0.109604
573.286649	0.109583
573.498993	0.109784
573.711318	0.109538
573.923625	0.109573
574.135914	0.109608
574.348185	0.110065
574.560438	0.110074
574.772672	0.110169
574.984888	0.110102
575.197086	0.110075
575.409266	0.110243
575.621427	0.110590
575.833570	0.110596
576.045695	0.110920
576.257802	0.110511
576.469890	0.110544
576.681961	0.110269
576.894013	0.110266
577.106046	0.110442
577.318062	0.110687
577.530059	0.110803
577.742039	0.111055
577.954000	0.110841
578.165942	0.111210
578.377867	0.111785
578.589773	0.112130
578.801661	0.112151
579.013531	0.112488
579.225382	0.112199
579.437216	0.112382
579.649031	0.112349
579.860828	0.112890
580.072606	0.112715
580.284367	0.112592
580.496109	0.112925
580.707833	0.113414
580.919539	0.113458
581.131227	0.113822
581.342896	0.114061
581.554547	0.114399
581.766180	0.114166
581.977795	0.114374
582.189391	0.114545
582.400969	0.114355
582.612529	0.114458
582.824071	0.114530
583.035595	0.114391
583.247100	0.114489
583.458587	0.114546
583.670056	0.114681
583.881506	0.114875
584.092939	0.115117
584.304353	0.115135
584.515749	0.115022
584.727127	0.114945
584.938486	0.115038
585.149828	0.114645
585.361151	0.114481
585.572456	0.114549
585.783742	0.114699
585.995011	0.114493
586.206261	0.114666
586.417493	0.114733
586.628706	0.114880
586.839902	0.115203
587.051079	0.115489
587.262238	0.115678
587.473379	0.115954
587.684502	0.116218
587.895606	0.116403
588.106692	0.116660
588.317760	0.116507
588.528810	0.116529
588.739841	0.116838
588.950855	0.117006
589.161850	0.116869
589.372827	0.116703
589.583785	0.116666
589.794726	0.116722
590.005648	0.116515
590.216552	0.116846
590.427437	0.117071
590.638305	0.116693
590.849154	0.116819
591.059985	0.116928
591.270798	0.117060
591.481592	0.117204
591.692369	0.117880
591.903127	0.118061
592.113867	0.117997
592.324588	0.118140
592.535292	0.118385
592.745977	0.118473
592.956644	0.118551
593.167293	0.118745
593.377923	0.118602
593.588536	0.118309
593.799130	0.118653
594.009706	0.118566
594.220263	0.118397
594.430803	0.118363
594.641324	0.118502
594.851827	0.119132
595.062312	0.119076
595.272778	0.119294
595.483227	0.119330
595.693657	0.119125
595.904069	0.119715
596.114462	0.119804
596.324838	0.120143
596.535195	0.119788
596.745534	0.119236
596.955855	0.119254
597.166157	0.119297
597.376441	0.119271
597.586707	0.119517
597.796955	0.119189
598.007185	0.119227
598.217396	0.118925
598.427589	0.119197
598.637764	0.119465
598.847921	0.119502
599.058060	0.119915
599.268180	0.120110
599.478282	0.120194
599.688366	0.120718
599.898431	0.121118
600.108479	0.121437
600.318508	0.121696
600.528519	0.121622
600.738511	0.121968
600.948486	0.121831
601.158442	0.121899
601.368380	0.121890
601.578300	0.121545
601.788202	0.121524
601.998085	0.121689
602.207950	0.121644
602.417797	0.121916
602.627626	0.121795
602.837436	0.121757
603.047228	0.121913
603.257002	0.122088
603.466758	0.122553
603.676496	0.122594
603.886215	0.122877
604.095916	0.123110
604.305599	0.123289
604.515264	0.123786
604.724910	0.123533
604.934538	0.123431
605.144148	0.123332
605.353740	0.123011
605.563314	0.123130
605.772869	0.122814
605.982406	0.122548
606.191925	0.122606
606.401425	0.122369
606.610908	0.122513
606.820372	0.122764
607.029818	0.122898
607.239246	0.123473
607.448655	0.123489
607.658047	0.123666
607.867420	0.123808
608.076775	0.123750
608.286111	0.123801
608.495430	0.124239
608.704730	0.124407
608.914012	0.124491
609.123275	0.124298
609.332521	0.124441
609.541748	0.124365
609.750957	0.124707
609.960148	0.124794
610.169321	0.124987
610.378475	0.125238
610.587611	0.125363
610.796729	0.125473
611.005829	0.125599
611.214910	0.126002
611.423974	0.126274
611.633019	0.126327
611.842045	0.126462
612.051054	0.126538
612.260044	0.126500
612.469017	0.126320
612.677970	0.126526
612.886906	0.126588
613.095824	0.126260
613.304723	0.126264
613.513604	0.126209
613.722467	0.126315
613.931311	0.126131
614.140138	0.126089
614.348946	0.126241
614.557736	0.125975
614.766507	0.126265
614.975261	0.126299
615.183996	0.126345
615.392713	0.126585
615.601412	0.126515
615.810092	0.126570
616.018754	0.126412
616.227399	0.126756
616.436024	0.126967
616.644632	0.127021
616.853222	0.127165
617.061793	0.127201
617.270346	0.127151
617.478880	0.127437
617.687397	0.127484
617.895895	0.127718
618.104375	0.127441
618.312837	0.127661
618.521281	0.127259
618.729706	0.127557
618.938113	0.127614
619.146502	0.128028
619.354873	0.127806
619.563226	0.128173
619.771560	0.128166
619.979876	0.128456
620.188174	0.128457
620.396453	0.128826
620.604715	0.128796
620.812958	0.128959
621.021183	0.128785
621.229390	0.129024
621.437578	0.129214
621.645748	0.129526
621.853900	0.129601
622.062034	0.129873
622.270150	0.130021
622.478247	0.129885
622.686326	0.130001
622.894387	0.130167
623.102430	0.130191
623.310454	0.130148
623.518461	0.129910
623.726449	0.129956
623.934418	0.129600
624.142370	0.129345
624.350303	0.129343
624.558218	0.129408
624.766115	0.129281
624.973994	0.129496
625.181855	0.129446
625.389697	0.129459
625.597521	0.129358
625.805327	0.129725
626.013114	0.129983
626.220883	0.130100
626.428634	0.130177
626.636367	0.130396
626.844082	0.130388
627.051778	0.130481
627.259457	0.130587
627.467117	0.130606
627.674758	0.130863
627.882382	0.130962
628.089987	0.131158
628.297574	0.131384
628.505143	0.131356
628.712694	0.131422
628.920226	0.131622
629.127740	0.131818
629.335236	0.132364
629.542714	0.132132
629.750174	0.132427
629.957615	0.132688
630.165038	0.132645
630.372443	0.132901
630.579829	0.132771
630.787198	0.132791
630.994548	0.133009
631.201880	0.132894
631.409194	0.133095
631.616489	0.133257
631.823766	0.132989
632.031025	0.133012
632.238266	0.132981
632.445489	0.133363
632.652693	0.133423
632.859879	0.133380
633.067047	0.133170
633.274197	0.133091
633.481329	0.132952
633.688442	0.133030
633.895537	0.132984
634.102614	0.133299
634.309672	0.133126
634.516713	0.133023
634.723735	0.133352
634.930739	0.133565
635.137724	0.133691
635.344692	0.133651
635.551641	0.133860
635.758572	0.134024
635.965485	0.133703
636.172379	0.133772
636.379256	0.134163
636.586114	0.134040
636.792954	0.134291
636.999775	0.134398
637.206579	0.134567
637.413364	0.134749
637.620131	0.134945
637.826880	0.135304
638.033610	0.135616
638.240323	0.135713
638.447017	0.135831
638.653692	0.135840
638.860350	0.135970
639.066990	0.135932
639.273611	0.136121
639.480214	0.136276
639.686798	0.136380
639.893365	0.136560
640.099913	0.136387
640.306443	0.136517
640.512955	0.136400
640.719449	0.136657
640.925924	0.137132
641.132381	0.137201
641.338820	0.137454
641.545241	0.137344
641.751644	0.137328
641.958028	0.137486
642.164394	0.137557
642.370742	0.137810
642.577071	0.137617
642.783383	0.137418
642.989676	0.137259
643.195951	0.137155
643.402207	0.137251
643.608446	0.137322
643.814666	0.137436
644.020868	0.137518
644.227052	0.137603
644.433218	0.137748
644.639365	0.137829
644.845494	0.138163
645.051605	0.138376
645.257698	0.138338
645.463772	0.138417
645.669828	0.138550
645.875866	0.138872
646.081886	0.138842
646.287888	0.139002
646.493871	0.139237
646.699836	0.139276
646.905783	0.139204
647.111712	0.139528
647.317622	0.139691
647.523514	0.139780
647.729388	0.139706
647.935244	0.139667
648.141082	0.139751
648.346901	0.139839
648.552702	0.139886
648.758485	0.140136
648.964250	0.140404
649.169996	0.140471
649.375724	0.140687
649.581434	0.140791
649.787126	0.140945
649.992800	0.141085
650.198455	0.140997
650.404092	0.141032
650.609711	0.140875
650.815311	0.140853
651.020894	0.140963
651.226458	0.141059
651.432004	0.141152
651.637532	0.141395
651.843041	0.141540
652.048532	0.141788
652.254006	0.142008
652.459460	0.142222
652.664897	0.142245
652.870315	0.142161
653.075716	0.142273
653.281097	0.142360
653.486461	0.142404
653.691807	0.142458
653.897134	0.142456
654.102443	0.142478
654.307734	0.142342
654.513006	0.142443
654.718261	0.142548
654.923497	0.142574
655.128715	0.142769
655.333915	0.142989
655.539096	0.142923
655.744259	0.143012
655.949404	0.143091
656.154531	0.143422
656.359640	0.143561
656.564730	0.143724
656.769802	0.143648
656.974856	0.143547
657.179892	0.143504
657.384909	0.143589
657.589908	0.143869
657.794889	0.143882
657.999852	0.143968
658.204797	0.143916
658.409723	0.144203
658.614631	0.144380
658.819521	0.144664
659.024393	0.144714
659.229246	0.144839
659.434081	0.144598
659.638898	0.144860
659.843697	0.145019
660.048478	0.145195
660.253240	0.145203
660.457984	0.145161
660.662710	0.145144
660.867417	0.145330
661.072107	0.145444
661.276778	0.145902
661.481431	0.145842
661.686066	0.145747
661.890682	0.145860
662.095281	0.145916
662.299861	0.146084
662.504422	0.146171
662.708966	0.146357
662.913491	0.146582
663.117999	0.146665
663.322488	0.147017
663.526958	0.147248
663.731411	0.147416
663.935845	0.147553
664.140261	0.147769
664.344659	0.147923
664.549038	0.147974
664.753400	0.148325
664.957743	0.148416
665.162068	0.148587
665.366375	0.148714
665.570663	0.148721
665.774933	0.148866
665.979185	0.148985
666.183419	0.149167
666.387635	0.149279
666.591832	0.149115
666.796011	0.149128
667.000172	0.149145
667.204315	0.149242
667.408439	0.149410
667.612545	0.149707
667.816634	0.150203
668.020703	0.150312
668.224755	0.150552
668.428788	0.150729
668.632803	0.151114
668.836800	0.151311
669.040779	0.151580
669.244739	0.151768
669.448681	0.151602
669.652605	0.151338
669.856511	0.151486
670.060399	0.151330
670.264268	0.151381
670.468119	0.151308
670.671952	0.151278
670.875767	0.151354
671.079563	0.151457
671.283341	0.151599
671.487101	0.151610
671.690843	0.151737
671.894567	0.152027
672.098272	0.152205
672.301959	0.152316
672.505628	0.152337
672.709278	0.152540
672.912911	0.152870
673.116525	0.153117
673.320121	0.153392
673.523699	0.153514
673.727258	0.153735
673.930799	0.153790
674.134322	0.153875
674.337827	0.154173
674.541314	0.154157
674.744782	0.153863
674.948232	0.154087
675.151664	0.154222
675.355078	0.154285
675.558474	0.154103
675.761851	0.154230
675.965210	0.154092
676.168551	0.154159
676.371873	0.154154
676.575178	0.154509
676.778464	0.154410
676.981732	0.154569
677.184981	0.154573
677.388213	0.154852
677.591426	0.154963
677.794621	0.155185
677.997798	0.155262
678.200956	0.155285
678.404097	0.155270
678.607219	0.155289
678.810323	0.155298
679.013408	0.155231
679.216476	0.155368
679.419525	0.155378
679.622556	0.155593
679.825569	0.155527
680.028563	0.155574
680.231540	0.155539
680.434498	0.155531
680.637438	0.155614
680.840359	0.155848
681.043263	0.155936
681.246148	0.156321
681.449015	0.156627
681.651864	0.156818
681.854694	0.157218
682.057506	0.157297
682.260301	0.157528
682.463076	0.157747
682.665834	0.157949
682.868573	0.158156
683.071295	0.158165
683.273998	0.158287
683.476682	0.158330
683.679349	0.158386
683.881997	0.158736
684.084627	0.158739
684.287239	0.158620
684.489833	0.158749
684.692408	0.158722
684.894965	0.158872
685.097504	0.158724
685.300025	0.159121
685.502527	0.159073
685.705012	0.159040
685.907478	0.159169
686.109925	0.159290
686.312355	0.159222
686.514766	0.159568
686.717159	0.159815
686.919534	0.159789
687.121891	0.159733
687.324230	0.159869
687.526550	0.159994
687.728852	0.160261
687.931136	0.160292
688.133401	0.160627
688.335649	0.160523
688.537878	0.160218
688.740089	0.160576
688.942281	0.160640
689.144456	0.161027
689.346612	0.161106
689.548750	0.161270
689.750870	0.161561
689.952971	0.161632
690.155055	0.161767
690.357120	0.162003
690.559167	0.162009
690.761195	0.162142
690.963206	0.161917
691.165198	0.162029
691.367172	0.162198
691.569128	0.162171
691.771065	0.162327
691.972984	0.162313
692.174885	0.162223
692.376768	0.162323
692.578633	0.162296
692.780479	0.162336
692.982308	0.162338
693.184118	0.162115
693.385909	0.162282
693.587683	0.162167
