sample name	sample
index	468
start time	 03-11-2021  12:12:04 PM
880	0.461913
Peak Time (s)	91.537
Peak Height 	0.4619
calc peak height	90,93
Baseline Time (s)	11.037
Baseline Value 	-0.002872
subtract baseline	10,4
Abs	0.293843
Peak Time (s)	92.537
Peak Height 	0.2938
calc peak height	90,93
Baseline Time (s)	9.036
Baseline Value 	0.002082
subtract baseline	10,3
PK_550	0.138210
Peak Time (s)	90.036
Peak Height 	0.1382
calc peak height	90,93
Baseline Time (s)	8.536
Baseline Value 	5.4797E-5
subtract baseline	10,2
PK_880	0.283025
Peak Time (s)	91.037
Peak Height 	0.283
calc peak height	90,93
Baseline Time (s)	9.036
Baseline Value 	5.5108E-4
subtract baseline	10,1


Time (s)	A880-A510	A880-A775	A880-A975	A880	I510	I775	I975	I880	
0.036500	-0.004777	-0.000169	-0.006002	0.006747	6985.699664	45224.216314	3929.256104	23994.906424
0.536500	-0.001471	-0.000472	-0.007795	0.004336	7040.655845	45430.178139	3930.857552	24112.694612
1.036500	-0.002224	-0.000548	-0.005275	0.003326	7043.142721	45521.771778	3940.059190	24162.237921
1.540000	0.000355	0.000260	0.001989	0.001371	7087.277413	45793.892794	3964.438879	24258.470176
2.037500	-0.003460	-0.000418	-0.003011	0.005857	7006.820097	45286.673177	3939.358503	24038.281697
2.535000	0.000097	0.000653	-0.002542	0.000830	7090.046213	45886.188189	3953.821599	24285.150372
3.038000	0.003758	0.000063	0.003514	-0.001609	7150.185984	46069.600799	3976.542587	24405.955737
3.535500	0.001510	0.000324	-0.003939	0.000072	7111.349804	45928.659058	3952.130742	24322.633540
4.036000	0.000090	0.000232	-0.000924	0.000909	7089.201477	45836.716747	3957.906409	24281.265338
4.536000	0.000087	-0.000296	0.004017	0.000167	7096.450389	45857.986815	3973.111659	24317.965206
5.036500	0.002035	0.000157	-0.000232	0.000122	7116.032095	45907.202183	3961.845608	24320.183686
5.536500	0.000256	-0.000921	-0.002385	-0.000684	7106.456144	45880.246796	3958.259154	24360.089037
6.036000	0.002159	-0.000082	0.003005	0.000334	7115.163346	45862.577394	3969.938438	24309.683378
6.537000	0.001056	-0.000386	-0.003433	-0.000655	7114.048691	45930.418347	3955.399533	24358.653377
7.037500	-0.001535	-0.000737	-0.002827	-0.000949	7091.491510	45924.723543	3957.788598	24373.235808
7.538000	0.000497	0.000304	-0.000147	0.000254	7099.608577	45908.673446	3961.717434	24313.634768
8.035500	-0.001354	0.000331	-0.001709	-0.000133	7085.269059	45949.665745	3958.589210	24332.776484
8.536000	0.001387	0.000000	-0.004033	-0.000330	7114.099236	45936.399952	3952.945779	24342.525440
9.036000	0.000000	0.000615	0.000000	0.000189	7095.378028	45945.962484	3962.284903	24316.865310
9.536000	-0.002912	-0.000861	-0.004103	0.004277	7027.312648	45397.865156	3940.636729	24115.600822
10.036500	-0.000805	-0.000081	0.001731	-0.000142	7090.732843	45909.847967	3967.798887	24333.248330
10.537000	0.001757	0.000463	0.001639	-0.000027	7114.764126	45952.263005	3967.243502	24327.542911
11.037000	0.001044	0.000601	0.000273	0.000000	7107.480085	45963.277189	3963.517909	24326.206005
11.534500	-0.000907	-0.000187	-0.000092	0.004794	7041.685171	45413.130897	3949.820034	24090.253713
12.035000	0.000886	0.001058	-0.000365	0.000370	7102.293581	45971.915764	3960.827259	24307.885037
12.537500	0.002332	0.000215	-0.001584	0.000240	7117.797706	45901.337236	3957.932402	24314.352942
13.035500	0.002530	0.000267	0.000073	-0.001440	7136.335856	46073.135126	3966.834486	24397.575483
13.538500	-0.002570	0.000219	-0.001477	0.005175	7021.943876	45415.699940	3945.170233	24071.636092
14.049500	0.001359	0.000517	0.001750	0.000710	7103.598705	45884.623560	3965.566399	24291.094061
14.536000	-0.001234	-0.000589	0.000222	0.002793	7057.918565	45570.119604	3955.948669	24188.441874
15.036500	0.001329	0.000758	0.000463	0.001882	7091.802733	45792.556005	3959.007402	24233.257948
15.539500	-0.003965	-0.000305	-0.006197	0.005176	7008.524985	45364.250248	3932.829251	24071.590457
16.037500	0.002095	-0.000082	0.005048	-0.000072	7118.532903	45902.777555	3976.533566	24329.760635
16.537500	0.000008	-0.000371	0.001476	-0.000118	7098.462400	45878.754164	3967.052291	24332.057019
17.037500	0.001024	0.000711	0.003860	0.000907	7098.377516	45884.337401	3970.697428	24281.364573
17.535500	-0.001956	0.000256	-0.006629	0.004546	7033.942719	45480.966834	3933.344511	24102.420752
18.036000	0.000966	-0.000264	0.002249	-0.000445	7111.084135	45921.701640	3970.000804	24348.232217
18.535500	0.000182	-0.000091	-0.000120	0.001436	7084.941382	45752.685857	3958.642469	24255.239397
19.036500	-0.001918	-0.000337	-0.004383	0.001308	7065.707067	45741.057221	3947.697163	24261.566044
19.536500	-0.000745	0.000194	0.001908	0.003657	7054.273605	45562.084842	3958.129172	24145.973501
20.036500	0.000640	0.000190	0.003749	0.001843	7085.444211	45740.273176	3967.885661	24235.190597
20.537000	0.001026	-0.000544	-0.003100	0.001027	7097.217900	45748.372575	3951.825473	24275.437939
21.034500	0.000388	0.000210	-0.002639	0.001378	7087.529742	45788.278630	3952.118572	24258.135831
21.538000	0.001949	0.000708	-0.000093	0.003287	7084.136073	45649.070031	3953.803937	24164.178209
22.035500	0.000490	-0.000783	0.001887	0.000795	7094.244894	45747.758216	3965.706519	24286.912916
22.535000	0.001533	0.000331	-0.000835	0.001660	7095.983232	45772.366742	3956.148676	24244.231270
23.035500	-0.000483	-0.000001	-0.001073	0.001073	7081.989770	45797.493497	3957.074536	24273.155448
23.536000	-0.000956	-0.000190	-0.004191	0.001131	7076.802574	45773.102538	3948.668777	24270.291412
24.036000	0.000562	0.000582	-0.005588	0.001830	7084.818107	45780.307735	3943.157806	24235.849426
24.536500	0.000222	0.000235	0.001503	0.001690	7082.857185	45759.908669	3962.291737	24242.748507
25.037000	-0.000955	0.000406	-0.001749	0.001072	7077.391622	45837.762103	3955.282704	24273.202045
25.537000	0.001034	0.001130	0.000697	0.002020	7087.566551	45815.664263	3959.263146	24226.477862
26.037500	-0.002554	0.000518	-0.003670	0.001779	7054.940076	45778.959978	3948.335192	24238.339891
26.535000	-0.000284	0.000311	0.000262	0.001225	7082.455692	45813.320845	3960.221764	24265.687936
27.035500	0.000408	0.000258	-0.000581	0.001489	7086.643305	45782.009566	3957.276419	24252.654570
27.535500	0.000125	-0.000092	-0.003164	0.003229	7066.896624	45575.997753	3945.851314	24166.997816
28.036000	0.001587	0.000187	-0.001392	-0.002391	7136.424001	46159.849537	3965.458055	24444.865630
28.536000	0.001858	0.000337	0.005284	0.000301	7112.523255	45907.300457	3976.163918	24311.314830
29.039000	0.001011	0.001013	-0.002544	0.000602	7101.240736	45944.423801	3954.422428	24296.426847
29.536500	-0.000277	-0.000067	-0.002278	0.002641	7068.711199	45636.401935	3949.734912	24195.918894
30.037000	0.001723	0.000461	-0.000271	0.000615	7108.112167	45888.557390	3960.427779	24295.805411
30.537500	-0.000214	0.000215	-0.003980	0.000382	7091.384738	45887.157941	3951.204950	24307.299940
31.034500	0.000620	0.000811	-0.000452	0.000404	7099.344736	45944.053046	3960.504793	24306.198777
31.544000	-0.002453	0.000064	-0.001686	0.005089	7023.894769	45408.802399	3944.846563	24075.814587
32.035500	-0.000216	0.000564	0.000284	0.003485	7061.088513	45615.405427	3954.278332	24154.452509
32.553000	0.002501	0.000415	-0.002342	0.000472	7117.173825	45898.060687	3955.302534	24302.861751
33.038500	0.000154	0.000214	0.003373	0.000341	7095.386625	45891.153460	3970.907797	24309.312815
33.536500	-0.003589	-0.000153	-0.000418	0.004277	7020.781097	45467.233294	3950.326652	24115.599555
34.036500	0.000816	-0.000466	0.002265	0.000112	7104.144816	45846.603561	3968.550130	24320.679621
34.536500	0.003582	0.000187	0.001231	-0.000956	7141.969111	46017.109925	3968.640072	24373.570482
35.037500	-0.000212	0.000279	0.002686	0.001175	7083.649894	45815.082863	3966.827652	24268.136256
35.537500	-0.002781	0.000383	-0.003815	0.003598	7035.118739	45586.400911	3943.170355	24148.864222
36.036500	-0.000425	-0.000366	0.002655	0.002119	7072.353640	45658.264665	3964.220024	24221.596742
36.535000	-0.000944	-0.000716	-0.001215	0.001848	7069.927981	45650.473508	3954.641215	24234.930100
37.037000	-0.000522	0.000495	0.006060	0.002703	7065.720061	45685.604156	3971.784219	24192.873472
37.535500	-0.002918	-0.000106	-0.001461	0.003730	7032.534034	45525.531582	3949.017993	24142.424560
38.036000	-0.000215	-0.000175	0.000015	0.002572	7069.983269	45632.549020	3955.983459	24199.302127
38.536000	-0.000229	0.000011	-0.000858	0.002185	7073.619139	45688.907549	3954.695008	24218.328210
39.036500	0.000949	0.000586	-0.000051	0.003029	7076.875304	45662.426444	3954.596218	24176.830962
39.537000	-0.002421	-0.000187	0.000809	0.003230	7042.166459	45566.522636	3956.344397	24166.931277
40.040000	-0.000671	0.000381	-0.004066	0.002602	7065.246036	45684.255703	3945.127182	24197.808260
40.535000	-0.001470	-0.000228	0.001351	0.002341	7060.020104	45650.051117	3960.150465	24210.670224
41.035000	-0.000254	0.000219	-0.001877	0.002621	7069.124353	45666.476070	3950.845975	24196.881777
41.535500	-0.000280	0.001034	0.000303	0.004406	7051.521307	45571.052332	3951.889491	24109.282866
42.035000	-0.000454	0.000656	0.002042	0.003000	7063.493864	45672.227455	3960.235742	24178.267883
42.535500	-0.000673	0.000320	-0.000203	0.002655	7064.710893	45673.085310	3955.184654	24195.212000
43.036000	-0.000445	0.000154	0.000037	0.002885	7064.695824	45634.019661	3955.211249	24183.898315
43.536500	-0.000243	-0.000237	-0.000429	0.003721	7058.527870	45513.467263	3951.765517	24142.853268
44.036500	0.000086	0.000260	-0.000787	0.002617	7072.487635	45670.974253	3953.739627	24197.104041
44.540000	-0.001001	0.000465	0.008119	0.002759	7060.509940	45677.118603	3977.182647	24190.109123
45.037500	0.001206	-0.000138	0.001295	-0.002546	7134.191035	46142.969014	3973.086269	24452.582243
45.535000	-0.001178	0.000068	-0.003224	0.005442	7032.797035	45374.727197	3939.886759	24058.564583
46.037500	0.001168	0.000526	0.001599	0.000752	7101.311242	45881.343642	3965.051208	24289.024813
46.535500	0.000882	0.000116	0.003530	0.000456	7101.410207	45870.022461	3971.022372	24303.643851
47.035000	0.001283	0.000540	-0.003360	0.001045	7099.560898	45853.782079	3951.090755	24274.553685
47.536000	-0.001958	-0.000329	-0.001586	0.005443	7025.269065	45335.833595	3944.179753	24058.549934
48.036500	-0.002014	0.000680	0.001356	0.000969	7068.067951	45875.129822	3963.822489	24278.295055
48.536500	-0.000609	0.000197	0.001968	0.000872	7082.728377	45836.876178	3965.718018	24283.081215
49.039500	-0.000613	0.000328	-0.000046	0.004182	7050.464460	45523.732485	3951.558676	24120.260970
49.537500	-0.001742	0.000533	0.001486	0.004561	7035.856061	45506.568239	3954.608991	24101.669972
50.035000	0.002368	0.000679	0.000993	0.001304	7107.676977	45841.840074	3961.959357	24261.755763
50.535000	0.000616	0.000590	0.005166	0.001359	7089.949472	45827.624946	3972.994003	24259.050010
51.035000	0.001352	0.000265	0.000453	0.000332	7107.251422	45897.120067	3963.113471	24309.800333
51.536000	0.000051	0.000923	-0.001320	0.004713	7051.747697	45529.925724	3946.798588	24094.227482
52.036000	0.002697	-0.000122	0.004809	-0.000129	7125.034661	45904.416323	3976.043336	24332.569199
52.536500	0.004519	0.001561	0.003409	0.000209	7139.707291	46037.820511	3971.361896	24315.868225
53.036500	0.008964	0.000478	0.002262	-0.004574	7232.081283	46407.009729	3981.176912	24553.735247
53.536500	-0.048262	-0.006195	-0.025237	0.219461	5137.376757	28472.030085	3463.484460	15800.433538
54.037000	-0.028991	-0.006612	-0.036321	-0.035876	7165.280365	48902.177734	3961.599021	26176.989789
54.534500	-0.029961	-0.128917	-0.033038	-0.292188	10628.356268	65535.000000	4908.817131	44952.113005
55.034500	-0.027628	-0.147097	-0.013761	-0.310368	11005.135538	65535.000000	5098.446875	46752.644784
55.535000	-0.038967	-0.099129	-0.013878	-0.262400	9962.655640	65535.000000	4857.925550	42160.131829
56.035500	-0.021411	-0.095596	-0.002275	-0.258867	10196.446800	65535.000000	4896.458729	41841.503683
56.535500	-0.009676	-0.071938	0.003279	-0.232863	9958.595846	65197.387565	4800.189620	39574.350069
57.036000	0.005771	-0.065007	0.007181	-0.225903	10099.127022	65193.349841	4786.186115	38990.316456
57.536000	0.020808	-0.038027	0.019904	-0.190244	9762.392018	63960.413694	4684.199660	36140.172276
58.036000	0.039234	-0.020648	0.033460	-0.164101	9640.446128	62740.332926	4630.475657	34194.395496
58.536500	0.045641	0.003841	0.040059	-0.092459	8691.686356	56582.193649	4376.379089	29425.291203
59.037000	0.062499	0.016463	0.060385	-0.048867	8342.230207	52886.612302	4294.340844	26885.815930
59.534500	0.085681	0.033049	0.080904	0.015890	7839.739036	47637.339643	4149.975172	23554.053766
60.035000	0.115613	0.050303	0.116754	0.083896	7419.927277	42701.841040	4053.892558	20550.800185
60.535000	0.138305	0.065796	0.141696	0.150561	6978.705947	38276.417256	3939.367368	18029.669313
61.035500	0.163179	0.080160	0.167872	0.199675	6753.930396	35555.074982	3880.938412	16404.813030
61.536000	0.184599	0.094399	0.183403	0.250948	6493.794204	32884.915303	3795.827854	14893.602627
62.036000	0.202761	0.107053	0.213417	0.285789	6356.063104	31390.912663	3784.862631	13963.938686
62.536500	0.216432	0.116595	0.229210	0.322528	6174.077151	29660.680135	3738.662113	13061.127178
63.039500	0.225961	0.121812	0.239167	0.347122	6060.336968	28492.393318	3707.673075	12498.056537
63.537000	0.237445	0.131357	0.248389	0.367268	5996.701203	27874.930288	3685.218126	12060.004208
64.066000	0.251668	0.136899	0.255063	0.368347	6093.766973	28133.052644	3696.647966	12037.117784
64.535000	0.249912	0.136939	0.251026	0.375112	6030.506022	27745.127518	3674.711736	11894.870103
65.034500	0.255121	0.139170	0.266278	0.379167	6039.001113	27640.964917	3697.460679	11810.660139
65.534500	0.253813	0.140108	0.259260	0.390567	5946.691253	27051.779471	3660.346312	11578.084636
66.042000	0.261371	0.141116	0.263544	0.390116	6004.550971	27133.123909	3669.739005	11587.179574
66.536000	0.261711	0.142648	0.267147	0.393962	5979.095440	27004.252201	3669.255005	11510.006519
67.036000	0.262313	0.141751	0.266915	0.397421	5958.497254	26763.575929	3661.927999	11441.176959
67.539500	0.260914	0.142260	0.269086	0.406359	5885.103370	26304.676234	3648.659970	11265.859331
68.036500	0.263609	0.144255	0.271944	0.405658	5909.026498	26450.506285	3655.613489	11279.479299
68.537000	0.265294	0.143997	0.274418	0.409398	5894.526896	26234.540916	3653.132003	11207.050619
69.035000	0.265925	0.142679	0.272127	0.411155	5886.611811	26069.837755	3645.252108	11173.254464
69.535000	0.263092	0.144189	0.275037	0.422214	5790.631149	25565.684096	3629.605359	10963.569265
70.035000	0.268972	0.145632	0.280567	0.420754	5840.962205	25717.754903	3643.007966	10990.952834
70.535500	0.269016	0.145074	0.275703	0.423317	5823.595628	25554.298425	3628.775759	10942.949958
71.035500	0.272391	0.147278	0.278618	0.427111	5820.720007	25471.464212	3627.108106	10872.428089
71.536000	0.269942	0.145793	0.277635	0.430727	5779.351842	25207.773194	3618.432401	10805.770564
72.036500	0.272761	0.148274	0.284925	0.430676	5798.856619	25338.246061	3632.323070	10806.706701
72.536500	0.275293	0.148366	0.277604	0.433154	5799.219425	25215.282769	3613.835635	10761.348966
73.036500	0.271229	0.147371	0.280337	0.434182	5764.706139	25111.477830	3617.020957	10742.602871
73.537000	0.274255	0.149367	0.277797	0.440025	5745.784036	24915.503546	3601.472121	10636.918071
74.037500	0.275274	0.148307	0.279534	0.437363	5770.534014	24996.919726	3609.594559	10684.895620
74.535000	0.277169	0.147310	0.284843	0.438344	5776.716889	24896.486131	3617.667782	10667.186074
75.035500	0.277233	0.147556	0.288911	0.440304	5763.908786	24809.776920	3621.628172	10631.908685
75.535000	0.273943	0.147306	0.278156	0.443785	5718.649309	24622.210882	3595.248362	10569.649275
76.036000	0.276776	0.147203	0.283066	0.442919	5743.290046	24660.467785	3605.846260	10585.093903
76.536000	0.276747	0.147409	0.283097	0.444639	5731.612111	24584.657328	3602.733374	10554.457926
77.036500	0.277887	0.146880	0.277573	0.445276	5734.961411	24526.492817	3591.477996	10543.138978
77.537000	0.275529	0.147282	0.278951	0.452588	5671.172481	24184.932252	3580.786472	10414.436302
78.037000	0.279574	0.146376	0.282723	0.447378	5732.196168	24397.077447	3597.025409	10505.921599
78.535000	0.278693	0.145745	0.280476	0.447550	5725.185603	24357.297370	3592.618201	10502.877140
79.037500	0.279432	0.145836	0.282367	0.448546	5723.480468	24312.634054	3594.247450	10485.315589
79.535000	0.276006	0.145865	0.285201	0.455048	5658.266153	23995.653414	3587.596342	10371.608349
80.035500	0.276651	0.144818	0.290720	0.448452	5705.678356	24267.037554	3609.773599	10486.961330
80.536000	0.278409	0.145663	0.288830	0.450295	5705.118163	24218.003736	3602.874767	10454.555079
81.036000	0.280408	0.144487	0.289703	0.450088	5719.722955	24170.491041	3604.865936	10458.202835
81.539500	0.277161	0.144887	0.280060	0.456618	5655.573146	23872.196027	3575.576483	10344.422198
82.036000	0.281484	0.145048	0.287587	0.451656	5716.456019	24121.188569	3598.096346	10430.717205
82.537000	0.279232	0.144283	0.290717	0.451448	5702.943202	24093.949421	3604.225808	10434.354673
83.036500	0.281674	0.144282	0.291269	0.452001	5715.426347	24066.890376	3604.224758	10424.678458
83.537500	0.278671	0.144492	0.284130	0.459809	5644.689304	23699.617096	3577.140061	10289.438931
84.035000	0.281756	0.141693	0.284421	0.452317	5713.882629	23925.737092	3591.126817	10419.165248
84.535000	0.283073	0.143335	0.286048	0.454377	5708.967427	23905.480556	3590.341456	10383.267118
85.035500	0.282858	0.142866	0.290116	0.454492	5706.791232	23877.264112	3597.537208	10381.279180
85.535500	0.278869	0.141470	0.285598	0.460309	5642.739597	23531.517853	3578.865484	10280.856447
86.039000	0.280187	0.140528	0.289065	0.453702	5694.384868	23802.586537	3597.058459	10395.014415
86.536000	0.282105	0.140071	0.284174	0.454980	5698.594913	23719.178650	3585.867615	10372.788531
87.039500	0.279435	0.138407	0.286784	0.453647	5689.803272	23703.262807	3593.002051	10395.963008
87.537000	0.278275	0.140548	0.293345	0.459520	5643.998820	23525.213707	3594.253992	10294.402536
88.037500	0.281348	0.138786	0.287575	0.455853	5687.884643	23615.941617	3590.435598	10357.663782
88.535000	0.280593	0.139427	0.289959	0.456559	5678.310372	23612.833086	3593.480043	10345.434803
89.035000	0.281387	0.139084	0.288222	0.457562	5676.942202	23548.661244	3588.511753	10328.103458
89.535500	0.281177	0.137767	0.286166	0.459227	5664.720873	23407.342230	3581.817146	10299.440860
90.036000	0.282906	0.138210	0.292420	0.458236	5682.478666	23475.220775	3594.909061	10316.496036
90.539000	0.281474	0.136847	0.293212	0.458207	5673.302232	23412.008560	3596.404731	10316.983913
91.036500	0.283025	0.138121	0.292017	0.459815	5672.929149	23396.279614	3591.306013	10289.337411
91.536500	0.281576	0.135594	0.287937	0.461913	5649.873683	23179.051558	3580.179703	10253.412839
92.037000	0.279634	0.135348	0.292488	0.459518	5652.802665	23279.663371	3592.698297	10294.427114
92.537000	0.280936	0.134983	0.293843	0.460381	5655.652594	23222.082421	3593.593499	10279.623894
93.037500	0.284253	0.136542	0.289560	0.462604	5662.753330	23191.020369	3581.847202	10241.600897
93.535000	0.281131	0.133980	0.287542	0.464203	5632.224095	22997.454892	3575.393604	10214.394262
94.035500	0.284519	0.134991	0.291315	0.462401	5665.807118	23128.109731	3585.363475	10245.070788
94.535500	0.285687	0.135093	0.292223	0.464083	5662.465180	23054.587157	3583.972688	10216.421847
95.035500	0.283388	0.134059	0.298257	0.463736	5649.795865	23022.715132	3595.522973	10222.327066
95.599500	0.278949	0.133641	0.290021	0.464963	5613.352833	22946.600736	3578.454436	10201.482845
96.067500	0.281570	0.132343	0.291015	0.464254	5634.719666	22919.434684	3581.499260	10213.524573
96.537500	0.285593	0.133271	0.297486	0.466015	5649.320457	22881.039554	3589.979468	10183.657216
97.037000	0.283666	0.133198	0.292671	0.466070	5636.515762	22875.104404	3581.211342	10182.718879
97.537500	0.281230	0.132154	0.290837	0.471445	5586.636250	22581.900436	3568.411234	10092.335646
