sample name	sample
index	122
start time	 02-15-2021  12:46:05 PM
880	0.413984
Peak Time (s)	92.035
Peak Height 	0.414
calc peak height	90,93
Baseline Time (s)	10.036
Baseline Value 	-0.001904
subtract baseline	10,4
Abs	0.335639
Peak Time (s)	91.035
Peak Height 	0.3356
calc peak height	90,93
Baseline Time (s)	11.036
Baseline Value 	0.006975
subtract baseline	10,3
PK_550	0.156050
Peak Time (s)	90.038
Peak Height 	0.156
calc peak height	90,93
Baseline Time (s)	11.536
Baseline Value 	8.3263E-4
subtract baseline	10,2
PK_880	0.302963
Peak Time (s)	91.535
Peak Height 	0.303
calc peak height	90,93
Baseline Time (s)	9.535
Baseline Value 	-1.6227E-4
subtract baseline	10,1


Time (s)	A880-A510	A880-A775	A880-A975	A880	I510	I775	I975	I880	
0.035000	-0.004651	-0.001550	0.007086	0.001845	4283.530770	16099.744054	3264.392823	9061.712398
0.535500	-0.001137	-0.001294	-0.002077	0.003338	4289.404940	16062.711018	3257.201737	9040.932999
1.035500	-0.004769	-0.001862	0.003932	0.002960	4279.961404	16057.043149	3261.490978	9046.192234
1.536500	-0.001496	-0.000719	-0.010602	0.000907	4295.454166	16152.886733	3253.167191	9074.800596
2.035500	-0.001343	-0.001775	-0.000571	0.000977	4295.694241	16119.005953	3259.790653	9073.819939
2.536500	0.000321	0.000119	0.009097	0.000836	4300.992853	16180.291428	3266.463175	9075.795574
3.037000	0.004206	0.001012	0.000660	-0.001160	4318.397128	16267.715945	3262.064764	9103.753561
3.537500	0.004338	0.001000	-0.002160	0.001328	4311.394765	16192.040896	3258.488759	9068.926723
4.039500	0.003164	-0.001484	0.007681	0.000282	4311.014122	16148.674086	3265.870453	9083.538628
4.535000	-0.000864	-0.001367	-0.005074	0.000049	4299.824096	16159.230760	3257.396476	9086.808664
5.035000	-0.004512	-0.001842	-0.009942	-0.001745	4294.389067	16198.991226	3255.352651	9111.969996
5.535500	0.002676	-0.000291	0.000028	-0.000392	4311.566015	16204.992643	3261.117043	9092.978863
6.038500	0.000006	-0.001051	-0.000037	-0.000554	4304.154994	16186.920864	3261.182559	9095.247874
6.536500	0.001329	-0.002651	-0.000906	-0.001605	4311.171241	16170.379473	3261.306377	9110.010484
7.036000	0.000236	-0.000064	0.014355	0.000804	4300.835240	16175.738478	3270.124458	9076.246453
7.536000	-0.000346	0.000336	0.006345	0.000235	4300.798233	16204.972483	3264.986371	9084.198115
8.037000	-0.001575	-0.000795	-0.010671	0.004213	4285.585865	16051.451470	3250.957614	9028.783344
8.537000	0.001686	-0.002436	0.007015	-0.001532	4312.011975	16174.641521	3266.659946	9108.980733
9.034500	0.002201	-0.001392	-0.005355	-0.000250	4309.740669	16167.463571	3257.408491	9090.993812
9.535000	0.000000	0.000090	0.015741	-0.000108	4302.825956	16207.924659	3271.729366	9089.009784
10.035500	-0.002657	-0.000365	-0.011831	0.000000	4294.709827	16190.916309	3252.955840	9087.490621
10.535500	0.004904	0.000632	0.010428	0.001267	4313.256327	16182.752328	3267.082492	9069.776440
11.035500	-0.001315	0.000823	0.000000	0.001228	4295.042741	16189.690079	3260.005756	9070.316237
11.536000	-0.002777	0.000000	-0.003234	0.000285	4293.527088	16193.330572	3258.468016	9083.505389
12.036500	-0.002061	0.000562	0.000569	0.005980	4279.058662	16039.236490	3257.203837	9004.334650
12.536500	0.000441	-0.001092	0.005159	-0.000419	4305.041233	16181.617853	3264.622954	9093.362990
13.037000	0.003415	-0.000200	0.006210	-0.001202	4316.166090	16232.230949	3265.879026	9104.339474
13.537000	0.000298	-0.000006	0.008507	0.000350	4302.354006	16191.176156	3266.391497	9082.590217
14.037000	-0.004490	-0.000606	-0.014404	0.002984	4280.696997	16093.877495	3249.329415	9045.851451
14.535000	0.003418	-0.000767	-0.000481	0.001969	4306.778780	16119.525226	3259.184935	9059.983331
15.038000	0.000083	-0.000471	0.009434	-0.000159	4303.217963	16192.487164	3267.380325	9089.712767
15.538000	0.001102	-0.000065	-0.008346	0.000284	4304.915983	16191.386582	3255.066386	9083.517242
16.036000	-0.003191	-0.000484	-0.010186	0.006228	4275.082715	16000.655067	3249.961281	9000.905911
16.536500	0.001448	0.000049	-0.004347	-0.000296	4307.648913	16212.356557	3258.112190	9091.639222
17.036000	0.002907	-0.000839	-0.000890	-0.003151	4320.460030	16271.979367	3262.363647	9131.771893
17.536000	0.000752	0.000325	0.001828	0.001756	4299.555611	16158.756276	3260.882178	9062.954965
18.037000	0.002126	0.001120	0.007181	0.004849	4294.515998	16089.709124	3262.411501	9019.971434
18.537500	0.000633	-0.000969	0.008906	0.001621	4299.603240	16123.886170	3265.792165	9064.836480
19.035000	-0.000924	-0.000833	0.000684	0.001401	4295.682581	16134.587315	3260.350015	9067.905456
19.535000	0.000754	-0.002454	-0.001198	-0.000301	4305.614273	16137.027415	3260.229054	9091.703623
20.038000	0.001716	0.001124	0.001255	0.003215	4298.102607	16138.899755	3259.513718	9042.642812
20.536000	0.002585	0.000040	-0.002939	0.002354	4303.184958	16132.189624	3257.282572	9054.616916
21.036500	-0.002882	-0.000180	0.015044	0.001616	4289.336856	16147.757179	3270.038354	9064.899620
21.536500	0.000958	0.000026	0.005939	0.002571	4297.767519	16125.228801	3263.115872	9051.595195
22.036500	-0.001073	-0.001280	0.003928	0.001513	4294.917343	16117.791388	3262.468307	9066.340300
22.537000	-0.002228	-0.001480	0.000448	0.000404	4294.786707	16145.144062	3260.864001	9081.843043
23.037500	-0.000550	-0.000620	0.005853	0.002297	4294.155020	16114.071573	3263.243666	9055.409451
23.537500	-0.004235	0.001560	-0.005240	0.002821	4281.907949	16163.867500	3255.442954	9048.114359
24.035000	-0.001750	-0.001373	-0.006004	0.001525	4292.903306	16114.653853	3255.795630	9066.176450
24.535500	0.002037	-0.000273	-0.006863	0.001992	4302.638253	16133.662571	3254.917177	9059.657318
25.035500	0.000997	-0.000328	-0.009030	0.001751	4300.288733	16139.245131	3253.646611	9063.023520
25.539000	0.003238	-0.001205	0.004668	0.001210	4308.489844	16129.149520	3263.176722	9070.573006
26.036000	-0.002491	-0.001836	-0.006990	0.000179	4294.672969	16141.178995	3256.034471	9084.983041
26.536000	-0.001085	0.001118	-0.002766	0.002676	4291.483801	16154.927604	3257.183473	9050.133099
27.036500	0.002795	-0.000070	0.000629	-0.000421	4312.005898	16212.531241	3261.543342	9093.386185
27.538500	-0.000131	-0.001429	0.018544	-0.000852	4304.630254	16184.506656	3274.221817	9099.431639
28.037500	-0.001415	-0.001129	-0.016689	0.005314	4282.856147	16008.658023	3246.351846	9013.535804
28.535000	0.000025	-0.001280	-0.002884	-0.000408	4303.781911	16175.601386	3259.166758	9093.202844
29.035000	0.002605	0.001210	-0.002824	0.001501	4305.760521	16193.160118	3257.929397	9066.514858
29.541000	0.001566	-0.001087	0.009321	0.000166	4306.631889	16164.114749	3267.078137	9085.161418
30.036000	-0.001074	-0.000464	-0.001063	0.005362	4283.705527	16027.043372	3256.528851	9012.875051
30.536000	0.006764	0.002017	-0.001534	0.004327	4309.699067	16132.324408	3256.904283	9027.206096
31.036000	0.001596	-0.000439	0.011580	0.002917	4298.624953	16100.909144	3266.739663	9046.783288
31.536500	0.006224	0.000599	-0.003311	0.000553	4319.304021	16203.308738	3258.236990	9079.747147
32.036500	-0.004469	0.002435	0.011527	0.008334	4265.375585	16024.878959	3262.996787	8971.911283
32.538500	0.002108	-0.000735	-0.005884	-0.000695	4310.784373	16200.746708	3257.352753	9097.235812
33.037000	0.002059	-0.000003	0.002629	0.000696	4306.523734	16180.816560	3262.141176	9077.752801
33.535000	0.000605	-0.000152	-0.020404	-0.001332	4308.219333	16237.641663	3248.239250	9106.169879
34.035000	0.001823	-0.000526	-0.016571	0.004310	4295.208210	16056.589520	3247.072965	9027.437387
34.536000	0.003033	0.000471	-0.000960	0.002792	4303.215591	16131.970829	3258.312489	9048.525378
35.036500	0.002464	0.000435	-0.009880	0.002539	4302.285872	16138.524935	3252.570114	9052.047220
35.536000	0.005425	0.000232	0.014053	0.003044	4309.532956	16117.229360	3268.358996	9045.013404
36.036500	-0.001385	-0.000954	0.009491	0.001877	4292.942586	16116.661729	3266.017941	9061.260946
36.537000	0.002304	0.002136	0.010503	0.004164	4297.044228	16140.771637	3265.143774	9029.463254
37.037000	0.001981	0.000079	-0.000698	0.002952	4299.651858	16115.404499	3258.380260	9046.297336
37.534500	0.001832	0.000152	-0.000020	0.002974	4299.149078	16116.920275	3258.819487	9045.991235
38.035000	-0.000226	-0.000859	0.001865	0.003409	4291.852685	16073.581774	3259.793356	9039.947256
38.535000	0.000966	-0.000823	-0.005220	0.001514	4300.894085	16131.503339	3256.323507	9066.329592
39.038500	-0.001287	0.000846	0.000022	0.003635	4288.101496	16117.917969	3258.404532	9036.801666
39.536000	0.001645	0.001279	0.009867	0.003705	4296.460418	16128.824011	3265.022813	9035.840379
40.036000	0.000332	0.000161	-0.003386	0.002415	4296.391197	16133.978650	3256.944029	9053.766328
40.536500	0.004392	0.000593	-0.005560	0.003586	4304.880656	16111.794860	3254.725140	9037.492887
41.036500	-0.001725	-0.000359	0.007333	0.002490	4290.162026	16116.131616	3264.121449	9052.733148
41.537000	-0.001825	-0.000938	0.017231	0.002602	4289.546100	16095.415958	3270.876011	9051.174972
42.036500	-0.000391	-0.000895	-0.002178	0.003729	4290.439208	16062.949624	3256.873556	9035.500557
42.537000	0.003069	0.000371	0.009981	0.002902	4302.999874	16125.668678	3265.651443	9046.999058
43.037500	-0.005487	-0.000870	-0.000473	0.002784	4278.397874	16092.000101	3258.644130	9048.642241
43.538000	0.000222	0.001156	0.006538	0.002950	4294.504584	16147.830751	3263.265391	9046.331300
44.035500	0.001964	0.000332	-0.007764	0.006116	4290.343306	16028.296464	3251.612701	9002.451905
44.536000	0.002446	0.001104	-0.005749	0.001706	4304.687321	16183.756467	3255.844844	9063.656115
45.036500	0.000194	-0.000424	0.005930	0.001046	4300.002263	16157.594481	3264.148938	9072.865961
45.536500	0.002841	0.000872	-0.000879	0.001024	4307.863098	16197.341966	3259.551657	9073.166196
46.036500	-0.003010	-0.000048	-0.008617	0.007113	4273.057512	15987.298946	3250.406670	8988.708337
46.537000	0.001205	-0.001015	-0.001105	0.000352	4305.020531	16160.699039	3259.852261	9082.569130
47.034000	-0.000803	-0.001295	0.000745	-0.000746	4302.341259	16185.363211	3261.842225	9097.949235
47.537000	0.001985	0.000630	-0.007578	0.003794	4297.192454	16106.666698	3253.257270	9034.598110
48.038000	0.000311	-0.001047	0.018244	0.005179	4288.260888	16015.154505	3269.786586	9015.412172
48.538000	0.001856	0.000289	-0.003298	0.001036	4304.922011	16179.374667	3257.922632	9072.995847
49.035000	-0.002071	0.001048	-0.003184	0.000648	4294.527905	16214.026765	3258.258249	9078.418634
49.536000	0.001119	0.000698	0.003504	-0.001201	4309.352022	16259.450926	3264.026927	9104.328766
50.036500	-0.003547	-0.000163	-0.005766	0.001276	4288.393599	16158.531640	3256.119145	9069.656720
50.536500	0.003391	-0.003023	0.007696	-0.001854	4318.037633	16166.653744	3267.351164	9113.504770
51.036500	-0.037248	-0.025347	-0.019381	0.275201	3646.860374	9647.419832	3116.459787	6233.450730
51.537500	-0.012453	-0.020025	-0.004242	0.033305	4174.692745	14685.406854	3236.555679	8638.609834
52.037000	0.019578	-0.007241	0.013402	-0.158852	4951.919860	21684.775961	3403.532343	11772.867860
52.535000	0.025525	-0.013859	0.018852	-0.100154	4731.454702	19086.746438	3353.242057	10664.653703
53.038000	0.008535	-0.017258	0.022291	-0.022084	4395.868247	16348.568650	3292.368590	9404.685847
53.535500	0.018367	-0.014341	0.037666	0.002922	4348.779176	15690.513318	3285.248045	9046.716420
54.035000	0.011827	-0.016752	0.025206	-0.001568	4342.543484	15751.015901	3279.473738	9109.486146
54.535500	0.033791	-0.012463	0.041250	0.002091	4399.288201	15769.440747	3288.493099	9058.289250
55.036500	0.048341	-0.005358	0.048245	0.024252	4375.403662	15337.000604	3277.483930	8757.242506
55.536500	0.066883	0.002046	0.068638	0.044014	4371.613688	14993.086018	3277.934345	8501.439918
56.036500	0.074431	0.005871	0.078917	0.082171	4279.931710	14087.472218	3258.645783	8039.282925
56.537500	0.100874	0.019030	0.089359	0.118190	4252.550287	13522.963048	3242.005868	7638.742460
57.034500	0.116000	0.026299	0.132318	0.158410	4183.595505	12759.822056	3243.741137	7229.039196
57.534500	0.140452	0.039842	0.146703	0.182521	4184.505807	12527.069968	3237.628114	7001.016096
58.035500	0.167782	0.055014	0.180102	0.210809	4181.949463	12245.971794	3240.823059	6749.144170
58.535500	0.178799	0.067805	0.186133	0.230730	4158.459944	12096.700928	3232.226536	6581.364626
59.035000	0.214305	0.082654	0.196600	0.277754	4128.777272	11452.717426	3210.871237	6214.536302
59.536000	0.224988	0.096935	0.230613	0.307475	4081.409686	11160.208660	3213.285916	6002.354262
60.036500	0.237899	0.100736	0.230709	0.326778	4065.965938	10876.831703	3202.661422	5872.126831
60.536500	0.254072	0.111996	0.269255	0.341250	4070.054240	10819.377354	3216.054096	5778.223024
61.036500	0.268728	0.120411	0.260087	0.354584	4073.241234	10732.179761	3203.513573	5694.422124
61.537500	0.266093	0.123501	0.272894	0.357832	4059.130921	10729.404631	3208.761587	5674.401210
62.034500	0.268528	0.128005	0.262839	0.363146	4052.293532	10715.143249	3200.380167	5641.957839
62.537500	0.275055	0.130160	0.275938	0.363156	4067.832441	10752.950259	3207.498973	5641.894279
63.035500	0.267897	0.132237	0.291406	0.369547	4035.783204	10677.089576	3212.564263	5603.402745
63.535000	0.264463	0.134454	0.268932	0.370138	4026.452368	10705.603203	3199.899094	5599.873777
64.036500	0.269856	0.136677	0.289468	0.372370	4033.772082	10705.452011	3209.894734	5586.580066
64.536500	0.275530	0.137078	0.290523	0.369784	4053.155265	10758.071628	3211.933155	5601.985407
65.039000	0.274293	0.138724	0.288333	0.370648	4048.188085	10771.917430	3210.221710	5596.826820
65.537000	0.273797	0.138941	0.296567	0.371834	4044.231456	10754.762082	3214.189535	5589.762866
66.037000	0.273883	0.137623	0.291955	0.378951	4027.853296	10607.109844	3207.621673	5547.778612
66.537000	0.272519	0.140495	0.283145	0.378958	4024.692093	10656.955484	3202.800492	5547.740408
67.037500	0.277939	0.136430	0.298533	0.378303	4038.780815	10597.673527	3211.647199	5551.572651
67.535500	0.276817	0.138701	0.301889	0.382739	4025.882590	10560.287754	3211.041481	5525.715884
68.038500	0.280059	0.140972	0.296285	0.391426	4013.403794	10450.567917	3203.164357	5475.829750
68.536000	0.281711	0.141943	0.293308	0.386928	4027.509759	10543.986948	3203.990360	5501.537256
69.036000	0.286490	0.142118	0.316027	0.386292	4040.097649	10557.955505	3217.045472	5505.193887
69.536500	0.285103	0.146198	0.290567	0.389669	4029.016321	10570.063990	3201.026906	5485.841395
70.037000	0.279713	0.144683	0.311203	0.392706	4009.708239	10491.942854	3210.675741	5468.561971
70.537500	0.287719	0.145456	0.306611	0.387734	4039.597141	10590.667276	3210.888210	5496.908209
71.034500	0.294450	0.149230	0.295845	0.389432	4051.432837	10626.678850	3204.008469	5487.195204
71.534500	0.290532	0.146502	0.309290	0.387251	4047.332331	10617.168485	3212.665617	5499.682365
72.038000	0.289488	0.149763	0.321474	0.394911	4027.035586	10541.185890	3215.230573	5456.097669
72.535500	0.291679	0.149550	0.313387	0.388541	4046.994772	10647.740360	3214.254225	5492.288336
73.036000	0.300005	0.153420	0.308770	0.389694	4064.025569	10695.235861	3210.999858	5485.695173
73.536000	0.295987	0.152088	0.326391	0.387787	4058.984178	10705.328561	3222.189050	5496.603583
74.035500	0.291386	0.152432	0.297925	0.390879	4040.819309	10657.229979	3204.352727	5478.941322
74.536500	0.292210	0.149978	0.294766	0.382407	4062.811258	10762.980006	3207.265916	5527.642820
75.036500	0.291900	0.149016	0.315364	0.381259	4064.816994	10766.274574	3219.566773	5534.314582
75.540000	0.299643	0.153793	0.331736	0.382681	4080.070322	10825.893996	3228.387711	5526.051825
76.035000	0.294232	0.153577	0.303998	0.384073	4063.661034	10797.262247	3211.476198	5517.988593
76.535500	0.296506	0.150188	0.320925	0.378893	4081.652973	10829.154304	3224.206435	5548.120358
77.037500	0.296702	0.154153	0.306339	0.382319	4073.818720	10838.767831	3213.785098	5528.148927
77.535500	0.303564	0.155872	0.323088	0.383529	4087.565139	10847.878712	3222.750063	5521.137673
78.035500	0.297736	0.153638	0.295954	0.382615	4075.604637	10824.304611	3207.806876	5526.434210
78.536000	0.292169	0.152831	0.309401	0.379523	4069.629822	10865.165000	3217.127065	5544.434489
79.039000	0.294251	0.154694	0.314958	0.380479	4072.342889	10881.451249	3219.783907	5538.857750
79.536500	0.299569	0.156376	0.321066	0.381642	4082.418508	10890.785759	3222.670949	5532.087112
80.037000	0.296219	0.152523	0.299726	0.380482	4077.094945	10842.475963	3211.093845	5538.837236
80.537000	0.298335	0.153412	0.325208	0.381389	4080.031981	10842.164883	3225.263773	5533.558777
81.035000	0.293338	0.154699	0.297662	0.381567	4067.525516	10862.013659	3209.335597	5532.521808
81.538000	0.295484	0.154570	0.308741	0.381428	4073.027147	10862.192645	3215.658524	5533.328510
82.035000	0.293623	0.154219	0.292853	0.382180	4066.737204	10842.435314	3206.337733	5528.957073
82.538500	0.297164	0.154617	0.337269	0.383845	4071.250913	10819.829280	3231.023518	5519.308620
83.036000	0.297486	0.155141	0.313452	0.385773	4067.385640	10794.844066	3215.867620	5508.178697
83.536000	0.302267	0.155113	0.303208	0.385559	4079.451085	10798.148374	3210.201570	5509.409807
84.036500	0.297408	0.153698	0.318705	0.386073	4066.478798	10763.933425	3218.714020	5506.452912
84.537000	0.297354	0.154190	0.318464	0.387653	4062.565796	10744.710271	3217.663894	5497.373166
85.037000	0.300046	0.155472	0.320012	0.389780	4063.915438	10729.795729	3217.330601	5485.203867
85.534500	0.297637	0.156749	0.313975	0.392395	4051.959976	10706.260281	3212.406791	5470.326890
86.037500	0.299968	0.153202	0.330971	0.394831	4051.714070	10601.914244	3220.749961	5456.550114
86.535500	0.304863	0.156522	0.310726	0.396349	4059.733506	10633.191501	3208.381713	5448.000839
87.035500	0.303053	0.156353	0.339568	0.396017	4056.214192	10636.029619	3225.105097	5449.868935
87.535500	0.299890	0.156249	0.331854	0.398303	4043.348577	10594.547418	3219.245805	5437.040058
88.036500	0.301993	0.156843	0.309492	0.400411	4043.337410	10568.396327	3205.464616	5425.275585
88.536500	0.301999	0.156469	0.309595	0.399486	4045.522894	10577.896566	3206.027885	5430.428787
89.036500	0.302813	0.156475	0.326984	0.402027	4041.470216	10534.241364	3214.316883	5416.288757
89.537000	0.300846	0.153998	0.323081	0.401476	4038.161134	10501.268721	3212.421061	5419.352410
90.037500	0.297480	0.156050	0.313400	0.411489	4007.405262	10366.423154	3201.571395	5364.362705
90.535000	0.296196	0.153121	0.305581	0.404389	4020.658387	10436.752474	3201.184085	5403.220830
91.035000	0.296639	0.154561	0.335639	0.406628	4016.547505	10423.222878	3216.629467	5390.898603
91.535500	0.302963	0.155740	0.335406	0.409194	4025.168391	10399.803667	3215.030342	5376.852181
92.035500	0.298064	0.153471	0.305792	0.413984	4003.089434	10281.775231	3196.193486	5350.856805
92.536000	0.300319	0.154534	0.307668	0.410214	4016.761543	10362.383067	3199.183535	5371.292710
93.036500	0.299437	0.157110	0.308419	0.414383	4005.288455	10335.720193	3197.368705	5348.706491
93.545000	0.295399	0.152282	0.314484	0.411237	4003.275555	10307.661184	3202.291688	5365.731193
94.037000	0.301160	0.155412	0.329769	0.421609	3992.937281	10188.120890	3204.961079	5310.064373
94.534000	0.299036	0.152726	0.309996	0.414118	4004.982271	10267.221703	3198.345276	5350.137095
95.035000	0.302621	0.155412	0.331412	0.415948	4008.949424	10281.390505	3208.984573	5340.278891
95.537500	0.298790	0.150566	0.314162	0.414703	4003.106677	10221.906381	3200.254696	5346.980134
96.035000	0.301399	0.154585	0.325543	0.419739	3997.653120	10205.201439	3203.677138	5320.001871
