sample name	sample
index	924
start time	 04-12-2021  11:54:56 AM
880	0.379662
Peak Time (s)	102.536
Peak Height 	0.3797
calc peak height	100,103
Baseline Time (s)	10.535
Baseline Value 	-0.001531
subtract baseline	10,4
Abs	0.358520
Peak Time (s)	101.556
Peak Height 	0.3585
calc peak height	100,103
Baseline Time (s)	10.037
Baseline Value 	0.001587
subtract baseline	10,3
PK_550	0.212039
Peak Time (s)	102.536
Peak Height 	0.212
calc peak height	100,103
Baseline Time (s)	8.536
Baseline Value 	3.8466E-4
subtract baseline	10,2
PK_880	0.365146
Peak Time (s)	101.556
Peak Height 	0.3651
calc peak height	100,103
Baseline Time (s)	8.536
Baseline Value 	6.4556E-4
subtract baseline	10,1


Time (s)	A880-A510	A880-A775	A880-A975	A880	I510	I775	I975	I880	
0.039000	0.000647	-0.000685	0.001108	0.000341	7193.648820	43589.674346	3938.207091	23396.767458
0.537000	-0.004578	-0.001106	-0.004709	0.005984	7085.852622	43025.016714	3908.747842	23131.263084
1.035000	-0.000842	-0.000993	-0.005090	0.002739	7154.774201	43336.618921	3916.037047	23283.485649
1.535500	0.000701	0.000585	0.000284	0.001193	7185.639117	43628.854877	3933.849253	23356.444557
2.035500	0.001487	-0.000516	0.000326	-0.000446	7210.018532	43679.374478	3938.220398	23434.066262
2.536000	-0.003115	-0.001310	-0.003345	0.004807	7111.780893	43115.029427	3915.211268	23186.329640
3.036000	0.002465	-0.000015	-0.001495	-0.002282	7238.473403	43899.537773	3938.258716	23521.327185
3.543000	-0.000429	-0.000258	-0.003848	-0.000452	7190.797360	43704.172300	3927.414970	23434.329049
4.036000	-0.000425	-0.000294	0.003282	-0.000944	7195.776398	43747.047487	3947.250500	23457.673480
4.537000	-0.001350	-0.000463	-0.002452	-0.000308	7180.123059	43671.335578	3930.649127	23427.513349
5.034500	-0.001065	-0.000252	0.000382	-0.000678	7186.688602	43725.999746	3938.971417	23445.068797
5.537500	0.000248	-0.000841	0.001025	-0.000742	7200.514174	43676.565455	3940.812843	23448.092139
6.034500	-0.000279	-0.000300	-0.001646	-0.000540	7193.199105	43708.508434	3933.339777	23438.528273
6.535500	-0.001237	0.000540	-0.003125	-0.000060	7178.775937	43742.312272	3928.268412	23415.733234
7.035500	0.000757	-0.000623	-0.000429	-0.000927	7207.497663	43714.459935	3937.506026	23456.873575
7.536000	-0.001662	-0.000036	-0.001297	-0.000409	7178.014504	43720.960794	3933.902599	23432.282874
8.039000	-0.000014	-0.000238	0.002240	-0.000379	7194.234409	43699.160521	3943.041045	23430.881147
8.536000	0.000000	0.000000	-0.005590	0.000060	7189.966853	43680.249509	3921.615186	23410.050522
9.037000	-0.000127	-0.001028	0.001412	-0.001182	7201.167996	43700.371699	3942.974032	23468.995138
9.536500	-0.000737	-0.000024	0.000604	-0.000400	7187.185404	43721.241002	3938.823637	23431.851577
10.037000	0.000249	0.000476	0.000000	0.000260	7190.459406	43706.263124	3935.535532	23400.601565
10.535000	0.000728	0.000301	0.000700	0.000000	7197.878035	43714.238376	3938.031958	23412.901474
11.035000	0.001656	0.000262	-0.002056	0.000479	7202.393474	43665.546162	3929.638680	23390.206152
11.535500	-0.000756	-0.000834	-0.001814	-0.000803	7191.046082	43683.012993	3933.584557	23450.995943
12.035500	0.000264	-0.000073	0.002496	-0.000360	7196.845992	43712.974170	3943.662996	23429.993769
12.536500	-0.001309	-0.000285	-0.002553	-0.000954	7187.010054	43748.881044	3932.061776	23458.183077
13.036500	0.001316	-0.000127	0.000688	-0.001665	7220.593028	43830.700974	3942.345471	23491.958298
13.536500	0.001427	0.000584	-0.005074	-0.000413	7209.084366	43779.765941	3924.158211	23432.503725
14.037000	-0.000329	-0.000225	0.002430	0.001869	7168.568250	43489.493439	3937.669815	23324.495441
14.537500	-0.001230	0.000090	0.001429	0.002249	7155.786036	43483.402557	3934.080366	23306.566604
15.034500	0.001410	0.000260	-0.003615	-0.000880	7213.605635	43793.114114	3929.120786	23454.631182
15.535000	0.000091	-0.000418	0.001362	-0.001561	7207.181943	43793.476445	3943.835650	23487.024472
16.035500	0.001456	-0.000483	-0.002368	-0.001431	7219.641075	43775.091938	3933.777128	23480.853012
16.535000	-0.000792	-0.000508	0.000042	0.001279	7169.834539	43518.340942	3932.999582	23352.381627
17.036000	0.002544	0.000227	0.001836	-0.003326	7249.884285	44021.203258	3949.711088	23571.137460
17.539000	0.000724	0.000379	-0.001565	0.000957	7188.239089	43631.588442	3929.673606	23367.604083
18.036000	0.001162	0.000589	0.001378	0.001421	7187.964724	43607.709468	3936.097372	23345.642211
18.536500	-0.000055	-0.000241	0.002576	0.001233	7177.666471	43547.662106	3939.708390	23354.561690
19.037000	0.001389	0.000453	0.000259	0.001318	7191.284675	43604.662387	3933.459551	23350.530945
19.534500	0.000667	0.000106	-0.000740	0.001265	7184.571895	43577.049775	3931.009171	23353.019064
20.034000	-0.000111	-0.000555	-0.002490	0.000345	7186.003109	43601.433318	3928.863078	23396.576746
20.535000	-0.000788	-0.000040	-0.003909	0.001078	7171.881136	43580.940263	3923.318368	23361.875287
21.035500	0.000088	0.000320	-0.001873	0.001031	7181.113649	43619.103122	3928.682988	23364.076766
21.535500	0.000078	-0.000239	-0.000616	0.000738	7183.956018	43594.204353	3932.695965	23377.952808
22.039000	-0.000947	0.000013	0.000913	0.001054	7170.536979	43588.192720	3935.844553	23363.027974
22.536500	-0.001092	0.000140	-0.001357	0.001102	7168.606097	43595.590618	3929.832437	23360.717660
23.036500	-0.000417	-0.000446	-0.002321	0.000626	7180.114264	43585.320250	3928.575023	23383.265408
23.537000	0.000077	0.000106	-0.001053	0.001572	7175.593984	43548.385470	3929.407275	23338.539755
24.037000	0.000769	-0.000004	0.001273	0.001392	7184.331127	43554.907898	3935.903080	23347.056273
24.537500	-0.000239	-0.000880	-0.001834	0.000529	7182.862313	43553.674381	3930.082553	23387.832100
25.035000	-0.001332	0.000319	0.000615	0.001083	7166.398231	43614.146385	3934.994950	23361.635901
25.535500	-0.001294	-0.000498	-0.003502	0.000706	7170.537819	43572.838117	3925.321483	23379.447966
26.035500	0.000899	0.000159	0.001129	0.001371	7185.833292	43572.095894	3935.581217	23348.006761
26.536000	0.001044	-0.000632	0.003399	0.001069	7190.327634	43526.433878	3942.285068	23362.322012
27.036000	0.003275	0.000451	0.006063	-0.000504	7228.664738	43775.775018	3953.414906	23436.813648
27.536500	0.001824	0.000141	-0.000626	-0.001474	7223.797610	43837.996590	3938.417995	23482.882102
28.036500	0.001827	0.000668	0.000595	-0.000207	7211.033382	43768.271504	3938.298600	23422.733146
28.537000	0.003280	0.000909	-0.000441	0.000175	7221.836293	43754.951034	3934.610051	23404.592364
29.037500	0.002160	0.000731	0.000785	-0.000334	7215.674664	43786.131318	3939.122589	23428.733659
29.535000	0.000303	0.000282	-0.002739	-0.000106	7194.676615	43722.377821	3929.386153	23417.933543
30.035000	-0.001696	-0.000094	0.001589	0.001229	7161.321661	43561.768122	3937.147721	23354.754716
30.535000	-0.000617	-0.000242	-0.003719	0.003277	7151.663494	43356.532150	3918.166304	23258.185764
31.035500	0.000412	-0.000161	0.001550	0.002171	7172.953892	43467.347497	3934.597657	23310.287636
31.538500	0.001241	0.000864	0.003485	0.000397	7199.042692	43729.810766	3944.268111	23394.087153
32.036000	-0.001318	-0.000301	-0.001260	0.001420	7163.186434	43524.543062	3929.263608	23345.730288
32.536500	0.001850	0.000502	0.003870	0.002471	7184.340317	43501.224212	3939.852952	23296.126970
33.037000	0.002293	0.000570	0.000930	-0.000874	7222.468128	43821.833406	3940.911719	23454.373122
33.537000	0.001455	0.000063	0.002055	-0.002380	7229.235406	43916.145063	3947.801978	23526.021388
34.034500	-0.000154	-0.000286	0.000581	0.003000	7159.034494	43378.192090	3929.938681	23271.210134
34.543000	-0.000194	-0.000418	0.000854	0.001490	7173.709694	43506.993321	3934.559252	23342.417328
35.035500	-0.000624	-0.000037	0.002947	0.001749	7166.822600	43518.446870	3939.331306	23330.193703
35.535500	-0.002168	-0.000716	0.002725	0.000972	7159.166266	43527.518968	3940.776849	23366.883405
36.036000	-0.002337	-0.000808	-0.002016	0.001397	7153.255731	43479.189269	3927.370421	23346.805698
36.536000	-0.000749	0.000084	0.001892	0.001930	7163.761845	43512.699990	3936.111350	23321.619521
37.036500	-0.000687	-0.000224	-0.000235	0.001550	7168.180097	43519.513192	3931.580479	23339.594504
37.536500	-0.000518	-0.000571	-0.000551	0.001758	7167.785472	43467.564296	3930.223431	23329.759160
38.037000	-0.001867	-0.000852	0.002406	0.002322	7148.732338	43388.636336	3936.428702	23303.137895
38.537000	0.000117	0.000550	0.000708	0.002745	7164.271839	43480.099640	3930.926217	23283.206593
39.035000	-0.000841	-0.000367	0.003761	0.002383	7158.335315	43428.247241	3939.798556	23300.277106
39.554000	0.000103	-0.000034	0.000653	0.002682	7164.764639	43431.428355	3930.945979	23286.174134
40.035500	-0.000783	0.000033	0.000673	0.003107	7151.697092	43397.973061	3929.899158	23266.161071
40.538500	0.000238	0.000101	0.005585	0.002813	7164.811676	43431.797663	3943.440525	23280.029598
41.049500	-0.000681	0.000283	-0.001058	0.003302	7150.774241	43403.075295	3924.930266	23256.986718
41.536500	0.001432	0.000095	-0.000372	0.002861	7176.251017	43426.700977	3927.834366	23277.732068
42.041000	0.000024	-0.000731	0.000893	0.001893	7171.848675	43439.962413	3933.612736	23323.367630
42.557500	-0.000263	-0.000897	-0.000926	0.001523	7172.680417	43459.069368	3929.859188	23340.839569
43.034500	-0.000456	0.000751	-0.000513	0.002590	7160.101815	43513.431264	3928.169536	23290.499577
43.545500	0.001439	0.001130	0.003260	0.002400	7180.935927	43566.713653	3938.448274	23299.448537
44.053500	-0.000286	-0.000534	0.001792	0.001745	7170.235785	43472.301506	3936.331187	23330.362219
44.535000	-0.002998	-0.000696	-0.002881	0.004088	7120.027658	43238.717968	3918.234299	23220.045874
45.047000	0.003140	0.000609	0.004723	-0.000826	7230.560689	43821.025374	3950.729214	23452.088560
45.536000	0.000756	0.000260	0.000673	-0.001312	7211.372966	43833.887527	3941.382051	23475.162389
46.035500	-0.001365	0.000518	0.001597	0.003538	7141.635406	43403.001100	3931.172581	23245.882578
46.536500	-0.002071	-0.000184	-0.002304	0.004900	7121.165188	43210.823883	3917.631817	23181.952520
47.039000	0.001192	0.000242	0.006516	-0.001247	7215.117632	43826.056233	3956.574304	23472.076083
47.536000	0.000909	0.000968	0.004004	0.002047	7179.169031	43584.662640	3941.311423	23316.133418
48.040000	-0.001269	-0.001116	-0.001444	0.001805	7159.823596	43412.316236	3927.792744	23327.525221
48.535000	-0.001525	0.000516	-0.002170	0.005273	7122.883071	43241.301092	3917.024515	23164.524284
49.035500	0.000892	-0.000197	0.001887	-0.001124	7210.845481	43773.075017	3944.064507	23466.222243
49.535500	0.002401	0.001405	0.003720	-0.001299	7227.862790	43940.836830	3949.335053	23474.571061
50.038500	-0.002153	0.000033	-0.003450	0.004727	7122.061359	43247.022062	3915.148008	23190.064029
50.538500	-0.015336	-0.001801	0.001252	0.031982	6740.634878	40631.127598	3859.073103	21951.612069
51.036000	-0.069677	-0.002320	-0.023018	0.214343	5098.308457	27652.891156	3460.767818	15395.000130
51.536500	-0.107638	-0.020632	-0.038800	0.065732	5755.959163	36324.945460	3694.660257	20521.910055
52.036500	-0.099930	-0.064007	-0.042009	-0.236677	8803.630097	63614.539225	4574.819838	38326.417898
52.537000	-0.076596	-0.104071	-0.018086	-0.290259	9960.667049	65535.000000	4920.200769	42987.420866
53.034500	-0.047727	-0.139856	0.004287	-0.326044	11104.997184	65535.000000	5223.008656	46436.471938
53.537500	-0.035630	-0.088782	0.010369	-0.274970	10394.856865	65535.000000	4985.249057	41598.321175
54.035000	-0.019088	-0.047369	0.011543	-0.221500	9778.364238	63819.108724	4738.130349	37107.305851
54.535500	-0.001653	-0.022132	0.013999	-0.178883	9387.054190	61428.175190	4567.566317	33903.500785
55.038500	0.015220	-0.008734	0.018540	-0.148207	9181.980605	59144.130388	4464.744013	31784.352592
55.536000	0.029003	0.003598	0.029560	-0.113239	8879.659972	56285.969096	4375.807247	29544.399814
56.036500	0.042844	0.013119	0.031327	-0.080886	8627.286441	53550.153989	4269.124772	27626.612031
56.536500	0.047086	0.018770	0.047164	-0.025547	7984.018188	48070.969486	4142.006384	24659.972891
57.036500	0.075954	0.032152	0.066336	-0.011894	8167.713378	48042.831393	4159.078089	23984.375948
57.537000	0.092228	0.040992	0.076610	0.021060	7966.677008	45602.878800	4090.286099	22438.600768
58.034500	0.097736	0.048900	0.090447	0.067339	7506.563911	41989.155597	3997.918491	20456.545153
58.535000	0.114642	0.058397	0.109587	0.096004	7381.691558	40300.013256	3972.085357	19330.696292
59.035500	0.127478	0.065766	0.129154	0.139145	7075.031084	37340.345071	3910.528107	17770.350626
59.536000	0.141955	0.073837	0.145596	0.166430	6951.727005	35848.486721	3883.318766	16860.584925
60.036000	0.155004	0.083216	0.154319	0.194492	6811.742830	34459.741368	3836.444449	15982.652926
60.536500	0.173178	0.091493	0.174595	0.212832	6810.229499	33736.228255	3841.045414	15438.813705
61.036000	0.189968	0.100782	0.188070	0.230048	6806.330728	33177.881415	3832.176175	14948.751248
61.537000	0.204850	0.108515	0.206347	0.241099	6841.541463	32947.204386	3849.375966	14644.262590
62.034000	0.206367	0.113466	0.211178	0.267793	6615.710992	31478.358055	3798.200462	13939.965389
62.537500	0.219079	0.120309	0.227500	0.285776	6570.062178	30753.835125	3794.416790	13489.321966
63.038000	0.220260	0.125194	0.237196	0.294063	6509.388994	30536.209709	3797.624197	13287.835666
63.535000	0.226252	0.130147	0.246628	0.292085	6577.502992	30981.316355	3823.997241	13335.594649
64.035500	0.229161	0.135354	0.261428	0.322439	6348.128947	29399.705158	3788.218955	12626.401374
64.538500	0.231986	0.141604	0.265780	0.316543	6419.449158	30152.200285	3811.646344	12760.299153
65.106000	0.242967	0.148584	0.277679	0.340918	6310.490873	29080.903686	3783.196183	12218.291871
65.552000	0.242719	0.150326	0.284364	0.351316	6226.263643	28563.720789	3774.887802	11996.200790
66.038500	0.239908	0.149599	0.287042	0.383983	5960.001791	26661.920792	3710.311206	11332.012498
66.559500	0.250763	0.154925	0.294825	0.387020	6016.817311	26787.636106	3720.236218	11272.762262
67.040000	0.257643	0.158336	0.295440	0.386500	6071.552340	27005.111722	3722.624835	11282.878046
67.567000	0.261028	0.159439	0.295758	0.387666	6088.152641	27001.644705	3720.839991	11260.218459
68.040500	0.267532	0.161302	0.301757	0.392283	6102.326889	26849.081085	3723.751442	11171.060623
68.535000	0.268518	0.163591	0.296020	0.398024	6066.716093	26659.206344	3699.841326	11061.527731
69.038000	0.277318	0.167571	0.303348	0.396886	6141.592033	26941.222488	3717.416034	11083.124961
69.535500	0.279599	0.170129	0.299998	0.394814	6174.933004	27199.258619	3714.740946	11122.594173
70.036500	0.278995	0.171346	0.302912	0.393640	6179.320277	27333.630836	3723.326193	11145.047918
70.536000	0.285950	0.173813	0.308078	0.384618	6304.760580	27989.449116	3753.754285	11319.583482
71.107000	0.287880	0.175598	0.305047	0.375247	6396.312415	28643.154178	3767.676283	11504.762444
71.534000	0.293229	0.177108	0.307455	0.367450	6505.857080	29201.459398	3790.517182	11661.917392
72.099500	0.293377	0.179430	0.306288	0.366094	6518.595222	29425.394033	3790.945220	11689.526203
72.537000	0.302425	0.181178	0.311197	0.357493	6671.502127	30065.890815	3822.033494	11866.737229
73.043000	0.306576	0.183239	0.314767	0.353905	6740.542435	30422.002108	3838.902111	11941.714694
73.535500	0.311704	0.186045	0.312896	0.352301	6801.596508	30703.218972	3838.266045	11975.426598
74.038500	0.317199	0.187637	0.315821	0.349301	6880.009154	30999.032467	3852.431084	12038.809939
74.536000	0.319410	0.187227	0.318000	0.348326	6909.817126	31035.720567	3860.052153	12059.519188
75.036500	0.323335	0.190046	0.315750	0.344975	6978.714494	31438.697345	3862.725744	12131.004597
75.536500	0.328161	0.190566	0.319629	0.343023	7043.937060	31601.768127	3876.993497	12172.903783
76.037000	0.326264	0.192871	0.316916	0.347869	6979.038219	31434.142912	3858.531111	12069.224129
76.553500	0.334909	0.194451	0.323131	0.342138	7118.624902	31919.162863	3887.857676	12191.971292
77.043000	0.336983	0.195787	0.326931	0.339841	7161.985809	32163.166075	3903.137238	12241.614014
77.535000	0.338075	0.196914	0.325829	0.338627	7185.039990	32321.568549	3903.421385	12267.964463
78.037500	0.334051	0.195767	0.324317	0.341540	7116.050771	32047.423342	3892.305438	12204.857833
78.535500	0.340336	0.198097	0.325079	0.336234	7231.934293	32565.011253	3907.577116	12320.103636
79.038500	0.342543	0.199189	0.324165	0.335268	7264.204979	32706.137639	3907.709800	12341.243310
79.536000	0.343058	0.199084	0.333001	0.333580	7286.737506	32815.087732	3934.705088	12378.279181
80.036500	0.339898	0.198761	0.327985	0.337482	7214.889217	32525.147862	3911.786348	12292.871102
80.537000	0.344531	0.200528	0.331788	0.332351	7314.533515	32999.920536	3934.745592	12405.327290
81.036500	0.345537	0.201123	0.331337	0.331796	7330.685731	33079.861222	3935.017259	12417.588844
81.537000	0.347084	0.201402	0.333149	0.330997	7355.050422	33154.927606	3941.819917	12435.246025
82.037500	0.347874	0.202812	0.334011	0.336222	7309.099228	32890.068569	3930.476250	12320.372137
82.534500	0.350772	0.203674	0.339043	0.331615	7387.131923	33270.443799	3955.688862	12421.571883
83.035000	0.350027	0.203149	0.331240	0.330690	7389.026243	33298.528681	3937.640362	12442.030228
83.562500	0.351670	0.204162	0.337865	0.331931	7393.237227	33282.538423	3951.744482	12414.594800
84.035500	0.351095	0.202456	0.336380	0.334330	7362.121019	32996.444345	3941.554171	12361.809132
84.536000	0.350663	0.202668	0.333550	0.332507	7376.653971	33137.970069	3938.927316	12401.907967
85.039500	0.352852	0.204985	0.335726	0.332275	7402.053473	33316.100963	3945.219448	12407.008554
85.564000	0.354163	0.205051	0.340952	0.332468	7413.826173	33307.191261	3958.483880	12402.751636
86.087000	0.353323	0.204186	0.338809	0.333634	7392.719722	33165.187684	3949.746101	12377.097670
86.537500	0.355694	0.206486	0.339092	0.334291	7410.754647	33279.974269	3948.761714	12362.653075
87.038000	0.356113	0.205419	0.338323	0.333496	7423.570410	33260.945427	3948.829864	12380.118613
87.535500	0.356430	0.205975	0.342118	0.334053	7421.038621	33260.963537	3957.377172	12367.891497
88.041000	0.356305	0.206619	0.344768	0.336935	7389.372498	33104.708044	3956.762210	12304.802916
88.562500	0.357176	0.206559	0.342553	0.337349	7394.168576	33071.736720	3949.821549	12295.772561
89.039000	0.356634	0.207552	0.346712	0.336433	7398.096301	33204.777000	3963.254262	12315.753043
89.536500	0.358053	0.208269	0.346018	0.337645	7400.279463	33170.237458	3958.192433	12289.325889
90.036500	0.354977	0.207244	0.340464	0.340718	7336.047388	32885.608215	3935.547925	12222.616290
90.537000	0.356544	0.207114	0.344952	0.338963	7370.637455	32998.210282	3951.891212	12260.669340
91.037000	0.360003	0.208457	0.351234	0.339777	7398.368492	33034.873405	3966.395035	12243.007889
91.549000	0.358689	0.207972	0.344548	0.340029	7381.932919	32983.748435	3948.021815	12237.545127
92.037500	0.355044	0.207942	0.344855	0.343828	7304.601231	32719.319863	3938.884040	12155.596955
92.566000	0.358872	0.207509	0.342975	0.342681	7356.128564	32768.449281	3936.973415	12180.257685
93.126000	0.360281	0.207927	0.349289	0.343067	7366.799752	32770.636930	3952.502937	12171.951791
93.591000	0.357577	0.207828	0.347810	0.344350	7325.357474	32675.642211	3945.241085	12144.399171
94.066500	0.355827	0.207807	0.346617	0.347958	7270.267643	32427.661939	3932.728878	12067.344545
94.580500	0.358060	0.208235	0.349408	0.348313	7289.493855	32432.559954	3939.060154	12059.786214
95.039000	0.361305	0.208953	0.355054	0.349761	7307.977656	32382.961874	3950.054899	12029.063786
95.574500	0.360541	0.208816	0.354103	0.351409	7283.185335	32261.852135	3943.236094	11994.223712
96.040000	0.359724	0.208673	0.347960	0.354362	7244.726685	32053.117982	3919.688415	11932.137234
96.558000	0.359972	0.208669	0.353146	0.353928	7251.658295	32082.003205	3934.178329	11941.230308
97.035000	0.360604	0.208569	0.347965	0.356375	7233.223706	31911.199403	3914.554683	11890.042134
97.538500	0.360135	0.210499	0.353524	0.359079	7201.182868	31859.461134	3921.860276	11833.807693
