sample name	sample
index	688
start time	 03-22-2021  12:17:34 PM


Wavelength (nm)	Absorbance
494.344910	-0.386273
494.563924	-0.386273
494.782919	-0.386273
495.001897	-0.449772
495.220856	-0.198549
495.439797	-0.083869
495.658719	-0.042484
495.877624	0.023248
496.096510	0.119814
496.315378	0.109187
496.534227	0.089799
496.753059	0.059996
496.971872	0.049175
497.190667	0.092200
497.409444	0.092275
497.628203	0.094584
497.846943	0.096885
498.065665	0.097763
498.284369	0.097356
498.503055	0.097599
498.721723	0.096818
498.940372	0.098336
499.159003	0.098326
499.377616	0.097614
499.596210	0.097797
499.814787	0.096503
500.033345	0.096714
500.251885	0.097076
500.470406	0.097536
500.688910	0.098738
500.907395	0.098973
501.125862	0.099697
501.344311	0.100923
501.562742	0.100989
501.781154	0.102473
501.999548	0.102802
502.217924	0.102466
502.436282	0.101744
502.654621	0.101453
502.872942	0.100852
503.091245	0.100660
503.309530	0.100934
503.527797	0.101686
503.746045	0.101722
503.964275	0.101568
504.182487	0.102560
504.400681	0.103663
504.618856	0.103802
504.837013	0.104351
505.055152	0.104642
505.273273	0.104316
505.491376	0.104389
505.709460	0.103456
505.927526	0.103430
506.145574	0.103005
506.363604	0.103205
506.581615	0.103620
506.799608	0.102801
507.017583	0.102731
507.235540	0.102677
507.453478	0.102568
507.671399	0.102313
507.889301	0.102473
508.107185	0.104151
508.325050	0.103346
508.542898	0.102507
508.760727	0.103025
508.978538	0.103165
509.196330	0.103380
509.414105	0.102552
509.631861	0.104103
509.849599	0.104181
510.067319	0.103075
510.285021	0.103094
510.502704	0.104235
510.720369	0.104994
510.938016	0.105214
511.155645	0.105435
511.373255	0.106010
511.590848	0.105242
511.808422	0.105969
512.025977	0.106118
512.243515	0.106731
512.461034	0.106502
512.678536	0.105997
512.896018	0.106427
513.113483	0.105656
513.330930	0.106297
513.548358	0.107036
513.765768	0.107303
513.983160	0.107469
514.200533	0.108286
514.417889	0.108337
514.635226	0.107886
514.852545	0.107699
515.069845	0.108470
515.287128	0.108127
515.504392	0.108078
515.721638	0.106415
515.938866	0.106152
516.156075	0.105197
516.373267	0.105210
516.590440	0.105689
516.807594	0.105767
517.024731	0.106161
517.241850	0.106207
517.458950	0.106693
517.676032	0.107579
517.893095	0.106640
518.110141	0.106651
518.327168	0.107569
518.544177	0.107756
518.761168	0.107719
518.978141	0.107294
519.195095	0.107294
519.412031	0.106888
519.628949	0.106891
519.845849	0.108543
520.062731	0.108994
520.279594	0.108465
520.496439	0.108805
520.713266	0.109214
520.930074	0.109686
521.146865	0.110679
521.363637	0.110445
521.580391	0.110666
521.797127	0.110534
522.013844	0.110946
522.230543	0.111395
522.447224	0.111281
522.663887	0.110977
522.880532	0.111369
523.097158	0.111128
523.313766	0.111209
523.530356	0.111501
523.746928	0.112238
523.963481	0.112168
524.180017	0.112475
524.396534	0.113109
524.613032	0.113788
524.829513	0.113796
525.045975	0.114461
525.262420	0.115294
525.478845	0.116023
525.695253	0.115937
525.911643	0.116393
526.128014	0.116154
526.344367	0.116002
526.560702	0.116023
526.777018	0.116032
526.993316	0.115669
527.209597	0.115812
527.425858	0.115472
527.642102	0.114842
527.858328	0.114592
528.074535	0.114644
528.290724	0.114840
528.506894	0.115198
528.723047	0.115502
528.939181	0.115539
529.155297	0.115710
529.371395	0.116031
529.587475	0.116793
529.803536	0.116863
530.019579	0.117755
530.235604	0.118479
530.451611	0.118584
530.667600	0.119015
530.883570	0.119447
531.099522	0.119845
531.315456	0.119869
531.531372	0.120088
531.747269	0.120283
531.963148	0.119785
532.179009	0.118957
532.394852	0.118605
532.610676	0.118478
532.826482	0.118578
533.042271	0.118564
533.258040	0.119157
533.473792	0.118876
533.689525	0.119111
533.905240	0.119595
534.120937	0.120475
534.336616	0.120666
534.552277	0.120702
534.767919	0.120983
534.983543	0.121295
535.199149	0.121496
535.414736	0.121956
535.630306	0.122326
535.845857	0.122699
536.061390	0.122836
536.276904	0.123563
536.492401	0.124171
536.707879	0.124532
536.923339	0.124505
537.138781	0.124450
537.354204	0.124778
537.569610	0.124877
537.784997	0.124750
538.000366	0.125029
538.215716	0.125343
538.431049	0.125426
538.646363	0.125299
538.861659	0.125633
539.076937	0.126158
539.292196	0.126198
539.507438	0.126114
539.722661	0.126393
539.937866	0.126670
540.153052	0.126617
540.368221	0.126487
540.583371	0.126511
540.798503	0.126749
541.013617	0.126913
541.228712	0.127608
541.443789	0.128218
541.658848	0.128436
541.873889	0.128833
542.088912	0.128781
542.303916	0.129590
542.518902	0.130059
542.733870	0.130002
542.948820	0.129692
543.163752	0.129882
543.378665	0.130086
543.593560	0.130395
543.808437	0.130158
544.023295	0.130516
544.238136	0.130521
544.452958	0.130301
544.667762	0.130643
544.882548	0.131126
545.097315	0.130469
545.312064	0.131095
545.526795	0.131335
545.741508	0.131231
545.956203	0.131428
546.170879	0.131478
546.385537	0.131995
546.600177	0.132251
546.814799	0.132370
547.029402	0.132796
547.243988	0.132396
547.458555	0.132103
547.673103	0.132744
547.887634	0.132657
548.102146	0.132939
548.316640	0.132751
548.531116	0.132933
548.745574	0.133224
548.960013	0.133428
549.174435	0.133199
549.388838	0.133547
549.603222	0.133504
549.817589	0.133635
550.031937	0.133778
550.246267	0.134531
550.460579	0.134232
550.674873	0.133856
550.889148	0.134240
551.103405	0.134740
551.317644	0.134577
551.531865	0.134639
551.746068	0.134910
551.960252	0.134854
552.174418	0.134560
552.388566	0.135154
552.602696	0.135723
552.816807	0.135787
553.030900	0.136207
553.244975	0.136346
553.459032	0.136689
553.673070	0.136865
553.887091	0.137010
554.101093	0.137502
554.315077	0.137592
554.529042	0.137565
554.742990	0.137447
554.956919	0.137290
555.170830	0.137539
555.384722	0.137573
555.598597	0.137770
555.812453	0.137499
556.026291	0.137292
556.240111	0.137194
556.453913	0.137453
556.667696	0.137784
556.881461	0.137789
557.095208	0.138309
557.308937	0.138403
557.522647	0.138425
557.736339	0.138958
557.950013	0.139089
558.163669	0.139306
558.377307	0.139467
558.590926	0.139727
558.804527	0.140248
559.018110	0.139926
559.231675	0.139856
559.445221	0.139890
559.658749	0.139739
559.872259	0.140091
560.085751	0.140281
560.299225	0.140799
560.512680	0.140987
560.726117	0.140795
560.939536	0.141147
561.152937	0.141404
561.366319	0.141804
561.579683	0.142274
561.793029	0.142057
562.006357	0.142257
562.219667	0.141763
562.432958	0.141718
562.646231	0.142228
562.859486	0.142322
563.072723	0.142619
563.285941	0.142573
563.499141	0.142841
563.712323	0.143453
563.925487	0.143440
564.138632	0.143659
564.351760	0.143567
564.564869	0.143773
564.777960	0.143900
564.991032	0.143922
565.204087	0.144293
565.417123	0.144220
565.630141	0.144200
565.843140	0.144284
566.056122	0.144536
566.269085	0.144785
566.482030	0.144680
566.694957	0.144616
566.907866	0.144749
567.120756	0.144473
567.333628	0.144772
567.546482	0.144444
567.759318	0.144488
567.972135	0.144425
568.184935	0.145080
568.397716	0.144960
568.610478	0.145246
568.823223	0.145307
569.035949	0.145782
569.248657	0.145611
569.461347	0.146046
569.674019	0.146107
569.886672	0.146178
570.099308	0.145891
570.311925	0.146019
570.524523	0.146024
570.737104	0.146276
570.949666	0.146303
571.162210	0.146595
571.374736	0.146383
571.587244	0.146602
571.799733	0.147031
572.012205	0.147206
572.224658	0.147398
572.437092	0.147536
572.649509	0.147093
572.861907	0.146892
573.074287	0.146805
573.286649	0.147266
573.498993	0.147320
573.711318	0.147306
573.923625	0.147304
574.135914	0.147359
574.348185	0.147998
574.560438	0.148439
574.772672	0.148699
574.984888	0.148738
575.197086	0.149087
575.409266	0.149398
575.621427	0.149652
575.833570	0.149631
576.045695	0.149921
576.257802	0.149720
576.469890	0.150010
576.681961	0.150333
576.894013	0.150550
577.106046	0.150635
577.318062	0.150644
577.530059	0.150254
577.742039	0.150537
577.954000	0.150630
578.165942	0.150729
578.377867	0.150633
578.589773	0.150350
578.801661	0.150779
579.013531	0.150594
579.225382	0.150269
579.437216	0.150699
579.649031	0.150680
579.860828	0.150849
580.072606	0.150575
580.284367	0.151052
580.496109	0.151281
580.707833	0.151100
580.919539	0.151292
581.131227	0.152214
581.342896	0.152434
581.554547	0.152550
581.766180	0.152720
581.977795	0.152949
582.189391	0.152822
582.400969	0.153067
582.612529	0.153299
582.824071	0.153211
583.035595	0.152858
583.247100	0.152749
583.458587	0.152777
583.670056	0.152536
583.881506	0.152788
584.092939	0.152807
584.304353	0.153210
584.515749	0.152903
584.727127	0.153313
584.938486	0.153608
585.149828	0.153585
585.361151	0.153949
585.572456	0.154366
585.783742	0.154734
585.995011	0.154863
586.206261	0.154709
586.417493	0.155198
586.628706	0.155030
586.839902	0.154932
587.051079	0.155457
587.262238	0.155839
587.473379	0.155636
587.684502	0.155193
587.895606	0.155447
588.106692	0.155769
588.317760	0.155597
588.528810	0.156080
588.739841	0.156319
588.950855	0.156505
589.161850	0.156085
589.372827	0.156437
589.583785	0.156938
589.794726	0.157044
590.005648	0.156966
590.216552	0.157081
590.427437	0.157001
590.638305	0.157207
590.849154	0.157102
591.059985	0.157465
591.270798	0.157601
591.481592	0.157518
591.692369	0.157398
591.903127	0.157500
592.113867	0.157932
592.324588	0.158070
592.535292	0.158070
592.745977	0.158147
592.956644	0.158356
593.167293	0.158431
593.377923	0.158680
593.588536	0.159050
593.799130	0.159054
594.009706	0.159377
594.220263	0.159230
594.430803	0.159371
594.641324	0.159225
594.851827	0.159362
595.062312	0.159109
595.272778	0.159147
595.483227	0.159209
595.693657	0.159472
595.904069	0.159141
596.114462	0.159454
596.324838	0.159452
596.535195	0.159843
596.745534	0.159609
596.955855	0.159972
597.166157	0.160127
597.376441	0.160254
597.586707	0.160058
597.796955	0.160304
598.007185	0.160484
598.217396	0.160989
598.427589	0.161330
598.637764	0.161950
598.847921	0.161755
599.058060	0.161711
599.268180	0.161981
599.478282	0.162332
599.688366	0.162620
599.898431	0.162768
600.108479	0.162354
600.318508	0.162276
600.528519	0.161997
600.738511	0.162391
600.948486	0.162649
601.158442	0.162789
601.368380	0.162933
601.578300	0.162895
601.788202	0.162924
601.998085	0.163531
602.207950	0.163605
602.417797	0.163666
602.627626	0.163892
602.837436	0.163861
603.047228	0.163710
603.257002	0.163987
603.466758	0.164111
603.676496	0.164284
603.886215	0.164243
604.095916	0.164381
604.305599	0.164630
604.515264	0.164670
604.724910	0.165069
604.934538	0.165295
605.144148	0.165508
605.353740	0.165673
605.563314	0.165740
605.772869	0.165752
605.982406	0.165935
606.191925	0.166176
606.401425	0.166257
606.610908	0.166179
606.820372	0.166363
607.029818	0.166246
607.239246	0.166367
607.448655	0.166461
607.658047	0.166382
607.867420	0.166369
608.076775	0.166467
608.286111	0.166437
608.495430	0.166562
608.704730	0.166263
608.914012	0.166075
609.123275	0.166109
609.332521	0.165971
609.541748	0.166155
609.750957	0.166193
609.960148	0.165797
610.169321	0.166037
610.378475	0.165990
610.587611	0.166141
610.796729	0.166085
611.005829	0.165994
611.214910	0.166348
611.423974	0.166403
611.633019	0.166478
611.842045	0.166800
612.051054	0.166558
612.260044	0.166990
612.469017	0.167382
612.677970	0.167524
612.886906	0.167813
613.095824	0.167872
613.304723	0.167899
613.513604	0.167779
613.722467	0.167821
613.931311	0.168069
614.140138	0.167763
614.348946	0.167660
614.557736	0.167803
614.766507	0.167898
614.975261	0.167887
615.183996	0.168028
615.392713	0.168428
615.601412	0.168702
615.810092	0.168947
616.018754	0.169208
616.227399	0.169308
616.436024	0.169518
616.644632	0.169393
616.853222	0.169574
617.061793	0.169542
617.270346	0.169534
617.478880	0.169796
617.687397	0.169970
617.895895	0.170111
618.104375	0.170463
618.312837	0.170743
618.521281	0.170972
618.729706	0.171301
618.938113	0.171586
619.146502	0.171518
619.354873	0.171277
619.563226	0.171140
619.771560	0.171334
619.979876	0.171316
620.188174	0.171172
620.396453	0.171323
620.604715	0.171231
620.812958	0.171468
621.021183	0.171630
621.229390	0.171707
621.437578	0.172145
621.645748	0.172444
621.853900	0.172465
622.062034	0.172647
622.270150	0.172630
622.478247	0.172671
622.686326	0.172444
622.894387	0.172670
623.102430	0.172777
623.310454	0.172701
623.518461	0.172386
623.726449	0.172426
623.934418	0.172688
624.142370	0.173038
624.350303	0.173022
624.558218	0.173275
624.766115	0.173491
624.973994	0.173586
625.181855	0.173225
625.389697	0.173489
625.597521	0.173378
625.805327	0.173326
626.013114	0.173188
626.220883	0.173330
626.428634	0.173367
626.636367	0.173512
626.844082	0.173755
627.051778	0.174353
627.259457	0.174297
627.467117	0.174617
627.674758	0.174853
627.882382	0.175130
628.089987	0.175309
628.297574	0.175421
628.505143	0.175568
628.712694	0.175574
628.920226	0.175656
629.127740	0.175936
629.335236	0.176089
629.542714	0.176061
629.750174	0.175892
629.957615	0.175874
630.165038	0.176013
630.372443	0.175701
630.579829	0.175913
630.787198	0.175991
630.994548	0.175947
631.201880	0.175922
631.409194	0.175880
631.616489	0.175972
631.823766	0.175970
632.031025	0.176166
632.238266	0.176307
632.445489	0.176219
632.652693	0.176165
632.859879	0.176327
633.067047	0.176481
633.274197	0.176509
633.481329	0.176681
633.688442	0.176726
633.895537	0.176639
634.102614	0.176817
634.309672	0.176754
634.516713	0.176683
634.723735	0.176855
634.930739	0.176738
635.137724	0.176870
635.344692	0.177076
635.551641	0.177213
635.758572	0.177442
635.965485	0.177533
636.172379	0.177847
636.379256	0.178148
636.586114	0.178104
636.792954	0.178214
636.999775	0.178585
637.206579	0.178531
637.413364	0.178863
637.620131	0.179034
637.826880	0.179122
638.033610	0.179116
638.240323	0.179131
638.447017	0.179247
638.653692	0.179320
638.860350	0.179324
639.066990	0.179468
639.273611	0.179308
639.480214	0.179291
639.686798	0.179283
639.893365	0.179600
640.099913	0.179799
640.306443	0.179924
640.512955	0.180400
640.719449	0.180417
640.925924	0.180557
641.132381	0.180952
641.338820	0.181060
641.545241	0.181291
641.751644	0.181432
641.958028	0.181753
642.164394	0.181814
642.370742	0.181628
642.577071	0.181880
642.783383	0.181955
642.989676	0.182049
643.195951	0.182185
643.402207	0.182194
643.608446	0.181977
643.814666	0.181834
644.020868	0.182049
644.227052	0.182225
644.433218	0.182323
644.639365	0.182633
644.845494	0.182715
645.051605	0.182896
645.257698	0.183085
645.463772	0.183411
645.669828	0.183607
645.875866	0.183670
646.081886	0.184128
646.287888	0.184120
646.493871	0.184035
646.699836	0.184147
646.905783	0.184301
647.111712	0.184625
647.317622	0.184911
647.523514	0.184884
647.729388	0.184860
647.935244	0.184696
648.141082	0.184998
648.346901	0.185059
648.552702	0.185091
648.758485	0.184938
648.964250	0.184801
649.169996	0.184515
649.375724	0.184627
649.581434	0.184677
649.787126	0.184789
649.992800	0.184504
650.198455	0.184525
650.404092	0.184546
650.609711	0.184661
650.815311	0.184786
651.020894	0.184982
651.226458	0.185085
651.432004	0.185053
651.637532	0.185107
651.843041	0.185429
652.048532	0.185528
652.254006	0.185330
652.459460	0.185439
652.664897	0.185386
652.870315	0.185401
653.075716	0.185512
653.281097	0.185862
653.486461	0.185998
653.691807	0.186039
653.897134	0.186224
654.102443	0.186666
654.307734	0.186825
654.513006	0.186940
654.718261	0.187362
654.923497	0.187415
655.128715	0.187662
655.333915	0.187730
655.539096	0.187886
655.744259	0.188098
655.949404	0.188368
656.154531	0.188397
656.359640	0.188617
656.564730	0.188548
656.769802	0.188765
656.974856	0.188622
657.179892	0.188563
657.384909	0.188729
657.589908	0.188747
657.794889	0.188792
657.999852	0.188815
658.204797	0.189046
658.409723	0.189182
658.614631	0.189435
658.819521	0.189722
659.024393	0.190066
659.229246	0.190084
659.434081	0.190262
659.638898	0.190410
659.843697	0.190650
660.048478	0.190648
660.253240	0.190802
660.457984	0.190783
660.662710	0.190859
660.867417	0.190989
661.072107	0.191110
661.276778	0.191218
661.481431	0.191090
661.686066	0.191340
661.890682	0.191349
662.095281	0.191214
662.299861	0.191276
662.504422	0.191225
662.708966	0.191278
662.913491	0.191399
663.117999	0.191409
663.322488	0.191725
663.526958	0.191756
663.731411	0.192169
663.935845	0.192487
664.140261	0.192753
664.344659	0.193126
664.549038	0.193381
664.753400	0.193526
664.957743	0.193753
665.162068	0.193910
665.366375	0.194118
665.570663	0.193904
665.774933	0.194174
665.979185	0.194084
666.183419	0.194137
666.387635	0.194309
666.591832	0.194370
666.796011	0.194387
667.000172	0.194272
667.204315	0.194345
667.408439	0.194660
667.612545	0.194693
667.816634	0.194923
668.020703	0.194936
668.224755	0.194976
668.428788	0.195251
668.632803	0.195583
668.836800	0.195771
669.040779	0.196221
669.244739	0.196444
669.448681	0.196551
669.652605	0.196843
669.856511	0.197225
670.060399	0.197293
670.264268	0.197510
670.468119	0.197437
670.671952	0.197512
670.875767	0.197316
671.079563	0.197415
671.283341	0.197625
671.487101	0.197874
671.690843	0.197916
671.894567	0.197957
672.098272	0.198160
672.301959	0.198525
672.505628	0.198899
672.709278	0.198993
672.912911	0.199058
673.116525	0.199243
673.320121	0.199056
673.523699	0.198992
673.727258	0.199180
673.930799	0.199001
674.134322	0.198878
674.337827	0.198859
674.541314	0.198970
674.744782	0.199105
674.948232	0.198979
675.151664	0.199452
675.355078	0.199524
675.558474	0.199680
675.761851	0.199894
675.965210	0.199990
676.168551	0.200047
676.371873	0.200197
676.575178	0.200387
676.778464	0.200541
676.981732	0.200333
677.184981	0.200563
677.388213	0.200507
677.591426	0.200375
677.794621	0.200721
677.997798	0.201065
678.200956	0.201240
678.404097	0.201407
678.607219	0.201701
678.810323	0.201890
679.013408	0.202054
679.216476	0.202528
679.419525	0.202931
679.622556	0.202840
679.825569	0.202957
680.028563	0.203224
680.231540	0.203140
680.434498	0.203083
680.637438	0.202964
680.840359	0.203031
681.043263	0.202889
681.246148	0.202902
681.449015	0.203018
681.651864	0.202959
681.854694	0.202923
682.057506	0.203191
682.260301	0.203419
682.463076	0.203834
682.665834	0.203955
682.868573	0.204229
683.071295	0.204476
683.273998	0.204706
683.476682	0.204774
683.679349	0.204766
683.881997	0.204616
684.084627	0.204688
684.287239	0.204596
684.489833	0.204821
684.692408	0.204893
684.894965	0.205022
685.097504	0.205120
685.300025	0.205268
685.502527	0.205267
685.705012	0.205469
685.907478	0.205614
686.109925	0.205768
686.312355	0.205759
686.514766	0.205800
686.717159	0.205608
686.919534	0.205603
687.121891	0.205657
687.324230	0.206004
687.526550	0.206221
687.728852	0.206147
687.931136	0.206249
688.133401	0.206483
688.335649	0.206467
688.537878	0.206808
688.740089	0.207215
688.942281	0.207372
689.144456	0.207251
689.346612	0.207248
689.548750	0.207461
689.750870	0.207693
689.952971	0.207590
690.155055	0.207854
690.357120	0.207844
690.559167	0.207603
690.761195	0.207673
690.963206	0.207992
691.165198	0.207898
691.367172	0.207957
691.569128	0.207965
691.771065	0.208066
691.972984	0.208016
692.174885	0.208174
692.376768	0.208251
692.578633	0.208236
692.780479	0.208319
692.982308	0.208701
693.184118	0.208778
693.385909	0.208784
