sample name	sample
index	1200
start time	 04-26-2021  12:41:43 PM


Wavelength (nm)	Absorbance
494.344910	-0.211845
494.563924	-0.211845
494.782919	-0.211845
495.001897	-0.368622
495.220856	-0.181989
495.439797	-0.138277
495.658719	-0.076816
495.877624	-0.023069
496.096510	-0.055540
496.315378	-0.006501
496.534227	-0.042272
496.753059	0.041432
496.971872	0.084269
497.190667	0.139457
497.409444	0.141001
497.628203	0.141518
497.846943	0.141990
498.065665	0.141819
498.284369	0.138957
498.503055	0.139606
498.721723	0.138743
498.940372	0.137885
499.159003	0.137272
499.377616	0.138202
499.596210	0.136968
499.814787	0.135972
500.033345	0.137730
500.251885	0.139890
500.470406	0.138977
500.688910	0.139762
500.907395	0.139721
501.125862	0.140373
501.344311	0.139233
501.562742	0.139665
501.781154	0.141778
501.999548	0.141452
502.217924	0.141315
502.436282	0.142482
502.654621	0.141772
502.872942	0.142877
503.091245	0.143360
503.309530	0.143776
503.527797	0.144232
503.746045	0.142845
503.964275	0.143454
504.182487	0.143195
504.400681	0.143121
504.618856	0.144514
504.837013	0.144954
505.055152	0.144704
505.273273	0.145264
505.491376	0.144703
505.709460	0.145830
505.927526	0.145295
506.145574	0.145772
506.363604	0.144881
506.581615	0.144317
506.799608	0.143054
507.017583	0.143155
507.235540	0.142640
507.453478	0.143373
507.671399	0.142714
507.889301	0.143210
508.107185	0.142638
508.325050	0.144089
508.542898	0.144122
508.760727	0.145560
508.978538	0.145691
509.196330	0.145214
509.414105	0.144801
509.631861	0.143876
509.849599	0.144104
510.067319	0.143984
510.285021	0.142751
510.502704	0.143156
510.720369	0.142204
510.938016	0.142330
511.155645	0.143183
511.373255	0.143977
511.590848	0.144614
511.808422	0.144059
512.025977	0.143947
512.243515	0.144942
512.461034	0.145376
512.678536	0.145223
512.896018	0.145189
513.113483	0.145437
513.330930	0.145690
513.548358	0.146097
513.765768	0.146820
513.983160	0.147619
514.200533	0.148008
514.417889	0.148336
514.635226	0.149049
514.852545	0.149628
515.069845	0.150457
515.287128	0.150243
515.504392	0.150548
515.721638	0.151470
515.938866	0.151341
516.156075	0.151424
516.373267	0.151438
516.590440	0.151765
516.807594	0.150826
517.024731	0.149810
517.241850	0.150825
517.458950	0.150385
517.676032	0.149992
517.893095	0.150753
518.110141	0.151493
518.327168	0.151644
518.544177	0.151331
518.761168	0.152572
518.978141	0.153190
519.195095	0.152247
519.412031	0.153042
519.628949	0.153513
519.845849	0.153399
520.062731	0.153541
520.279594	0.153163
520.496439	0.154652
520.713266	0.155093
520.930074	0.155463
521.146865	0.156384
521.363637	0.157029
521.580391	0.156436
521.797127	0.156186
522.013844	0.156032
522.230543	0.156876
522.447224	0.156965
522.663887	0.156261
522.880532	0.156753
523.097158	0.156175
523.313766	0.155959
523.530356	0.157252
523.746928	0.157908
523.963481	0.158222
524.180017	0.158168
524.396534	0.157783
524.613032	0.158128
524.829513	0.157652
525.045975	0.158573
525.262420	0.158877
525.478845	0.158989
525.695253	0.159183
525.911643	0.159129
526.128014	0.159311
526.344367	0.159155
526.560702	0.159077
526.777018	0.159922
526.993316	0.160050
527.209597	0.161050
527.425858	0.160687
527.642102	0.161257
527.858328	0.161749
528.074535	0.162300
528.290724	0.163512
528.506894	0.164013
528.723047	0.164322
528.939181	0.164327
529.155297	0.164153
529.371395	0.164261
529.587475	0.164368
529.803536	0.164887
530.019579	0.165483
530.235604	0.166370
530.451611	0.166181
530.667600	0.166246
530.883570	0.166953
531.099522	0.167495
531.315456	0.168074
531.531372	0.168241
531.747269	0.167677
531.963148	0.167041
532.179009	0.166737
532.394852	0.167462
532.610676	0.167486
532.826482	0.167914
533.042271	0.167122
533.258040	0.167023
533.473792	0.167634
533.689525	0.168849
533.905240	0.169600
534.120937	0.168602
534.336616	0.169794
534.552277	0.170485
534.767919	0.170593
534.983543	0.171238
535.199149	0.172442
535.414736	0.172370
535.630306	0.172604
535.845857	0.173503
536.061390	0.174972
536.276904	0.174518
536.492401	0.174240
536.707879	0.174426
536.923339	0.174945
537.138781	0.174509
537.354204	0.174919
537.569610	0.175530
537.784997	0.175366
538.000366	0.175103
538.215716	0.175705
538.431049	0.176502
538.646363	0.176284
538.861659	0.176609
539.076937	0.176975
539.292196	0.177253
539.507438	0.176963
539.722661	0.176816
539.937866	0.177360
540.153052	0.177552
540.368221	0.177666
540.583371	0.178676
540.798503	0.178954
541.013617	0.179326
541.228712	0.179898
541.443789	0.180099
541.658848	0.180457
541.873889	0.180430
542.088912	0.180425
542.303916	0.180818
542.518902	0.180796
542.733870	0.181285
542.948820	0.181367
543.163752	0.181567
543.378665	0.182159
543.593560	0.182467
543.808437	0.182781
544.023295	0.183013
544.238136	0.183427
544.452958	0.183364
544.667762	0.183676
544.882548	0.183703
545.097315	0.183529
545.312064	0.183683
545.526795	0.183755
545.741508	0.184205
545.956203	0.184686
546.170879	0.184646
546.385537	0.185517
546.600177	0.185291
546.814799	0.185988
547.029402	0.186568
547.243988	0.186451
547.458555	0.186533
547.673103	0.187117
547.887634	0.187165
548.102146	0.187620
548.316640	0.187299
548.531116	0.187273
548.745574	0.187117
548.960013	0.187039
549.174435	0.187038
549.388838	0.187666
549.603222	0.187427
549.817589	0.187556
550.031937	0.187497
550.246267	0.187574
550.460579	0.188034
550.674873	0.188184
550.889148	0.188070
551.103405	0.188105
551.317644	0.188210
551.531865	0.188324
551.746068	0.188531
551.960252	0.188276
552.174418	0.188444
552.388566	0.188149
552.602696	0.187799
552.816807	0.188312
553.030900	0.188452
553.244975	0.188310
553.459032	0.188044
553.673070	0.188083
553.887091	0.188634
554.101093	0.188900
554.315077	0.189475
554.529042	0.189911
554.742990	0.189627
554.956919	0.189904
555.170830	0.189880
555.384722	0.190648
555.598597	0.190578
555.812453	0.190404
556.026291	0.190546
556.240111	0.190765
556.453913	0.191205
556.667696	0.191945
556.881461	0.192174
557.095208	0.192751
557.308937	0.192740
557.522647	0.193701
557.736339	0.193881
557.950013	0.194318
558.163669	0.194602
558.377307	0.194473
558.590926	0.194178
558.804527	0.194426
559.018110	0.194786
559.231675	0.194977
559.445221	0.194565
559.658749	0.195133
559.872259	0.195059
560.085751	0.195026
560.299225	0.195307
560.512680	0.195360
560.726117	0.195152
560.939536	0.195296
561.152937	0.195490
561.366319	0.195627
561.579683	0.195286
561.793029	0.195482
562.006357	0.195450
562.219667	0.195565
562.432958	0.195885
562.646231	0.196320
562.859486	0.195885
563.072723	0.195739
563.285941	0.195960
563.499141	0.195635
563.712323	0.195613
563.925487	0.195584
564.138632	0.195904
564.351760	0.196096
564.564869	0.195798
564.777960	0.196300
564.991032	0.196156
565.204087	0.196571
565.417123	0.197606
565.630141	0.197904
565.843140	0.198275
566.056122	0.198142
566.269085	0.198480
566.482030	0.199216
566.694957	0.198903
566.907866	0.199308
567.120756	0.199426
567.333628	0.199242
567.546482	0.199176
567.759318	0.199040
567.972135	0.199213
568.184935	0.199188
568.397716	0.199421
568.610478	0.199569
568.823223	0.199678
569.035949	0.199439
569.248657	0.199259
569.461347	0.199245
569.674019	0.199604
569.886672	0.200016
570.099308	0.199859
570.311925	0.199979
570.524523	0.199853
570.737104	0.199744
570.949666	0.199868
571.162210	0.200140
571.374736	0.200264
571.587244	0.200300
571.799733	0.200135
572.012205	0.200763
572.224658	0.200531
572.437092	0.200930
572.649509	0.201568
572.861907	0.201907
573.074287	0.202318
573.286649	0.202740
573.498993	0.203114
573.711318	0.203083
573.923625	0.202996
574.135914	0.203092
574.348185	0.203344
574.560438	0.202845
574.772672	0.202832
574.984888	0.203182
575.197086	0.202875
575.409266	0.203068
575.621427	0.203276
575.833570	0.203462
576.045695	0.204153
576.257802	0.204436
576.469890	0.204267
576.681961	0.204405
576.894013	0.204223
577.106046	0.204638
577.318062	0.204538
577.530059	0.204838
577.742039	0.204837
577.954000	0.204418
578.165942	0.204483
578.377867	0.205278
578.589773	0.205254
578.801661	0.205132
579.013531	0.205554
579.225382	0.205518
579.437216	0.205826
579.649031	0.205753
579.860828	0.205427
580.072606	0.205426
580.284367	0.205553
580.496109	0.205840
580.707833	0.206172
580.919539	0.205884
581.131227	0.206530
581.342896	0.206497
581.554547	0.206676
581.766180	0.207188
581.977795	0.207511
582.189391	0.207535
582.400969	0.207791
582.612529	0.207599
582.824071	0.207873
583.035595	0.207367
583.247100	0.207590
583.458587	0.207815
583.670056	0.208049
583.881506	0.208086
584.092939	0.208429
584.304353	0.208446
584.515749	0.208970
584.727127	0.208683
584.938486	0.209181
585.149828	0.209292
585.361151	0.209636
585.572456	0.210113
585.783742	0.210438
585.995011	0.210397
586.206261	0.210453
586.417493	0.210530
586.628706	0.211685
586.839902	0.212052
587.051079	0.212021
587.262238	0.212320
587.473379	0.212019
587.684502	0.211756
587.895606	0.211924
588.106692	0.212228
588.317760	0.212432
588.528810	0.212228
588.739841	0.212159
588.950855	0.212688
589.161850	0.212604
589.372827	0.213033
589.583785	0.213700
589.794726	0.214041
590.005648	0.214262
590.216552	0.214821
590.427437	0.214851
590.638305	0.214921
590.849154	0.215038
591.059985	0.215100
591.270798	0.215045
591.481592	0.215162
591.692369	0.215106
591.903127	0.215071
592.113867	0.214544
592.324588	0.214584
592.535292	0.214899
592.745977	0.215304
592.956644	0.215432
593.167293	0.215773
593.377923	0.215306
593.588536	0.215125
593.799130	0.215105
594.009706	0.215589
594.220263	0.215725
594.430803	0.215943
594.641324	0.215648
594.851827	0.215682
595.062312	0.215621
595.272778	0.216115
595.483227	0.216575
595.693657	0.217183
595.904069	0.217291
596.114462	0.217649
596.324838	0.217240
596.535195	0.217373
596.745534	0.217823
596.955855	0.218147
597.166157	0.218113
597.376441	0.218309
597.586707	0.218311
597.796955	0.217956
598.007185	0.217816
598.217396	0.218539
598.427589	0.218559
598.637764	0.218624
598.847921	0.218601
599.058060	0.218998
599.268180	0.219060
599.478282	0.219036
599.688366	0.219679
599.898431	0.220129
600.108479	0.220066
600.318508	0.220369
600.528519	0.220757
600.738511	0.221138
600.948486	0.221295
601.158442	0.221410
601.368380	0.221955
601.578300	0.222160
601.788202	0.222345
601.998085	0.222566
602.207950	0.222187
602.417797	0.222129
602.627626	0.222130
602.837436	0.222570
603.047228	0.223345
603.257002	0.223272
603.466758	0.222904
603.676496	0.223003
603.886215	0.223021
604.095916	0.223420
604.305599	0.223796
604.515264	0.223833
604.724910	0.223484
604.934538	0.223349
605.144148	0.223320
605.353740	0.223989
605.563314	0.224442
605.772869	0.224825
605.982406	0.225007
606.191925	0.224951
606.401425	0.225190
606.610908	0.225526
606.820372	0.225683
607.029818	0.226020
607.239246	0.226055
607.448655	0.225692
607.658047	0.225814
607.867420	0.226330
608.076775	0.226362
608.286111	0.226490
608.495430	0.226480
608.704730	0.226205
608.914012	0.226062
609.123275	0.226141
609.332521	0.226415
609.541748	0.226419
609.750957	0.226221
609.960148	0.226318
610.169321	0.226216
610.378475	0.226506
610.587611	0.226662
610.796729	0.226906
611.005829	0.226807
611.214910	0.226733
611.423974	0.226994
611.633019	0.227531
611.842045	0.227731
612.051054	0.227719
612.260044	0.227765
612.469017	0.228094
612.677970	0.227840
612.886906	0.228294
613.095824	0.228529
613.304723	0.228692
613.513604	0.228690
613.722467	0.229002
613.931311	0.229593
614.140138	0.229861
614.348946	0.230000
614.557736	0.230552
614.766507	0.230566
614.975261	0.230498
615.183996	0.230506
615.392713	0.230491
615.601412	0.230411
615.810092	0.230359
616.018754	0.230437
616.227399	0.230465
616.436024	0.230708
616.644632	0.231035
616.853222	0.231331
617.061793	0.231147
617.270346	0.231441
617.478880	0.231286
617.687397	0.231515
617.895895	0.231587
618.104375	0.231916
618.312837	0.231804
618.521281	0.231682
618.729706	0.231935
618.938113	0.232367
619.146502	0.232522
619.354873	0.232942
619.563226	0.233095
619.771560	0.233046
619.979876	0.233086
620.188174	0.233173
620.396453	0.233363
620.604715	0.233533
620.812958	0.233499
621.021183	0.233555
621.229390	0.234087
621.437578	0.234199
621.645748	0.234398
621.853900	0.234670
622.062034	0.234755
622.270150	0.235128
622.478247	0.235210
622.686326	0.235433
622.894387	0.235577
623.102430	0.235759
623.310454	0.235996
623.518461	0.236162
623.726449	0.236089
623.934418	0.236608
624.142370	0.236744
624.350303	0.236918
624.558218	0.237358
624.766115	0.237364
624.973994	0.237150
625.181855	0.237226
625.389697	0.237417
625.597521	0.237751
625.805327	0.237478
626.013114	0.237537
626.220883	0.237687
626.428634	0.237675
626.636367	0.237732
626.844082	0.237783
627.051778	0.237866
627.259457	0.237900
627.467117	0.237853
627.674758	0.238230
627.882382	0.238049
628.089987	0.238287
628.297574	0.238232
628.505143	0.238593
628.712694	0.238776
628.920226	0.238690
629.127740	0.238912
629.335236	0.239159
629.542714	0.239202
629.750174	0.239464
629.957615	0.239234
630.165038	0.239079
630.372443	0.239205
630.579829	0.239437
630.787198	0.239629
630.994548	0.239713
631.201880	0.239808
631.409194	0.239783
631.616489	0.239759
631.823766	0.239963
632.031025	0.240427
632.238266	0.240601
632.445489	0.240569
632.652693	0.240894
632.859879	0.240984
633.067047	0.241212
633.274197	0.241417
633.481329	0.241866
633.688442	0.242009
633.895537	0.242038
634.102614	0.242141
634.309672	0.242299
634.516713	0.242338
634.723735	0.242683
634.930739	0.243007
635.137724	0.243342
635.344692	0.243426
635.551641	0.243596
635.758572	0.243913
635.965485	0.244195
636.172379	0.244543
636.379256	0.244518
636.586114	0.244569
636.792954	0.244496
636.999775	0.244468
637.206579	0.244657
637.413364	0.245020
637.620131	0.245196
637.826880	0.245345
638.033610	0.245398
638.240323	0.245883
638.447017	0.246081
638.653692	0.246042
638.860350	0.246521
639.066990	0.246638
639.273611	0.246661
639.480214	0.246750
639.686798	0.246629
639.893365	0.246756
640.099913	0.246895
640.306443	0.246917
640.512955	0.247223
640.719449	0.247362
640.925924	0.247579
641.132381	0.247529
641.338820	0.247581
641.545241	0.247618
641.751644	0.247972
641.958028	0.247879
642.164394	0.248005
642.370742	0.247878
642.577071	0.247773
642.783383	0.247982
642.989676	0.248262
643.195951	0.248444
643.402207	0.248833
643.608446	0.248713
643.814666	0.249088
644.020868	0.249342
644.227052	0.249710
644.433218	0.249702
644.639365	0.249695
644.845494	0.249904
645.051605	0.249988
645.257698	0.249890
645.463772	0.250050
645.669828	0.250107
645.875866	0.250230
646.081886	0.250310
646.287888	0.250741
646.493871	0.250962
646.699836	0.250981
646.905783	0.251383
647.111712	0.251748
647.317622	0.251923
647.523514	0.252195
647.729388	0.252317
647.935244	0.252676
648.141082	0.252756
648.346901	0.252575
648.552702	0.252798
648.758485	0.252739
648.964250	0.252702
649.169996	0.253030
649.375724	0.252957
649.581434	0.253144
649.787126	0.253108
649.992800	0.253248
650.198455	0.253453
650.404092	0.253691
650.609711	0.253877
650.815311	0.253977
651.020894	0.253854
651.226458	0.254148
651.432004	0.254160
651.637532	0.254171
651.843041	0.254060
652.048532	0.254385
652.254006	0.254518
652.459460	0.254808
652.664897	0.255152
652.870315	0.255420
653.075716	0.255441
653.281097	0.255610
653.486461	0.255918
653.691807	0.256179
653.897134	0.256350
654.102443	0.256590
654.307734	0.256674
654.513006	0.256858
654.718261	0.257031
654.923497	0.257601
655.128715	0.257727
655.333915	0.257995
655.539096	0.258337
655.744259	0.258450
655.949404	0.258289
656.154531	0.258432
656.359640	0.258601
656.564730	0.258782
656.769802	0.258938
656.974856	0.259361
657.179892	0.259465
657.384909	0.259727
657.589908	0.260102
657.794889	0.260752
657.999852	0.260846
658.204797	0.261009
658.409723	0.261251
658.614631	0.261241
658.819521	0.261423
659.024393	0.261772
659.229246	0.261723
659.434081	0.261856
659.638898	0.261748
659.843697	0.261906
660.048478	0.262159
660.253240	0.262338
660.457984	0.262431
660.662710	0.262600
660.867417	0.262585
661.072107	0.262902
661.276778	0.262925
661.481431	0.263096
661.686066	0.263446
661.890682	0.263587
662.095281	0.263845
662.299861	0.263994
662.504422	0.264408
662.708966	0.264329
662.913491	0.264681
663.117999	0.264990
663.322488	0.265234
663.526958	0.265280
663.731411	0.265628
663.935845	0.265680
664.140261	0.266072
664.344659	0.265703
664.549038	0.266429
664.753400	0.266321
664.957743	0.266457
665.162068	0.266715
665.366375	0.266976
665.570663	0.267070
665.774933	0.267435
665.979185	0.267419
666.183419	0.267949
666.387635	0.267906
666.591832	0.268072
666.796011	0.268422
667.000172	0.268702
667.204315	0.268827
667.408439	0.268829
667.612545	0.268904
667.816634	0.269113
668.020703	0.269158
668.224755	0.269544
668.428788	0.269881
668.632803	0.270010
668.836800	0.269876
669.040779	0.270146
669.244739	0.270505
669.448681	0.270578
669.652605	0.270899
669.856511	0.271440
670.060399	0.271303
670.264268	0.271630
670.468119	0.271998
670.671952	0.272279
670.875767	0.272510
671.079563	0.272710
671.283341	0.273013
671.487101	0.273274
671.690843	0.273316
671.894567	0.273866
672.098272	0.274357
672.301959	0.274677
672.505628	0.275170
672.709278	0.275522
672.912911	0.275980
673.116525	0.276053
673.320121	0.276282
673.523699	0.276622
673.727258	0.276829
673.930799	0.276804
674.134322	0.276862
674.337827	0.276949
674.541314	0.277065
674.744782	0.277081
674.948232	0.277526
675.151664	0.277477
675.355078	0.277439
675.558474	0.277443
675.761851	0.277454
675.965210	0.277460
676.168551	0.277551
676.371873	0.277651
676.575178	0.277863
676.778464	0.277963
676.981732	0.277942
677.184981	0.278252
677.388213	0.278306
677.591426	0.278444
677.794621	0.278587
677.997798	0.278737
678.200956	0.279034
678.404097	0.278818
678.607219	0.279113
678.810323	0.279530
679.013408	0.279666
679.216476	0.280183
679.419525	0.280599
679.622556	0.281098
679.825569	0.281325
680.028563	0.281419
680.231540	0.281931
680.434498	0.282129
680.637438	0.282543
680.840359	0.282852
681.043263	0.282872
681.246148	0.282881
681.449015	0.282891
681.651864	0.283102
681.854694	0.283425
682.057506	0.283636
682.260301	0.283689
682.463076	0.283708
682.665834	0.283678
682.868573	0.283895
683.071295	0.283979
683.273998	0.284068
683.476682	0.284211
683.679349	0.284291
683.881997	0.284215
684.084627	0.284309
684.287239	0.284332
684.489833	0.284609
684.692408	0.284456
684.894965	0.284642
685.097504	0.284890
685.300025	0.285107
685.502527	0.285179
685.705012	0.285304
685.907478	0.285427
686.109925	0.285713
686.312355	0.285787
686.514766	0.286157
686.717159	0.286519
686.919534	0.286680
687.121891	0.286765
687.324230	0.287125
687.526550	0.287722
687.728852	0.287950
687.931136	0.288117
688.133401	0.288609
688.335649	0.288723
688.537878	0.288780
688.740089	0.288867
688.942281	0.289061
689.144456	0.289175
689.346612	0.289180
689.548750	0.289540
689.750870	0.289819
689.952971	0.289766
690.155055	0.290029
690.357120	0.290310
690.559167	0.290384
690.761195	0.290688
690.963206	0.290806
691.165198	0.290911
691.367172	0.290917
691.569128	0.291014
691.771065	0.291245
691.972984	0.291577
692.174885	0.291828
692.376768	0.292020
692.578633	0.291969
692.780479	0.292131
692.982308	0.292285
693.184118	0.292637
693.385909	0.292665
