sample name	sample
index	1211
start time	 04-26-2021  01:15:31 PM
880	0.491558
Peak Time (s)	92.538
Peak Height 	0.4916
calc peak height	90,93
Baseline Time (s)	10.037
Baseline Value 	-0.003162
subtract baseline	10,4
Abs	0.321807
Peak Time (s)	91.537
Peak Height 	0.3218
calc peak height	90,93
Baseline Time (s)	8.536
Baseline Value 	0.003755
subtract baseline	10,3
PK_550	0.152611
Peak Time (s)	91.537
Peak Height 	0.1526
calc peak height	90,93
Baseline Time (s)	10.037
Baseline Value 	9.1697E-4
subtract baseline	10,2
PK_880	0.310846
Peak Time (s)	90.536
Peak Height 	0.3108
calc peak height	90,93
Baseline Time (s)	10.537
Baseline Value 	3.6795E-4
subtract baseline	10,1


Time (s)	A880-A510	A880-A775	A880-A975	A880	I510	I775	I975	I880	
0.039000	0.000206	-0.000710	-0.000488	0.002632	6146.410295	43321.844767	3874.051234	22363.803422
0.536500	-0.002334	-0.001361	-0.000549	0.005407	6107.310373	43004.746371	3867.773906	22240.020526
1.037000	-0.001611	-0.001281	-0.001823	0.003902	6123.648711	43151.155205	3868.286016	22307.082669
1.535000	-0.000605	-0.000286	-0.003769	0.001448	6149.170054	43471.491863	3869.406615	22416.868810
2.037500	-0.001135	-0.001483	-0.000924	0.000447	6152.661107	43453.292294	3877.943405	22461.834773
2.534500	-0.001021	-0.001361	-0.000208	0.001943	6142.432075	43325.309258	3876.204315	22394.663380
3.041000	0.000397	-0.000065	-0.000316	-0.001911	6181.643215	43806.876054	3884.577988	22568.193947
3.535500	0.000282	0.000170	0.004503	0.001508	6155.300803	43508.425600	3887.725061	22414.165371
4.036000	0.000193	-0.000168	0.000703	0.000411	6162.790136	43579.356005	3881.656983	22463.432115
4.535500	-0.000992	-0.000335	-0.000209	0.000090	6156.377265	43593.846160	3880.337582	22477.913562
5.036500	0.000754	-0.000103	-0.005964	0.000397	6167.073355	43586.764340	3866.880959	22464.074547
5.537000	0.000103	-0.000244	0.000282	0.000096	6164.471012	43601.760566	3881.420311	22477.648582
6.036500	-0.000028	-0.000435	0.001628	0.000104	6163.433335	43583.154756	3884.418778	22477.275522
6.537000	0.001598	-0.000184	-0.000995	0.000615	6171.741465	43558.852073	3877.411018	22454.277138
7.035000	0.000333	-0.000336	-0.003419	0.000235	6165.144053	43580.139281	3872.866014	22471.350361
7.535000	0.001292	-0.000723	0.002882	-0.000048	6174.402209	43570.415029	3887.579157	22484.096753
8.035500	-0.001047	0.000081	0.001582	0.000325	6154.219400	43610.657981	3883.817725	22467.302561
8.535500	-0.000239	-0.000239	0.000000	0.000244	6160.820863	43588.426913	3880.459146	22470.977179
9.036000	-0.000156	-0.000530	0.003300	-0.000389	6166.151146	43620.352130	3889.290223	22499.469220
9.536500	-0.001073	0.000990	-0.004549	0.005392	6116.651733	43223.478668	3859.023665	22240.690660
10.036500	0.001756	0.000000	0.000390	0.000000	6177.508420	43633.569785	3881.876597	22481.947614
10.536500	0.000000	-0.000393	-0.001810	-0.000109	6165.224639	43606.978524	3877.205830	22486.845490
11.037500	0.002462	0.000233	0.004833	-0.000094	6183.494501	43664.172184	3892.084483	22486.173493
11.534500	0.001375	0.000854	-0.000998	0.000379	6171.839343	43678.119794	3877.929204	22464.904505
12.035000	0.000993	0.000200	0.005815	-0.000247	6173.655499	43675.500012	3894.657924	22493.081533
12.535500	-0.001032	0.000449	-0.000559	0.000270	6154.739177	43650.387594	3879.152965	22469.802107
13.036000	-0.000058	0.000766	0.003449	-0.000546	6168.049369	43756.641183	3889.979789	22506.547610
13.536000	-0.002309	0.000197	-0.002425	0.004372	6115.072886	43244.448221	3865.920689	22286.095564
14.039000	-0.000009	-0.000081	-0.004139	0.002683	6144.445865	43375.610449	3865.867946	22361.544638
14.536500	-0.000652	-0.000412	0.003887	0.001929	6145.262389	43414.966671	3885.394299	22395.312640
15.037000	-0.001305	0.000029	-0.000746	-0.000378	6157.522701	43671.707852	3880.181161	22498.971865
15.537500	-0.005505	-0.000037	-0.002047	0.003927	6094.966956	43263.998918	3867.733935	22305.928868
16.035000	0.003158	0.000913	-0.002329	0.000095	6187.291787	43710.211089	3875.598219	22477.660100
16.534500	-0.001065	0.000487	0.001623	-0.000093	6157.188156	43687.868637	3884.849518	22486.120549
17.035000	0.002461	-0.000500	-0.000446	-0.004245	6214.716986	43985.831569	3889.538463	22674.019074
17.535500	-0.002854	-0.000106	-0.005576	0.001812	6129.871211	43454.372331	3864.620292	22400.529555
18.035500	-0.001314	-0.000646	0.002979	0.000762	6149.002806	43502.009081	3885.976951	22447.691223
18.536000	0.002758	0.001356	0.005259	0.001985	6170.172401	43574.738088	3888.355722	22392.800997
19.036000	-0.001421	-0.000492	-0.002767	0.000188	6152.463473	43569.896378	3874.417956	22473.482834
19.536500	-0.001422	0.000376	-0.000563	0.002888	6132.502014	43399.031986	3873.318771	22352.380213
20.036500	0.000780	-0.000521	-0.001159	-0.000037	6170.503191	43588.301210	3878.498480	22483.622684
20.537000	-0.000379	0.000561	0.001557	0.001058	6153.734259	43587.064452	3882.119345	22434.358194
21.035000	0.001671	0.000703	0.005861	0.001360	6166.730905	43572.082619	3891.123007	22420.800587
21.535000	-0.000904	0.000264	-0.004194	0.002549	6138.819774	43420.216086	3866.041426	22367.540759
22.035500	0.001306	0.000231	-0.004089	0.001111	6165.865318	43551.279912	3869.445311	22432.006253
22.536000	0.000357	0.001362	-0.000226	0.001875	6153.135675	43585.567188	3876.315654	22397.705282
23.036000	0.003464	0.000548	-0.005354	0.001230	6181.083912	43569.741818	3866.390263	22426.652021
23.536000	-0.001631	-0.000425	-0.000733	0.002313	6135.197443	43378.045202	3874.217278	22378.100595
24.036500	-0.000141	-0.000009	0.000823	0.000489	6159.729529	43586.950981	3881.751797	22459.959758
24.537000	-0.000994	0.000877	-0.001766	0.001050	6149.243969	43617.431632	3874.727202	22434.751440
25.037000	0.000122	-0.000640	0.005122	0.000440	6162.053407	43532.597563	3891.533762	22462.166323
25.537500	-0.000827	0.000661	-0.002544	0.001190	6149.436958	43584.099294	3872.689918	22428.462033
26.034500	0.000377	0.000919	0.004160	0.001153	6158.643383	43611.632567	3887.753687	22430.114633
26.538000	0.001467	0.000555	0.004610	0.000814	6169.280727	43609.302405	3889.531629	22445.341658
27.035500	0.003408	0.000723	0.003536	-0.001042	6197.703828	43799.136496	3891.296419	22528.904257
27.535500	-0.001570	0.000488	-0.003054	0.004825	6117.162913	43229.403490	3863.541626	22265.906110
28.036000	0.000996	0.000542	-0.002608	-0.000968	6179.064835	43775.200722	3877.342489	22525.554086
28.536500	0.001159	0.000913	0.004371	0.000079	6172.464311	43711.740489	3890.650197	22478.402554
29.036500	0.001546	-0.000731	0.000968	-0.001681	6188.523836	43722.691208	3886.947894	22557.791736
29.536500	0.001691	0.001034	0.002376	-0.000182	6178.382109	43747.568553	3886.741724	22490.147414
30.037000	-0.003334	-0.000578	-0.001816	0.002989	6117.691978	43300.880487	3870.316242	22347.839663
30.537500	0.000762	0.000075	-0.000234	0.001533	6158.675499	43497.215308	3877.060218	22413.032352
31.035000	0.000425	-0.000232	-0.001150	0.001381	6157.309454	43482.806929	3875.360273	22419.890105
31.535500	-0.001043	-0.000133	0.005712	0.004277	6125.061644	43222.704346	3884.219528	22290.346770
32.035500	-0.000424	-0.000404	-0.003748	0.002707	6141.194838	43343.320996	3866.675168	22360.453312
32.536000	-0.001129	0.000946	0.001776	-0.000426	6159.180404	43762.182361	3885.940664	22501.115260
33.036000	0.001224	-0.000231	0.005567	-0.001784	6186.880314	43779.208527	3897.582836	22562.411220
33.536500	0.003394	0.000318	0.004479	-0.002197	6206.293587	43869.747324	3896.049674	22581.114720
34.036500	-0.001022	0.000986	0.002425	0.003812	6128.643016	43369.836799	3877.908771	22311.101202
34.537000	0.001373	0.000803	0.002198	0.001771	6161.458578	43543.112617	3881.960066	22402.400538
35.037500	-0.001452	0.000301	0.002299	0.000661	6148.723105	43599.903296	3884.674230	22452.208371
35.534500	-0.002310	-0.000289	-0.001042	0.002194	6131.066945	43401.709391	3873.794061	22383.414126
36.035000	0.000990	-0.000021	-0.008669	0.002325	6154.496285	43414.536681	3856.725506	22377.559659
36.535000	-0.000277	0.000086	0.004162	0.001271	6152.917388	43522.794392	3887.491177	22424.809343
37.035500	-0.000041	-0.000227	-0.000654	0.001018	6156.542388	43517.178324	3877.271569	22436.182922
37.535500	-0.000316	0.000389	-0.004663	0.003026	6139.636495	43387.380553	3863.959352	22346.188659
38.036000	-0.000232	-0.000049	0.000395	0.000590	6158.304837	43573.817574	3880.567490	22455.408890
38.536500	-0.000112	0.001259	0.004573	0.002192	6147.307652	43546.239147	3886.341797	22383.491373
39.037000	-0.000655	-0.000086	-0.004943	0.001176	6150.820494	43515.624956	3867.416428	22429.086929
39.537500	-0.001872	0.000715	0.003885	0.003124	6127.441551	43408.582836	3882.707936	22341.809279
40.034500	-0.000112	0.000393	0.003633	0.001362	6153.460140	43542.896331	3886.096414	22420.724723
40.534000	0.000728	0.000556	-0.004856	0.001195	6160.946311	43573.766322	3867.565723	22428.233721
41.035000	-0.001709	0.000535	0.001107	0.001399	6141.363420	43552.666909	3880.350958	22419.047308
41.535500	0.000719	0.000383	-0.000601	0.002992	6147.546048	43390.001471	3873.001934	22347.723610
42.035500	0.001717	-0.000010	0.001129	0.001112	6168.921182	43528.600049	3881.041866	22431.938240
42.535500	-0.001416	-0.000245	-0.000120	0.001028	6146.273434	43514.549332	3878.440332	22435.723344
43.035500	-0.001954	0.000120	-0.003822	0.000581	6145.600787	43590.434295	3871.207244	22455.806046
43.537000	0.000357	0.000231	-0.001382	0.002696	6147.055076	43403.399559	3871.926866	22360.967362
44.037500	-0.001554	-0.000106	-0.002182	0.002931	6131.203708	43350.179792	3869.637503	22350.440284
44.537500	0.003896	0.001445	0.000269	0.000223	6191.867899	43748.133108	3881.106108	22471.898308
45.034500	0.002184	0.000610	-0.000385	-0.000520	6184.598780	43739.476607	3881.304842	22505.354283
45.535000	-0.002996	-0.000816	0.000549	0.002943	6120.510484	43283.052625	3875.664784	22349.879010
46.035000	-0.002063	0.000370	0.001058	0.005197	6110.826872	43184.053012	3871.791927	22249.364290
46.535500	0.003419	0.000147	-0.001704	-0.000618	6194.600434	43705.299378	3878.579023	22509.805854
47.041500	0.003005	0.001050	0.001977	-0.000606	6191.401138	43788.899234	3886.798685	22509.242594
47.535500	-0.000914	0.000077	0.005180	0.004554	6123.968334	43216.475181	3882.404095	22277.981436
48.036500	0.000432	0.000447	-0.004125	0.004533	6134.035158	43252.752316	3861.833934	22278.932886
48.536500	0.002767	0.000668	0.003344	-0.000179	6186.417703	43712.920685	3888.914567	22490.009975
49.037500	-0.000024	0.000689	0.003000	-0.000356	6166.881205	43731.533874	3888.538532	22497.966302
49.535000	-0.001492	-0.000205	0.000025	0.003935	6124.278471	43247.778128	3872.299061	22305.596417
50.034500	-0.003781	0.000378	0.001289	0.005089	6099.067265	43194.773475	3872.542430	22254.164046
50.535000	0.003333	0.000011	0.001279	0.007342	6134.713536	42952.837081	3867.538301	22154.180340
51.035500	0.022173	-0.028451	0.006346	0.625860	3737.170427	11980.933770	3142.983228	7557.079211
51.535500	0.000852	-0.029067	-0.019037	0.023695	5998.797160	38981.326537	3789.987721	21443.757551
52.035000	0.005063	-0.075334	-0.023490	-0.248720	8730.343035	63588.312199	4541.176231	37596.791215
52.536000	0.007280	-0.087452	-0.006427	-0.269254	9042.176624	64774.381358	4688.701078	39275.224432
53.036500	0.015797	-0.055911	0.007019	-0.222845	8531.672390	62694.316598	4558.673030	35591.634941
53.536500	0.015958	-0.035581	0.014840	-0.183627	8050.069186	60152.303799	4443.669470	32771.402699
54.040000	0.022653	-0.022275	0.016662	-0.146199	7700.411895	57062.643841	4322.926908	30307.316910
54.534500	0.022297	-0.011292	0.026188	-0.107858	7293.928214	53760.107634	4232.207622	27993.972033
55.035000	0.032179	-0.009526	0.028567	-0.133096	7661.305105	57018.537573	4319.034221	29493.664682
55.535000	0.054223	0.003129	0.048070	-0.075236	7286.936672	51675.325274	4199.904451	26180.236935
56.035500	0.076044	0.014987	0.075508	-0.026338	7023.716454	47693.266424	4137.698587	23704.386758
56.536000	0.102901	0.036393	0.103140	0.034509	6715.696505	43810.352226	4047.286154	20988.435177
57.036000	0.128762	0.051625	0.127050	0.132787	6134.597426	36701.547738	3868.257837	17331.262047
57.536500	0.155372	0.071815	0.157741	0.185531	5947.572502	34265.313824	3820.800644	15684.268439
58.037000	0.176967	0.085080	0.177815	0.250445	5661.299882	30755.846315	3731.425341	13913.453465
58.537000	0.200593	0.100103	0.203383	0.293853	5539.778806	28997.720947	3698.358068	12868.717707
59.037500	0.220631	0.115571	0.225752	0.333189	5426.440214	27605.673190	3668.140569	12008.043534
59.537500	0.236103	0.124610	0.238835	0.363879	5340.555824	26407.460664	3638.009329	11388.662801
60.035500	0.248469	0.133849	0.258115	0.391105	5259.539797	25456.486791	3624.806126	10874.650838
60.535500	0.264025	0.142846	0.262953	0.417986	5199.633581	24549.140783	3589.416578	10397.798858
61.036000	0.268542	0.145133	0.274349	0.449632	5062.321712	23138.363234	3558.452415	9872.967556
61.536000	0.272275	0.148066	0.284474	0.467866	4992.369028	22440.037960	3546.452007	9587.479326
62.038500	0.272686	0.155403	0.283426	0.463984	5012.837418	22949.643605	3550.619771	9647.257895
62.539000	0.275567	0.158797	0.287374	0.455210	5069.431242	23517.448569	3569.672332	9784.351771
63.036500	0.274560	0.159990	0.275434	0.453281	5073.975239	23665.714069	3554.632972	9814.871397
63.534000	0.275136	0.162016	0.282308	0.455181	5067.453916	23671.747657	3562.062762	9784.817781
64.047500	0.276746	0.163671	0.284258	0.451776	5092.253303	23914.351109	3570.155437	9838.771327
64.535000	0.281330	0.165038	0.283195	0.449050	5128.924107	24112.733046	3572.689063	9882.276608
65.035000	0.285301	0.166620	0.293738	0.450645	5140.971469	24112.073513	3586.489411	9856.786133
65.535500	0.286666	0.167124	0.287736	0.451041	5145.902383	24117.311246	3576.591752	9850.465022
66.041000	0.287431	0.167072	0.289048	0.457232	5118.417153	23815.471999	3569.142424	9752.511186
66.536000	0.287170	0.167404	0.301711	0.454324	5131.783819	23971.599244	3593.213557	9798.349129
67.036500	0.290211	0.168133	0.299059	0.456807	5134.611119	23886.914627	3585.180304	9759.189928
67.536500	0.285237	0.167269	0.288696	0.462962	5078.890886	23551.534977	3559.972717	9663.078501
68.036500	0.286154	0.168145	0.286488	0.462010	5088.146027	23638.327629	3558.095005	9677.856090
68.537000	0.288826	0.169232	0.298751	0.459310	5114.981783	23819.408721	3580.822913	9719.943192
69.034500	0.293187	0.170589	0.297002	0.461416	5126.348593	23783.509538	3574.892924	9687.104292
69.535000	0.289802	0.170271	0.290846	0.468857	5072.330925	23414.875371	3554.390292	9572.313486
70.035500	0.289523	0.168239	0.290544	0.468067	5074.847644	23356.489704	3555.115629	9584.404155
70.535000	0.294915	0.171271	0.294544	0.467353	5105.190066	23533.154919	3562.159228	9595.357322
71.035500	0.298299	0.171274	0.307416	0.469897	5109.392354	23413.121172	3577.859528	9556.414792
71.536000	0.288826	0.168510	0.299946	0.474250	5041.167928	23080.767636	3559.915619	9490.321788
72.041500	0.291145	0.169775	0.298465	0.475071	5048.455922	23101.350121	3556.478236	9477.933862
72.536500	0.300491	0.170438	0.300033	0.473675	5101.457801	23197.068203	3560.908200	9499.026458
73.042500	0.293842	0.168895	0.306150	0.475345	5060.297596	23047.956897	3567.610553	9473.812847
73.535000	0.293494	0.168595	0.301231	0.483079	5021.058490	22679.841892	3548.718613	9358.296649
74.034500	0.292359	0.168496	0.296439	0.482454	5018.609362	22703.740807	3542.618002	9367.558684
74.535000	0.295884	0.167394	0.303305	0.477292	5060.762925	22889.132123	3560.391132	9444.532091
75.035500	0.294403	0.167173	0.296741	0.478372	5048.244256	22829.539232	3549.038600	9428.347483
75.536000	0.292061	0.166501	0.296261	0.484454	5007.599282	22523.059272	3539.452062	9337.985215
76.036000	0.298663	0.168487	0.300993	0.479857	5061.812706	22821.694297	3553.124013	9406.167502
76.536000	0.299384	0.166981	0.301306	0.478338	5072.824911	22822.343868	3555.844339	9428.865139
77.036500	0.299354	0.166196	0.304770	0.477020	5079.184026	22846.715052	3562.998382	9448.621524
77.536500	0.295113	0.165918	0.298568	0.481947	5034.332763	22609.859413	3546.470874	9375.077367
78.037000	0.300703	0.167523	0.309671	0.476135	5090.253199	22948.184463	3571.759072	9461.907566
78.535000	0.300231	0.166550	0.300470	0.475505	5091.038398	22932.407562	3558.822287	9471.393430
79.035000	0.300594	0.166874	0.311512	0.475476	5092.986870	22948.676508	3575.581062	9471.828186
79.535000	0.297899	0.166342	0.302491	0.475071	5081.624211	22942.827748	3562.502504	9477.933953
80.035000	0.303787	0.166901	0.307703	0.477567	5098.480991	22853.934275	3566.596782	9440.405692
80.535000	0.305966	0.165495	0.308968	0.475086	5121.848669	22903.190348	3572.286880	9477.707024
81.036000	0.302972	0.164536	0.306216	0.474514	5109.671857	22885.467076	3568.969925	9486.335532
81.536500	0.299078	0.165405	0.312684	0.474989	5087.876900	22903.559289	3578.131368	9479.180072
82.037000	0.302653	0.166283	0.309891	0.479670	5082.393401	22729.724044	3566.725266	9408.958262
82.536500	0.303762	0.164048	0.309862	0.476129	5105.542793	22789.264877	3572.060571	9462.008696
83.040000	0.305926	0.165374	0.304847	0.478561	5104.201106	22738.842560	3560.800304	9425.528655
83.535000	0.303202	0.163675	0.312565	0.478760	5089.631394	22652.608567	3572.169740	9422.549863
84.035000	0.304588	0.162292	0.314872	0.480772	5086.520094	22499.327205	3572.620913	9392.540255
84.535500	0.305381	0.161386	0.313363	0.479271	5097.930779	22526.098167	3572.608520	9414.916692
85.035500	0.305369	0.161710	0.315700	0.481238	5088.086342	22452.233494	3573.173062	9385.612625
85.536000	0.304438	0.159499	0.310147	0.480314	5088.051954	22394.601806	3566.139981	9399.366962
86.041000	0.307822	0.160290	0.308795	0.483836	5087.368734	22272.787674	3558.814627	9347.107405
86.536500	0.308239	0.158813	0.306336	0.482874	5094.219216	22249.902329	3556.579883	9361.334732
87.036500	0.306886	0.157745	0.313304	0.482674	5088.486402	22211.430550	3567.344652	9364.298966
87.537000	0.307718	0.158736	0.310315	0.485049	5080.838715	22150.181111	3559.272254	9329.203115
88.034500	0.308182	0.156312	0.318869	0.486264	5077.129277	21990.123113	3570.343274	9311.334050
88.535000	0.304965	0.154227	0.312078	0.483619	5074.303953	22014.683336	3564.066616	9350.316409
89.035500	0.306641	0.154111	0.315387	0.484781	5076.840138	21958.671337	3567.308813	9333.154718
89.535500	0.304807	0.154183	0.319496	0.493775	5024.027790	21572.506051	3559.953937	9201.911163
90.036500	0.306531	0.152332	0.314358	0.488457	5058.223725	21721.618438	3560.222610	9279.184446
90.536000	0.310846	0.152171	0.312222	0.487693	5083.237594	21747.692587	3558.171641	9290.369055
91.036500	0.307977	0.151929	0.311959	0.488403	5065.578322	21706.535895	3556.719556	9279.968678
91.536500	0.310556	0.152611	0.321807	0.489821	5071.288111	21674.816746	3569.400802	9259.267671
92.037000	0.309055	0.150089	0.314841	0.489793	5064.049822	21567.701548	3558.946931	9259.681821
92.537500	0.310752	0.150946	0.317740	0.491558	5063.714289	21528.832702	3560.643727	9234.005027
93.034500	0.310866	0.148806	0.306600	0.490782	5068.088914	21470.659219	3545.295500	9245.289445
93.568500	0.307927	0.149614	0.319243	0.499159	5013.152001	21150.953327	3551.568387	9124.626781
94.143500	0.311405	0.148523	0.317690	0.493992	5054.988509	21322.387054	3556.930820	9198.769782
94.535500	0.309673	0.148631	0.312346	0.494780	5042.709274	21293.720973	3547.858871	9187.416151
95.038500	0.309510	0.145606	0.320122	0.493704	5047.151588	21211.651615	3560.998279	9202.932191
95.536500	0.312892	0.147686	0.314255	0.502987	5018.610252	20911.564498	3538.671659	9070.270243
96.039500	0.312258	0.146668	0.318739	0.498014	5039.557410	21075.698160	3552.516866	9140.982281
96.537000	0.313372	0.147437	0.317619	0.499700	5036.786139	21037.499411	3548.377057	9116.917989
