sample name	sample
index	609
start time	 03-19-2021  01:49:56 PM
880	0.036499
Peak Time (s)	92.541
Peak Height 	0.0365
calc peak height	90,93
Baseline Time (s)	9.538
Baseline Value 	-0.001565
subtract baseline	10,4
Abs	0.017409
Peak Time (s)	92.035
Peak Height 	0.01741
calc peak height	90,93
Baseline Time (s)	11.036
Baseline Value 	0.001042
subtract baseline	10,3
PK_550	0.016757
Peak Time (s)	92.541
Peak Height 	0.01676
calc peak height	90,93
Baseline Time (s)	9.035
Baseline Value 	9.9104E-5
subtract baseline	10,2
PK_880	0.018082
Peak Time (s)	92.541
Peak Height 	0.01808
calc peak height	90,93
Baseline Time (s)	11.536
Baseline Value 	-1.508E-4
subtract baseline	10,1


Time (s)	A880-A510	A880-A775	A880-A975	A880	I510	I775	I975	I880	
0.034500	-0.001895	-0.000518	-0.002671	0.004225	7118.138674	47226.122968	4043.049948	24893.632892
0.535000	-0.002751	-0.000476	-0.005559	0.004137	7110.703047	47239.411375	4035.673504	24898.106604
1.035500	-0.003514	-0.001854	-0.002226	0.001919	7124.806986	47325.079221	4050.349379	25010.692769
1.535500	-0.001242	-0.000827	-0.000661	-0.001485	7180.315357	47780.030256	4063.642884	25184.583136
2.036000	-0.003427	-0.000059	0.006099	0.003435	7110.940949	47353.634138	4068.605390	24933.655137
2.536500	0.001393	-0.000136	-0.007095	-0.000835	7199.893060	47784.336103	4044.732766	25151.274193
3.036500	0.000389	-0.000413	0.001226	-0.001888	7200.377362	47864.399471	4069.822163	25205.263385
3.537000	-0.000676	-0.000001	0.001817	0.000360	7167.747526	47675.104703	4065.348545	25090.175444
4.034500	-0.002316	0.000030	-0.000991	0.004478	7111.612756	47256.204282	4046.831366	24880.858822
4.535000	0.000306	-0.000250	-0.002659	-0.000024	7181.174322	47688.908245	4054.371152	25109.793580
5.035500	0.001983	-0.000109	-0.000899	0.000071	7196.777660	47693.687881	4058.825990	25104.953514
5.535500	0.001823	-0.000252	0.000502	-0.000071	7196.595293	47693.611818	4062.968190	25112.185679
6.036000	-0.000001	-0.000231	-0.003117	-0.000013	7178.044742	47689.854083	4053.121467	25109.245809
6.538500	0.000153	0.000453	0.004978	0.000451	7174.987198	47712.399362	4073.653173	25085.517489
7.036000	0.000020	0.000015	-0.000852	-0.000149	7179.591819	47729.119190	4059.542151	25116.197322
7.536500	-0.000203	-0.000752	-0.001028	-0.000668	7182.499754	47703.558051	4060.462520	25142.733580
8.037000	-0.001026	-0.000715	-0.001523	-0.000850	7176.191282	47726.120359	4059.622918	25152.047084
8.534500	0.000518	-0.000073	-0.002822	0.000030	7182.726983	47701.617558	4053.791806	25107.025771
9.035000	-0.000831	0.000000	-0.003160	-0.000235	7172.062317	47736.460875	4053.598185	25120.584791
9.538000	0.001159	0.000349	0.000847	0.000000	7189.339267	47748.193662	4063.705095	25108.563731
10.035500	-0.000262	0.000484	0.002208	0.000371	7171.706971	47723.867578	4066.375381	25089.623373
10.535500	0.000386	0.000276	-0.000853	0.000186	7179.893606	47721.453700	4058.640408	25099.057773
11.036000	-0.000254	-0.000013	0.000000	-0.000318	7178.555922	47743.651021	4062.283444	25124.825020
11.536000	0.000000	-0.000310	0.001585	-0.000637	7184.192339	47745.892632	4067.413113	25141.139637
12.036500	0.000579	-0.000506	-0.000012	-0.000479	7188.339339	47709.384417	4062.682390	25133.046504
12.536500	-0.001345	0.000287	0.002046	0.000139	7163.353040	47727.480531	4066.563063	25101.468280
13.034000	-0.000444	-0.000280	-0.001526	-0.002323	7196.456209	47923.259055	4063.573685	25227.649055
13.537500	0.001714	0.000107	0.001880	-0.002037	7214.989566	47933.800788	4071.998000	25212.955000
14.034500	0.000187	0.000711	0.001925	-0.001486	7194.411341	47939.189071	4070.625254	25184.634179
14.535000	-0.003008	0.000358	0.003327	0.002194	7127.056158	47523.426916	4064.477460	24996.708738
15.038000	0.000444	-0.000023	0.006257	-0.000907	7191.240109	47803.436887	4080.832090	25154.989177
15.563000	0.000166	-0.000274	0.004578	-0.002013	7199.418344	47891.799717	4079.270009	25211.707797
16.038500	-0.002790	-0.000287	-0.003610	0.003505	7116.437837	47323.187874	4042.473012	24930.108274
16.536500	0.000518	-0.000131	-0.002063	-0.001058	7193.460525	47807.854064	4058.734016	25162.729588
17.036000	0.001179	-0.000121	-0.002097	-0.002461	7213.881680	47954.001604	4062.407555	25234.735571
17.541500	0.002780	0.001255	0.003244	-0.002230	7227.493313	48072.771568	4076.225944	25222.850865
18.037000	-0.000510	-0.000129	-0.001520	0.001487	7158.331461	47546.039579	4053.381877	25032.707548
18.537000	-0.000956	0.000024	-0.001606	0.000451	7164.105432	47668.328470	4055.916553	25085.546032
19.035500	0.001492	0.000627	0.002294	0.001599	7176.871489	47612.207724	4063.299005	25026.988826
19.535000	0.000349	-0.000023	0.001233	0.000526	7176.184760	47655.664842	4063.331092	25081.696076
20.035500	-0.000391	0.000283	0.002692	0.000693	7167.269549	47669.943197	4066.811905	25073.161359
20.539000	0.000554	0.000284	-0.003118	0.000738	7176.115045	47665.513350	4051.117233	25070.891745
21.036000	-0.001972	-0.000981	-0.002509	-0.000523	7163.695885	47665.043864	4056.106937	25135.315759
21.536000	0.000304	0.000204	0.000767	0.000616	7174.862887	47669.855874	4061.835800	25077.120119
22.036500	-0.001387	-0.000111	0.003629	0.000610	7158.327261	47637.993334	4069.567760	25077.423631
22.537000	-0.000177	0.000162	0.000731	0.000810	7168.217944	47645.430363	4061.217378	25067.186233
23.037000	0.000519	0.000452	0.003547	0.000714	7176.000121	47685.221262	4069.064292	25072.089799
23.535000	-0.001055	0.000984	-0.002565	0.001175	7156.046765	47692.627986	4051.426634	25048.596795
24.035000	-0.000229	0.000188	0.000213	0.000783	7167.980042	47650.985786	4059.898424	25068.589586
24.535000	-0.001493	-0.000341	0.002946	0.000525	7158.114064	47623.047206	4067.949253	25081.718546
25.035500	0.000628	-0.000454	0.001264	0.000452	7179.657878	47619.037845	4063.612226	25085.487351
25.535500	-0.000649	-0.000278	-0.001495	0.000565	7166.000394	47625.444715	4055.909719	25079.710209
26.036000	-0.000403	0.000932	0.002429	0.001530	7158.943681	47650.614464	4063.844612	25030.466867
26.536500	-0.001984	-0.000509	-0.003079	0.000435	7154.190539	47614.994078	4052.026637	25086.319349
27.036500	-0.000919	0.000134	-0.000759	0.000745	7161.584711	47649.309919	4057.396059	25070.497269
27.537500	-0.001261	0.000365	0.000300	0.000725	7158.424003	47675.092453	4060.286939	25071.510446
28.037500	0.000790	-0.000083	0.000139	-0.002126	7206.703472	47923.245359	4067.528514	25217.498711
28.534500	-0.000761	0.000084	0.000400	-0.001738	7187.543615	47900.395079	4067.186287	25197.586053
29.051500	0.001565	-0.000135	0.004145	-0.001678	7209.949805	47871.517748	4077.175610	25194.521231
29.535500	-0.000812	-0.000490	0.005005	-0.002100	7190.616179	47878.495435	4080.672208	25216.173688
30.038500	-0.003437	-0.000162	0.001633	0.003640	7108.865399	47322.117084	4056.049529	24923.269172
30.536000	0.002971	0.000573	0.003261	-0.001465	7221.782833	47922.734381	4074.192705	25183.567516
31.036500	-0.000850	-0.000011	0.009468	-0.002140	7190.636239	47932.216273	4093.031213	25218.242364
31.537000	-0.000875	0.000274	-0.001301	0.002104	7148.719640	47523.993284	4052.318375	25001.268085
32.037000	-0.003426	-0.000106	-0.000283	0.002125	7123.662588	47482.950265	4054.977541	25000.200045
32.561000	0.000415	0.000284	-0.001964	-0.000717	7189.076068	47815.557879	4058.084730	25145.264172
33.040500	0.001737	0.000941	0.002865	-0.001047	7205.405018	47917.557897	4071.985607	25162.161004
33.538500	0.001397	0.000266	0.005161	-0.001322	7204.752233	47876.159907	4078.973089	25176.238886
34.035000	-0.002507	-0.000253	-0.002938	0.004295	7111.528218	47246.024808	4042.161804	24890.097157
34.535500	-0.000382	-0.000097	0.002703	0.000582	7168.450806	47642.320239	4067.140154	25078.828849
35.036000	-0.000217	-0.000115	-0.000039	0.001229	7163.720293	47573.979312	4058.027409	25045.830642
35.536000	-0.000434	-0.000444	0.003410	0.000859	7165.222754	47578.140798	4068.303134	25064.704973
36.036500	-0.000789	-0.000048	-0.002980	0.001383	7156.611158	47565.077960	4049.769051	25037.995899
36.537000	-0.001719	-0.000022	-0.000726	0.001564	7145.747919	47549.082850	4055.294223	25028.779286
37.037000	-0.001067	-0.000289	0.000506	0.001115	7156.512439	47567.802809	4059.792491	25051.629523
37.537500	-0.001053	-0.000718	-0.000427	0.000954	7158.223257	47540.257873	4057.723568	25059.837807
38.035000	-0.001126	-0.000015	-0.000737	0.001534	7151.840031	47552.926830	4055.344195	25030.298296
38.534500	-0.002381	-0.000257	0.002909	0.001494	7139.977555	47532.174880	4065.235468	25032.339751
39.035500	0.000287	0.000368	-0.000230	0.001090	7170.031580	47637.979382	4057.888855	25052.937971
39.538500	0.001786	0.000354	-0.000747	0.002197	7173.883957	47522.780294	4053.548815	24996.565580
40.035500	-0.001013	-0.000193	0.002509	0.001708	7151.236901	47516.721711	4063.583979	25021.428753
40.536000	-0.000482	-0.000164	0.000512	0.001154	7161.859076	47576.673436	4059.706009	25049.674793
41.036500	0.000124	-0.000227	0.001735	0.001584	7163.584024	47526.027180	4061.836024	25027.748304
41.537000	0.000899	0.000683	0.004159	0.001738	7169.676531	47603.654019	4067.949632	25019.890159
42.037500	-0.000711	-0.000739	-0.001151	0.001221	7158.960085	47510.679498	4055.073423	25046.221239
42.534500	-0.001603	0.000388	0.003267	0.001940	7143.214748	47552.662863	4064.999708	25009.639013
43.035000	-0.000538	-0.001081	-0.001295	0.000581	7166.933374	47541.277576	4056.402807	25078.903300
43.535500	0.000267	0.000028	0.001268	0.001444	7166.355147	47566.519048	4060.956142	25034.857710
44.035000	-0.000112	0.000065	-0.001274	0.001852	7158.639572	47528.454626	4053.062045	25014.076508
44.539000	0.002274	-0.000443	0.000292	-0.001479	7215.000040	47819.082721	4066.194241	25184.285696
45.036500	0.002028	-0.000300	0.000748	-0.002366	7221.366715	47925.706387	4069.824797	25229.849274
45.536000	0.000687	-0.000146	-0.001625	-0.001803	7202.486658	47883.349760	4061.908373	25200.919138
46.036500	-0.001559	0.000856	0.003143	0.003076	7132.574786	47484.107097	4061.610540	24951.903731
46.537000	0.001308	-0.000005	0.001805	-0.000897	7199.675268	47804.261289	4068.709671	25154.481748
47.034500	0.002703	-0.000165	0.001786	-0.001783	7222.282402	47879.251445	4071.053739	25199.881895
47.534500	0.000337	0.000326	0.000991	-0.001276	7193.818637	47877.639538	4067.535503	25173.895936
48.065500	-0.001397	-0.000495	0.001351	0.000321	7161.054558	47628.232974	4064.198872	25092.162779
48.536000	-0.002110	0.000387	0.000890	0.003001	7127.943138	47443.703816	4055.772594	24955.702973
49.038000	0.000664	0.000796	0.005446	0.002994	7155.060374	47486.251369	4068.033704	24956.024746
49.569000	0.002359	0.000528	-0.000572	-0.000899	7210.098969	47859.530827	4062.307474	25154.572352
50.036500	-0.001824	-0.000207	0.000193	0.002743	7133.229645	47409.253355	4054.598047	24968.771564
50.536500	0.000623	-0.000028	0.004846	-0.001002	7193.942553	47812.713828	4077.244430	25159.855142
51.040000	0.002080	-0.000316	0.007190	-0.002246	7220.695748	47911.523082	4087.052165	25223.662020
51.534000	-0.001416	-0.000299	0.002119	-0.000904	7172.894553	47774.657005	4069.578209	25154.837905
52.037000	-0.002272	-0.000960	0.006423	0.005296	7104.125053	47072.207141	4064.461227	24839.508606
52.534500	-0.004561	-0.006858	0.009773	0.307764	4986.874907	24645.921233	3482.230565	13837.777012
53.035500	-0.043233	-0.027675	-0.007398	-0.040521	7151.327566	49055.777775	4153.881389	27279.579380
53.536000	-0.044764	-0.043250	-0.013391	-0.156997	8437.818565	61111.996997	4518.608428	34776.205526
54.035500	-0.023846	-0.065667	0.011400	-0.201523	9337.570934	64149.203051	4799.601271	38216.808904
54.536000	-0.037562	-0.039889	0.002312	-0.145210	8379.715856	59994.594695	4533.313980	33922.947158
55.036000	-0.036065	-0.037235	-0.005545	-0.145631	8403.947144	60399.958563	4505.499678	33953.037802
55.537000	-0.022653	-0.055479	-0.007404	-0.192128	9217.229139	64260.983041	4679.855645	37461.170655
56.037000	-0.004749	-0.057474	-0.006860	-0.198080	9573.646148	64822.098290	4706.753330	37937.966445
56.534000	-0.002446	-0.040997	-0.005911	-0.175692	9272.275144	63985.714529	4619.481205	36177.964104
57.037500	-0.003856	-0.034662	-0.006865	-0.163781	9079.956203	63207.251326	4569.142083	35277.923682
57.535000	0.010039	-0.035000	-0.002951	-0.168424	9349.230093	63807.413584	4602.459541	35625.846063
58.035500	0.005033	-0.021485	-0.003869	-0.142163	8901.609627	62047.528340	4498.864940	33706.075185
58.538500	-0.000220	-0.008533	0.001073	-0.091605	8178.517327	57146.239614	4338.933906	30321.646177
59.036000	0.000341	-0.006093	0.000043	-0.071148	7942.395767	54944.149123	4269.224405	29060.315187
59.536500	0.000888	-0.003458	-0.001048	-0.051827	7729.306847	52984.798701	4206.126558	27922.401251
60.036500	0.001358	-0.002274	0.000628	-0.031830	7517.207825	50863.949780	4151.957320	26796.712780
60.537000	-0.000394	-0.000048	-0.001972	-0.011492	7288.509985	48907.222069	4087.283432	25703.840915
61.037000	-0.001431	0.000955	0.001377	0.002199	7142.366948	47584.292271	4059.223886	24996.454765
61.534500	-0.000603	0.002024	0.001849	0.012023	7055.504221	46693.538301	4034.417208	24502.396666
62.034500	-0.002295	0.001343	0.000442	0.019300	6970.671836	45899.495310	4011.858201	24143.601252
62.535000	-0.001545	0.002390	-0.000502	0.026961	6906.504882	45250.497191	3989.943317	23772.311435
63.034500	-0.000764	0.002861	0.006692	0.025845	6924.006393	45405.312036	4011.097491	23825.954939
63.535500	0.006078	0.007607	0.000233	0.024113	7004.136082	46043.202898	3999.015198	23909.565097
64.036000	0.003700	0.007369	0.006381	0.022401	6997.852414	46189.688069	4019.181387	23992.517633
64.536500	0.004712	0.007070	0.003953	0.021503	7015.898307	46249.361636	4015.228727	24036.175361
65.067500	0.006345	0.007700	0.009863	0.018523	7059.784130	46610.754973	4038.396756	24181.632191
65.537000	0.004103	0.008295	0.002858	0.018419	7039.381552	46681.034964	4020.370720	24186.727041
66.034000	0.005092	0.008702	0.004204	0.019932	7034.392879	46569.763297	4019.935264	24112.710223
66.537000	0.005779	0.008048	0.000024	0.018606	7053.582035	46637.322083	4012.566703	24177.542911
67.035000	0.007936	0.008794	0.008580	0.018254	7077.617765	46747.994808	4035.732254	24194.826728
67.535000	0.009928	0.009935	0.005425	0.018484	7094.575486	46839.882755	4026.872775	24183.544119
68.035500	0.008223	0.009746	0.003742	0.019595	7067.501730	46708.731568	4019.612867	24129.167365
68.536000	0.007668	0.009218	0.005966	0.018874	7069.093127	46728.162567	4027.266471	24164.422376
69.036000	0.012200	0.010088	0.005043	0.018676	7114.691298	46835.989025	4025.378396	24174.154056
69.539500	0.010731	0.010158	0.003561	0.018646	7100.761375	46846.013169	4021.602005	24175.587731
70.036500	0.008630	0.010778	0.004111	0.020227	7065.349646	46749.078086	4018.932390	24098.343746
70.536500	0.010743	0.010270	0.003090	0.020081	7087.041389	46712.582395	4016.668641	24105.448607
71.037000	0.010745	0.010440	0.009090	0.019662	7091.098416	46771.930875	4033.373847	24125.915772
71.540500	0.011066	0.010644	0.007937	0.019353	7097.175359	46823.688644	4031.162015	24141.001624
72.035500	0.011223	0.011327	0.011793	0.021526	7077.757096	46673.534947	4035.576367	24035.045832
72.538500	0.012949	0.012307	0.007792	0.022235	7087.539624	46700.801323	4023.271447	24000.586279
73.035500	0.010639	0.011788	0.010770	0.021225	7075.043732	46750.247296	4033.682266	24049.700003
73.535500	0.015005	0.013170	0.016157	0.022401	7105.777272	46771.035940	4044.775818	23992.500785
74.036000	0.013848	0.012755	0.009704	0.023077	7088.083364	46661.098499	4026.053829	23959.709711
74.536500	0.015833	0.012769	0.009706	0.023712	7101.110001	46598.645005	4024.406024	23928.955762
75.039500	0.013843	0.012711	0.011273	0.023016	7088.628636	46662.858723	4030.307163	23962.684057
75.540000	0.016512	0.012826	0.012573	0.023415	7110.550820	46634.306900	4032.666998	23943.360229
76.039500	0.015218	0.013699	0.011525	0.025212	7080.728965	46541.421425	4025.235642	23856.481150
76.540500	0.016790	0.013547	0.010780	0.024820	7099.646523	46565.458109	4024.318492	23875.389712
77.038000	0.014932	0.013376	0.011724	0.024454	7085.269404	46585.079209	4027.732293	23893.098271
77.540500	0.015670	0.012914	0.011411	0.024744	7089.582713	46509.672374	4026.159694	23879.089991
78.035500	0.011491	0.013043	0.008473	0.025717	7040.236911	46425.079970	4016.016566	23832.133142
78.538500	0.015298	0.013614	0.012522	0.026552	7068.633628	46398.635908	4024.344640	23791.939852
79.037500	0.014597	0.013891	0.009001	0.026624	7061.230167	46419.170931	4015.038274	23788.494119
79.539500	0.014743	0.014215	0.010874	0.026972	7059.303484	46416.785965	4018.980623	23771.786677
80.037000	0.016476	0.014704	0.009721	0.028105	7065.041288	46352.346440	4013.076179	23717.413955
80.537000	0.016174	0.014292	0.012935	0.028722	7056.245249	46249.625731	4019.783266	23687.860733
81.035000	0.014767	0.013208	0.013286	0.027279	7056.587304	46285.467273	4024.441106	23757.015886
81.535500	0.017376	0.014182	0.010861	0.029289	7062.324613	46182.321719	4012.964238	23660.775414
82.038000	0.014644	0.013557	0.010887	0.029068	7038.358352	46142.055329	4013.601578	23671.339129
82.535500	0.017096	0.014152	0.016307	0.029345	7059.106740	46173.662545	4026.928599	23658.091077
83.035500	0.016707	0.015442	0.015531	0.030651	7042.924829	46172.138474	4021.513044	23595.789919
83.536500	0.015999	0.014646	0.009111	0.030429	7038.297481	46115.045065	4005.548271	23606.351435
84.036500	0.016355	0.015377	0.009682	0.031452	7031.953287	46085.922864	4004.390559	23557.638023
84.539500	0.016003	0.014788	0.010359	0.031217	7030.848514	46050.918267	4006.726054	23568.838396
85.037000	0.016476	0.014761	0.010532	0.031415	7033.451697	46028.545749	4006.660694	23559.406012
85.540000	0.015026	0.014396	0.010212	0.031555	7018.376289	45978.486552	4005.484563	23552.773867
86.035000	0.017391	0.015113	0.013157	0.032025	7036.355827	46002.952566	4011.831675	23530.414516
86.538000	0.016022	0.015756	0.010692	0.032762	7016.378261	45993.672586	4003.626009	23495.456585
87.035500	0.016465	0.015357	0.012434	0.032489	7023.158237	45981.174285	4008.781533	23508.403166
87.538500	0.014917	0.015263	0.011791	0.033276	7001.079971	45893.955140	4005.121748	23471.110739
88.036000	0.017000	0.016552	0.013680	0.034534	7008.869164	45897.057628	4006.736193	23411.639860
88.536500	0.015578	0.015697	0.014233	0.033659	7003.706179	45899.050342	4010.398681	23452.990588
89.036500	0.015507	0.015232	0.014065	0.033169	7007.653074	45901.446203	4011.223565	23476.182449
89.536500	0.014732	0.015057	0.012296	0.033962	6992.872783	45805.941202	4004.659455	23438.675221
90.037000	0.017133	0.016096	0.015257	0.034380	7011.579020	45867.183335	4011.175848	23418.887461
90.537500	0.017448	0.016355	0.013445	0.034788	7010.695054	45852.425295	4005.482979	23399.633029
91.037500	0.015876	0.015916	0.012690	0.034691	6996.785586	45818.757834	4003.802123	23404.231005
91.540000	0.014591	0.015662	0.015138	0.035576	6976.394125	45706.447805	4007.803154	23362.523913
92.035500	0.015321	0.015876	0.017409	0.035231	6986.478983	45761.478517	4014.524288	23378.753675
92.541000	0.018082	0.016757	0.016409	0.036499	7000.528030	45723.308406	4008.692951	23319.062732
93.036000	0.017725	0.016200	0.013838	0.035491	7006.670735	45767.774754	4004.690715	23366.505808
93.536500	0.015577	0.015809	0.008999	0.036559	6976.420015	45624.313921	3989.700259	23316.281656
94.037000	0.018104	0.015958	0.012458	0.036371	7001.954699	45657.434056	3998.932176	23325.117389
94.540000	0.016612	0.015836	0.012210	0.036222	6989.298773	45660.019634	3998.677549	23332.090318
95.037500	0.017213	0.016132	0.012087	0.036350	6993.752056	45676.559322	3998.042223	23326.077622
95.534500	0.017590	0.016247	0.009890	0.037575	6985.766563	45567.443865	3989.381322	23268.557447
96.038000	0.018990	0.015630	0.017291	0.036415	7009.898194	45620.806529	4011.172095	23323.015115
96.536000	0.015969	0.016806	0.013634	0.036760	6978.204846	45702.502165	4000.932278	23306.806678
97.042000	0.016616	0.016270	0.017275	0.036442	6987.271445	45681.015830	4011.063838	23321.756029
