sample name	sample
index	1420
start time	 05-10-2021  12:05:37 PM


Wavelength (nm)	Absorbance
494.344910	-0.020491
494.563924	-0.020491
494.782919	-0.020491
495.001897	0.064388
495.220856	-0.021110
495.439797	-0.022032
495.658719	-0.016452
495.877624	-0.012910
496.096510	-0.014463
496.315378	-0.011566
496.534227	-0.005500
496.753059	0.007223
496.971872	0.009506
497.190667	0.048769
497.409444	0.064218
497.628203	0.068855
497.846943	0.072087
498.065665	0.073793
498.284369	0.077353
498.503055	0.079854
498.721723	0.080795
498.940372	0.081419
499.159003	0.082229
499.377616	0.082831
499.596210	0.084119
499.814787	0.084539
500.033345	0.084238
500.251885	0.083123
500.470406	0.082941
500.688910	0.082225
500.907395	0.081996
501.125862	0.082306
501.344311	0.081749
501.562742	0.080619
501.781154	0.081450
501.999548	0.082530
502.217924	0.083102
502.436282	0.081435
502.654621	0.082937
502.872942	0.083335
503.091245	0.083716
503.309530	0.084282
503.527797	0.085375
503.746045	0.084788
503.964275	0.084205
504.182487	0.083895
504.400681	0.085168
504.618856	0.084235
504.837013	0.084227
505.055152	0.084322
505.273273	0.083764
505.491376	0.082973
505.709460	0.082877
505.927526	0.083329
506.145574	0.082408
506.363604	0.082516
506.581615	0.082273
506.799608	0.082189
507.017583	0.082428
507.235540	0.083283
507.453478	0.083558
507.671399	0.084649
507.889301	0.083974
508.107185	0.085160
508.325050	0.085411
508.542898	0.085844
508.760727	0.086560
508.978538	0.085433
509.196330	0.085868
509.414105	0.085836
509.631861	0.084775
509.849599	0.085253
510.067319	0.085647
510.285021	0.085335
510.502704	0.084886
510.720369	0.084814
510.938016	0.085233
511.155645	0.085132
511.373255	0.085830
511.590848	0.086034
511.808422	0.085848
512.025977	0.085600
512.243515	0.085555
512.461034	0.085527
512.678536	0.086123
512.896018	0.086186
513.113483	0.084919
513.330930	0.084740
513.548358	0.084494
513.765768	0.085005
513.983160	0.084747
514.200533	0.084737
514.417889	0.085418
514.635226	0.085401
514.852545	0.086306
515.069845	0.087531
515.287128	0.087293
515.504392	0.087994
515.721638	0.088374
515.938866	0.088746
516.156075	0.088962
516.373267	0.088908
516.590440	0.088591
516.807594	0.088198
517.024731	0.087499
517.241850	0.088147
517.458950	0.088048
517.676032	0.087820
517.893095	0.088343
518.110141	0.088637
518.327168	0.088334
518.544177	0.088283
518.761168	0.089002
518.978141	0.090443
519.195095	0.090003
519.412031	0.090155
519.628949	0.090307
519.845849	0.090739
520.062731	0.090412
520.279594	0.090590
520.496439	0.090395
520.713266	0.090429
520.930074	0.089778
521.146865	0.090832
521.363637	0.091541
521.580391	0.092461
521.797127	0.091663
522.013844	0.092221
522.230543	0.093855
522.447224	0.094283
522.663887	0.094060
522.880532	0.094246
523.097158	0.093134
523.313766	0.092812
523.530356	0.092525
523.746928	0.092891
523.963481	0.092559
524.180017	0.091522
524.396534	0.092102
524.613032	0.092069
524.829513	0.092565
525.045975	0.093686
525.262420	0.094510
525.478845	0.094487
525.695253	0.094348
525.911643	0.094953
526.128014	0.095511
526.344367	0.095540
526.560702	0.096055
526.777018	0.096030
526.993316	0.096127
527.209597	0.095705
527.425858	0.095660
527.642102	0.095466
527.858328	0.096018
528.074535	0.095962
528.290724	0.095143
528.506894	0.094889
528.723047	0.094733
528.939181	0.094300
529.155297	0.094263
529.371395	0.094609
529.587475	0.095265
529.803536	0.094978
530.019579	0.095581
530.235604	0.096420
530.451611	0.096325
530.667600	0.096772
530.883570	0.096993
531.099522	0.097207
531.315456	0.097604
531.531372	0.098164
531.747269	0.098261
531.963148	0.097343
532.179009	0.097773
532.394852	0.098188
532.610676	0.098485
532.826482	0.098682
533.042271	0.099142
533.258040	0.098647
533.473792	0.098228
533.689525	0.098187
533.905240	0.099089
534.120937	0.098640
534.336616	0.098800
534.552277	0.098816
534.767919	0.098832
534.983543	0.098277
535.199149	0.099013
535.414736	0.099295
535.630306	0.099544
535.845857	0.099497
536.061390	0.099786
536.276904	0.100040
536.492401	0.100301
536.707879	0.100758
536.923339	0.101360
537.138781	0.101138
537.354204	0.101691
537.569610	0.102179
537.784997	0.102015
538.000366	0.102095
538.215716	0.102095
538.431049	0.101952
538.646363	0.102420
538.861659	0.102748
539.076937	0.102745
539.292196	0.102559
539.507438	0.102404
539.722661	0.102771
539.937866	0.103312
540.153052	0.103075
540.368221	0.103307
540.583371	0.103138
540.798503	0.102772
541.013617	0.103038
541.228712	0.103283
541.443789	0.103627
541.658848	0.103387
541.873889	0.103478
542.088912	0.104316
542.303916	0.104592
542.518902	0.104934
542.733870	0.105312
542.948820	0.105195
543.163752	0.105210
543.378665	0.105502
543.593560	0.105889
543.808437	0.106018
544.023295	0.105886
544.238136	0.105999
544.452958	0.106063
544.667762	0.106044
544.882548	0.106570
545.097315	0.106831
545.312064	0.106213
545.526795	0.106628
545.741508	0.106799
545.956203	0.107160
546.170879	0.107507
546.385537	0.107845
546.600177	0.108272
546.814799	0.108446
547.029402	0.108826
547.243988	0.109598
547.458555	0.109684
547.673103	0.109701
547.887634	0.109781
548.102146	0.109661
548.316640	0.109469
548.531116	0.109655
548.745574	0.109631
548.960013	0.109616
549.174435	0.109905
549.388838	0.109765
549.603222	0.109803
549.817589	0.109974
550.031937	0.109935
550.246267	0.110058
550.460579	0.110040
550.674873	0.110182
550.889148	0.109948
551.103405	0.109750
551.317644	0.109934
551.531865	0.110090
551.746068	0.109833
551.960252	0.110374
552.174418	0.110455
552.388566	0.110749
552.602696	0.111115
552.816807	0.111479
553.030900	0.111272
553.244975	0.111633
553.459032	0.111740
553.673070	0.112214
553.887091	0.111939
554.101093	0.112218
554.315077	0.112660
554.529042	0.112518
554.742990	0.112449
554.956919	0.112979
555.170830	0.112832
555.384722	0.112815
555.598597	0.112758
555.812453	0.112450
556.026291	0.112260
556.240111	0.111468
556.453913	0.111011
556.667696	0.110789
556.881461	0.110792
557.095208	0.111004
557.308937	0.111201
557.522647	0.111129
557.736339	0.111505
557.950013	0.111671
558.163669	0.112025
558.377307	0.112367
558.590926	0.112791
558.804527	0.112666
559.018110	0.112591
559.231675	0.112666
559.445221	0.112391
559.658749	0.112842
559.872259	0.112600
560.085751	0.112368
560.299225	0.112711
560.512680	0.112473
560.726117	0.112681
560.939536	0.112855
561.152937	0.112686
561.366319	0.113117
561.579683	0.112904
561.793029	0.113571
562.006357	0.114058
562.219667	0.114144
562.432958	0.114530
562.646231	0.114842
562.859486	0.115073
563.072723	0.115532
563.285941	0.115792
563.499141	0.115563
563.712323	0.115308
563.925487	0.115285
564.138632	0.115263
564.351760	0.115076
564.564869	0.114830
564.777960	0.114536
564.991032	0.114594
565.204087	0.114413
565.417123	0.114904
565.630141	0.114618
565.843140	0.114520
566.056122	0.114902
566.269085	0.115259
566.482030	0.115753
566.694957	0.115743
566.907866	0.115562
567.120756	0.115998
567.333628	0.115837
567.546482	0.116149
567.759318	0.116356
567.972135	0.116009
568.184935	0.115798
568.397716	0.115475
568.610478	0.115743
568.823223	0.116042
569.035949	0.116065
569.248657	0.116290
569.461347	0.116253
569.674019	0.116290
569.886672	0.116313
570.099308	0.116717
570.311925	0.116852
570.524523	0.116820
570.737104	0.116591
570.949666	0.116534
571.162210	0.116461
571.374736	0.116749
571.587244	0.117057
571.799733	0.117292
572.012205	0.116989
572.224658	0.117290
572.437092	0.117587
572.649509	0.117815
572.861907	0.117840
573.074287	0.118105
573.286649	0.118318
573.498993	0.118451
573.711318	0.118631
573.923625	0.119111
574.135914	0.119024
574.348185	0.119259
574.560438	0.119623
574.772672	0.120078
574.984888	0.120311
575.197086	0.120291
575.409266	0.120024
575.621427	0.120065
575.833570	0.120308
576.045695	0.120680
576.257802	0.120559
576.469890	0.120656
576.681961	0.120623
576.894013	0.120415
577.106046	0.120495
577.318062	0.120705
577.530059	0.120638
577.742039	0.120388
577.954000	0.120190
578.165942	0.120152
578.377867	0.119798
578.589773	0.119908
578.801661	0.120093
579.013531	0.120318
579.225382	0.120723
579.437216	0.120772
579.649031	0.120839
579.860828	0.121112
580.072606	0.121381
580.284367	0.121975
580.496109	0.121566
580.707833	0.121561
580.919539	0.121429
581.131227	0.121311
581.342896	0.121611
581.554547	0.121798
581.766180	0.121863
581.977795	0.121849
582.189391	0.121400
582.400969	0.121597
582.612529	0.121980
582.824071	0.122069
583.035595	0.121951
583.247100	0.122120
583.458587	0.122306
583.670056	0.122188
583.881506	0.122273
584.092939	0.122693
584.304353	0.123089
584.515749	0.123259
584.727127	0.123719
584.938486	0.124110
585.149828	0.124312
585.361151	0.124451
585.572456	0.124592
585.783742	0.124845
585.995011	0.125044
586.206261	0.125157
586.417493	0.125210
586.628706	0.125154
586.839902	0.125126
587.051079	0.124742
587.262238	0.124907
587.473379	0.124981
587.684502	0.124933
587.895606	0.124876
588.106692	0.124705
588.317760	0.124849
588.528810	0.125061
588.739841	0.125185
588.950855	0.125526
589.161850	0.125335
589.372827	0.125389
589.583785	0.125259
589.794726	0.125420
590.005648	0.125616
590.216552	0.125485
590.427437	0.125390
590.638305	0.125606
590.849154	0.125868
591.059985	0.126437
591.270798	0.126563
591.481592	0.127004
591.692369	0.126766
591.903127	0.127096
592.113867	0.127300
592.324588	0.127580
592.535292	0.127386
592.745977	0.127796
592.956644	0.127374
593.167293	0.127690
593.377923	0.127788
593.588536	0.127983
593.799130	0.128051
594.009706	0.128164
594.220263	0.128027
594.430803	0.128261
594.641324	0.127980
594.851827	0.128312
595.062312	0.128578
595.272778	0.128521
595.483227	0.128788
595.693657	0.128493
595.904069	0.128317
596.114462	0.128519
596.324838	0.128479
596.535195	0.128482
596.745534	0.128380
596.955855	0.127893
597.166157	0.127981
597.376441	0.127956
597.586707	0.128218
597.796955	0.128557
598.007185	0.128153
598.217396	0.128133
598.427589	0.127774
598.637764	0.127866
598.847921	0.128216
599.058060	0.128166
599.268180	0.128537
599.478282	0.128569
599.688366	0.128526
599.898431	0.129209
600.108479	0.129309
600.318508	0.129568
600.528519	0.129895
600.738511	0.129824
600.948486	0.129963
601.158442	0.129729
601.368380	0.129799
601.578300	0.129375
601.788202	0.129178
601.998085	0.129001
602.207950	0.128863
602.417797	0.128852
602.627626	0.128783
602.837436	0.129023
603.047228	0.129088
603.257002	0.129229
603.466758	0.130053
603.676496	0.130428
603.886215	0.130992
604.095916	0.131551
604.305599	0.131156
604.515264	0.131194
604.724910	0.131058
604.934538	0.131252
605.144148	0.131274
605.353740	0.130789
605.563314	0.130431
605.772869	0.130368
605.982406	0.130272
606.191925	0.130740
606.401425	0.131206
606.610908	0.131399
606.820372	0.131339
607.029818	0.131717
607.239246	0.132119
607.448655	0.132428
607.658047	0.132485
607.867420	0.132536
608.076775	0.132423
608.286111	0.132224
608.495430	0.132379
608.704730	0.132334
608.914012	0.132122
609.123275	0.131850
609.332521	0.131649
609.541748	0.131725
609.750957	0.131929
609.960148	0.132127
610.169321	0.132341
610.378475	0.132487
610.587611	0.132654
610.796729	0.132760
611.005829	0.133348
611.214910	0.133638
611.423974	0.133574
611.633019	0.133446
611.842045	0.133749
612.051054	0.133545
612.260044	0.133692
612.469017	0.134005
612.677970	0.133733
612.886906	0.133677
613.095824	0.133620
613.304723	0.133488
613.513604	0.133746
613.722467	0.133622
613.931311	0.134012
614.140138	0.133838
614.348946	0.133936
614.557736	0.134360
614.766507	0.134370
614.975261	0.134627
615.183996	0.135112
615.392713	0.135302
615.601412	0.135545
615.810092	0.135479
616.018754	0.135709
616.227399	0.135726
616.436024	0.135882
616.644632	0.135996
616.853222	0.136038
617.061793	0.136301
617.270346	0.136315
617.478880	0.136375
617.687397	0.136773
617.895895	0.136551
618.104375	0.136858
618.312837	0.136916
618.521281	0.137119
618.729706	0.137412
618.938113	0.137201
619.146502	0.137494
619.354873	0.137579
619.563226	0.137527
619.771560	0.137845
619.979876	0.137524
620.188174	0.137542
620.396453	0.137423
620.604715	0.137236
620.812958	0.137379
621.021183	0.137151
621.229390	0.137110
621.437578	0.136924
621.645748	0.137105
621.853900	0.137135
622.062034	0.137326
622.270150	0.137335
622.478247	0.137556
622.686326	0.137741
622.894387	0.137954
623.102430	0.138097
623.310454	0.138280
623.518461	0.138309
623.726449	0.138347
623.934418	0.138182
624.142370	0.138284
624.350303	0.138307
624.558218	0.138349
624.766115	0.138315
624.973994	0.138241
625.181855	0.138208
625.389697	0.138131
625.597521	0.138139
625.805327	0.138278
626.013114	0.138218
626.220883	0.137917
626.428634	0.137800
626.636367	0.137628
626.844082	0.137663
627.051778	0.137556
627.259457	0.137482
627.467117	0.137833
627.674758	0.137755
627.882382	0.137682
628.089987	0.138171
628.297574	0.138572
628.505143	0.138738
628.712694	0.138741
628.920226	0.139351
629.127740	0.139690
629.335236	0.139671
629.542714	0.139777
629.750174	0.139931
629.957615	0.139919
630.165038	0.139843
630.372443	0.140135
630.579829	0.140410
630.787198	0.140358
630.994548	0.140278
631.201880	0.140363
631.409194	0.140461
631.616489	0.140508
631.823766	0.140490
632.031025	0.140432
632.238266	0.140341
632.445489	0.140470
632.652693	0.140604
632.859879	0.140746
633.067047	0.140935
633.274197	0.141112
633.481329	0.141500
633.688442	0.141658
633.895537	0.141909
634.102614	0.142123
634.309672	0.142104
634.516713	0.142118
634.723735	0.142367
634.930739	0.142305
635.137724	0.142369
635.344692	0.142391
635.551641	0.142415
635.758572	0.142601
635.965485	0.142755
636.172379	0.142981
636.379256	0.143040
636.586114	0.143106
636.792954	0.143288
636.999775	0.143356
637.206579	0.143391
637.413364	0.143735
637.620131	0.143857
637.826880	0.143919
638.033610	0.144092
638.240323	0.144121
638.447017	0.144248
638.653692	0.144450
638.860350	0.144594
639.066990	0.144781
639.273611	0.144869
639.480214	0.144838
639.686798	0.145096
639.893365	0.145069
640.099913	0.145188
640.306443	0.145107
640.512955	0.145197
640.719449	0.145363
640.925924	0.145361
641.132381	0.145447
641.338820	0.145506
641.545241	0.145577
641.751644	0.145733
641.958028	0.145885
642.164394	0.146167
642.370742	0.146130
642.577071	0.146049
642.783383	0.146204
642.989676	0.146131
643.195951	0.146142
643.402207	0.145989
643.608446	0.145999
643.814666	0.146128
644.020868	0.146325
644.227052	0.146445
644.433218	0.146668
644.639365	0.146625
644.845494	0.146810
645.051605	0.146902
645.257698	0.146936
645.463772	0.147024
645.669828	0.147109
645.875866	0.147026
646.081886	0.147049
646.287888	0.147087
646.493871	0.147248
646.699836	0.147196
646.905783	0.147424
647.111712	0.147693
647.317622	0.147825
647.523514	0.147801
647.729388	0.147587
647.935244	0.147624
648.141082	0.147931
648.346901	0.147856
648.552702	0.147946
648.758485	0.147867
648.964250	0.148082
649.169996	0.147726
649.375724	0.147680
649.581434	0.147985
649.787126	0.148271
649.992800	0.148127
650.198455	0.148325
650.404092	0.148386
650.609711	0.148489
650.815311	0.148279
651.020894	0.148576
651.226458	0.148800
651.432004	0.148571
651.637532	0.148458
651.843041	0.148640
652.048532	0.148844
652.254006	0.148768
652.459460	0.148700
652.664897	0.148776
652.870315	0.148788
653.075716	0.148857
653.281097	0.149320
653.486461	0.149537
653.691807	0.149570
653.897134	0.149774
654.102443	0.150128
654.307734	0.150409
654.513006	0.150530
654.718261	0.151149
654.923497	0.151314
655.128715	0.151699
655.333915	0.151902
655.539096	0.152120
655.744259	0.152183
655.949404	0.152250
656.154531	0.152519
656.359640	0.152719
656.564730	0.152656
656.769802	0.152775
656.974856	0.152279
657.179892	0.152345
657.384909	0.152158
657.589908	0.152123
657.794889	0.152159
657.999852	0.151938
658.204797	0.151873
658.409723	0.151672
658.614631	0.151781
658.819521	0.152121
659.024393	0.152123
659.229246	0.152165
659.434081	0.152212
659.638898	0.152472
659.843697	0.152947
660.048478	0.153150
660.253240	0.153471
660.457984	0.153406
660.662710	0.153596
660.867417	0.153574
661.072107	0.153753
661.276778	0.153977
661.481431	0.153743
661.686066	0.153542
661.890682	0.153699
662.095281	0.153913
662.299861	0.153845
662.504422	0.153981
662.708966	0.154129
662.913491	0.154302
663.117999	0.154412
663.322488	0.154800
663.526958	0.155115
663.731411	0.155259
663.935845	0.155152
664.140261	0.155632
664.344659	0.155630
664.549038	0.155718
664.753400	0.155854
664.957743	0.155834
665.162068	0.155923
665.366375	0.155881
665.570663	0.155877
665.774933	0.155866
665.979185	0.155755
666.183419	0.155733
666.387635	0.155715
666.591832	0.155813
666.796011	0.156023
667.000172	0.156002
667.204315	0.155970
667.408439	0.155926
667.612545	0.156127
667.816634	0.156209
668.020703	0.156156
668.224755	0.156403
668.428788	0.156385
668.632803	0.156313
668.836800	0.156328
669.040779	0.156412
669.244739	0.156617
669.448681	0.156590
669.652605	0.156676
669.856511	0.156938
670.060399	0.157011
670.264268	0.157228
670.468119	0.157396
670.671952	0.157529
670.875767	0.157580
671.079563	0.157435
671.283341	0.157807
671.487101	0.158042
671.690843	0.158290
671.894567	0.158459
672.098272	0.158662
672.301959	0.158807
672.505628	0.159024
672.709278	0.159345
672.912911	0.159822
673.116525	0.159580
673.320121	0.159672
673.523699	0.159727
673.727258	0.159814
673.930799	0.159788
674.134322	0.160003
674.337827	0.159910
674.541314	0.159887
674.744782	0.159757
674.948232	0.160005
675.151664	0.159939
675.355078	0.159817
675.558474	0.160005
675.761851	0.159803
675.965210	0.159690
676.168551	0.159798
676.371873	0.159976
676.575178	0.160165
676.778464	0.160283
676.981732	0.160482
677.184981	0.160639
677.388213	0.160634
677.591426	0.161084
677.794621	0.161377
677.997798	0.161623
678.200956	0.161812
678.404097	0.162178
678.607219	0.162523
678.810323	0.162886
679.013408	0.163201
679.216476	0.163143
679.419525	0.163316
679.622556	0.163243
679.825569	0.163462
680.028563	0.163527
680.231540	0.163331
680.434498	0.163314
680.637438	0.163400
680.840359	0.163278
681.043263	0.163671
681.246148	0.163555
681.449015	0.163757
681.651864	0.163626
681.854694	0.163651
682.057506	0.163825
682.260301	0.163807
682.463076	0.163682
682.665834	0.163843
682.868573	0.163998
683.071295	0.164100
683.273998	0.164469
683.476682	0.164745
683.679349	0.164903
683.881997	0.164933
684.084627	0.165122
684.287239	0.165069
684.489833	0.165196
684.692408	0.165043
684.894965	0.165103
685.097504	0.165021
685.300025	0.165139
685.502527	0.165071
685.705012	0.165118
685.907478	0.164988
686.109925	0.165280
686.312355	0.165356
686.514766	0.165403
686.717159	0.165686
686.919534	0.165641
687.121891	0.165562
687.324230	0.165921
687.526550	0.166196
687.728852	0.166226
687.931136	0.166230
688.133401	0.166377
688.335649	0.166312
688.537878	0.166245
688.740089	0.166289
688.942281	0.166358
689.144456	0.166347
689.346612	0.166424
689.548750	0.166897
689.750870	0.166952
689.952971	0.166969
690.155055	0.167132
690.357120	0.167306
690.559167	0.167496
690.761195	0.167685
690.963206	0.167792
691.165198	0.167727
691.367172	0.167518
691.569128	0.167375
691.771065	0.167481
691.972984	0.167772
692.174885	0.167763
692.376768	0.167659
692.578633	0.167526
692.780479	0.167559
692.982308	0.167593
693.184118	0.167744
693.385909	0.168027
