sample name	sample
index	1519
start time	 05-18-2021  03:23:06 PM
880	0.453283
Peak Time (s)	91.536
Peak Height 	0.4533
calc peak height	90,93
Baseline Time (s)	10.036
Baseline Value 	-0.003383
subtract baseline	10,4
Abs	0.259425
Peak Time (s)	91.037
Peak Height 	0.2594
calc peak height	90,93
Baseline Time (s)	10.036
Baseline Value 	0.002109
subtract baseline	10,3
PK_550	0.147113
Peak Time (s)	90.536
Peak Height 	0.1471
calc peak height	90,93
Baseline Time (s)	8.535
Baseline Value 	-1.3933E-4
subtract baseline	10,2
PK_880	0.246639
Peak Time (s)	91.536
Peak Height 	0.2466
calc peak height	90,93
Baseline Time (s)	9.036
Baseline Value 	0.001436
subtract baseline	10,1


Time (s)	A880-A510	A880-A775	A880-A975	A880	I510	I775	I975	I880	
0.035500	-0.004149	-0.000612	-0.001486	0.007702	6531.105442	43427.032620	3996.922606	22571.887941
0.536000	-0.001903	-0.000294	-0.005057	0.003383	6584.561236	43860.405765	3998.646668	22767.314261
1.039000	-0.002077	0.000049	-0.005320	0.003455	6582.547891	43885.958720	3997.874682	22764.050151
1.541000	0.001689	0.000318	0.003475	0.001572	6629.172819	44088.796578	4022.809086	22849.846055
2.037500	-0.003468	-0.000173	-0.003744	0.006534	6546.082576	43576.682389	3994.414370	22624.540951
2.537000	0.000952	0.000944	-0.004358	0.001309	6625.237337	44172.874123	4005.069831	22861.882489
3.035000	0.002385	0.000927	0.002028	-0.001076	6657.065669	44397.742401	4025.652094	22971.159696
3.535500	0.000557	0.000603	0.002295	0.000930	6625.106751	44176.480448	4021.539415	22879.211428
4.035500	0.000330	-0.000117	0.001815	0.000100	6630.105750	44186.824022	4022.362715	22917.165991
4.535500	-0.001730	-0.000102	0.000213	-0.000124	6614.888095	44209.494876	4019.113083	22927.434704
5.036500	-0.000881	-0.001201	-0.002177	-0.001301	6631.687216	44216.883802	4016.259315	22981.461380
5.536000	-0.000822	-0.001149	0.000079	-0.000248	6623.431607	44122.080649	4019.089792	22933.122684
6.036500	-0.000647	0.000178	-0.002295	0.000500	6618.692249	44176.900074	4011.762562	22898.872908
6.537500	-0.001460	-0.000431	-0.004165	0.000409	6612.708540	44127.882150	4007.611565	22903.018080
7.037500	0.001393	0.000337	-0.001947	0.000636	6634.493023	44179.042551	4012.257010	22892.619986
7.535000	-0.001498	0.000419	-0.000038	0.000214	6614.017222	44226.864166	4017.728011	22911.982949
8.035500	-0.000656	-0.000188	-0.000767	0.000045	6622.386964	44185.391047	4016.411536	22919.721672
8.535000	-0.000907	0.000000	0.002713	0.000174	6619.227096	44190.900327	4024.311658	22913.773195
9.036000	0.000000	-0.000085	-0.005687	-0.000253	6630.301901	44223.299791	4005.610860	22933.358573
9.536000	0.000370	-0.000007	0.003812	-0.000020	6631.445312	44208.673862	4027.380219	22922.699203
10.036000	-0.000731	0.000110	0.000000	0.000000	6622.132757	44217.861647	4018.319906	22921.767183
10.539500	0.000508	0.000281	-0.002324	0.000241	6630.418061	44211.167831	4012.300820	22910.706326
11.037000	-0.000944	-0.000881	0.003541	-0.000659	6625.839725	44186.370869	4028.253560	22951.996411
11.537000	0.000137	0.000907	-0.000024	0.001142	6619.861896	44185.192284	4015.579371	22869.492618
12.037500	-0.001383	-0.000579	0.002343	0.000225	6614.877620	44131.308481	4023.316599	22911.470494
12.535000	-0.000302	0.000558	0.001696	0.000692	6619.950386	44194.727552	4020.684252	22890.061448
13.038000	-0.000588	-0.000310	0.003774	-0.000598	6628.287716	44234.757441	4028.662060	22949.204268
13.535500	-0.000270	0.000568	-0.000653	0.000663	6620.461813	44198.433450	4015.227521	22891.418717
14.035500	0.000701	-0.000263	0.000871	0.001961	6617.750080	43997.245420	4015.758188	22832.102247
14.536000	-0.001277	0.000007	-0.001314	0.002069	6600.521006	44012.506345	4010.389144	22827.172843
15.036500	-0.000188	0.000339	0.001876	-0.000007	6626.694442	44240.221238	4022.761971	22922.084474
15.537000	-0.002071	-0.000418	-0.004373	0.001008	6602.722153	44072.581905	4005.734300	22875.643203
16.037000	-0.005427	-0.001249	-0.006494	0.005056	6542.184941	43614.304827	3991.494657	22691.391539
16.537500	0.000904	0.000724	-0.002492	0.000798	6629.075386	44200.434166	4010.604695	22885.215730
17.035000	0.002263	0.000261	-0.000985	-0.002388	6667.042570	44459.223269	4021.629202	23031.529349
17.539500	-0.001551	-0.000145	-0.000122	0.000788	6608.828000	44119.132520	4016.179908	22885.694708
18.035000	-0.002556	0.000077	0.000815	0.003073	6581.759580	43924.520075	4013.020579	22781.443552
18.535500	0.000043	0.000066	-0.005589	0.001566	6615.575860	44065.618409	4001.619366	22850.144457
19.036000	0.000369	0.000252	0.001295	0.001366	6619.924990	44101.909661	4018.150936	22859.239784
19.536000	0.001047	0.000841	0.003725	0.002264	6618.104338	44072.795902	4021.762936	22818.255831
20.039500	-0.002884	0.000309	-0.004881	0.003463	6575.873896	43909.693021	3998.869741	22763.710147
20.537000	-0.000815	-0.000843	0.000204	0.001019	6613.001927	44031.399889	4016.403497	22875.118597
21.037500	-0.000176	0.001064	-0.003697	0.002128	6609.124747	44106.752835	4004.702507	22824.498166
21.537500	-0.000557	0.000217	-0.000300	0.001301	6612.809037	44104.816280	4014.558095	22862.238104
22.035000	-0.001484	0.000169	-0.002266	0.003466	6587.325738	43896.218431	4004.917455	22763.545250
22.535500	0.002203	0.000541	-0.000235	0.001594	6633.257219	44107.707096	4014.023677	22848.837421
23.035500	-0.001143	0.000395	-0.000301	0.001666	6604.953784	44087.218674	4013.702709	22845.580322
23.535500	-0.001540	0.000343	-0.001308	0.001032	6606.908086	44142.185774	4012.826958	22874.538763
24.035500	-0.001343	0.000719	-0.003675	0.003792	6585.804748	43917.286386	4000.896594	22748.734660
24.536500	-0.001252	0.001348	-0.003411	0.002309	6598.746798	44116.515723	4004.946615	22816.238595
25.037000	-0.000478	0.000590	0.003137	0.001678	6610.340541	44104.451879	4021.757892	22844.995043
25.537000	-0.002743	-0.000420	-0.004735	0.001041	6596.909891	44069.208144	4004.815360	22874.113003
26.037500	-0.002791	0.000307	-0.004599	0.001313	6594.278298	44112.143755	4004.498524	22861.666481
26.535000	-0.000305	0.000071	-0.000162	0.001408	6614.003140	44080.933296	4014.631202	22857.337456
27.035000	-0.000219	0.000238	-0.001247	-0.000945	6634.239607	44319.724959	4017.610734	22965.138217
27.535000	-0.001073	0.000794	-0.002072	0.003345	6591.690135	43966.374202	4005.648954	22769.040015
28.036000	-0.003854	-0.000124	-0.008916	0.006185	6545.790869	43613.920706	3983.391602	22640.336017
28.536000	0.000198	0.000645	0.004011	0.000246	6627.810134	44245.317045	4027.221319	22910.515974
29.036000	0.001418	0.000408	-0.000786	0.000280	6637.667812	44219.648642	4015.816043	22908.960746
29.539500	-0.002187	-0.000110	-0.006530	0.004175	6575.751117	43803.405685	3993.434046	22731.335155
30.037000	-0.001458	0.000173	-0.000979	-0.000063	6616.633004	44229.754763	4016.165707	22924.655194
30.537000	-0.002530	-0.000486	-0.001145	0.001698	6593.253813	44000.964594	4011.650621	22844.084233
31.037500	-0.002619	-0.000051	-0.004356	0.002024	6589.846162	44011.248090	4003.415640	22829.230207
31.535000	-0.002353	0.000362	-0.004903	0.004801	6569.276435	43788.926645	3995.735131	22702.955915
32.035000	-0.000182	-0.000326	0.001105	-0.000149	6627.925701	44190.595546	4021.274271	22928.576086
32.535500	0.000296	0.000248	-0.000054	0.000002	6630.638521	44230.729678	4018.187602	22921.655644
33.035500	-0.001201	0.000968	0.001078	0.000304	6615.722653	44270.365192	4020.143757	22907.841955
33.536500	-0.002585	0.000479	-0.005045	0.003493	6578.073165	43922.833716	3998.421047	22762.328515
34.038500	-0.003819	-0.001012	0.000741	0.002894	6572.881276	43838.938051	4013.263792	22789.568480
34.536500	-0.002737	0.000755	-0.001138	0.002054	6588.625724	44084.460939	4010.833552	22827.847161
35.037000	-0.000905	0.000020	-0.002882	0.000975	6612.625435	44117.079893	4009.283573	22877.143417
35.537000	-0.000521	0.000703	-0.000399	0.003552	6594.531961	43938.321950	4009.063271	22759.651158
36.037500	-0.001042	0.000169	-0.002159	0.001262	6609.119016	44104.030697	4010.301010	22864.020079
36.535000	-0.002677	0.000011	-0.002959	0.001116	6596.839780	44102.841619	4008.773563	22870.686097
37.035500	-0.000210	0.000638	0.001744	0.001740	6612.038709	44103.129463	4018.329753	22842.177635
37.538500	-0.000110	0.000359	-0.001395	0.001794	6612.427060	44071.719088	4010.841660	22839.719356
38.038000	-0.000376	0.000676	0.001571	0.001623	6611.635932	44117.789688	4018.197672	22847.504280
38.536500	-0.001597	0.000201	-0.003121	0.001245	6604.671514	44108.555503	4008.094291	22864.770018
39.036500	-0.001618	0.000060	-0.000508	0.001424	6603.022803	44078.311463	4013.782805	22856.597385
39.536500	0.001983	0.000949	-0.000776	0.001668	6630.818862	44139.371515	4012.583986	22845.458196
40.036500	-0.002188	-0.000268	0.000768	0.001328	6599.120079	44056.523129	4017.004189	22861.019987
40.537500	-0.001528	-0.000104	-0.003615	0.001030	6607.019058	44100.126219	4007.447173	22874.617423
41.035000	0.000627	-0.000466	-0.005157	0.001324	6622.423180	44038.236016	4003.180620	22861.202426
41.535500	-0.000710	-0.000286	-0.006495	0.001872	6606.819250	44003.364043	3998.816241	22836.139698
42.035000	-0.001987	0.000196	0.000811	0.003638	6581.791893	43882.573020	4011.688250	22755.742271
42.536000	-0.001523	0.000204	-0.002648	0.001967	6599.331498	44040.654051	4007.514944	22831.812177
43.036000	-0.001707	0.000105	-0.001536	0.001379	6602.664444	44086.928065	4011.483441	22858.689882
43.539000	-0.002998	-0.000283	-0.008278	0.001296	6592.715163	44058.020393	3996.033790	22862.446383
44.036500	-0.003515	-0.000292	-0.004556	0.003630	6569.349510	43837.473710	3999.235861	22756.117707
44.537000	0.000456	0.000721	0.002223	0.000375	6628.880074	44240.241966	4022.679931	22904.602965
45.037500	0.000851	0.000481	-0.000007	-0.000026	6635.495323	44255.503843	4018.364008	22922.964031
45.537500	-0.004261	-0.000602	0.001246	0.005462	6548.350869	43636.848953	4008.446811	22673.022226
46.035000	-0.002965	-0.000963	-0.005226	0.002794	6580.689146	43852.943157	3999.617611	22794.110954
46.535500	0.001889	-0.000427	-0.001721	-0.000597	6648.910607	44223.556891	4015.677800	22949.154212
47.035000	0.000222	-0.000075	0.008288	-0.000168	6631.442446	44216.219765	4038.415692	22929.457568
47.535500	-0.001856	0.000342	0.001519	0.001926	6596.924763	44057.559129	4017.360531	22833.676485
48.036500	-0.004428	-0.000902	-0.001242	0.004470	6555.059351	43701.568009	4004.964345	22717.968552
48.536500	0.000110	0.001094	0.004272	0.001091	6620.062889	44207.662270	4025.832495	22871.818422
49.039500	0.003095	0.000514	0.005213	0.000730	6647.896646	44187.034522	4028.926446	22888.356691
49.537000	0.000290	-0.000188	0.003562	0.000038	6630.295676	44185.999565	4026.647154	22920.037428
50.034500	-0.001850	0.000152	-0.003377	0.004173	6578.530787	43828.149601	4000.705452	22731.443588
50.534500	0.001180	0.000819	0.003539	0.001136	6628.566331	44177.391935	4023.990535	22869.785300
51.035000	-0.002926	-0.002626	0.003075	0.009809	6523.976098	43045.781865	4002.593303	22477.261293
51.535500	-0.006561	-0.022840	0.000741	0.437788	4317.915001	17302.795103	3369.844548	10281.615773
52.035500	-0.019760	-0.027062	-0.017469	-0.056322	6944.996586	47075.699042	4113.975619	25677.862052
52.536000	-0.022910	-0.013064	-0.022410	-0.007353	6501.284625	43669.757966	3983.488601	23261.605063
53.039000	-0.008670	-0.058960	-0.004678	-0.223226	8932.622423	63126.040977	4686.834623	36296.235929
53.536500	-0.001807	-0.042480	0.011089	-0.188894	8570.316371	60706.725196	4616.083035	33766.797024
54.036000	0.011383	-0.022055	0.018201	-0.128068	7993.864255	55585.406294	4427.629714	29748.187104
54.537000	0.016309	-0.016649	0.026781	-0.122232	7983.467037	55533.461957	4436.705657	29391.436421
55.036500	0.020721	-0.012321	0.026212	-0.126158	8079.647901	56540.276624	4447.880130	29630.889589
55.535000	0.029371	-0.012518	0.044974	-0.126153	8181.348876	56515.460162	4511.953034	29630.597747
56.035500	0.046975	0.001106	0.066066	-0.062874	7666.247235	50739.505722	4371.640843	26022.311381
56.535500	0.059384	0.014358	0.078785	0.018333	6985.765673	43832.547039	4170.972029	22099.071517
57.036000	0.078697	0.028943	0.097202	0.093102	6510.530478	38555.601140	4028.016595	19081.288571
57.536500	0.093457	0.040726	0.110504	0.134977	6299.349613	36178.911849	3962.315561	17604.771148
58.036500	0.120679	0.053456	0.126572	0.151719	6379.411612	35874.335778	3960.817791	17053.174705
58.537000	0.131630	0.064167	0.138108	0.186982	6196.595251	34070.362375	3909.530414	15958.610264
59.033500	0.149266	0.072647	0.156614	0.245254	5912.974728	30710.623224	3829.615575	14333.751156
59.534500	0.152984	0.076807	0.163085	0.246685	5928.246435	30884.959395	3839.345021	14296.538985
60.035000	0.165597	0.084018	0.179426	0.288551	5738.895609	28750.413134	3791.218247	13260.051572
60.535000	0.177790	0.092446	0.177531	0.252006	6061.629591	31554.096074	3857.247841	14159.198842
61.035000	0.186877	0.098004	0.194423	0.268310	6011.526753	30857.521484	3858.413592	13748.703762
61.536000	0.192034	0.104868	0.200595	0.325848	5671.782379	27795.464470	3762.236301	12417.195208
62.035500	0.194968	0.106617	0.204391	0.354101	5521.689828	26330.753112	3720.290614	11825.207162
62.538500	0.202661	0.113570	0.206411	0.387933	5375.640223	24933.775406	3669.146214	11165.167556
63.036500	0.204095	0.120218	0.206784	0.385762	5395.267977	25382.625048	3673.100441	11205.999604
63.537000	0.204203	0.121884	0.208447	0.391134	5366.666956	25192.905289	3667.344019	11105.348980
64.037000	0.215074	0.124852	0.223586	0.391570	5423.700021	25322.327142	3690.453970	11097.227360
64.537500	0.213804	0.126277	0.226696	0.395288	5396.265386	25205.062737	3689.482648	11028.354425
65.035000	0.216618	0.128286	0.225257	0.399557	5388.326534	25090.104600	3680.430977	10950.006602
65.535500	0.214288	0.129865	0.228449	0.407410	5333.472480	24774.081425	3673.127415	10807.873318
66.035500	0.221544	0.130372	0.230495	0.406801	5375.729652	24829.956972	3677.279015	10818.810996
66.535500	0.224924	0.134053	0.222136	0.411627	5367.897967	24772.595989	3656.912079	10732.597841
67.038500	0.224854	0.133615	0.228288	0.413080	5359.687765	24678.280285	3664.099860	10706.840821
67.536500	0.230677	0.135376	0.243028	0.415664	5377.185472	24637.317979	3683.056937	10661.214646
68.036000	0.231523	0.136236	0.234711	0.416705	5376.131837	24628.310663	3668.416230	10642.921776
68.537000	0.231022	0.137898	0.241640	0.417619	5368.470315	24665.521825	3677.790970	10626.892861
69.034500	0.236116	0.140077	0.236056	0.419084	5388.171639	24701.093687	3666.817484	10601.278963
69.535000	0.235450	0.140387	0.242915	0.419112	5384.390212	24715.120985	3677.448519	10600.784380
70.035000	0.236634	0.140696	0.236775	0.420313	5384.295150	24670.669103	3666.029334	10579.835119
70.535500	0.239793	0.141793	0.243672	0.422980	5386.973583	24592.650690	3672.585492	10533.540399
71.035500	0.240354	0.143724	0.244401	0.427158	5367.351609	24481.536128	3667.235968	10461.592019
71.535500	0.239752	0.142303	0.250962	0.427654	5361.430648	24387.154084	3676.672315	10453.096559
72.036000	0.237652	0.141438	0.244365	0.436013	5305.748410	23938.818716	3653.638174	10311.361662
72.536500	0.241131	0.142183	0.247952	0.432761	5341.428970	24131.947704	3664.072818	10366.183789
73.036500	0.241658	0.142990	0.252843	0.435695	5328.607526	24029.008714	3667.089685	10316.714840
73.540500	0.244751	0.144278	0.250144	0.438069	5332.428727	23976.573669	3659.297838	10276.916758
74.037500	0.246645	0.145465	0.254585	0.440028	5332.083757	23939.445802	3663.099396	10244.255272
74.535000	0.242711	0.144146	0.254769	0.438723	5318.139852	23938.727218	3665.388982	10265.993157
75.034500	0.247485	0.146953	0.257469	0.441272	5329.933155	23951.125103	3665.620697	10223.575864
75.535000	0.245129	0.146007	0.249779	0.441405	5316.740407	23899.292572	3653.671535	10221.372698
76.035500	0.248059	0.146832	0.247768	0.442603	5325.914914	23881.436328	3648.830971	10201.535667
76.538500	0.245253	0.146499	0.255868	0.441567	5316.544255	23915.176975	3662.705923	10218.693959
77.036500	0.247515	0.146795	0.256771	0.443206	5319.835105	23850.744646	3661.576907	10191.563608
77.536000	0.246079	0.147527	0.246615	0.448728	5283.304077	23622.596394	3637.986262	10100.932992
78.037000	0.247760	0.148042	0.252790	0.443680	5318.622424	23887.759518	3654.786729	10183.735876
78.537000	0.245998	0.148814	0.247796	0.443599	5309.750050	23928.768772	3647.378955	10185.081924
79.037500	0.248756	0.150056	0.260728	0.444993	5316.950788	23921.453967	3664.909493	10162.106972
79.535000	0.244888	0.148817	0.246557	0.445600	5293.416356	23832.951263	3642.538770	10152.131545
80.035000	0.241787	0.148952	0.246929	0.449949	5254.777267	23632.280876	3636.647323	10081.048975
80.538500	0.248275	0.148874	0.252260	0.443267	5323.538466	23947.586547	3654.608738	10190.560390
81.036000	0.247631	0.149184	0.254797	0.444108	5315.679311	23922.070433	3657.185932	10176.679322
81.536000	0.245945	0.148838	0.244123	0.442288	5316.390595	23993.005598	3643.846225	10206.745662
82.036000	0.242404	0.148832	0.246592	0.448556	5265.136688	23692.670940	3638.204894	10103.733651
82.537000	0.245491	0.148786	0.246823	0.443542	5307.381705	23930.110048	3646.005830	10186.012379
83.037000	0.246826	0.149484	0.249271	0.444323	5310.301053	23926.164719	3648.505717	10173.146474
83.537500	0.246318	0.150733	0.245499	0.445770	5300.020093	23916.628262	3640.713422	10149.343733
84.037500	0.243320	0.148844	0.247522	0.450508	5259.791780	23600.735935	3636.696606	10071.967181
84.535000	0.246925	0.149841	0.255989	0.445665	5303.758534	23878.876330	3656.630857	10151.072557
85.035000	0.246078	0.149602	0.251806	0.445680	5299.231138	23866.690738	3650.276067	10150.810945
85.536000	0.247492	0.149531	0.262135	0.446597	5301.840992	23819.394732	3664.607529	10135.777099
86.038000	0.243077	0.148476	0.250562	0.452051	5250.603241	23510.494265	3638.908885	10046.951500
86.536500	0.247103	0.149710	0.245523	0.446940	5298.000324	23811.550163	3639.013924	10130.149195
87.036000	0.246945	0.149556	0.253797	0.447887	5292.215089	23758.978063	3649.951347	10114.658061
87.536500	0.246827	0.149337	0.257173	0.448642	5287.658543	23712.640200	3653.909773	10102.345068
88.039500	0.247603	0.149126	0.253124	0.449401	5287.740017	23666.500274	3646.667080	10089.963099
88.534000	0.246559	0.147890	0.249036	0.448609	5286.426296	23645.431330	3641.750173	10102.872050
89.035000	0.248747	0.148200	0.250262	0.449080	5295.401242	23637.834761	3642.872803	10095.195144
89.535500	0.245145	0.146726	0.246147	0.452052	5261.236977	23428.160153	3632.405334	10046.926533
90.035500	0.245783	0.147038	0.251126	0.449853	5275.920280	23546.345804	3643.009997	10082.615094
90.536000	0.242667	0.147113	0.258558	0.450377	5257.100452	23525.118912	3653.379641	10074.089434
91.036500	0.243579	0.146141	0.259425	0.450336	5262.012394	23481.336505	3654.754797	10074.763899
91.536000	0.246639	0.146415	0.251263	0.453283	5262.593042	23355.968326	3638.123232	10027.035962
92.036500	0.242868	0.145797	0.252586	0.450566	5257.162954	23454.320619	3644.123005	10071.023101
92.537000	0.244431	0.145680	0.257562	0.450649	5264.798339	23444.950422	3651.464213	10069.677564
93.034500	0.246958	0.144221	0.261305	0.451192	5275.066403	23351.155931	3656.309510	10060.867220
93.534500	0.242786	0.144921	0.247641	0.453953	5239.374627	23255.087657	3631.810667	10016.235419
94.035000	0.246468	0.145938	0.248598	0.453652	5259.808579	23316.424529	3633.654107	10021.076234
94.535500	0.246541	0.145372	0.251878	0.453010	5263.501911	23320.016004	3639.437744	10031.451766
95.035500	0.243655	0.146449	0.254250	0.454431	5241.373100	23303.929011	3640.846174	10008.526688
95.538500	0.246463	0.146488	0.258797	0.454878	5253.471698	23284.950670	3646.961900	10001.339852
96.036000	0.244952	0.144248	0.261759	0.454278	5248.800722	23208.722474	3652.321855	10011.003075
96.536500	0.244909	0.145243	0.254310	0.455428	5242.692256	23201.540696	3639.458400	9992.511460
