sample name	sample
index	1344
start time	 05-03-2021  12:49:14 PM


Wavelength (nm)	Absorbance
494.344910	NaN
494.563924	NaN
494.782919	NaN
495.001897	-0.728861
495.220856	0.002021
495.439797	-0.051929
495.658719	-0.159615
495.877624	-0.080328
496.096510	-0.026812
496.315378	0.013054
496.534227	0.070105
496.753059	0.094327
496.971872	0.016101
497.190667	0.067693
497.409444	0.073161
497.628203	0.077541
497.846943	0.078676
498.065665	0.079112
498.284369	0.080962
498.503055	0.082379
498.721723	0.084026
498.940372	0.086859
499.159003	0.086000
499.377616	0.087030
499.596210	0.087092
499.814787	0.086306
500.033345	0.086360
500.251885	0.085676
500.470406	0.084781
500.688910	0.085032
500.907395	0.083422
501.125862	0.084057
501.344311	0.083548
501.562742	0.083756
501.781154	0.083359
501.999548	0.082954
502.217924	0.083185
502.436282	0.082567
502.654621	0.081840
502.872942	0.081286
503.091245	0.081686
503.309530	0.082034
503.527797	0.082192
503.746045	0.083459
503.964275	0.083598
504.182487	0.083497
504.400681	0.083534
504.618856	0.083303
504.837013	0.083560
505.055152	0.083654
505.273273	0.082876
505.491376	0.082634
505.709460	0.082532
505.927526	0.083253
506.145574	0.083099
506.363604	0.082808
506.581615	0.082506
506.799608	0.082387
507.017583	0.081708
507.235540	0.082740
507.453478	0.082910
507.671399	0.082181
507.889301	0.081425
508.107185	0.081227
508.325050	0.082383
508.542898	0.082712
508.760727	0.083256
508.978538	0.083499
509.196330	0.083332
509.414105	0.082712
509.631861	0.083801
509.849599	0.084023
510.067319	0.085120
510.285021	0.085059
510.502704	0.084839
510.720369	0.084630
510.938016	0.084318
511.155645	0.084141
511.373255	0.084988
511.590848	0.084110
511.808422	0.084869
512.025977	0.083742
512.243515	0.083595
512.461034	0.083528
512.678536	0.083432
512.896018	0.083749
513.113483	0.083591
513.330930	0.083438
513.548358	0.082716
513.765768	0.081975
513.983160	0.083017
514.200533	0.082834
514.417889	0.083594
514.635226	0.083334
514.852545	0.082580
515.069845	0.082730
515.287128	0.082584
515.504392	0.083498
515.721638	0.082632
515.938866	0.081966
516.156075	0.081814
516.373267	0.081364
516.590440	0.080984
516.807594	0.081327
517.024731	0.080489
517.241850	0.080335
517.458950	0.080097
517.676032	0.081072
517.893095	0.080870
518.110141	0.080960
518.327168	0.080805
518.544177	0.081350
518.761168	0.081069
518.978141	0.081762
519.195095	0.082183
519.412031	0.082180
519.628949	0.082416
519.845849	0.082123
520.062731	0.082029
520.279594	0.082172
520.496439	0.082093
520.713266	0.082670
520.930074	0.082524
521.146865	0.082650
521.363637	0.082738
521.580391	0.082501
521.797127	0.083204
522.013844	0.082282
522.230543	0.082093
522.447224	0.081906
522.663887	0.082265
522.880532	0.082568
523.097158	0.082330
523.313766	0.083020
523.530356	0.083085
523.746928	0.082670
523.963481	0.083124
524.180017	0.083489
524.396534	0.083654
524.613032	0.083442
524.829513	0.083500
525.045975	0.083945
525.262420	0.083611
525.478845	0.083667
525.695253	0.083627
525.911643	0.084047
526.128014	0.083950
526.344367	0.084249
526.560702	0.084554
526.777018	0.084918
526.993316	0.084502
527.209597	0.084548
527.425858	0.085197
527.642102	0.085622
527.858328	0.085762
528.074535	0.085476
528.290724	0.085330
528.506894	0.085322
528.723047	0.084994
528.939181	0.085220
529.155297	0.085369
529.371395	0.084970
529.587475	0.084390
529.803536	0.084710
530.019579	0.085265
530.235604	0.085996
530.451611	0.085820
530.667600	0.085672
530.883570	0.085920
531.099522	0.085725
531.315456	0.086257
531.531372	0.086613
531.747269	0.086717
531.963148	0.086141
532.179009	0.085469
532.394852	0.085552
532.610676	0.085837
532.826482	0.085231
533.042271	0.085547
533.258040	0.085550
533.473792	0.085963
533.689525	0.086313
533.905240	0.086571
534.120937	0.086665
534.336616	0.086618
534.552277	0.086581
534.767919	0.086988
534.983543	0.086827
535.199149	0.086426
535.414736	0.086729
535.630306	0.086296
535.845857	0.086565
536.061390	0.086658
536.276904	0.086966
536.492401	0.086769
536.707879	0.086622
536.923339	0.086672
537.138781	0.086220
537.354204	0.085569
537.569610	0.085295
537.784997	0.085418
538.000366	0.085299
538.215716	0.085541
538.431049	0.085967
538.646363	0.086304
538.861659	0.086728
539.076937	0.087100
539.292196	0.087811
539.507438	0.088065
539.722661	0.087761
539.937866	0.088139
540.153052	0.087746
540.368221	0.087342
540.583371	0.087583
540.798503	0.087350
541.013617	0.087929
541.228712	0.087813
541.443789	0.088282
541.658848	0.088422
541.873889	0.088415
542.088912	0.088592
542.303916	0.089231
542.518902	0.089477
542.733870	0.089573
542.948820	0.090060
543.163752	0.089936
543.378665	0.089739
543.593560	0.090427
543.808437	0.090568
544.023295	0.090675
544.238136	0.090439
544.452958	0.090023
544.667762	0.090229
544.882548	0.089492
545.097315	0.089932
545.312064	0.090071
545.526795	0.089655
545.741508	0.089479
545.956203	0.090078
546.170879	0.090338
546.385537	0.090383
546.600177	0.090351
546.814799	0.090703
547.029402	0.090609
547.243988	0.090563
547.458555	0.090360
547.673103	0.090697
547.887634	0.090276
548.102146	0.090228
548.316640	0.090566
548.531116	0.090644
548.745574	0.090784
548.960013	0.090230
549.174435	0.090185
549.388838	0.090745
549.603222	0.090651
549.817589	0.090587
550.031937	0.090455
550.246267	0.090401
550.460579	0.090404
550.674873	0.090521
550.889148	0.091695
551.103405	0.092468
551.317644	0.092241
551.531865	0.092164
551.746068	0.092321
551.960252	0.092679
552.174418	0.093016
552.388566	0.093675
552.602696	0.093864
552.816807	0.093422
553.030900	0.093705
553.244975	0.094144
553.459032	0.094354
553.673070	0.094761
553.887091	0.095119
554.101093	0.095235
554.315077	0.094905
554.529042	0.095101
554.742990	0.095135
554.956919	0.094731
555.170830	0.094635
555.384722	0.095071
555.598597	0.095142
555.812453	0.095205
556.026291	0.094958
556.240111	0.095137
556.453913	0.094615
556.667696	0.094662
556.881461	0.094786
557.095208	0.095020
557.308937	0.094928
557.522647	0.095048
557.736339	0.094815
557.950013	0.094984
558.163669	0.094612
558.377307	0.094987
558.590926	0.095258
558.804527	0.094994
559.018110	0.094572
559.231675	0.094584
559.445221	0.094464
559.658749	0.094648
559.872259	0.094874
560.085751	0.095228
560.299225	0.095137
560.512680	0.094934
560.726117	0.095210
560.939536	0.096057
561.152937	0.096152
561.366319	0.095906
561.579683	0.095609
561.793029	0.095347
562.006357	0.095468
562.219667	0.095429
562.432958	0.095262
562.646231	0.095018
562.859486	0.094761
563.072723	0.094674
563.285941	0.094723
563.499141	0.095017
563.712323	0.095156
563.925487	0.095071
564.138632	0.095252
564.351760	0.095394
564.564869	0.095593
564.777960	0.095378
564.991032	0.095380
565.204087	0.095700
565.417123	0.095559
565.630141	0.095411
565.843140	0.095635
566.056122	0.095791
566.269085	0.096422
566.482030	0.096525
566.694957	0.096297
566.907866	0.096432
567.120756	0.096189
567.333628	0.096625
567.546482	0.096526
567.759318	0.096281
567.972135	0.096403
568.184935	0.096097
568.397716	0.096211
568.610478	0.096815
568.823223	0.096812
569.035949	0.097129
569.248657	0.096782
569.461347	0.097085
569.674019	0.097069
569.886672	0.097073
570.099308	0.097099
570.311925	0.096895
570.524523	0.096681
570.737104	0.096854
570.949666	0.096368
571.162210	0.096789
571.374736	0.097245
571.587244	0.097393
571.799733	0.097018
572.012205	0.096868
572.224658	0.097000
572.437092	0.096978
572.649509	0.097288
572.861907	0.098022
573.074287	0.098260
573.286649	0.097861
573.498993	0.097903
573.711318	0.097881
573.923625	0.098080
574.135914	0.098440
574.348185	0.098383
574.560438	0.097882
574.772672	0.097876
574.984888	0.097607
575.197086	0.097611
575.409266	0.097552
575.621427	0.097610
575.833570	0.097833
576.045695	0.097814
576.257802	0.098124
576.469890	0.098441
576.681961	0.098745
576.894013	0.099001
577.106046	0.099294
577.318062	0.099398
577.530059	0.099626
577.742039	0.099650
577.954000	0.099564
578.165942	0.099700
578.377867	0.099909
578.589773	0.099587
578.801661	0.099547
579.013531	0.099712
579.225382	0.100107
579.437216	0.100356
579.649031	0.100353
579.860828	0.100642
580.072606	0.100599
580.284367	0.100806
580.496109	0.100685
580.707833	0.100588
580.919539	0.100919
581.131227	0.100974
581.342896	0.101292
581.554547	0.101530
581.766180	0.101258
581.977795	0.101147
582.189391	0.100690
582.400969	0.101042
582.612529	0.101216
582.824071	0.100847
583.035595	0.100609
583.247100	0.100484
583.458587	0.100277
583.670056	0.100557
583.881506	0.100850
584.092939	0.100941
584.304353	0.101045
584.515749	0.100919
584.727127	0.101088
584.938486	0.100914
585.149828	0.100661
585.361151	0.100578
585.572456	0.100481
585.783742	0.100576
585.995011	0.100871
586.206261	0.100895
586.417493	0.101121
586.628706	0.100922
586.839902	0.101245
587.051079	0.101573
587.262238	0.101621
587.473379	0.101338
587.684502	0.101273
587.895606	0.101572
588.106692	0.101304
588.317760	0.101062
588.528810	0.101031
588.739841	0.101128
588.950855	0.101127
589.161850	0.101608
589.372827	0.101906
589.583785	0.102253
589.794726	0.102231
590.005648	0.102346
590.216552	0.102559
590.427437	0.103004
590.638305	0.103052
590.849154	0.103035
591.059985	0.103053
591.270798	0.103066
591.481592	0.102725
591.692369	0.102419
591.903127	0.102701
592.113867	0.103050
592.324588	0.102960
592.535292	0.103076
592.745977	0.103076
592.956644	0.103007
593.167293	0.103223
593.377923	0.103262
593.588536	0.103307
593.799130	0.103160
594.009706	0.102785
594.220263	0.102782
594.430803	0.102985
594.641324	0.103038
594.851827	0.102798
595.062312	0.102739
595.272778	0.102690
595.483227	0.102778
595.693657	0.103036
595.904069	0.103271
596.114462	0.103316
596.324838	0.103413
596.535195	0.103422
596.745534	0.103834
596.955855	0.103978
597.166157	0.104260
597.376441	0.104313
597.586707	0.104531
597.796955	0.104710
598.007185	0.104775
598.217396	0.104666
598.427589	0.104938
598.637764	0.104965
598.847921	0.104819
599.058060	0.104861
599.268180	0.105135
599.478282	0.104897
599.688366	0.104841
599.898431	0.104948
600.108479	0.104943
600.318508	0.105114
600.528519	0.104953
600.738511	0.105161
600.948486	0.105019
601.158442	0.105230
601.368380	0.105507
601.578300	0.105544
601.788202	0.105669
601.998085	0.105818
602.207950	0.105751
602.417797	0.106016
602.627626	0.106223
602.837436	0.106498
603.047228	0.106423
603.257002	0.106301
603.466758	0.106639
603.676496	0.106577
603.886215	0.106581
604.095916	0.106565
604.305599	0.106271
604.515264	0.106159
604.724910	0.106264
604.934538	0.106190
605.144148	0.106164
605.353740	0.106096
605.563314	0.106050
605.772869	0.106123
605.982406	0.106165
606.191925	0.106469
606.401425	0.106619
606.610908	0.106641
606.820372	0.106732
607.029818	0.106696
607.239246	0.106769
607.448655	0.106790
607.658047	0.106591
607.867420	0.106477
608.076775	0.106570
608.286111	0.106663
608.495430	0.106660
608.704730	0.106498
608.914012	0.106651
609.123275	0.106478
609.332521	0.106454
609.541748	0.106814
609.750957	0.106829
609.960148	0.106658
610.169321	0.106417
610.378475	0.106604
610.587611	0.106839
610.796729	0.106901
611.005829	0.107028
611.214910	0.107026
611.423974	0.106994
611.633019	0.107025
611.842045	0.107339
612.051054	0.107615
612.260044	0.107503
612.469017	0.107573
612.677970	0.107699
612.886906	0.107569
613.095824	0.108076
613.304723	0.108016
613.513604	0.108153
613.722467	0.108281
613.931311	0.108049
614.140138	0.108160
614.348946	0.107934
614.557736	0.107791
614.766507	0.107808
614.975261	0.107785
615.183996	0.107880
615.392713	0.107851
615.601412	0.107772
615.810092	0.108009
616.018754	0.107848
616.227399	0.107878
616.436024	0.108156
616.644632	0.108147
616.853222	0.107809
617.061793	0.107675
617.270346	0.107670
617.478880	0.107574
617.687397	0.107726
617.895895	0.107822
618.104375	0.107904
618.312837	0.107786
618.521281	0.107934
618.729706	0.108106
618.938113	0.108020
619.146502	0.108023
619.354873	0.108105
619.563226	0.107813
619.771560	0.107967
619.979876	0.107990
620.188174	0.108020
620.396453	0.108122
620.604715	0.108206
620.812958	0.108750
621.021183	0.108773
621.229390	0.108745
621.437578	0.108966
621.645748	0.108900
621.853900	0.109178
622.062034	0.109340
622.270150	0.109551
622.478247	0.109792
622.686326	0.109678
622.894387	0.109830
623.102430	0.110137
623.310454	0.110428
623.518461	0.110606
623.726449	0.110714
623.934418	0.110633
624.142370	0.110518
624.350303	0.110374
624.558218	0.110283
624.766115	0.110408
624.973994	0.110228
625.181855	0.110127
625.389697	0.110277
625.597521	0.110125
625.805327	0.110029
626.013114	0.110097
626.220883	0.110030
626.428634	0.110282
626.636367	0.110400
626.844082	0.110393
627.051778	0.110472
627.259457	0.110384
627.467117	0.110453
627.674758	0.110632
627.882382	0.110762
628.089987	0.111050
628.297574	0.111172
628.505143	0.111409
628.712694	0.111587
628.920226	0.111548
629.127740	0.111625
629.335236	0.111880
629.542714	0.112068
629.750174	0.112145
629.957615	0.112156
630.165038	0.112055
630.372443	0.112052
630.579829	0.112145
630.787198	0.112384
630.994548	0.112737
631.201880	0.112736
631.409194	0.113025
631.616489	0.113090
631.823766	0.113205
632.031025	0.113452
632.238266	0.113393
632.445489	0.113593
632.652693	0.113528
632.859879	0.113681
633.067047	0.113636
633.274197	0.113284
633.481329	0.113442
633.688442	0.113531
633.895537	0.113402
634.102614	0.113581
634.309672	0.113520
634.516713	0.113563
634.723735	0.113234
634.930739	0.113305
635.137724	0.113618
635.344692	0.113514
635.551641	0.113433
635.758572	0.113556
635.965485	0.113384
636.172379	0.113073
636.379256	0.113038
636.586114	0.112906
636.792954	0.112728
636.999775	0.112645
637.206579	0.112475
637.413364	0.112445
637.620131	0.112307
637.826880	0.112302
638.033610	0.112678
638.240323	0.112699
638.447017	0.112951
638.653692	0.113246
638.860350	0.113189
639.066990	0.113281
639.273611	0.113411
639.480214	0.113523
639.686798	0.113810
639.893365	0.113722
640.099913	0.113818
640.306443	0.113699
640.512955	0.113760
640.719449	0.113970
640.925924	0.114186
641.132381	0.114199
641.338820	0.114533
641.545241	0.114713
641.751644	0.114994
641.958028	0.115151
642.164394	0.115380
642.370742	0.115393
642.577071	0.115557
642.783383	0.115610
642.989676	0.115840
643.195951	0.115642
643.402207	0.115562
643.608446	0.115620
643.814666	0.115628
644.020868	0.115813
644.227052	0.115963
644.433218	0.115929
644.639365	0.116113
644.845494	0.116095
645.051605	0.116346
645.257698	0.116548
645.463772	0.116459
645.669828	0.116491
645.875866	0.116523
646.081886	0.116535
646.287888	0.116631
646.493871	0.116614
646.699836	0.116602
646.905783	0.116927
647.111712	0.116933
647.317622	0.117179
647.523514	0.117378
647.729388	0.117495
647.935244	0.117577
648.141082	0.117645
648.346901	0.117699
648.552702	0.117591
648.758485	0.117282
648.964250	0.117050
649.169996	0.116960
649.375724	0.117034
649.581434	0.117058
649.787126	0.117505
649.992800	0.117695
650.198455	0.117815
650.404092	0.118123
650.609711	0.118184
650.815311	0.118573
651.020894	0.118560
651.226458	0.118697
651.432004	0.118738
651.637532	0.118393
651.843041	0.118256
652.048532	0.118332
652.254006	0.118263
652.459460	0.118199
652.664897	0.118006
652.870315	0.118355
653.075716	0.118426
653.281097	0.118533
653.486461	0.118729
653.691807	0.119020
653.897134	0.119139
654.102443	0.119328
654.307734	0.119520
654.513006	0.119987
654.718261	0.119990
654.923497	0.120026
655.128715	0.120063
655.333915	0.119957
655.539096	0.119944
655.744259	0.119898
655.949404	0.120033
656.154531	0.120053
656.359640	0.119937
656.564730	0.119816
656.769802	0.119716
656.974856	0.119749
657.179892	0.119878
657.384909	0.120021
657.589908	0.119943
657.794889	0.120069
657.999852	0.120262
658.204797	0.120340
658.409723	0.120671
658.614631	0.121013
658.819521	0.121019
659.024393	0.121181
659.229246	0.121033
659.434081	0.121243
659.638898	0.121212
659.843697	0.121112
660.048478	0.121117
660.253240	0.121178
660.457984	0.120907
660.662710	0.121082
660.867417	0.121060
661.072107	0.121232
661.276778	0.121315
661.481431	0.121427
661.686066	0.121734
661.890682	0.121718
662.095281	0.121787
662.299861	0.122312
662.504422	0.122409
662.708966	0.122394
662.913491	0.122499
663.117999	0.122570
663.322488	0.122699
663.526958	0.122515
663.731411	0.122702
663.935845	0.122786
664.140261	0.122492
664.344659	0.122552
664.549038	0.122871
664.753400	0.122628
664.957743	0.122855
665.162068	0.122810
665.366375	0.122986
665.570663	0.123184
665.774933	0.123090
665.979185	0.123313
666.183419	0.123290
666.387635	0.123400
666.591832	0.123673
666.796011	0.123765
667.000172	0.123789
667.204315	0.124023
667.408439	0.124016
667.612545	0.124120
667.816634	0.124309
668.020703	0.124442
668.224755	0.124612
668.428788	0.124952
668.632803	0.125003
668.836800	0.125277
669.040779	0.125350
669.244739	0.125362
669.448681	0.125597
669.652605	0.125730
669.856511	0.126039
670.060399	0.125906
670.264268	0.125984
670.468119	0.125953
670.671952	0.126114
670.875767	0.126218
671.079563	0.126565
671.283341	0.126659
671.487101	0.126827
671.690843	0.126787
671.894567	0.126961
672.098272	0.127037
672.301959	0.127070
672.505628	0.126969
672.709278	0.127101
672.912911	0.127195
673.116525	0.127169
673.320121	0.127112
673.523699	0.127181
673.727258	0.127157
673.930799	0.127317
674.134322	0.127752
674.337827	0.127879
674.541314	0.127983
674.744782	0.128041
674.948232	0.128303
675.151664	0.128302
675.355078	0.128491
675.558474	0.128803
675.761851	0.128789
675.965210	0.128717
676.168551	0.128872
676.371873	0.129111
676.575178	0.129025
676.778464	0.128843
676.981732	0.128934
677.184981	0.129005
677.388213	0.128986
677.591426	0.129098
677.794621	0.129035
677.997798	0.129077
678.200956	0.128850
678.404097	0.129049
678.607219	0.129188
678.810323	0.129398
679.013408	0.129427
679.216476	0.129393
679.419525	0.129276
679.622556	0.129433
679.825569	0.129534
680.028563	0.129578
680.231540	0.129719
680.434498	0.129871
680.637438	0.129755
680.840359	0.129789
681.043263	0.129946
681.246148	0.130070
681.449015	0.130394
681.651864	0.130708
681.854694	0.130981
682.057506	0.131128
682.260301	0.131288
682.463076	0.131380
682.665834	0.131305
682.868573	0.131404
683.071295	0.131566
683.273998	0.131601
683.476682	0.131418
683.679349	0.131413
683.881997	0.131380
684.084627	0.131485
684.287239	0.131730
684.489833	0.131983
684.692408	0.132155
684.894965	0.132248
685.097504	0.132185
685.300025	0.132303
685.502527	0.132324
685.705012	0.132266
685.907478	0.132256
686.109925	0.132328
686.312355	0.132356
686.514766	0.132267
686.717159	0.132283
686.919534	0.132301
687.121891	0.132336
687.324230	0.132328
687.526550	0.132611
687.728852	0.132637
687.931136	0.132665
688.133401	0.132839
688.335649	0.133051
688.537878	0.133051
688.740089	0.133348
688.942281	0.133271
689.144456	0.133535
689.346612	0.133391
689.548750	0.133414
689.750870	0.133539
689.952971	0.133398
690.155055	0.133488
690.357120	0.133568
690.559167	0.133605
690.761195	0.133928
690.963206	0.133959
691.165198	0.134087
691.367172	0.134468
691.569128	0.134227
691.771065	0.134517
691.972984	0.134647
692.174885	0.134771
692.376768	0.134842
692.578633	0.134906
692.780479	0.134968
692.982308	0.135003
693.184118	0.134950
693.385909	0.135227
693.587683	0.135297
