sample name	sample
index	928
start time	 04-12-2021  12:11:47 PM


Wavelength (nm)	Absorbance
494.344910	NaN
494.563924	NaN
494.782919	NaN
495.001897	0.712373
495.220856	NaN
495.439797	0.433692
495.658719	0.284438
495.877624	-0.118676
496.096510	-0.380057
496.315378	-0.238796
496.534227	-0.323708
496.753059	-0.223742
496.971872	-0.177994
497.190667	-0.007615
497.409444	-0.000010
497.628203	0.003683
497.846943	0.004437
498.065665	0.006728
498.284369	0.006340
498.503055	0.006447
498.721723	0.006465
498.940372	0.006350
499.159003	0.007222
499.377616	0.008909
499.596210	0.008804
499.814787	0.009577
500.033345	0.009534
500.251885	0.010552
500.470406	0.010195
500.688910	0.009804
500.907395	0.011131
501.125862	0.011108
501.344311	0.011132
501.562742	0.010953
501.781154	0.011457
501.999548	0.011726
502.217924	0.011610
502.436282	0.012493
502.654621	0.012697
502.872942	0.012139
503.091245	0.011596
503.309530	0.011230
503.527797	0.011687
503.746045	0.012323
503.964275	0.011724
504.182487	0.011122
504.400681	0.011407
504.618856	0.012156
504.837013	0.012446
505.055152	0.012647
505.273273	0.012637
505.491376	0.012506
505.709460	0.011559
505.927526	0.011863
506.145574	0.012041
506.363604	0.011953
506.581615	0.011915
506.799608	0.012022
507.017583	0.012352
507.235540	0.012367
507.453478	0.012396
507.671399	0.013254
507.889301	0.013615
508.107185	0.013912
508.325050	0.014740
508.542898	0.014953
508.760727	0.015436
508.978538	0.015550
509.196330	0.015601
509.414105	0.016178
509.631861	0.015847
509.849599	0.016388
510.067319	0.016597
510.285021	0.016027
510.502704	0.016150
510.720369	0.016138
510.938016	0.016175
511.155645	0.016815
511.373255	0.017252
511.590848	0.017607
511.808422	0.017696
512.025977	0.017551
512.243515	0.017829
512.461034	0.017846
512.678536	0.017438
512.896018	0.017731
513.113483	0.017185
513.330930	0.016729
513.548358	0.016713
513.765768	0.016637
513.983160	0.016945
514.200533	0.017072
514.417889	0.017673
514.635226	0.018166
514.852545	0.018662
515.069845	0.019500
515.287128	0.020079
515.504392	0.020443
515.721638	0.020484
515.938866	0.020907
516.156075	0.020887
516.373267	0.020769
516.590440	0.020734
516.807594	0.020467
517.024731	0.020605
517.241850	0.020997
517.458950	0.020954
517.676032	0.021144
517.893095	0.021639
518.110141	0.022272
518.327168	0.022514
518.544177	0.022988
518.761168	0.023462
518.978141	0.023590
519.195095	0.023675
519.412031	0.023400
519.628949	0.023242
519.845849	0.023699
520.062731	0.023718
520.279594	0.024250
520.496439	0.024423
520.713266	0.024158
520.930074	0.024534
521.146865	0.024868
521.363637	0.025906
521.580391	0.026410
521.797127	0.026327
522.013844	0.026260
522.230543	0.026119
522.447224	0.025922
522.663887	0.026716
522.880532	0.026588
523.097158	0.026945
523.313766	0.027148
523.530356	0.027387
523.746928	0.027731
523.963481	0.028123
524.180017	0.028501
524.396534	0.028906
524.613032	0.029312
524.829513	0.029760
525.045975	0.029719
525.262420	0.029536
525.478845	0.030152
525.695253	0.030045
525.911643	0.030347
526.128014	0.030685
526.344367	0.031335
526.560702	0.031465
526.777018	0.031712
526.993316	0.032111
527.209597	0.032607
527.425858	0.032992
527.642102	0.033176
527.858328	0.033352
528.074535	0.033704
528.290724	0.033508
528.506894	0.034162
528.723047	0.034620
528.939181	0.035284
529.155297	0.035413
529.371395	0.035520
529.587475	0.036657
529.803536	0.037451
530.019579	0.037458
530.235604	0.037808
530.451611	0.037724
530.667600	0.037953
530.883570	0.038170
531.099522	0.039301
531.315456	0.039290
531.531372	0.038684
531.747269	0.038874
531.963148	0.039251
532.179009	0.039590
532.394852	0.039793
532.610676	0.040469
532.826482	0.040281
533.042271	0.040056
533.258040	0.040842
533.473792	0.041686
533.689525	0.041954
533.905240	0.042599
534.120937	0.043923
534.336616	0.044504
534.552277	0.044699
534.767919	0.044935
534.983543	0.045722
535.199149	0.045974
535.414736	0.046406
535.630306	0.046891
535.845857	0.047074
536.061390	0.047014
536.276904	0.047529
536.492401	0.047939
536.707879	0.048219
536.923339	0.048435
537.138781	0.048635
537.354204	0.048848
537.569610	0.049053
537.784997	0.049259
538.000366	0.049621
538.215716	0.049929
538.431049	0.049938
538.646363	0.050497
538.861659	0.050981
539.076937	0.051292
539.292196	0.051664
539.507438	0.052112
539.722661	0.052651
539.937866	0.052658
540.153052	0.052732
540.368221	0.052902
540.583371	0.053259
540.798503	0.053589
541.013617	0.054248
541.228712	0.054646
541.443789	0.054741
541.658848	0.055244
541.873889	0.055773
542.088912	0.055812
542.303916	0.055955
542.518902	0.056029
542.733870	0.056545
542.948820	0.057277
543.163752	0.057268
543.378665	0.057872
543.593560	0.057843
543.808437	0.058046
544.023295	0.058276
544.238136	0.059205
544.452958	0.059693
544.667762	0.059508
544.882548	0.058996
545.097315	0.059413
545.312064	0.059331
545.526795	0.059667
545.741508	0.059862
545.956203	0.060337
546.170879	0.060367
546.385537	0.060642
546.600177	0.061046
546.814799	0.061800
547.029402	0.062184
547.243988	0.062520
547.458555	0.063289
547.673103	0.063707
547.887634	0.063945
548.102146	0.064346
548.316640	0.064643
548.531116	0.064793
548.745574	0.065126
548.960013	0.065204
549.174435	0.065583
549.388838	0.065441
549.603222	0.065798
549.817589	0.066651
550.031937	0.066885
550.246267	0.067250
550.460579	0.067501
550.674873	0.067419
550.889148	0.067790
551.103405	0.068482
551.317644	0.068175
551.531865	0.068349
551.746068	0.067997
551.960252	0.067929
552.174418	0.067950
552.388566	0.068166
552.602696	0.068214
552.816807	0.068432
553.030900	0.068385
553.244975	0.069476
553.459032	0.069699
553.673070	0.069655
553.887091	0.070020
554.101093	0.070064
554.315077	0.069865
554.529042	0.070272
554.742990	0.070460
554.956919	0.070505
555.170830	0.070200
555.384722	0.070120
555.598597	0.070808
555.812453	0.071094
556.026291	0.071377
556.240111	0.071619
556.453913	0.071693
556.667696	0.072206
556.881461	0.072482
557.095208	0.072644
557.308937	0.072883
557.522647	0.073141
557.736339	0.073470
557.950013	0.073901
558.163669	0.074137
558.377307	0.074768
558.590926	0.074641
558.804527	0.075061
559.018110	0.075413
559.231675	0.076013
559.445221	0.076621
559.658749	0.076645
559.872259	0.077146
560.085751	0.077652
560.299225	0.077536
560.512680	0.077659
560.726117	0.077936
560.939536	0.078074
561.152937	0.077867
561.366319	0.077465
561.579683	0.077727
561.793029	0.077703
562.006357	0.078034
562.219667	0.078084
562.432958	0.078395
562.646231	0.078487
562.859486	0.078781
563.072723	0.079149
563.285941	0.079195
563.499141	0.079680
563.712323	0.079928
563.925487	0.080028
564.138632	0.080531
564.351760	0.080836
564.564869	0.080659
564.777960	0.081169
564.991032	0.081394
565.204087	0.081883
565.417123	0.081466
565.630141	0.081631
565.843140	0.081503
566.056122	0.081758
566.269085	0.081842
566.482030	0.082229
566.694957	0.082108
566.907866	0.082266
567.120756	0.082477
567.333628	0.083064
567.546482	0.083300
567.759318	0.083677
567.972135	0.083719
568.184935	0.083977
568.397716	0.084194
568.610478	0.084607
568.823223	0.084764
569.035949	0.084979
569.248657	0.085039
569.461347	0.084800
569.674019	0.085104
569.886672	0.085336
570.099308	0.085567
570.311925	0.085651
570.524523	0.085639
570.737104	0.085784
570.949666	0.085800
571.162210	0.085549
571.374736	0.085952
571.587244	0.086158
571.799733	0.086340
572.012205	0.086573
572.224658	0.086651
572.437092	0.086910
572.649509	0.087339
572.861907	0.087756
573.074287	0.088368
573.286649	0.088728
573.498993	0.088950
573.711318	0.089048
573.923625	0.088913
574.135914	0.089113
574.348185	0.089148
574.560438	0.089128
574.772672	0.089380
574.984888	0.089650
575.197086	0.089639
575.409266	0.089403
575.621427	0.089512
575.833570	0.089730
576.045695	0.090047
576.257802	0.090338
576.469890	0.090606
576.681961	0.090699
576.894013	0.090896
577.106046	0.091396
577.318062	0.092039
577.530059	0.092591
577.742039	0.092870
577.954000	0.093342
578.165942	0.093764
578.377867	0.093720
578.589773	0.093675
578.801661	0.093730
579.013531	0.093317
579.225382	0.093246
579.437216	0.093117
579.649031	0.093400
579.860828	0.093202
580.072606	0.093217
580.284367	0.093156
580.496109	0.093421
580.707833	0.093502
580.919539	0.094135
581.131227	0.094261
581.342896	0.094237
581.554547	0.094363
581.766180	0.094466
581.977795	0.094443
582.189391	0.094822
582.400969	0.095051
582.612529	0.095389
582.824071	0.095518
583.035595	0.095924
583.247100	0.096391
583.458587	0.096178
583.670056	0.096286
583.881506	0.096633
584.092939	0.096879
584.304353	0.097068
584.515749	0.096996
584.727127	0.097043
584.938486	0.097305
585.149828	0.097730
585.361151	0.098305
585.572456	0.098925
585.783742	0.098816
585.995011	0.099209
586.206261	0.099692
586.417493	0.100104
586.628706	0.100398
586.839902	0.100497
587.051079	0.100430
587.262238	0.100506
587.473379	0.100652
587.684502	0.100997
587.895606	0.101135
588.106692	0.101048
588.317760	0.101068
588.528810	0.101512
588.739841	0.101929
588.950855	0.102065
589.161850	0.102301
589.372827	0.102244
589.583785	0.102608
589.794726	0.102959
590.005648	0.103156
590.216552	0.103560
590.427437	0.103694
590.638305	0.103538
590.849154	0.103934
591.059985	0.103805
591.270798	0.103869
591.481592	0.103974
591.692369	0.104406
591.903127	0.104765
592.113867	0.104740
592.324588	0.104811
592.535292	0.105239
592.745977	0.105335
592.956644	0.106021
593.167293	0.106744
593.377923	0.106845
593.588536	0.106617
593.799130	0.106692
594.009706	0.107244
594.220263	0.107322
594.430803	0.107229
594.641324	0.107480
594.851827	0.107426
595.062312	0.107396
595.272778	0.107392
595.483227	0.107665
595.693657	0.107596
595.904069	0.107616
596.114462	0.107486
596.324838	0.107834
596.535195	0.107755
596.745534	0.108040
596.955855	0.107857
597.166157	0.108072
597.376441	0.108131
597.586707	0.108456
597.796955	0.108340
598.007185	0.108840
598.217396	0.109121
598.427589	0.109239
598.637764	0.109292
598.847921	0.109823
599.058060	0.110303
599.268180	0.110679
599.478282	0.110785
599.688366	0.111514
599.898431	0.111743
600.108479	0.112038
600.318508	0.112195
600.528519	0.112389
600.738511	0.112273
600.948486	0.112341
601.158442	0.112217
601.368380	0.112593
601.578300	0.112455
601.788202	0.112785
601.998085	0.112552
602.207950	0.112884
602.417797	0.113200
602.627626	0.113743
602.837436	0.113894
603.047228	0.114212
603.257002	0.114175
603.466758	0.114236
603.676496	0.114183
603.886215	0.114482
604.095916	0.114716
604.305599	0.114687
604.515264	0.114702
604.724910	0.115145
604.934538	0.115550
605.144148	0.116056
605.353740	0.116164
605.563314	0.116369
605.772869	0.116536
605.982406	0.116613
606.191925	0.117028
606.401425	0.116877
606.610908	0.116977
606.820372	0.117100
607.029818	0.116904
607.239246	0.116977
607.448655	0.117197
607.658047	0.117382
607.867420	0.117391
608.076775	0.117499
608.286111	0.117972
608.495430	0.117790
608.704730	0.117849
608.914012	0.118145
609.123275	0.118422
609.332521	0.118690
609.541748	0.118744
609.750957	0.119010
609.960148	0.119123
610.169321	0.119298
610.378475	0.119921
610.587611	0.119863
610.796729	0.119852
611.005829	0.119984
611.214910	0.120108
611.423974	0.120410
611.633019	0.120339
611.842045	0.120794
612.051054	0.120963
612.260044	0.120681
612.469017	0.121038
612.677970	0.121385
612.886906	0.121499
613.095824	0.121320
613.304723	0.121406
613.513604	0.121727
613.722467	0.121650
613.931311	0.121998
614.140138	0.122333
614.348946	0.122253
614.557736	0.122406
614.766507	0.122921
614.975261	0.123292
615.183996	0.123497
615.392713	0.123848
615.601412	0.124005
615.810092	0.123958
616.018754	0.124012
616.227399	0.124453
616.436024	0.124721
616.644632	0.124773
616.853222	0.125191
617.061793	0.125515
617.270346	0.125639
617.478880	0.125813
617.687397	0.126233
617.895895	0.126520
618.104375	0.126727
618.312837	0.126706
618.521281	0.126987
618.729706	0.127330
618.938113	0.127313
619.146502	0.127478
619.354873	0.127604
619.563226	0.127545
619.771560	0.127642
619.979876	0.127934
620.188174	0.128193
620.396453	0.128227
620.604715	0.127926
620.812958	0.128156
621.021183	0.128530
621.229390	0.128698
621.437578	0.128780
621.645748	0.128836
621.853900	0.128786
622.062034	0.129026
622.270150	0.129237
622.478247	0.129490
622.686326	0.129641
622.894387	0.129348
623.102430	0.129339
623.310454	0.129311
623.518461	0.129338
623.726449	0.129300
623.934418	0.129236
624.142370	0.129300
624.350303	0.129582
624.558218	0.129664
624.766115	0.130041
624.973994	0.130228
625.181855	0.130675
625.389697	0.131185
625.597521	0.131749
625.805327	0.132182
626.013114	0.132429
626.220883	0.132470
626.428634	0.132730
626.636367	0.133085
626.844082	0.133423
627.051778	0.133477
627.259457	0.133559
627.467117	0.133678
627.674758	0.133782
627.882382	0.134083
628.089987	0.134137
628.297574	0.134236
628.505143	0.134309
628.712694	0.134609
628.920226	0.134853
629.127740	0.135061
629.335236	0.135188
629.542714	0.135157
629.750174	0.135349
629.957615	0.135679
630.165038	0.135956
630.372443	0.136016
630.579829	0.136110
630.787198	0.136324
630.994548	0.136689
631.201880	0.136632
631.409194	0.136780
631.616489	0.136938
631.823766	0.136862
632.031025	0.136875
632.238266	0.137195
632.445489	0.137164
632.652693	0.137225
632.859879	0.136974
633.067047	0.137137
633.274197	0.137612
633.481329	0.137522
633.688442	0.138207
633.895537	0.138443
634.102614	0.138539
634.309672	0.138815
634.516713	0.139008
634.723735	0.139551
634.930739	0.139787
635.137724	0.139833
635.344692	0.140074
635.551641	0.139829
635.758572	0.139832
635.965485	0.140071
636.172379	0.140505
636.379256	0.140761
636.586114	0.140981
636.792954	0.141149
636.999775	0.141230
637.206579	0.141142
637.413364	0.141270
637.620131	0.141701
637.826880	0.142069
638.033610	0.142123
638.240323	0.142427
638.447017	0.142277
638.653692	0.142331
638.860350	0.142571
639.066990	0.142976
639.273611	0.143432
639.480214	0.143612
639.686798	0.143815
639.893365	0.143824
640.099913	0.143809
640.306443	0.144334
640.512955	0.144778
640.719449	0.145061
640.925924	0.145403
641.132381	0.145484
641.338820	0.145729
641.545241	0.145752
641.751644	0.146055
641.958028	0.146575
642.164394	0.146585
642.370742	0.146803
642.577071	0.146963
642.783383	0.147285
642.989676	0.147731
643.195951	0.147759
643.402207	0.147840
643.608446	0.147901
643.814666	0.147690
644.020868	0.147802
644.227052	0.147968
644.433218	0.148245
644.639365	0.148234
644.845494	0.148267
645.051605	0.148598
645.257698	0.149008
645.463772	0.149415
645.669828	0.149725
645.875866	0.149748
646.081886	0.149915
646.287888	0.149909
646.493871	0.149982
646.699836	0.149948
646.905783	0.150003
647.111712	0.150124
647.317622	0.150334
647.523514	0.150525
647.729388	0.150899
647.935244	0.151221
648.141082	0.151758
648.346901	0.152404
648.552702	0.152781
648.758485	0.153120
648.964250	0.153152
649.169996	0.153365
649.375724	0.153921
649.581434	0.154491
649.787126	0.154670
649.992800	0.154609
650.198455	0.154640
650.404092	0.154794
650.609711	0.155019
650.815311	0.155416
651.020894	0.155622
651.226458	0.155693
651.432004	0.155609
651.637532	0.155788
651.843041	0.156299
652.048532	0.156478
652.254006	0.156791
652.459460	0.156988
652.664897	0.156814
652.870315	0.156908
653.075716	0.156946
653.281097	0.157265
653.486461	0.157266
653.691807	0.157011
653.897134	0.157267
654.102443	0.157529
654.307734	0.157851
654.513006	0.158438
654.718261	0.158571
654.923497	0.158834
655.128715	0.159081
655.333915	0.159522
655.539096	0.160097
655.744259	0.160107
655.949404	0.160228
656.154531	0.160242
656.359640	0.160369
656.564730	0.160847
656.769802	0.161115
656.974856	0.161191
657.179892	0.161369
657.384909	0.161456
657.589908	0.161742
657.794889	0.162019
657.999852	0.162430
658.204797	0.162578
658.409723	0.162725
658.614631	0.162844
658.819521	0.163147
659.024393	0.163264
659.229246	0.163459
659.434081	0.163688
659.638898	0.163926
659.843697	0.164013
660.048478	0.164348
660.253240	0.164471
660.457984	0.164605
660.662710	0.164695
660.867417	0.164998
661.072107	0.165055
661.276778	0.165181
661.481431	0.165442
661.686066	0.165552
661.890682	0.165532
662.095281	0.165769
662.299861	0.166032
662.504422	0.166391
662.708966	0.166427
662.913491	0.166716
663.117999	0.167113
663.322488	0.167215
663.526958	0.167456
663.731411	0.167770
663.935845	0.167953
664.140261	0.168348
664.344659	0.168401
664.549038	0.168973
664.753400	0.169360
664.957743	0.169423
665.162068	0.169601
665.366375	0.169845
665.570663	0.169987
665.774933	0.170284
665.979185	0.170273
666.183419	0.170527
666.387635	0.170751
666.591832	0.171000
666.796011	0.171398
667.000172	0.171957
667.204315	0.172078
667.408439	0.172434
667.612545	0.172534
667.816634	0.172861
668.020703	0.173265
668.224755	0.173232
668.428788	0.173245
668.632803	0.173332
668.836800	0.173204
669.040779	0.173490
669.244739	0.173684
669.448681	0.173993
669.652605	0.174427
669.856511	0.174597
670.060399	0.174676
670.264268	0.174820
670.468119	0.175161
670.671952	0.175665
670.875767	0.176055
671.079563	0.176455
671.283341	0.176673
671.487101	0.176930
671.690843	0.177158
671.894567	0.177713
672.098272	0.178429
672.301959	0.178709
672.505628	0.178982
672.709278	0.179171
672.912911	0.179351
673.116525	0.179727
673.320121	0.179877
673.523699	0.180115
673.727258	0.180125
673.930799	0.179922
674.134322	0.180089
674.337827	0.180023
674.541314	0.180344
674.744782	0.180631
674.948232	0.180838
675.151664	0.180862
675.355078	0.181335
675.558474	0.181751
675.761851	0.182174
675.965210	0.182360
676.168551	0.182784
676.371873	0.182919
676.575178	0.183181
676.778464	0.183454
676.981732	0.183834
677.184981	0.183824
677.388213	0.184029
677.591426	0.184460
677.794621	0.184805
677.997798	0.184913
678.200956	0.185182
678.404097	0.185224
678.607219	0.185414
678.810323	0.185559
679.013408	0.185894
679.216476	0.186116
679.419525	0.186174
679.622556	0.186471
679.825569	0.186632
680.028563	0.186734
680.231540	0.187049
680.434498	0.187060
680.637438	0.187248
680.840359	0.187390
681.043263	0.187547
681.246148	0.187706
681.449015	0.187690
681.651864	0.188164
681.854694	0.188479
682.057506	0.188792
682.260301	0.189047
682.463076	0.189316
682.665834	0.189652
682.868573	0.189993
683.071295	0.190199
683.273998	0.190545
683.476682	0.190508
683.679349	0.190778
683.881997	0.190885
684.084627	0.190999
684.287239	0.191166
684.489833	0.191093
684.692408	0.191243
684.894965	0.191362
685.097504	0.191666
685.300025	0.191924
685.502527	0.192224
685.705012	0.192375
685.907478	0.192666
686.109925	0.192867
686.312355	0.193076
686.514766	0.193111
686.717159	0.193406
686.919534	0.193474
687.121891	0.193701
687.324230	0.193730
687.526550	0.193846
687.728852	0.194345
687.931136	0.194662
688.133401	0.195049
688.335649	0.195528
688.537878	0.195668
688.740089	0.196068
688.942281	0.196401
689.144456	0.196691
689.346612	0.197007
689.548750	0.197089
689.750870	0.197353
689.952971	0.197523
690.155055	0.197680
690.357120	0.198263
690.559167	0.198245
690.761195	0.198371
690.963206	0.198657
691.165198	0.198874
691.367172	0.198965
691.569128	0.199151
691.771065	0.199546
691.972984	0.199943
692.174885	0.199826
692.376768	0.200097
692.578633	0.200403
692.780479	0.200463
692.982308	0.200576
693.184118	0.200859
693.385909	0.200952
693.587683	0.200898
