sample name	sample
index	1373
start time	 05-03-2021  02:31:33 PM


Wavelength (nm)	Absorbance
494.344910	0.185190
494.563924	0.185190
494.782919	0.185190
495.001897	NaN
495.220856	0.045098
495.439797	-0.027482
495.658719	0.000726
495.877624	-0.017172
496.096510	-0.032721
496.315378	0.005048
496.534227	0.111760
496.753059	0.066149
496.971872	0.045483
497.190667	0.142286
497.409444	0.151704
497.628203	0.156304
497.846943	0.153444
498.065665	0.155906
498.284369	0.154682
498.503055	0.152285
498.721723	0.154267
498.940372	0.156630
499.159003	0.157256
499.377616	0.156348
499.596210	0.154917
499.814787	0.155288
500.033345	0.154040
500.251885	0.155428
500.470406	0.156691
500.688910	0.154586
500.907395	0.152818
501.125862	0.151729
501.344311	0.152623
501.562742	0.151938
501.781154	0.153187
501.999548	0.153486
502.217924	0.152978
502.436282	0.152862
502.654621	0.153896
502.872942	0.153880
503.091245	0.155100
503.309530	0.154324
503.527797	0.155072
503.746045	0.154797
503.964275	0.155597
504.182487	0.155637
504.400681	0.156183
504.618856	0.157524
504.837013	0.158909
505.055152	0.159800
505.273273	0.161001
505.491376	0.161303
505.709460	0.161983
505.927526	0.162243
506.145574	0.161852
506.363604	0.160775
506.581615	0.161051
506.799608	0.160309
507.017583	0.159552
507.235540	0.158128
507.453478	0.157638
507.671399	0.157344
507.889301	0.156203
508.107185	0.156282
508.325050	0.157460
508.542898	0.157172
508.760727	0.158142
508.978538	0.158991
509.196330	0.160187
509.414105	0.161121
509.631861	0.161411
509.849599	0.162094
510.067319	0.163003
510.285021	0.163342
510.502704	0.162400
510.720369	0.161148
510.938016	0.161007
511.155645	0.160877
511.373255	0.160647
511.590848	0.160653
511.808422	0.161556
512.025977	0.161384
512.243515	0.160742
512.461034	0.161762
512.678536	0.162808
512.896018	0.162658
513.113483	0.163141
513.330930	0.163425
513.548358	0.163094
513.765768	0.162575
513.983160	0.163077
514.200533	0.164089
514.417889	0.164327
514.635226	0.163761
514.852545	0.164192
515.069845	0.165803
515.287128	0.165313
515.504392	0.165453
515.721638	0.165233
515.938866	0.165763
516.156075	0.165533
516.373267	0.164520
516.590440	0.165003
516.807594	0.164118
517.024731	0.163437
517.241850	0.164406
517.458950	0.164465
517.676032	0.165172
517.893095	0.164959
518.110141	0.165730
518.327168	0.166821
518.544177	0.166649
518.761168	0.166784
518.978141	0.166995
519.195095	0.167451
519.412031	0.167919
519.628949	0.167576
519.845849	0.167326
520.062731	0.167321
520.279594	0.167619
520.496439	0.168520
520.713266	0.169119
520.930074	0.169213
521.146865	0.168814
521.363637	0.169194
521.580391	0.168629
521.797127	0.169079
522.013844	0.169105
522.230543	0.168455
522.447224	0.168351
522.663887	0.168605
522.880532	0.168344
523.097158	0.168258
523.313766	0.168512
523.530356	0.169281
523.746928	0.169327
523.963481	0.169051
524.180017	0.170858
524.396534	0.171348
524.613032	0.171793
524.829513	0.171594
525.045975	0.172684
525.262420	0.173115
525.478845	0.174282
525.695253	0.175001
525.911643	0.175887
526.128014	0.175540
526.344367	0.175227
526.560702	0.175392
526.777018	0.176399
526.993316	0.176891
527.209597	0.177311
527.425858	0.177934
527.642102	0.178046
527.858328	0.178293
528.074535	0.178391
528.290724	0.179799
528.506894	0.181017
528.723047	0.181709
528.939181	0.181355
529.155297	0.182003
529.371395	0.181057
529.587475	0.181850
529.803536	0.182211
530.019579	0.182658
530.235604	0.182753
530.451611	0.182671
530.667600	0.182547
530.883570	0.182848
531.099522	0.183151
531.315456	0.183609
531.531372	0.184301
531.747269	0.184779
531.963148	0.185277
532.179009	0.184996
532.394852	0.185046
532.610676	0.185636
532.826482	0.186742
533.042271	0.186202
533.258040	0.187021
533.473792	0.186825
533.689525	0.186980
533.905240	0.187261
534.120937	0.187456
534.336616	0.187417
534.552277	0.188378
534.767919	0.187980
534.983543	0.189430
535.199149	0.189583
535.414736	0.189807
535.630306	0.190387
535.845857	0.190045
536.061390	0.191136
536.276904	0.191638
536.492401	0.191425
536.707879	0.192443
536.923339	0.192000
537.138781	0.192467
537.354204	0.193143
537.569610	0.193005
537.784997	0.193900
538.000366	0.194477
538.215716	0.194849
538.431049	0.194985
538.646363	0.194838
538.861659	0.195135
539.076937	0.195498
539.292196	0.195390
539.507438	0.196226
539.722661	0.196918
539.937866	0.196649
540.153052	0.197250
540.368221	0.197530
540.583371	0.197822
540.798503	0.198661
541.013617	0.199333
541.228712	0.199797
541.443789	0.199834
541.658848	0.199900
541.873889	0.200401
542.088912	0.200736
542.303916	0.201196
542.518902	0.201884
542.733870	0.202270
542.948820	0.202172
543.163752	0.202465
543.378665	0.202966
543.593560	0.203073
543.808437	0.203485
544.023295	0.203342
544.238136	0.203512
544.452958	0.203199
544.667762	0.202968
544.882548	0.203601
545.097315	0.203801
545.312064	0.203955
545.526795	0.203972
545.741508	0.203924
545.956203	0.204253
546.170879	0.204383
546.385537	0.204654
546.600177	0.204820
546.814799	0.204987
547.029402	0.205410
547.243988	0.205298
547.458555	0.206172
547.673103	0.206743
547.887634	0.207309
548.102146	0.207841
548.316640	0.208442
548.531116	0.209014
548.745574	0.209093
548.960013	0.209140
549.174435	0.209509
549.388838	0.209924
549.603222	0.209262
549.817589	0.209432
550.031937	0.208582
550.246267	0.208712
550.460579	0.208566
550.674873	0.208793
550.889148	0.209105
551.103405	0.209421
551.317644	0.209294
551.531865	0.210124
551.746068	0.210530
551.960252	0.211599
552.174418	0.211509
552.388566	0.211907
552.602696	0.211829
552.816807	0.211840
553.030900	0.212376
553.244975	0.212223
553.459032	0.212900
553.673070	0.212680
553.887091	0.212493
554.101093	0.213481
554.315077	0.214349
554.529042	0.215177
554.742990	0.215811
554.956919	0.216075
555.170830	0.216810
555.384722	0.216508
555.598597	0.216778
555.812453	0.217163
556.026291	0.216917
556.240111	0.216875
556.453913	0.217037
556.667696	0.217088
556.881461	0.216613
557.095208	0.216547
557.308937	0.217010
557.522647	0.217184
557.736339	0.217935
557.950013	0.217807
558.163669	0.217380
558.377307	0.217362
558.590926	0.217361
558.804527	0.218056
559.018110	0.218379
559.231675	0.218718
559.445221	0.218719
559.658749	0.218613
559.872259	0.219138
560.085751	0.219643
560.299225	0.219721
560.512680	0.219691
560.726117	0.219647
560.939536	0.219687
561.152937	0.219322
561.366319	0.219989
561.579683	0.220158
561.793029	0.219959
562.006357	0.220058
562.219667	0.220144
562.432958	0.219822
562.646231	0.219998
562.859486	0.219743
563.072723	0.219960
563.285941	0.220336
563.499141	0.220078
563.712323	0.220430
563.925487	0.220556
564.138632	0.220688
564.351760	0.221133
564.564869	0.220969
564.777960	0.221362
564.991032	0.221838
565.204087	0.221396
565.417123	0.221924
565.630141	0.221889
565.843140	0.222136
566.056122	0.222675
566.269085	0.223396
566.482030	0.223829
566.694957	0.224173
566.907866	0.224014
567.120756	0.224327
567.333628	0.224674
567.546482	0.224854
567.759318	0.225051
567.972135	0.224696
568.184935	0.224451
568.397716	0.224393
568.610478	0.224204
568.823223	0.224303
569.035949	0.224430
569.248657	0.224425
569.461347	0.224558
569.674019	0.224091
569.886672	0.224403
570.099308	0.224503
570.311925	0.224594
570.524523	0.224731
570.737104	0.224867
570.949666	0.224898
571.162210	0.225151
571.374736	0.225663
571.587244	0.225927
571.799733	0.226109
572.012205	0.226711
572.224658	0.227155
572.437092	0.227630
572.649509	0.227818
572.861907	0.228094
573.074287	0.228179
573.286649	0.227936
573.498993	0.228074
573.711318	0.228166
573.923625	0.228053
574.135914	0.227910
574.348185	0.227670
574.560438	0.227953
574.772672	0.228166
574.984888	0.228303
575.197086	0.228689
575.409266	0.229179
575.621427	0.228989
575.833570	0.229140
576.045695	0.229092
576.257802	0.229605
576.469890	0.229236
576.681961	0.228910
576.894013	0.229044
577.106046	0.229366
577.318062	0.229463
577.530059	0.229934
577.742039	0.229825
577.954000	0.229895
578.165942	0.229742
578.377867	0.230210
578.589773	0.230534
578.801661	0.230702
579.013531	0.230513
579.225382	0.230323
579.437216	0.230502
579.649031	0.230965
579.860828	0.231140
580.072606	0.231673
580.284367	0.232199
580.496109	0.232395
580.707833	0.232531
580.919539	0.232786
581.131227	0.233563
581.342896	0.233569
581.554547	0.233496
581.766180	0.233944
581.977795	0.233775
582.189391	0.233439
582.400969	0.233750
582.612529	0.233496
582.824071	0.233793
583.035595	0.233216
583.247100	0.233185
583.458587	0.233897
583.670056	0.233938
583.881506	0.234016
584.092939	0.234167
584.304353	0.233985
584.515749	0.234382
584.727127	0.234233
584.938486	0.234596
585.149828	0.235277
585.361151	0.234635
585.572456	0.234967
585.783742	0.235367
585.995011	0.235400
586.206261	0.235985
586.417493	0.236068
586.628706	0.236541
586.839902	0.236891
587.051079	0.236460
587.262238	0.236870
587.473379	0.236729
587.684502	0.236775
587.895606	0.237308
588.106692	0.237250
588.317760	0.237543
588.528810	0.237619
588.739841	0.238003
588.950855	0.238386
589.161850	0.238633
589.372827	0.239174
589.583785	0.239302
589.794726	0.239011
590.005648	0.239500
590.216552	0.239519
590.427437	0.239524
590.638305	0.239609
590.849154	0.239909
591.059985	0.240369
591.270798	0.240327
591.481592	0.240927
591.692369	0.241084
591.903127	0.240681
592.113867	0.240735
592.324588	0.241194
592.535292	0.240975
592.745977	0.240997
592.956644	0.240580
593.167293	0.240520
593.377923	0.240066
593.588536	0.240698
593.799130	0.241095
594.009706	0.241300
594.220263	0.241094
594.430803	0.241195
594.641324	0.241361
594.851827	0.241534
595.062312	0.241986
595.272778	0.242075
595.483227	0.241672
595.693657	0.241774
595.904069	0.241854
596.114462	0.241967
596.324838	0.242304
596.535195	0.242335
596.745534	0.242857
596.955855	0.242845
597.166157	0.243174
597.376441	0.243539
597.586707	0.243798
597.796955	0.244094
598.007185	0.244312
598.217396	0.244441
598.427589	0.244796
598.637764	0.244701
598.847921	0.244798
599.058060	0.245008
599.268180	0.245418
599.478282	0.246081
599.688366	0.246005
599.898431	0.246136
600.108479	0.246755
600.318508	0.246858
600.528519	0.247409
600.738511	0.247777
600.948486	0.248037
601.158442	0.247894
601.368380	0.247415
601.578300	0.247963
601.788202	0.248405
601.998085	0.248258
602.207950	0.248589
602.417797	0.248740
602.627626	0.248990
602.837436	0.249355
603.047228	0.249770
603.257002	0.250194
603.466758	0.250444
603.676496	0.250598
603.886215	0.250699
604.095916	0.250614
604.305599	0.250438
604.515264	0.250766
604.724910	0.250268
604.934538	0.250216
605.144148	0.250400
605.353740	0.250262
605.563314	0.249877
605.772869	0.250129
605.982406	0.250346
606.191925	0.250784
606.401425	0.250569
606.610908	0.251299
606.820372	0.251200
607.029818	0.251251
607.239246	0.251392
607.448655	0.251932
607.658047	0.251995
607.867420	0.252078
608.076775	0.251864
608.286111	0.252210
608.495430	0.252157
608.704730	0.252769
608.914012	0.252629
609.123275	0.252733
609.332521	0.252841
609.541748	0.253037
609.750957	0.252922
609.960148	0.253435
610.169321	0.253267
610.378475	0.253474
610.587611	0.253474
610.796729	0.253850
611.005829	0.253998
611.214910	0.254236
611.423974	0.254113
611.633019	0.254711
611.842045	0.254525
612.051054	0.254618
612.260044	0.254809
612.469017	0.254918
612.677970	0.255046
612.886906	0.255210
613.095824	0.255025
613.304723	0.255417
613.513604	0.255412
613.722467	0.255649
613.931311	0.256010
614.140138	0.256219
614.348946	0.256115
614.557736	0.256156
614.766507	0.256611
614.975261	0.256455
615.183996	0.256276
615.392713	0.256548
615.601412	0.256719
615.810092	0.256914
616.018754	0.257116
616.227399	0.257303
616.436024	0.257531
616.644632	0.257446
616.853222	0.257550
617.061793	0.257925
617.270346	0.257796
617.478880	0.257921
617.687397	0.257908
617.895895	0.257744
618.104375	0.258022
618.312837	0.258089
618.521281	0.258093
618.729706	0.258678
618.938113	0.259012
619.146502	0.258809
619.354873	0.258789
619.563226	0.259112
619.771560	0.259361
619.979876	0.260032
620.188174	0.260403
620.396453	0.260560
620.604715	0.260787
620.812958	0.260571
621.021183	0.261338
621.229390	0.261783
621.437578	0.261724
621.645748	0.261913
621.853900	0.261453
622.062034	0.261234
622.270150	0.261564
622.478247	0.261752
622.686326	0.261895
622.894387	0.262037
623.102430	0.262287
623.310454	0.262413
623.518461	0.262167
623.726449	0.262390
623.934418	0.262675
624.142370	0.262767
624.350303	0.262520
624.558218	0.262779
624.766115	0.262765
624.973994	0.262469
625.181855	0.262853
625.389697	0.263341
625.597521	0.263529
625.805327	0.263308
626.013114	0.263375
626.220883	0.263913
626.428634	0.263851
626.636367	0.264022
626.844082	0.264412
627.051778	0.264468
627.259457	0.264671
627.467117	0.264876
627.674758	0.265270
627.882382	0.265493
628.089987	0.265624
628.297574	0.265890
628.505143	0.265932
628.712694	0.266100
628.920226	0.266299
629.127740	0.266193
629.335236	0.266407
629.542714	0.266460
629.750174	0.266552
629.957615	0.266760
630.165038	0.267269
630.372443	0.267377
630.579829	0.267504
630.787198	0.267447
630.994548	0.267462
631.201880	0.267611
631.409194	0.268238
631.616489	0.268617
631.823766	0.268554
632.031025	0.268805
632.238266	0.269104
632.445489	0.269150
632.652693	0.269168
632.859879	0.269820
633.067047	0.270187
633.274197	0.270063
633.481329	0.269880
633.688442	0.270311
633.895537	0.270147
634.102614	0.270370
634.309672	0.270536
634.516713	0.270823
634.723735	0.270817
634.930739	0.270641
635.137724	0.270779
635.344692	0.270983
635.551641	0.270932
635.758572	0.270757
635.965485	0.270765
636.172379	0.270844
636.379256	0.271009
636.586114	0.271021
636.792954	0.271187
636.999775	0.271133
637.206579	0.271207
637.413364	0.271380
637.620131	0.271665
637.826880	0.271540
638.033610	0.271641
638.240323	0.271779
638.447017	0.271749
638.653692	0.271587
638.860350	0.271674
639.066990	0.271734
639.273611	0.272019
639.480214	0.272229
639.686798	0.272456
639.893365	0.272648
640.099913	0.272943
640.306443	0.273256
640.512955	0.273726
640.719449	0.274094
640.925924	0.274406
641.132381	0.274376
641.338820	0.274629
641.545241	0.275023
641.751644	0.275305
641.958028	0.275719
642.164394	0.275923
642.370742	0.275992
642.577071	0.276038
642.783383	0.276346
642.989676	0.276542
643.195951	0.276502
643.402207	0.276802
643.608446	0.276829
643.814666	0.276910
644.020868	0.277048
644.227052	0.277272
644.433218	0.277419
644.639365	0.277580
644.845494	0.277688
645.051605	0.278280
645.257698	0.278400
645.463772	0.278735
645.669828	0.278610
645.875866	0.278685
646.081886	0.278587
646.287888	0.279021
646.493871	0.279037
646.699836	0.279378
646.905783	0.279045
647.111712	0.278962
647.317622	0.278815
647.523514	0.278968
647.729388	0.279221
647.935244	0.279637
648.141082	0.279697
648.346901	0.280013
648.552702	0.280156
648.758485	0.280546
648.964250	0.280893
649.169996	0.281527
649.375724	0.282134
649.581434	0.282220
649.787126	0.282314
649.992800	0.282493
650.198455	0.282683
650.404092	0.282639
650.609711	0.282825
650.815311	0.283086
651.020894	0.282955
651.226458	0.283128
651.432004	0.283698
651.637532	0.284051
651.843041	0.284288
652.048532	0.284614
652.254006	0.284980
652.459460	0.285246
652.664897	0.285042
652.870315	0.285513
653.075716	0.285462
653.281097	0.285436
653.486461	0.285578
653.691807	0.285445
653.897134	0.285348
654.102443	0.285544
654.307734	0.285644
654.513006	0.286287
654.718261	0.286246
654.923497	0.286554
655.128715	0.286690
655.333915	0.286915
655.539096	0.287386
655.744259	0.287490
655.949404	0.287456
656.154531	0.287800
656.359640	0.287994
656.564730	0.288170
656.769802	0.288295
656.974856	0.288368
657.179892	0.288324
657.384909	0.288476
657.589908	0.288671
657.794889	0.289104
657.999852	0.289094
658.204797	0.288897
658.409723	0.289030
658.614631	0.289126
658.819521	0.289204
659.024393	0.289603
659.229246	0.289887
659.434081	0.290068
659.638898	0.289986
659.843697	0.290028
660.048478	0.290349
660.253240	0.290446
660.457984	0.290429
660.662710	0.290738
660.867417	0.290754
661.072107	0.291103
661.276778	0.291257
661.481431	0.291832
661.686066	0.291872
661.890682	0.292007
662.095281	0.292535
662.299861	0.292619
662.504422	0.293012
662.708966	0.293396
662.913491	0.293550
663.117999	0.294114
663.322488	0.294014
663.526958	0.294589
663.731411	0.294768
663.935845	0.294786
664.140261	0.295101
664.344659	0.295311
664.549038	0.295197
664.753400	0.295020
664.957743	0.295157
665.162068	0.295487
665.366375	0.295450
665.570663	0.295650
665.774933	0.295753
665.979185	0.295854
666.183419	0.295605
666.387635	0.296002
666.591832	0.296388
666.796011	0.296345
667.000172	0.296506
667.204315	0.296818
667.408439	0.296912
667.612545	0.297110
667.816634	0.297555
668.020703	0.298044
668.224755	0.298270
668.428788	0.298531
668.632803	0.298653
668.836800	0.298690
669.040779	0.298989
669.244739	0.299373
669.448681	0.299617
669.652605	0.299826
669.856511	0.299900
670.060399	0.300185
670.264268	0.300408
670.468119	0.300637
670.671952	0.300750
670.875767	0.301009
671.079563	0.301097
671.283341	0.301498
671.487101	0.301640
671.690843	0.302166
671.894567	0.302123
672.098272	0.302184
672.301959	0.302686
672.505628	0.303126
672.709278	0.303285
672.912911	0.303512
673.116525	0.303569
673.320121	0.303893
673.523699	0.303779
673.727258	0.304508
673.930799	0.304712
674.134322	0.304515
674.337827	0.304745
674.541314	0.304816
674.744782	0.304929
674.948232	0.305039
675.151664	0.305161
675.355078	0.305473
675.558474	0.305229
675.761851	0.305396
675.965210	0.305555
676.168551	0.305394
676.371873	0.305809
676.575178	0.306173
676.778464	0.306100
676.981732	0.306067
677.184981	0.306160
677.388213	0.306315
677.591426	0.306530
677.794621	0.306789
677.997798	0.307208
678.200956	0.307371
678.404097	0.307372
678.607219	0.307735
678.810323	0.308093
679.013408	0.308338
679.216476	0.308770
679.419525	0.309179
679.622556	0.309604
679.825569	0.309847
680.028563	0.309845
680.231540	0.310121
680.434498	0.310636
680.637438	0.311076
680.840359	0.311622
681.043263	0.311644
681.246148	0.311595
681.449015	0.311804
681.651864	0.312250
681.854694	0.312653
682.057506	0.312686
682.260301	0.312628
682.463076	0.312728
682.665834	0.312748
682.868573	0.313030
683.071295	0.313368
683.273998	0.313671
683.476682	0.313751
683.679349	0.313958
683.881997	0.314572
684.084627	0.315027
684.287239	0.315209
684.489833	0.315253
684.692408	0.315354
684.894965	0.315364
685.097504	0.315641
685.300025	0.315714
685.502527	0.315745
685.705012	0.315783
685.907478	0.315652
686.109925	0.315573
686.312355	0.315874
686.514766	0.316195
686.717159	0.316546
686.919534	0.316421
687.121891	0.316760
687.324230	0.316913
687.526550	0.317270
687.728852	0.317459
687.931136	0.317569
688.133401	0.317641
688.335649	0.317757
688.537878	0.317783
688.740089	0.318075
688.942281	0.318065
689.144456	0.318191
689.346612	0.318086
689.548750	0.318277
689.750870	0.318757
689.952971	0.318859
690.155055	0.319084
690.357120	0.319432
690.559167	0.319511
690.761195	0.319708
690.963206	0.320049
691.165198	0.320224
691.367172	0.320734
691.569128	0.320650
691.771065	0.321163
691.972984	0.321506
692.174885	0.321836
692.376768	0.322204
692.578633	0.322236
692.780479	0.322177
692.982308	0.322469
693.184118	0.322514
693.385909	0.322609
