sample name	sample
index	934
start time	 04-12-2021  12:36:12 PM


Wavelength (nm)	Absorbance
494.344910	0.100318
494.563924	0.100318
494.782919	0.100318
495.001897	-0.679106
495.220856	-0.144855
495.439797	-0.263295
495.658719	-0.174376
495.877624	-0.031742
496.096510	0.180114
496.315378	0.160615
496.534227	0.826448
496.753059	NaN
496.971872	1.399901
497.190667	0.118741
497.409444	0.119926
497.628203	0.121204
497.846943	0.117361
498.065665	0.116984
498.284369	0.117596
498.503055	0.118347
498.721723	0.117568
498.940372	0.118758
499.159003	0.119331
499.377616	0.118796
499.596210	0.118557
499.814787	0.119660
500.033345	0.120322
500.251885	0.121327
500.470406	0.121454
500.688910	0.122041
500.907395	0.122612
501.125862	0.122437
501.344311	0.123668
501.562742	0.123105
501.781154	0.123562
501.999548	0.123619
502.217924	0.123985
502.436282	0.123339
502.654621	0.123269
502.872942	0.123448
503.091245	0.124552
503.309530	0.124549
503.527797	0.125526
503.746045	0.125186
503.964275	0.125419
504.182487	0.124942
504.400681	0.125528
504.618856	0.126464
504.837013	0.125553
505.055152	0.125425
505.273273	0.125417
505.491376	0.125397
505.709460	0.125447
505.927526	0.124919
506.145574	0.124730
506.363604	0.124762
506.581615	0.124841
506.799608	0.125291
507.017583	0.125894
507.235540	0.126991
507.453478	0.126765
507.671399	0.126742
507.889301	0.127721
508.107185	0.128161
508.325050	0.129160
508.542898	0.129423
508.760727	0.129566
508.978538	0.128796
509.196330	0.128137
509.414105	0.128502
509.631861	0.129242
509.849599	0.129077
510.067319	0.128907
510.285021	0.128720
510.502704	0.128484
510.720369	0.128714
510.938016	0.128972
511.155645	0.128695
511.373255	0.128471
511.590848	0.128653
511.808422	0.129966
512.025977	0.130635
512.243515	0.130981
512.461034	0.131473
512.678536	0.132933
512.896018	0.132596
513.113483	0.133238
513.330930	0.134319
513.548358	0.134300
513.765768	0.133246
513.983160	0.133117
514.200533	0.133353
514.417889	0.132990
514.635226	0.131857
514.852545	0.132621
515.069845	0.133001
515.287128	0.133220
515.504392	0.133522
515.721638	0.133761
515.938866	0.134359
516.156075	0.134315
516.373267	0.134842
516.590440	0.135015
516.807594	0.135411
517.024731	0.135211
517.241850	0.135425
517.458950	0.135395
517.676032	0.135751
517.893095	0.135671
518.110141	0.136608
518.327168	0.137409
518.544177	0.138017
518.761168	0.137976
518.978141	0.138463
519.195095	0.137729
519.412031	0.138578
519.628949	0.138776
519.845849	0.138574
520.062731	0.137574
520.279594	0.136878
520.496439	0.136933
520.713266	0.136947
520.930074	0.137068
521.146865	0.138013
521.363637	0.138027
521.580391	0.138636
521.797127	0.139956
522.013844	0.140269
522.230543	0.139983
522.447224	0.139788
522.663887	0.140420
522.880532	0.140517
523.097158	0.140623
523.313766	0.140725
523.530356	0.140760
523.746928	0.140838
523.963481	0.141427
524.180017	0.142747
524.396534	0.143918
524.613032	0.144109
524.829513	0.144235
525.045975	0.144226
525.262420	0.144374
525.478845	0.144609
525.695253	0.144708
525.911643	0.145223
526.128014	0.144932
526.344367	0.144468
526.560702	0.145068
526.777018	0.145520
526.993316	0.146201
527.209597	0.146531
527.425858	0.147162
527.642102	0.147184
527.858328	0.147259
528.074535	0.147423
528.290724	0.147836
528.506894	0.148070
528.723047	0.148192
528.939181	0.148357
529.155297	0.148433
529.371395	0.148031
529.587475	0.148456
529.803536	0.149276
530.019579	0.149767
530.235604	0.150548
530.451611	0.150745
530.667600	0.151295
530.883570	0.151441
531.099522	0.152168
531.315456	0.153083
531.531372	0.154057
531.747269	0.153720
531.963148	0.154424
532.179009	0.154494
532.394852	0.154196
532.610676	0.154835
532.826482	0.155250
533.042271	0.155637
533.258040	0.156206
533.473792	0.155955
533.689525	0.156320
533.905240	0.156922
534.120937	0.157867
534.336616	0.158481
534.552277	0.158216
534.767919	0.158815
534.983543	0.158830
535.199149	0.158681
535.414736	0.159088
535.630306	0.159645
535.845857	0.159386
536.061390	0.159144
536.276904	0.159787
536.492401	0.160358
536.707879	0.160351
536.923339	0.161069
537.138781	0.161752
537.354204	0.162125
537.569610	0.162773
537.784997	0.163181
538.000366	0.163815
538.215716	0.164005
538.431049	0.164691
538.646363	0.165650
538.861659	0.165711
539.076937	0.165706
539.292196	0.165984
539.507438	0.166034
539.722661	0.166735
539.937866	0.167183
540.153052	0.167331
540.368221	0.167377
540.583371	0.166943
540.798503	0.167461
541.013617	0.168104
541.228712	0.168476
541.443789	0.168723
541.658848	0.168795
541.873889	0.168314
542.088912	0.168849
542.303916	0.169223
542.518902	0.170172
542.733870	0.170668
542.948820	0.170653
543.163752	0.170348
543.378665	0.170882
543.593560	0.170955
543.808437	0.171440
544.023295	0.171495
544.238136	0.172081
544.452958	0.172029
544.667762	0.171926
544.882548	0.172235
545.097315	0.172822
545.312064	0.172815
545.526795	0.173191
545.741508	0.174074
545.956203	0.174669
546.170879	0.174444
546.385537	0.174508
546.600177	0.174416
546.814799	0.174532
547.029402	0.174726
547.243988	0.174784
547.458555	0.175033
547.673103	0.174630
547.887634	0.174641
548.102146	0.175091
548.316640	0.175992
548.531116	0.176402
548.745574	0.176633
548.960013	0.176887
549.174435	0.177056
549.388838	0.177358
549.603222	0.177774
549.817589	0.178069
550.031937	0.178383
550.246267	0.177883
550.460579	0.178415
550.674873	0.178857
550.889148	0.178857
551.103405	0.179278
551.317644	0.179019
551.531865	0.179204
551.746068	0.179796
551.960252	0.179808
552.174418	0.180426
552.388566	0.180804
552.602696	0.181138
552.816807	0.181911
553.030900	0.181779
553.244975	0.182397
553.459032	0.183119
553.673070	0.183092
553.887091	0.183453
554.101093	0.183810
554.315077	0.183910
554.529042	0.183541
554.742990	0.183868
554.956919	0.184712
555.170830	0.185181
555.384722	0.184749
555.598597	0.184852
555.812453	0.185123
556.026291	0.185349
556.240111	0.185584
556.453913	0.185950
556.667696	0.185599
556.881461	0.185263
557.095208	0.185374
557.308937	0.185889
557.522647	0.186339
557.736339	0.186617
557.950013	0.186208
558.163669	0.186552
558.377307	0.186801
558.590926	0.186917
558.804527	0.187428
559.018110	0.187491
559.231675	0.187324
559.445221	0.187036
559.658749	0.186747
559.872259	0.187309
560.085751	0.187209
560.299225	0.187399
560.512680	0.187654
560.726117	0.187700
560.939536	0.187807
561.152937	0.188088
561.366319	0.188544
561.579683	0.189186
561.793029	0.189145
562.006357	0.189338
562.219667	0.189352
562.432958	0.189707
562.646231	0.189882
562.859486	0.190160
563.072723	0.190252
563.285941	0.190192
563.499141	0.189881
563.712323	0.190249
563.925487	0.190447
564.138632	0.190516
564.351760	0.190364
564.564869	0.190474
564.777960	0.190717
564.991032	0.190911
565.204087	0.191324
565.417123	0.191814
565.630141	0.191649
565.843140	0.191632
566.056122	0.192215
566.269085	0.192587
566.482030	0.193063
566.694957	0.193125
566.907866	0.193072
567.120756	0.193058
567.333628	0.193244
567.546482	0.193804
567.759318	0.193948
567.972135	0.193915
568.184935	0.193686
568.397716	0.193601
568.610478	0.193391
568.823223	0.193869
569.035949	0.193648
569.248657	0.193437
569.461347	0.193261
569.674019	0.193343
569.886672	0.193471
570.099308	0.194138
570.311925	0.194183
570.524523	0.194567
570.737104	0.194476
570.949666	0.195053
571.162210	0.195148
571.374736	0.195325
571.587244	0.195575
571.799733	0.195803
572.012205	0.195739
572.224658	0.195831
572.437092	0.195987
572.649509	0.196157
572.861907	0.196427
573.074287	0.196766
573.286649	0.196930
573.498993	0.196720
573.711318	0.196709
573.923625	0.197141
574.135914	0.197499
574.348185	0.197561
574.560438	0.197670
574.772672	0.197484
574.984888	0.197944
575.197086	0.197969
575.409266	0.198657
575.621427	0.198840
575.833570	0.198416
576.045695	0.198122
576.257802	0.198297
576.469890	0.198903
576.681961	0.199020
576.894013	0.198753
577.106046	0.198896
577.318062	0.198552
577.530059	0.198849
577.742039	0.199256
577.954000	0.199853
578.165942	0.199966
578.377867	0.200056
578.589773	0.200307
578.801661	0.200389
579.013531	0.200648
579.225382	0.201049
579.437216	0.201137
579.649031	0.201366
579.860828	0.201452
580.072606	0.201582
580.284367	0.201577
580.496109	0.201948
580.707833	0.202521
580.919539	0.202715
581.131227	0.202800
581.342896	0.202613
581.554547	0.202791
581.766180	0.203063
581.977795	0.202996
582.189391	0.202952
582.400969	0.202892
582.612529	0.202769
582.824071	0.202952
583.035595	0.203155
583.247100	0.203536
583.458587	0.203094
583.670056	0.202827
583.881506	0.203534
584.092939	0.203861
584.304353	0.203891
584.515749	0.203953
584.727127	0.203661
584.938486	0.203820
585.149828	0.204093
585.361151	0.204942
585.572456	0.205366
585.783742	0.205190
585.995011	0.205506
586.206261	0.205821
586.417493	0.206063
586.628706	0.206789
586.839902	0.206934
587.051079	0.207198
587.262238	0.206956
587.473379	0.207168
587.684502	0.207237
587.895606	0.206938
588.106692	0.207124
588.317760	0.207241
588.528810	0.207154
588.739841	0.207399
588.950855	0.207465
589.161850	0.207973
589.372827	0.208126
589.583785	0.208630
589.794726	0.208861
590.005648	0.208881
590.216552	0.209252
590.427437	0.209388
590.638305	0.209449
590.849154	0.209456
591.059985	0.209466
591.270798	0.209419
591.481592	0.209569
591.692369	0.210219
591.903127	0.210339
592.113867	0.210311
592.324588	0.210201
592.535292	0.210314
592.745977	0.210546
592.956644	0.210501
593.167293	0.210919
593.377923	0.210767
593.588536	0.210509
593.799130	0.210655
594.009706	0.210624
594.220263	0.210496
594.430803	0.210641
594.641324	0.210481
594.851827	0.210425
595.062312	0.210446
595.272778	0.211013
595.483227	0.211078
595.693657	0.211264
595.904069	0.211831
596.114462	0.212564
596.324838	0.212752
596.535195	0.212975
596.745534	0.213645
596.955855	0.213386
597.166157	0.213464
597.376441	0.213293
597.586707	0.213675
597.796955	0.213502
598.007185	0.213529
598.217396	0.213460
598.427589	0.213866
598.637764	0.213915
598.847921	0.214214
599.058060	0.214269
599.268180	0.214789
599.478282	0.214634
599.688366	0.214923
599.898431	0.214948
600.108479	0.215224
600.318508	0.215446
600.528519	0.215535
600.738511	0.215808
600.948486	0.215635
601.158442	0.215798
601.368380	0.216000
601.578300	0.216103
601.788202	0.216611
601.998085	0.216958
602.207950	0.216786
602.417797	0.216885
602.627626	0.217038
602.837436	0.217412
603.047228	0.217658
603.257002	0.217941
603.466758	0.218092
603.676496	0.217912
603.886215	0.217850
604.095916	0.218087
604.305599	0.218174
604.515264	0.218351
604.724910	0.218377
604.934538	0.218576
605.144148	0.218602
605.353740	0.218854
605.563314	0.219118
605.772869	0.219354
605.982406	0.219878
606.191925	0.220027
606.401425	0.219991
606.610908	0.220067
606.820372	0.219925
607.029818	0.220183
607.239246	0.220190
607.448655	0.220088
607.658047	0.219990
607.867420	0.219726
608.076775	0.219670
608.286111	0.219968
608.495430	0.220016
608.704730	0.220233
608.914012	0.220026
609.123275	0.220203
609.332521	0.220530
609.541748	0.220513
609.750957	0.220859
609.960148	0.221282
610.169321	0.221584
610.378475	0.221704
610.587611	0.221926
610.796729	0.222089
611.005829	0.222168
611.214910	0.222159
611.423974	0.222647
611.633019	0.222456
611.842045	0.222473
612.051054	0.222346
612.260044	0.222479
612.469017	0.222327
612.677970	0.222702
612.886906	0.222852
613.095824	0.223229
613.304723	0.223196
613.513604	0.223670
613.722467	0.223775
613.931311	0.224221
614.140138	0.224487
614.348946	0.224852
614.557736	0.224838
614.766507	0.224898
614.975261	0.224967
615.183996	0.225358
615.392713	0.225382
615.601412	0.225391
615.810092	0.225471
616.018754	0.225425
616.227399	0.225713
616.436024	0.225921
616.644632	0.226160
616.853222	0.226018
617.061793	0.226196
617.270346	0.226225
617.478880	0.226404
617.687397	0.226206
617.895895	0.226408
618.104375	0.226007
618.312837	0.226196
618.521281	0.226459
618.729706	0.226663
618.938113	0.226447
619.146502	0.226577
619.354873	0.226803
619.563226	0.227186
619.771560	0.227204
619.979876	0.227549
620.188174	0.227577
620.396453	0.227444
620.604715	0.227669
620.812958	0.227858
621.021183	0.227773
621.229390	0.227875
621.437578	0.227953
621.645748	0.228142
621.853900	0.228355
622.062034	0.228346
622.270150	0.228494
622.478247	0.228606
622.686326	0.228612
622.894387	0.228914
623.102430	0.229162
623.310454	0.229367
623.518461	0.229447
623.726449	0.229536
623.934418	0.229781
624.142370	0.229969
624.350303	0.230011
624.558218	0.230315
624.766115	0.230524
624.973994	0.230513
625.181855	0.230534
625.389697	0.230849
625.597521	0.231245
625.805327	0.231457
626.013114	0.231559
626.220883	0.231859
626.428634	0.231835
626.636367	0.231923
626.844082	0.232425
627.051778	0.232630
627.259457	0.232985
627.467117	0.232731
627.674758	0.232768
627.882382	0.232763
628.089987	0.233044
628.297574	0.233163
628.505143	0.233334
628.712694	0.233276
628.920226	0.233277
629.127740	0.233221
629.335236	0.233535
629.542714	0.233806
629.750174	0.234101
629.957615	0.234182
630.165038	0.234563
630.372443	0.234352
630.579829	0.234550
630.787198	0.234896
630.994548	0.234999
631.201880	0.234946
631.409194	0.235204
631.616489	0.235415
631.823766	0.235720
632.031025	0.235777
632.238266	0.236306
632.445489	0.236224
632.652693	0.236017
632.859879	0.236293
633.067047	0.236580
633.274197	0.236601
633.481329	0.236704
633.688442	0.236783
633.895537	0.236921
634.102614	0.237084
634.309672	0.237446
634.516713	0.237815
634.723735	0.238035
634.930739	0.238274
635.137724	0.238376
635.344692	0.238634
635.551641	0.238723
635.758572	0.238911
635.965485	0.239121
636.172379	0.239100
636.379256	0.239146
636.586114	0.238717
636.792954	0.238885
636.999775	0.239182
637.206579	0.238981
637.413364	0.238857
637.620131	0.239038
637.826880	0.238893
638.033610	0.239060
638.240323	0.239209
638.447017	0.239730
638.653692	0.239837
638.860350	0.239450
639.066990	0.239976
639.273611	0.240214
639.480214	0.240251
639.686798	0.240555
639.893365	0.240878
640.099913	0.240997
640.306443	0.241174
640.512955	0.241373
640.719449	0.242182
640.925924	0.241995
641.132381	0.242240
641.338820	0.242390
641.545241	0.242617
641.751644	0.242693
641.958028	0.242895
642.164394	0.243165
642.370742	0.243473
642.577071	0.243216
642.783383	0.243590
642.989676	0.243995
643.195951	0.244497
643.402207	0.244523
643.608446	0.244790
643.814666	0.245056
644.020868	0.245089
644.227052	0.245225
644.433218	0.245823
644.639365	0.246179
644.845494	0.246374
645.051605	0.246362
645.257698	0.246740
645.463772	0.246697
645.669828	0.247191
645.875866	0.247584
646.081886	0.247782
646.287888	0.247658
646.493871	0.247414
646.699836	0.247470
646.905783	0.247602
647.111712	0.247650
647.317622	0.248155
647.523514	0.248010
647.729388	0.248028
647.935244	0.248148
648.141082	0.248356
648.346901	0.248833
648.552702	0.249138
648.758485	0.249290
648.964250	0.249679
649.169996	0.249588
649.375724	0.249823
649.581434	0.250139
649.787126	0.250086
649.992800	0.250420
650.198455	0.250470
650.404092	0.250312
650.609711	0.250762
650.815311	0.250913
651.020894	0.251198
651.226458	0.251626
651.432004	0.252118
651.637532	0.252513
651.843041	0.252704
652.048532	0.253004
652.254006	0.253142
652.459460	0.253243
652.664897	0.253165
652.870315	0.253379
653.075716	0.253338
653.281097	0.253098
653.486461	0.253055
653.691807	0.253094
653.897134	0.253388
654.102443	0.253797
654.307734	0.254093
654.513006	0.254636
654.718261	0.254933
654.923497	0.255023
655.128715	0.255274
655.333915	0.255761
655.539096	0.256029
655.744259	0.255967
655.949404	0.256169
656.154531	0.256078
656.359640	0.256083
656.564730	0.256081
656.769802	0.256421
656.974856	0.256360
657.179892	0.256495
657.384909	0.256692
657.589908	0.257005
657.794889	0.257226
657.999852	0.257563
658.204797	0.257843
658.409723	0.257949
658.614631	0.258025
658.819521	0.258361
659.024393	0.258360
659.229246	0.258597
659.434081	0.258818
659.638898	0.258801
659.843697	0.259063
660.048478	0.259214
660.253240	0.259559
660.457984	0.259782
660.662710	0.260048
660.867417	0.260527
661.072107	0.260800
661.276778	0.260876
661.481431	0.261200
661.686066	0.261006
661.890682	0.261081
662.095281	0.261254
662.299861	0.261595
662.504422	0.261881
662.708966	0.262068
662.913491	0.262181
663.117999	0.262463
663.322488	0.262789
663.526958	0.263340
663.731411	0.263658
663.935845	0.264062
664.140261	0.264144
664.344659	0.264414
664.549038	0.264363
664.753400	0.264715
664.957743	0.264853
665.162068	0.265137
665.366375	0.265352
665.570663	0.265797
665.774933	0.266071
665.979185	0.266393
666.183419	0.266742
666.387635	0.267371
666.591832	0.267522
666.796011	0.267910
667.000172	0.267894
667.204315	0.268051
667.408439	0.268023
667.612545	0.268136
667.816634	0.268293
668.020703	0.268206
668.224755	0.268098
668.428788	0.268192
668.632803	0.268329
668.836800	0.268573
669.040779	0.268677
669.244739	0.268919
669.448681	0.268827
669.652605	0.268961
669.856511	0.269177
670.060399	0.269393
670.264268	0.269604
670.468119	0.269794
670.671952	0.270186
670.875767	0.270470
671.079563	0.270784
671.283341	0.271268
671.487101	0.271556
671.690843	0.271970
671.894567	0.272449
672.098272	0.272773
672.301959	0.273097
672.505628	0.273236
672.709278	0.273546
672.912911	0.273684
673.116525	0.273749
673.320121	0.273853
673.523699	0.274215
673.727258	0.274296
673.930799	0.274628
674.134322	0.274776
674.337827	0.274857
674.541314	0.275016
674.744782	0.275344
674.948232	0.275654
675.151664	0.276104
675.355078	0.276121
675.558474	0.276464
675.761851	0.276642
675.965210	0.277027
676.168551	0.277338
676.371873	0.277714
676.575178	0.277751
676.778464	0.278147
676.981732	0.278510
677.184981	0.278775
677.388213	0.279024
677.591426	0.279366
677.794621	0.279514
677.997798	0.279949
678.200956	0.280128
678.404097	0.280446
678.607219	0.280542
678.810323	0.280463
679.013408	0.280657
679.216476	0.280719
679.419525	0.280837
679.622556	0.280903
679.825569	0.280895
680.028563	0.280867
680.231540	0.281083
680.434498	0.281152
680.637438	0.281385
680.840359	0.281626
681.043263	0.282021
681.246148	0.282100
681.449015	0.282479
681.651864	0.282740
681.854694	0.283132
682.057506	0.283335
682.260301	0.283647
682.463076	0.283734
682.665834	0.283687
682.868573	0.283741
683.071295	0.283955
683.273998	0.284203
683.476682	0.284286
683.679349	0.284713
683.881997	0.284856
684.084627	0.284978
684.287239	0.285200
684.489833	0.285502
684.692408	0.285635
684.894965	0.285794
685.097504	0.285844
685.300025	0.286111
685.502527	0.285881
685.705012	0.286066
685.907478	0.286219
686.109925	0.286286
686.312355	0.286331
686.514766	0.286448
686.717159	0.286521
686.919534	0.286826
687.121891	0.286892
687.324230	0.287274
687.526550	0.287482
687.728852	0.287764
687.931136	0.288199
688.133401	0.288603
688.335649	0.289022
688.537878	0.289576
688.740089	0.289860
688.942281	0.290340
689.144456	0.290623
689.346612	0.290957
689.548750	0.291188
689.750870	0.291621
689.952971	0.291673
690.155055	0.291820
690.357120	0.291613
690.559167	0.291691
690.761195	0.292038
690.963206	0.292300
691.165198	0.292353
691.367172	0.292726
691.569128	0.292587
691.771065	0.293099
691.972984	0.293180
692.174885	0.293466
692.376768	0.293871
692.578633	0.293891
692.780479	0.294222
692.982308	0.294498
693.184118	0.294554
693.385909	0.294785
