sample name	sample
index	1113
start time	 04-22-2021  01:11:43 PM
880	0.226865
Peak Time (s)	102.037
Peak Height 	0.2269
calc peak height	100,103
Baseline Time (s)	10.536
Baseline Value 	-0.005039
subtract baseline	10,4
Abs	0.145212
Peak Time (s)	101.536
Peak Height 	0.1452
calc peak height	100,103
Baseline Time (s)	9.536
Baseline Value 	0.001688
subtract baseline	10,3
PK_550	0.086233
Peak Time (s)	100.536
Peak Height 	0.08623
calc peak height	100,103
Baseline Time (s)	8.535
Baseline Value 	1.355E-4
subtract baseline	10,2
PK_880	0.141265
Peak Time (s)	100.536
Peak Height 	0.1413
calc peak height	100,103
Baseline Time (s)	10.037
Baseline Value 	9.9424E-4
subtract baseline	10,1


Time (s)	A880-A510	A880-A775	A880-A975	A880	I510	I775	I975	I880	
0.036000	-0.001549	-0.000533	-0.008442	0.003491	6258.836758	43076.281505	3895.115931	22627.175414
0.536500	-0.004476	-0.000702	-0.003684	0.008055	6201.820293	42641.694032	3895.561165	22421.236787
1.037000	-0.000143	-0.000299	-0.004839	0.004914	6258.711309	42966.663786	3900.112021	22562.740150
1.537000	-0.001282	0.000248	-0.001696	0.002834	6265.940013	43209.365676	3912.179665	22657.027818
2.040000	-0.000688	-0.000099	-0.001252	0.002297	6274.653194	43226.936511	3914.460765	22681.424110
2.537000	-0.002632	-0.000548	-0.006322	0.007582	6219.353525	42699.029380	3890.623085	22442.485169
3.034500	0.000384	0.000209	-0.004914	-0.000815	6307.081739	43545.166361	3913.182161	22823.495636
3.535000	0.000094	-0.000432	-0.001644	0.000777	6292.458567	43337.138139	3917.092509	22750.684273
4.035500	0.001608	0.000637	-0.000712	0.001634	6297.561225	43356.927386	3917.270345	22711.634412
4.536000	-0.005217	-0.001222	-0.007127	0.003483	6230.859617	43013.578197	3898.145658	22627.563093
5.036500	-0.000006	0.000364	-0.001103	0.000463	6294.120371	43440.506240	3919.092990	22765.054332
5.536000	-0.000560	-0.000049	0.001127	0.000338	6290.788413	43413.626530	3924.618765	22770.741015
6.036500	-0.000277	0.000215	0.001260	0.000975	6288.044416	43378.903185	3923.433477	22741.655063
6.539500	0.001498	-0.000135	0.000034	0.000436	6306.015999	43396.455985	3921.818877	22766.265530
7.037000	0.001385	0.000712	0.000646	0.001188	6299.290323	43405.323718	3921.491746	22731.962030
7.534500	0.000022	0.000688	0.003139	0.000750	6292.109397	43443.837831	3928.390870	22751.927747
8.035000	0.000691	0.000203	-0.003997	0.000071	6302.581766	43461.980821	3913.254510	22782.976249
8.535000	-0.000357	0.000000	0.002210	0.000113	6294.112663	43439.180620	3927.701459	22781.053766
9.035500	-0.000329	-0.000229	-0.005069	0.000033	6294.952656	43425.273111	3910.852225	22784.700712
9.535500	0.001679	0.000442	0.000000	-0.000020	6310.985501	43492.819391	3922.811681	22787.130235
10.036500	0.000000	0.000134	0.002159	-0.000286	6299.980559	43488.832607	3928.523778	22799.280249
10.536000	0.002670	-0.000082	0.003454	0.000000	6318.560459	43441.992793	3930.909692	22786.200170
11.039500	0.001241	-0.000394	-0.005787	0.002224	6290.134295	43206.402294	3904.119972	22684.761885
11.534500	-0.000198	0.000078	-0.000998	-0.000367	6299.070011	43491.216510	3921.282806	22802.995147
12.035000	0.000738	0.000285	0.003718	0.000711	6297.975070	43409.989938	3929.852199	22753.727922
12.534500	0.002394	0.000779	0.002800	0.000544	6312.163399	43471.638989	3928.077494	22761.360643
13.034500	0.000180	-0.000000	-0.006886	0.004214	6266.571947	43058.825294	3897.024903	22594.444259
13.535500	-0.000971	-0.000380	0.002791	0.000313	6287.799399	43385.106221	3928.600569	22771.888378
14.035500	-0.001034	-0.000012	0.001473	0.002485	6270.537815	43217.615332	3920.389256	22672.893753
14.536000	-0.000091	0.000788	0.001561	0.002932	6274.356990	43250.314908	3919.547692	22652.562560
15.039000	-0.002075	0.000259	0.000056	0.003246	6256.684130	43172.212028	3915.298869	22638.301214
15.536500	0.001303	0.000269	-0.001839	0.000848	6301.297838	43395.778453	3916.472969	22747.480842
16.037000	0.000269	0.000204	0.000391	0.000341	6297.205879	43436.915260	3922.882154	22770.629261
16.537500	0.000260	-0.000486	-0.002179	0.000284	6297.575405	43377.969231	3916.994838	22773.212889
17.034500	-0.001146	0.000191	-0.001951	0.003363	6262.916265	43155.140158	3910.357845	22632.991983
17.535000	-0.000373	0.000284	0.000130	0.001616	6282.350882	43325.740474	3919.280741	22712.456007
18.035500	0.000049	0.000110	0.000064	0.001397	6287.308279	43329.915400	3919.637995	22722.426653
18.536000	-0.001372	-0.000151	0.003635	0.001406	6276.251606	43304.737302	3928.010928	22721.986756
19.036000	0.000097	-0.000056	0.001417	0.002517	6279.016256	43210.577037	3920.185342	22671.448110
19.536500	0.000204	-0.000489	-0.004560	0.000894	6292.399968	43320.958311	3910.034106	22745.349447
20.036000	-0.000959	-0.000822	-0.003986	0.000823	6283.948455	43296.649000	3911.531119	22748.592981
20.536000	-0.000625	0.000512	0.001527	0.001765	6279.243980	43332.989324	3922.203553	22705.639046
21.037000	0.001417	0.000166	-0.000643	0.001489	6297.195553	43326.568757	3917.769079	22718.215545
21.535000	-0.000520	0.000618	-0.000183	0.001714	6280.450633	43347.678406	3918.317700	22707.976399
22.037500	-0.002351	-0.000337	-0.002464	0.000642	6274.591285	43358.533416	3915.495124	22756.874237
22.535000	-0.001135	0.000023	-0.000356	0.001001	6281.206879	43358.573333	3919.580381	22740.462455
23.035000	-0.000994	0.000098	-0.000928	0.002097	6273.835138	43263.719313	3915.683321	22690.521996
23.535500	-0.003068	-0.000292	-0.001726	0.000638	6269.097065	43363.079738	3917.225348	22757.030564
24.036000	0.000361	-0.000121	0.003440	0.001507	6288.870772	43298.188799	3927.314752	22717.396119
24.536500	0.000074	0.001129	0.001610	0.002084	6282.183190	43360.701968	3921.650423	22691.110071
25.036500	0.000004	0.000550	0.001502	0.002199	6280.754149	43296.309556	3921.126987	22685.890391
25.581000	0.000827	-0.000138	0.001663	0.001028	6296.197502	43341.132064	3924.256553	22739.241121
26.037500	-0.000239	-0.000041	0.002495	0.000530	6291.791800	43396.431851	3927.388754	22761.965383
26.534500	-0.000424	0.000263	-0.001768	0.001169	6285.406350	43365.327923	3915.889714	22732.812381
27.034500	-0.000137	0.000380	0.002187	-0.001813	6310.804666	43654.586709	3932.201448	22869.282744
27.535000	0.000495	-0.000237	0.001828	-0.001542	6313.617588	43571.464029	3930.711941	22856.857821
28.035500	0.002183	0.000038	0.002427	0.000050	6314.360395	43448.510460	3928.360144	22783.892804
28.536000	-0.001865	-0.000031	-0.004480	0.000900	6276.345828	43362.930854	3910.205400	22745.066328
29.035500	0.001709	0.000939	-0.000678	-0.000066	6311.571436	43543.432816	3921.326236	22789.208083
29.537000	0.002441	0.000251	-0.001142	-0.000242	6318.667577	43495.711306	3920.652145	22797.288309
30.039500	0.000683	0.000728	-0.001992	0.000373	6300.172807	43482.785450	3917.223541	22769.160338
30.536500	-0.001626	0.000389	0.004335	0.002273	6267.614811	43274.474328	3927.619332	22682.542626
31.037500	-0.002615	-0.000323	-0.000614	0.001177	6268.434745	43310.179327	3918.567437	22732.467565
31.537500	0.003105	0.001433	-0.000938	0.000732	6316.245871	43515.106452	3918.849261	22752.772293
32.035000	-0.001082	0.000156	-0.000387	-0.000288	6291.591794	43490.995775	3922.530305	22799.352684
32.540500	0.000199	0.000250	0.002614	0.002354	6281.063446	43254.061987	3923.372919	22678.825894
33.038500	0.002184	-0.000585	-0.002368	-0.000875	6321.604020	43476.730640	3919.264371	22826.273252
33.536000	-0.000127	0.000407	0.007417	-0.000577	6301.254507	43541.534255	3941.713829	22812.609398
34.039000	-0.002250	-0.000290	-0.002902	0.000958	6272.933236	43333.471114	3913.736409	22742.420163
34.539500	-0.000643	0.000376	-0.000725	0.002040	6276.979195	43294.858398	3916.289573	22693.107517
35.036500	-0.000195	0.000148	-0.000110	0.001359	6285.705518	43336.933371	3919.317561	22724.133397
35.537000	0.000879	0.000797	-0.002964	0.002181	6287.662785	43320.863205	3910.749597	22686.707892
36.034500	0.001005	0.000108	-0.000047	0.001546	6293.563785	43315.885319	3919.030401	22715.646001
36.534500	-0.000916	-0.000007	-0.006664	0.001366	6280.085159	43321.950109	3904.078572	22723.848474
37.035000	-0.000443	0.000445	0.001866	0.001499	6282.708155	43351.581016	3923.625514	22717.769118
37.535500	-0.001290	0.000467	-0.002088	0.001789	6273.923283	43326.655257	3913.698539	22704.540228
38.035500	0.000583	0.000089	0.000484	0.001530	6290.411229	43315.578286	3920.310813	22716.350336
38.536000	0.000414	0.000800	-0.002776	0.001892	6286.298420	43348.098252	3911.859523	22699.881012
39.036500	-0.000346	0.000226	-0.001613	0.002107	6278.763038	43274.734047	3914.063695	22690.098489
39.539000	-0.001278	0.000032	-0.001389	0.001302	6277.781144	43331.504786	3916.463501	22726.768609
40.034500	-0.000133	-0.000441	0.001591	0.000841	6290.200601	43330.328636	3924.526207	22747.771386
40.537500	-0.000141	0.000207	0.000454	0.001429	6285.581948	43335.964699	3920.476323	22720.952010
41.034500	0.000027	0.000779	-0.000882	0.002471	6278.823761	43292.278662	3914.917877	22673.502465
41.537000	0.000253	0.001251	0.003493	0.002637	6279.295760	43320.738894	3924.776926	22665.996956
42.035500	0.000971	0.000458	0.002118	0.002540	6285.598796	43256.098482	3921.773570	22670.401212
42.869000	-0.000121	0.000092	0.002403	0.001657	6283.971529	43304.069255	3924.516361	22710.555153
43.284000	-0.000530	-0.000260	0.002263	0.001162	6284.642792	43317.404355	3925.353794	22733.150095
43.536500	0.002917	0.000627	0.000403	-0.002314	6338.630716	43724.647283	3929.164664	22892.298847
44.039500	0.000363	-0.000428	0.001002	-0.000058	6301.030587	43415.269566	3925.256707	22788.869285
44.536500	0.001559	-0.000109	0.000730	-0.000027	6310.094716	43441.945075	3924.541527	22787.413652
45.037000	0.000186	0.000415	-0.000836	0.003828	6269.589766	43132.831838	3911.867872	22611.926608
45.536500	-0.000459	0.000208	-0.000209	0.000182	6292.788912	43452.082654	3921.846901	22777.886248
46.035000	0.000406	0.000770	-0.004070	0.000621	6296.088211	43463.593241	3911.806557	22757.832454
46.535000	0.003413	0.001045	0.004887	0.000444	6320.900987	43505.717158	3933.253382	22765.901704
47.035000	-0.000766	0.000076	-0.000671	0.002733	6270.693600	43202.802726	3914.800513	22661.620921
47.535000	-0.000447	0.000252	-0.000345	0.001631	6281.659362	43321.379878	3918.134596	22711.761357
48.036500	-0.000159	0.000101	0.001923	-0.000122	6297.472487	43470.439365	3927.577864	22791.780308
48.536000	-0.001031	-0.000392	-0.005247	-0.000356	6292.522304	43446.374520	3911.340287	22802.498700
49.036000	-0.000273	0.000421	0.000084	0.002732	6274.495877	43234.875655	3916.562601	22661.643811
49.537000	0.002233	0.000276	0.005517	-0.003757	6344.610917	43827.350779	3944.781563	22958.765691
50.034000	0.000937	0.000330	0.004768	0.009981	6228.241265	42560.156233	3910.593623	22334.985399
50.539500	0.009624	-0.002000	0.007191	0.059699	5930.418678	38089.159568	3806.598182	20235.480455
51.035000	0.016330	-0.023185	-0.009765	0.273478	4790.517961	23416.206740	3434.058038	13506.419584
51.535000	0.014189	-0.019051	-0.020024	-0.071821	7036.523865	48679.048275	4051.973894	26357.749817
52.035000	0.007434	-0.119101	-0.021571	-0.308210	9901.747420	65535.000000	4876.325142	43308.634984
52.535500	0.003719	-0.159947	-0.016664	-0.349056	10524.523072	65535.000000	5095.594399	47291.077554
53.036000	-0.065957	-0.309542	-0.079654	-0.498651	12059.993538	65535.000000	5579.539995	65535.000000
53.538500	-0.005265	-0.119150	-0.009283	-0.308258	9701.436909	65535.000000	4933.192397	43313.163114
54.036500	-0.004918	-0.083211	-0.010206	-0.272258	9167.336434	65526.208787	4767.697046	40100.341617
54.537000	0.000108	-0.058824	-0.003818	-0.240733	8797.815068	64506.427358	4662.816164	37497.487212
55.034500	-0.003401	-0.043964	-0.007701	-0.218642	8461.611057	63490.403335	4560.635106	35782.905564
55.535000	0.002096	-0.035407	0.001181	-0.202987	8333.606159	62509.361205	4534.978018	34619.590101
56.034500	0.003499	-0.016867	0.001247	-0.151500	7744.462742	58159.926755	4352.720432	31076.423605
56.535000	0.010484	-0.008726	0.006688	-0.112383	7400.731599	54360.758256	4244.529824	28651.708993
57.035500	0.020880	-0.002414	0.017572	-0.071841	7100.562160	50466.053629	4155.956251	26358.829892
57.536000	0.023526	0.003713	0.021534	-0.043313	6858.968812	48078.555746	4087.033230	24869.041947
58.035500	0.030496	0.009897	0.022586	-0.014177	6663.195677	45756.670957	4012.869786	23445.195887
58.537000	0.033899	0.014492	0.032910	0.005398	6526.550427	44306.217061	3989.476067	22540.897615
59.037000	0.044586	0.019115	0.038406	0.032604	6392.118626	42211.828645	3936.482650	21349.802724
59.537500	0.042778	0.024593	0.042493	0.035177	6357.315757	42475.218416	3940.092327	21240.982385
60.037000	0.043940	0.027346	0.046079	0.044054	6296.877659	41922.094312	3927.532557	20870.435283
60.535000	0.041176	0.028004	0.041403	0.050829	6223.616288	41377.365692	3900.863642	20592.660961
61.047500	0.048301	0.029801	0.048115	0.055133	6245.108026	41156.275621	3906.411434	20418.426473
61.538500	0.047731	0.032704	0.048990	0.060010	6203.730177	40983.170038	3897.207696	20223.104925
62.043500	0.051597	0.034448	0.049623	0.064595	6198.303943	40735.336690	3888.197493	20041.447621
62.536000	0.053201	0.035496	0.051985	0.068261	6182.790381	40508.347065	3885.242233	19897.566022
63.039000	0.056819	0.038273	0.060105	0.073234	6172.646875	40318.991304	3892.388994	19704.342868
63.536500	0.057560	0.039027	0.059655	0.075293	6162.803427	40206.969192	3886.686279	19624.975284
64.037500	0.060899	0.041541	0.060269	0.080852	6146.295816	39946.823286	3875.546904	19412.601150
64.537500	0.062848	0.043701	0.067558	0.087186	6113.930217	39593.223578	3877.687350	19173.886763
65.037500	0.063953	0.045249	0.071560	0.095735	6059.724896	39007.618620	3867.533860	18857.180765
65.535000	0.066587	0.045921	0.069427	0.098190	6061.018656	38859.969549	3857.394347	18767.374418
66.035500	0.070630	0.047968	0.070219	0.102990	6055.560554	38633.244660	3848.624947	18593.256343
66.535500	0.071738	0.049168	0.075820	0.105284	6047.019216	38543.499246	3855.856452	18510.727795
67.036000	0.073120	0.049916	0.076502	0.107662	6039.867639	38410.285234	3852.139568	18425.613726
67.536500	0.075877	0.051570	0.080787	0.110517	6039.166039	38312.431375	3855.272595	18324.061136
68.036500	0.075747	0.052780	0.081648	0.113828	6014.585581	38141.820567	3849.912864	18207.110423
68.536500	0.078483	0.054177	0.076243	0.115280	6023.738101	38137.370267	3835.075765	18156.109592
69.037500	0.077335	0.054094	0.076969	0.119286	5987.169621	37807.850016	3828.058228	18016.245472
69.534000	0.086276	0.056905	0.085749	0.119951	6046.091819	37980.408329	3845.513403	17993.161806
70.034500	0.084590	0.057454	0.089349	0.121966	6019.604343	37862.442937	3848.960633	17923.440055
70.535000	0.085806	0.058810	0.087822	0.122147	6026.986954	37956.976594	3845.246004	17917.173600
71.035500	0.089719	0.058930	0.086860	0.126596	6023.161406	37610.028038	3833.575895	17764.394961
71.536000	0.088633	0.059525	0.091678	0.124726	6028.759729	37807.122148	3848.022000	17828.422842
72.036000	0.091507	0.060970	0.097165	0.128920	6019.340206	37587.403730	3850.842029	17685.206266
72.539000	0.095935	0.063343	0.096891	0.129880	6044.155650	37700.176653	3848.150708	17652.614024
73.037000	0.093091	0.063175	0.100254	0.135020	5987.331829	37278.340664	3844.290244	17479.347384
73.537000	0.098751	0.064674	0.099268	0.133660	6037.235799	37504.844470	3845.100772	17524.969862
74.037000	0.097234	0.066002	0.100551	0.138191	5994.189278	37251.161996	3838.079568	17373.459513
74.535000	0.099252	0.066319	0.102325	0.137980	6009.982887	37292.810330	3842.363697	17380.475732
75.035000	0.096797	0.068251	0.106334	0.144910	5944.024333	36900.157350	3836.066607	17151.667827
75.535000	0.102814	0.069677	0.108310	0.144123	5991.701414	37073.479439	3842.022743	17177.459676
76.036000	0.099711	0.069025	0.100851	0.148222	5941.257163	36702.455509	3817.353570	17043.581571
76.538500	0.102057	0.069916	0.103195	0.149128	5951.274381	36701.270020	3820.387118	17014.149812
77.039000	0.100884	0.071071	0.108740	0.154966	5902.811804	36339.565017	3819.769298	16826.053358
77.536500	0.103235	0.071086	0.112437	0.154203	5924.240744	36399.394115	3829.233446	16850.487043
78.036500	0.105127	0.071966	0.111867	0.159614	5900.032529	36052.456930	3816.562941	16678.077246
78.537000	0.109506	0.073891	0.114753	0.159540	5930.696700	36205.037616	3822.810972	16680.406839
79.034500	0.105803	0.072024	0.112593	0.161295	5893.159419	35929.138192	3814.556005	16624.962136
79.534500	0.108012	0.073617	0.116486	0.162570	5899.548771	35953.184269	3820.068473	16584.786122
80.035000	0.107760	0.073524	0.107601	0.166799	5869.008073	35626.596107	3792.781310	16452.418963
80.535000	0.110089	0.072638	0.117787	0.165193	5895.811961	35680.841254	3817.280308	16502.546376
81.035500	0.110229	0.074548	0.117334	0.171668	5852.783573	35338.807651	3802.806540	16301.623695
81.536000	0.111658	0.073300	0.117014	0.169054	5880.168158	35440.812412	3807.573480	16382.374026
82.036000	0.115644	0.075056	0.123190	0.172097	5886.592640	35344.684207	3814.123457	16288.420406
82.536500	0.112880	0.074498	0.121547	0.172983	5861.802641	35237.275067	3808.832478	16261.179058
83.037000	0.115864	0.075851	0.123387	0.175695	5863.642711	35136.456399	3807.014566	16178.167263
83.537000	0.117477	0.076082	0.120667	0.177101	5865.050851	35049.596308	3798.464711	16135.350048
84.034500	0.118473	0.076123	0.126789	0.183129	5831.176664	34610.426881	3798.657642	15953.263615
84.535000	0.121043	0.077969	0.126615	0.182403	5853.321038	34798.344265	3799.798916	15975.061059
85.035500	0.120958	0.077547	0.125717	0.183621	5844.544911	34678.386195	3795.436723	15938.500944
85.535500	0.122232	0.077836	0.130140	0.185195	5842.531615	34584.727002	3801.313056	15891.444164
86.035500	0.119969	0.078221	0.130599	0.191568	5785.074230	34151.802249	3789.158569	15702.553793
86.539000	0.124149	0.077644	0.131570	0.188101	5835.886327	34359.964065	3798.264480	15804.957995
87.036500	0.123051	0.078826	0.134113	0.190031	5815.661767	34305.957341	3799.529486	15747.847639
87.537000	0.126436	0.079124	0.126036	0.190859	5832.738119	34267.814752	3781.328696	15723.440127
88.037000	0.125715	0.079413	0.125793	0.197352	5784.830449	33823.884384	3767.805885	15533.523824
88.537000	0.129630	0.079695	0.137301	0.194436	5830.170708	34051.879283	3797.019081	15618.454796
89.035000	0.128364	0.079672	0.130568	0.197598	5800.692835	33824.859409	3776.872808	15526.379377
89.535000	0.132129	0.080849	0.137718	0.197621	5825.587234	33906.914741	3791.338382	15525.714566
90.035000	0.125985	0.079769	0.136951	0.202240	5754.574491	33503.637338	3780.386156	15392.422972
90.535500	0.132916	0.080964	0.137470	0.198806	5822.928022	33830.779544	3788.408960	15491.376537
91.036000	0.131894	0.081183	0.132582	0.200110	5807.448255	33753.808667	3775.871294	15453.709424
91.536000	0.131498	0.081415	0.136710	0.201217	5797.487066	33691.904474	3781.967016	15421.826755
92.037000	0.127517	0.079985	0.133945	0.205218	5745.170433	33310.196428	3768.376814	15307.247237
92.536500	0.132819	0.081618	0.127395	0.203095	5793.808261	33573.653747	3759.595692	15367.912436
93.037000	0.131077	0.081110	0.135985	0.206484	5760.109918	33300.297822	3769.920873	15271.202914
93.534500	0.133859	0.083636	0.140943	0.205897	5782.188480	33518.412334	3781.063260	15287.890987
94.037500	0.135962	0.083444	0.141302	0.206261	5793.655441	33479.386969	3781.053637	15277.540392
94.535000	0.135319	0.082084	0.139829	0.206055	5790.768455	33398.366007	3778.493795	15283.388488
95.035500	0.135283	0.084044	0.142679	0.210615	5760.593182	33216.762218	3775.050989	15154.316121
95.535500	0.133843	0.082110	0.137928	0.207867	5769.152801	33273.512669	3771.037943	15231.940506
96.039000	0.135793	0.083656	0.141423	0.209783	5769.376078	33247.777688	3774.201472	15177.780667
96.536500	0.135997	0.084490	0.147275	0.210601	5765.355317	33248.843223	3784.360970	15154.712765
97.036500	0.136643	0.084568	0.143400	0.211860	5761.345969	33166.586711	3773.998763	15119.306361
97.536500	0.138409	0.083989	0.141210	0.211989	5772.066813	33117.476831	3769.360375	15115.705080
