sample name	sample
index	724
start time	 03-25-2021  11:55:09 AM


Wavelength (nm)	Absorbance
494.344910	-0.137016
494.563924	-0.137016
494.782919	-0.137016
495.001897	-0.127495
495.220856	-0.095823
495.439797	-0.106435
495.658719	-0.109133
495.877624	-0.066728
496.096510	-0.025161
496.315378	-0.009625
496.534227	0.017874
496.753059	0.053482
496.971872	0.053101
497.190667	0.089304
497.409444	0.099226
497.628203	0.102149
497.846943	0.100942
498.065665	0.097882
498.284369	0.098229
498.503055	0.098076
498.721723	0.097685
498.940372	0.097468
499.159003	0.097004
499.377616	0.096538
499.596210	0.095528
499.814787	0.095042
500.033345	0.095866
500.251885	0.094683
500.470406	0.094410
500.688910	0.093965
500.907395	0.094559
501.125862	0.094777
501.344311	0.094647
501.562742	0.094907
501.781154	0.095137
501.999548	0.094196
502.217924	0.093990
502.436282	0.093721
502.654621	0.094549
502.872942	0.094203
503.091245	0.093892
503.309530	0.093850
503.527797	0.093576
503.746045	0.092792
503.964275	0.093502
504.182487	0.094415
504.400681	0.095013
504.618856	0.094787
504.837013	0.095269
505.055152	0.094975
505.273273	0.094452
505.491376	0.094722
505.709460	0.095073
505.927526	0.095109
506.145574	0.094768
506.363604	0.093890
506.581615	0.093733
506.799608	0.093652
507.017583	0.094480
507.235540	0.095323
507.453478	0.095565
507.671399	0.095537
507.889301	0.095534
508.107185	0.095571
508.325050	0.096201
508.542898	0.097003
508.760727	0.096650
508.978538	0.095661
509.196330	0.095693
509.414105	0.095702
509.631861	0.096038
509.849599	0.095814
510.067319	0.095836
510.285021	0.096204
510.502704	0.096174
510.720369	0.096539
510.938016	0.097372
511.155645	0.097047
511.373255	0.097738
511.590848	0.097573
511.808422	0.098326
512.025977	0.098908
512.243515	0.098754
512.461034	0.098541
512.678536	0.098213
512.896018	0.098090
513.113483	0.098403
513.330930	0.097755
513.548358	0.097598
513.765768	0.097403
513.983160	0.096844
514.200533	0.096557
514.417889	0.096259
514.635226	0.096912
514.852545	0.096802
515.069845	0.096359
515.287128	0.096455
515.504392	0.096586
515.721638	0.096246
515.938866	0.096216
516.156075	0.096614
516.373267	0.097305
516.590440	0.097421
516.807594	0.097930
517.024731	0.098033
517.241850	0.097974
517.458950	0.097807
517.676032	0.097614
517.893095	0.097553
518.110141	0.096891
518.327168	0.096712
518.544177	0.096174
518.761168	0.096218
518.978141	0.097289
519.195095	0.097266
519.412031	0.098483
519.628949	0.098924
519.845849	0.099375
520.062731	0.100129
520.279594	0.100166
520.496439	0.100035
520.713266	0.099673
520.930074	0.099351
521.146865	0.099274
521.363637	0.099180
521.580391	0.099144
521.797127	0.100171
522.013844	0.099615
522.230543	0.099714
522.447224	0.099883
522.663887	0.100296
522.880532	0.100460
523.097158	0.101145
523.313766	0.101635
523.530356	0.101856
523.746928	0.101988
523.963481	0.102376
524.180017	0.101957
524.396534	0.102984
524.613032	0.102796
524.829513	0.102547
525.045975	0.102690
525.262420	0.102064
525.478845	0.101980
525.695253	0.101809
525.911643	0.102427
526.128014	0.103354
526.344367	0.102959
526.560702	0.102929
526.777018	0.103436
526.993316	0.103267
527.209597	0.103622
527.425858	0.104103
527.642102	0.103530
527.858328	0.103561
528.074535	0.103336
528.290724	0.103458
528.506894	0.104087
528.723047	0.104007
528.939181	0.103916
529.155297	0.103678
529.371395	0.103774
529.587475	0.104153
529.803536	0.103574
530.019579	0.103405
530.235604	0.103498
530.451611	0.103861
530.667600	0.103986
530.883570	0.104475
531.099522	0.104847
531.315456	0.104934
531.531372	0.104915
531.747269	0.105349
531.963148	0.105486
532.179009	0.105802
532.394852	0.105428
532.610676	0.105918
532.826482	0.106193
533.042271	0.106232
533.258040	0.106496
533.473792	0.107227
533.689525	0.108035
533.905240	0.108633
534.120937	0.108796
534.336616	0.108971
534.552277	0.108903
534.767919	0.109033
534.983543	0.108893
535.199149	0.109119
535.414736	0.109104
535.630306	0.108896
535.845857	0.108920
536.061390	0.108873
536.276904	0.109332
536.492401	0.109386
536.707879	0.109497
536.923339	0.110056
537.138781	0.110247
537.354204	0.110318
537.569610	0.110851
537.784997	0.111302
538.000366	0.111541
538.215716	0.111627
538.431049	0.111828
538.646363	0.111681
538.861659	0.112122
539.076937	0.112338
539.292196	0.112280
539.507438	0.111820
539.722661	0.111657
539.937866	0.111842
540.153052	0.112007
540.368221	0.112112
540.583371	0.112372
540.798503	0.112279
541.013617	0.112359
541.228712	0.112211
541.443789	0.112492
541.658848	0.112926
541.873889	0.113013
542.088912	0.112778
542.303916	0.112707
542.518902	0.113477
542.733870	0.113611
542.948820	0.113521
543.163752	0.114014
543.378665	0.114453
543.593560	0.114037
543.808437	0.114094
544.023295	0.114301
544.238136	0.114762
544.452958	0.114489
544.667762	0.114544
544.882548	0.114748
545.097315	0.115093
545.312064	0.114724
545.526795	0.115060
545.741508	0.115690
545.956203	0.115860
546.170879	0.115601
546.385537	0.115221
546.600177	0.115406
546.814799	0.115549
547.029402	0.115546
547.243988	0.115818
547.458555	0.116235
547.673103	0.115759
547.887634	0.116047
548.102146	0.116222
548.316640	0.116656
548.531116	0.116744
548.745574	0.116950
548.960013	0.116494
549.174435	0.116764
549.388838	0.116802
549.603222	0.116764
549.817589	0.116757
550.031937	0.117198
550.246267	0.117430
550.460579	0.117206
550.674873	0.117291
550.889148	0.117648
551.103405	0.117654
551.317644	0.117624
551.531865	0.117866
551.746068	0.117807
551.960252	0.117706
552.174418	0.117745
552.388566	0.117720
552.602696	0.117546
552.816807	0.117882
553.030900	0.118094
553.244975	0.118121
553.459032	0.118486
553.673070	0.119017
553.887091	0.119667
554.101093	0.119808
554.315077	0.120367
554.529042	0.120518
554.742990	0.120653
554.956919	0.120824
555.170830	0.120961
555.384722	0.120721
555.598597	0.121009
555.812453	0.120691
556.026291	0.120626
556.240111	0.120274
556.453913	0.120522
556.667696	0.120154
556.881461	0.120333
557.095208	0.120489
557.308937	0.121083
557.522647	0.121029
557.736339	0.120999
557.950013	0.121260
558.163669	0.121996
558.377307	0.122160
558.590926	0.122772
558.804527	0.122729
559.018110	0.123003
559.231675	0.122944
559.445221	0.122957
559.658749	0.123400
559.872259	0.123750
560.085751	0.123158
560.299225	0.123381
560.512680	0.123376
560.726117	0.123236
560.939536	0.123318
561.152937	0.123104
561.366319	0.122960
561.579683	0.122674
561.793029	0.122442
562.006357	0.123136
562.219667	0.123407
562.432958	0.123650
562.646231	0.124085
562.859486	0.124218
563.072723	0.124453
563.285941	0.125036
563.499141	0.125172
563.712323	0.125213
563.925487	0.125368
564.138632	0.125209
564.351760	0.125002
564.564869	0.124896
564.777960	0.124415
564.991032	0.125113
565.204087	0.125156
565.417123	0.125654
565.630141	0.125676
565.843140	0.125563
566.056122	0.125583
566.269085	0.125929
566.482030	0.126304
566.694957	0.126744
566.907866	0.125920
567.120756	0.125768
567.333628	0.125587
567.546482	0.125812
567.759318	0.125792
567.972135	0.125585
568.184935	0.125781
568.397716	0.125539
568.610478	0.125545
568.823223	0.126052
569.035949	0.126076
569.248657	0.125990
569.461347	0.126092
569.674019	0.126360
569.886672	0.126525
570.099308	0.126128
570.311925	0.126459
570.524523	0.126443
570.737104	0.126772
570.949666	0.126720
571.162210	0.126827
571.374736	0.126915
571.587244	0.127033
571.799733	0.127366
572.012205	0.127980
572.224658	0.127911
572.437092	0.128331
572.649509	0.128165
572.861907	0.128246
573.074287	0.128593
573.286649	0.128563
573.498993	0.128571
573.711318	0.128779
573.923625	0.128596
574.135914	0.128383
574.348185	0.128461
574.560438	0.128403
574.772672	0.128686
574.984888	0.128782
575.197086	0.129265
575.409266	0.129563
575.621427	0.129516
575.833570	0.129822
576.045695	0.130273
576.257802	0.130204
576.469890	0.130389
576.681961	0.130541
576.894013	0.130329
577.106046	0.130050
577.318062	0.130049
577.530059	0.130294
577.742039	0.129894
577.954000	0.130010
578.165942	0.130108
578.377867	0.130145
578.589773	0.130152
578.801661	0.130363
579.013531	0.130596
579.225382	0.130598
579.437216	0.130509
579.649031	0.130812
579.860828	0.130536
580.072606	0.130776
580.284367	0.130853
580.496109	0.131012
580.707833	0.131479
580.919539	0.131682
581.131227	0.131524
581.342896	0.131508
581.554547	0.131501
581.766180	0.131845
581.977795	0.131742
582.189391	0.131809
582.400969	0.131824
582.612529	0.131619
582.824071	0.131539
583.035595	0.131750
583.247100	0.131631
583.458587	0.131700
583.670056	0.131470
583.881506	0.131607
584.092939	0.131726
584.304353	0.131654
584.515749	0.131572
584.727127	0.131928
584.938486	0.131830
585.149828	0.132180
585.361151	0.132312
585.572456	0.132882
585.783742	0.132603
585.995011	0.132805
586.206261	0.133133
586.417493	0.133158
586.628706	0.132917
586.839902	0.133367
587.051079	0.133272
587.262238	0.133292
587.473379	0.133046
587.684502	0.133313
587.895606	0.133408
588.106692	0.133530
588.317760	0.133686
588.528810	0.133731
588.739841	0.133997
588.950855	0.134009
589.161850	0.133910
589.372827	0.134014
589.583785	0.134080
589.794726	0.134366
590.005648	0.134469
590.216552	0.134679
590.427437	0.134953
590.638305	0.134514
590.849154	0.134851
591.059985	0.135242
591.270798	0.135507
591.481592	0.135502
591.692369	0.135423
591.903127	0.135134
592.113867	0.135368
592.324588	0.135647
592.535292	0.135814
592.745977	0.135889
592.956644	0.135975
593.167293	0.136070
593.377923	0.136255
593.588536	0.136130
593.799130	0.136818
594.009706	0.136791
594.220263	0.136247
594.430803	0.136423
594.641324	0.136703
594.851827	0.136573
595.062312	0.136585
595.272778	0.136639
595.483227	0.137103
595.693657	0.136929
595.904069	0.136906
596.114462	0.137298
596.324838	0.137241
596.535195	0.137089
596.745534	0.137233
596.955855	0.137236
597.166157	0.137341
597.376441	0.137021
597.586707	0.136933
597.796955	0.137142
598.007185	0.136919
598.217396	0.137020
598.427589	0.136994
598.637764	0.137115
598.847921	0.137155
599.058060	0.137414
599.268180	0.137828
599.478282	0.137749
599.688366	0.137472
599.898431	0.137860
600.108479	0.138041
600.318508	0.138257
600.528519	0.138385
600.738511	0.138466
600.948486	0.138408
601.158442	0.138308
601.368380	0.138396
601.578300	0.138752
601.788202	0.138876
601.998085	0.139067
602.207950	0.139139
602.417797	0.139364
602.627626	0.139465
602.837436	0.139676
603.047228	0.139820
603.257002	0.140230
603.466758	0.140346
603.676496	0.140191
603.886215	0.140192
604.095916	0.140150
604.305599	0.140096
604.515264	0.140129
604.724910	0.140302
604.934538	0.140416
605.144148	0.140460
605.353740	0.140444
605.563314	0.140485
605.772869	0.140607
605.982406	0.140924
606.191925	0.141344
606.401425	0.141784
606.610908	0.141856
606.820372	0.141733
607.029818	0.141895
607.239246	0.141964
607.448655	0.142042
607.658047	0.142025
607.867420	0.142110
608.076775	0.141950
608.286111	0.141905
608.495430	0.141960
608.704730	0.142103
608.914012	0.141812
609.123275	0.141755
609.332521	0.141949
609.541748	0.142037
609.750957	0.142072
609.960148	0.141942
610.169321	0.141618
610.378475	0.141722
610.587611	0.141737
610.796729	0.141781
611.005829	0.141857
611.214910	0.141888
611.423974	0.141883
611.633019	0.142048
611.842045	0.142288
612.051054	0.142538
612.260044	0.142593
612.469017	0.142677
612.677970	0.142819
612.886906	0.143060
613.095824	0.143079
613.304723	0.143383
613.513604	0.143186
613.722467	0.143339
613.931311	0.143410
614.140138	0.143170
614.348946	0.143175
614.557736	0.143215
614.766507	0.143388
614.975261	0.143688
615.183996	0.143579
615.392713	0.143725
615.601412	0.143682
615.810092	0.143862
616.018754	0.143976
616.227399	0.144209
616.436024	0.144716
616.644632	0.144577
616.853222	0.144596
617.061793	0.144630
617.270346	0.144694
617.478880	0.144827
617.687397	0.144825
617.895895	0.144852
618.104375	0.144885
618.312837	0.144731
618.521281	0.144909
618.729706	0.144878
618.938113	0.145027
619.146502	0.145090
619.354873	0.145130
619.563226	0.145238
619.771560	0.145310
619.979876	0.145417
620.188174	0.145623
620.396453	0.145642
620.604715	0.145747
620.812958	0.145744
621.021183	0.145993
621.229390	0.145899
621.437578	0.145766
621.645748	0.145787
621.853900	0.146011
622.062034	0.145824
622.270150	0.146042
622.478247	0.146347
622.686326	0.146523
622.894387	0.146464
623.102430	0.146608
623.310454	0.146912
623.518461	0.147389
623.726449	0.147248
623.934418	0.147456
624.142370	0.147402
624.350303	0.147209
624.558218	0.147024
624.766115	0.146877
624.973994	0.146960
625.181855	0.146752
625.389697	0.146655
625.597521	0.146515
625.805327	0.146387
626.013114	0.146187
626.220883	0.146191
626.428634	0.146554
626.636367	0.146593
626.844082	0.146605
627.051778	0.146786
627.259457	0.146734
627.467117	0.146669
627.674758	0.146864
627.882382	0.147025
628.089987	0.147224
628.297574	0.147139
628.505143	0.147419
628.712694	0.147474
628.920226	0.147667
629.127740	0.147559
629.335236	0.147781
629.542714	0.147741
629.750174	0.147871
629.957615	0.147758
630.165038	0.147780
630.372443	0.147776
630.579829	0.148000
630.787198	0.148085
630.994548	0.148306
631.201880	0.148471
631.409194	0.148556
631.616489	0.148430
631.823766	0.148574
632.031025	0.148595
632.238266	0.148976
632.445489	0.149189
632.652693	0.149359
632.859879	0.149382
633.067047	0.149414
633.274197	0.149645
633.481329	0.149969
633.688442	0.150214
633.895537	0.150403
634.102614	0.150167
634.309672	0.150032
634.516713	0.149704
634.723735	0.149794
634.930739	0.149935
635.137724	0.150032
635.344692	0.150226
635.551641	0.150238
635.758572	0.150241
635.965485	0.150130
636.172379	0.150148
636.379256	0.150746
636.586114	0.150834
636.792954	0.151098
636.999775	0.151214
637.206579	0.151285
637.413364	0.151411
637.620131	0.151588
637.826880	0.151996
638.033610	0.152065
638.240323	0.151933
638.447017	0.152010
638.653692	0.151977
638.860350	0.151824
639.066990	0.151926
639.273611	0.152009
639.480214	0.152028
639.686798	0.152047
639.893365	0.152287
640.099913	0.152374
640.306443	0.152749
640.512955	0.152822
640.719449	0.152944
640.925924	0.152879
641.132381	0.153034
641.338820	0.153417
641.545241	0.153369
641.751644	0.153424
641.958028	0.153550
642.164394	0.153361
642.370742	0.153340
642.577071	0.153646
642.783383	0.153773
642.989676	0.153695
643.195951	0.153485
643.402207	0.153697
643.608446	0.153667
643.814666	0.153637
644.020868	0.153753
644.227052	0.153764
644.433218	0.153584
644.639365	0.153633
644.845494	0.153641
645.051605	0.153697
645.257698	0.153758
645.463772	0.153743
645.669828	0.153713
645.875866	0.153963
646.081886	0.154220
646.287888	0.154455
646.493871	0.154401
646.699836	0.154608
646.905783	0.154695
647.111712	0.154979
647.317622	0.155153
647.523514	0.155433
647.729388	0.155340
647.935244	0.155542
648.141082	0.155646
648.346901	0.156020
648.552702	0.155982
648.758485	0.156067
648.964250	0.156163
649.169996	0.156531
649.375724	0.156765
649.581434	0.156921
649.787126	0.156863
649.992800	0.156759
650.198455	0.156813
650.404092	0.157097
650.609711	0.157072
650.815311	0.156970
651.020894	0.156597
651.226458	0.156421
651.432004	0.156686
651.637532	0.156812
651.843041	0.157098
652.048532	0.157054
652.254006	0.156885
652.459460	0.157044
652.664897	0.156958
652.870315	0.157297
653.075716	0.157375
653.281097	0.157099
653.486461	0.157153
653.691807	0.157072
653.897134	0.157188
654.102443	0.157466
654.307734	0.157726
654.513006	0.157900
654.718261	0.157958
654.923497	0.158214
655.128715	0.158350
655.333915	0.158638
655.539096	0.158722
655.744259	0.158695
655.949404	0.158831
656.154531	0.158843
656.359640	0.159077
656.564730	0.158867
656.769802	0.158916
656.974856	0.159280
657.179892	0.159041
657.384909	0.159423
657.589908	0.159631
657.794889	0.159659
657.999852	0.159697
658.204797	0.159758
658.409723	0.159970
658.614631	0.160037
658.819521	0.160053
659.024393	0.160419
659.229246	0.160302
659.434081	0.160309
659.638898	0.160371
659.843697	0.160598
660.048478	0.160700
660.253240	0.160799
660.457984	0.160767
660.662710	0.160681
660.867417	0.160796
661.072107	0.160864
661.276778	0.161128
661.481431	0.161285
661.686066	0.161332
661.890682	0.161259
662.095281	0.161183
662.299861	0.161253
662.504422	0.161360
662.708966	0.161238
662.913491	0.161392
663.117999	0.161241
663.322488	0.161221
663.526958	0.161144
663.731411	0.161480
663.935845	0.161820
664.140261	0.161986
664.344659	0.162204
664.549038	0.162196
664.753400	0.162266
664.957743	0.162409
665.162068	0.162580
665.366375	0.162606
665.570663	0.162491
665.774933	0.162618
665.979185	0.162653
666.183419	0.162736
666.387635	0.163017
666.591832	0.163109
666.796011	0.163401
667.000172	0.163461
667.204315	0.163803
667.408439	0.163964
667.612545	0.164033
667.816634	0.164377
668.020703	0.164487
668.224755	0.164550
668.428788	0.164853
668.632803	0.164993
668.836800	0.165278
669.040779	0.165413
669.244739	0.165515
669.448681	0.165709
669.652605	0.165762
669.856511	0.165889
670.060399	0.166039
670.264268	0.165734
670.468119	0.165719
670.671952	0.165474
670.875767	0.165419
671.079563	0.165588
671.283341	0.165645
671.487101	0.165646
671.690843	0.165895
671.894567	0.165843
672.098272	0.166089
672.301959	0.166161
672.505628	0.166387
672.709278	0.166636
672.912911	0.166639
673.116525	0.166793
673.320121	0.166995
673.523699	0.166937
673.727258	0.167217
673.930799	0.167348
674.134322	0.167466
674.337827	0.167602
674.541314	0.167744
674.744782	0.167922
674.948232	0.168025
675.151664	0.168031
675.355078	0.167897
675.558474	0.167799
675.761851	0.168025
675.965210	0.168091
676.168551	0.168136
676.371873	0.168051
676.575178	0.168176
676.778464	0.168384
676.981732	0.168521
677.184981	0.168828
677.388213	0.169308
677.591426	0.169115
677.794621	0.169360
677.997798	0.169458
678.200956	0.169705
678.404097	0.169813
678.607219	0.169936
678.810323	0.169982
679.013408	0.170123
679.216476	0.170038
679.419525	0.170276
679.622556	0.170276
679.825569	0.170518
680.028563	0.170653
680.231540	0.170832
680.434498	0.170865
680.637438	0.171144
680.840359	0.171276
681.043263	0.171533
681.246148	0.171759
681.449015	0.171797
681.651864	0.171939
681.854694	0.171955
682.057506	0.171862
682.260301	0.171919
682.463076	0.172054
682.665834	0.172131
682.868573	0.172036
683.071295	0.171996
683.273998	0.172212
683.476682	0.172318
683.679349	0.172396
683.881997	0.172469
684.084627	0.172597
684.287239	0.172642
684.489833	0.172809
684.692408	0.173101
684.894965	0.173414
685.097504	0.173587
685.300025	0.173656
685.502527	0.173834
685.705012	0.174088
685.907478	0.174106
686.109925	0.174045
686.312355	0.174006
686.514766	0.174068
686.717159	0.174234
686.919534	0.174432
687.121891	0.174637
687.324230	0.174788
687.526550	0.174923
687.728852	0.175087
687.931136	0.175137
688.133401	0.175221
688.335649	0.175213
688.537878	0.175180
688.740089	0.175042
688.942281	0.175068
689.144456	0.174945
689.346612	0.174855
689.548750	0.174862
689.750870	0.174948
689.952971	0.175120
690.155055	0.175381
690.357120	0.175413
690.559167	0.175517
690.761195	0.175799
690.963206	0.175963
691.165198	0.176305
691.367172	0.176472
691.569128	0.176550
691.771065	0.176668
691.972984	0.176313
692.174885	0.176395
692.376768	0.176642
692.578633	0.176318
692.780479	0.176227
692.982308	0.176091
693.184118	0.176237
693.385909	0.176391
