sample name	sample
index	365
start time	 03-04-2021  11:38:14 AM


Wavelength (nm)	Absorbance
494.344910	-0.224676
494.563924	-0.224676
494.782919	-0.224676
495.001897	0.312455
495.220856	-0.027305
495.439797	0.005271
495.658719	0.026349
495.877624	-0.064107
496.096510	-0.087297
496.315378	-0.102099
496.534227	-0.088169
496.753059	-0.124931
496.971872	-0.118884
497.190667	0.053206
497.409444	0.077801
497.628203	0.082797
497.846943	0.087124
498.065665	0.088349
498.284369	0.090199
498.503055	0.090209
498.721723	0.091159
498.940372	0.091832
499.159003	0.092257
499.377616	0.091930
499.596210	0.092088
499.814787	0.092293
500.033345	0.092153
500.251885	0.092471
500.470406	0.093067
500.688910	0.090986
500.907395	0.090781
501.125862	0.090844
501.344311	0.090832
501.562742	0.091456
501.781154	0.092508
501.999548	0.093265
502.217924	0.093456
502.436282	0.093426
502.654621	0.095756
502.872942	0.096246
503.091245	0.095885
503.309530	0.095281
503.527797	0.095219
503.746045	0.094507
503.964275	0.093880
504.182487	0.092981
504.400681	0.092065
504.618856	0.092101
504.837013	0.093228
505.055152	0.093538
505.273273	0.094474
505.491376	0.094691
505.709460	0.094691
505.927526	0.095596
506.145574	0.095998
506.363604	0.096347
506.581615	0.096076
506.799608	0.095296
507.017583	0.095062
507.235540	0.094012
507.453478	0.093379
507.671399	0.094004
507.889301	0.092853
508.107185	0.093040
508.325050	0.093316
508.542898	0.092966
508.760727	0.092195
508.978538	0.091959
509.196330	0.093224
509.414105	0.093453
509.631861	0.092945
509.849599	0.094150
510.067319	0.094300
510.285021	0.094911
510.502704	0.095170
510.720369	0.095274
510.938016	0.096166
511.155645	0.095964
511.373255	0.096445
511.590848	0.097503
511.808422	0.097300
512.025977	0.098074
512.243515	0.098502
512.461034	0.098396
512.678536	0.098613
512.896018	0.098829
513.113483	0.099606
513.330930	0.099885
513.548358	0.098587
513.765768	0.098942
513.983160	0.098775
514.200533	0.097974
514.417889	0.098186
514.635226	0.098807
514.852545	0.099481
515.069845	0.099551
515.287128	0.099535
515.504392	0.100710
515.721638	0.100904
515.938866	0.099805
516.156075	0.099912
516.373267	0.101452
516.590440	0.102115
516.807594	0.101658
517.024731	0.100833
517.241850	0.100504
517.458950	0.100484
517.676032	0.100783
517.893095	0.100824
518.110141	0.101431
518.327168	0.100605
518.544177	0.100481
518.761168	0.100378
518.978141	0.101068
519.195095	0.100921
519.412031	0.100461
519.628949	0.099937
519.845849	0.101415
520.062731	0.102118
520.279594	0.102303
520.496439	0.102502
520.713266	0.102865
520.930074	0.103030
521.146865	0.103035
521.363637	0.103744
521.580391	0.104030
521.797127	0.103354
522.013844	0.103463
522.230543	0.103511
522.447224	0.103361
522.663887	0.103378
522.880532	0.103939
523.097158	0.104878
523.313766	0.105247
523.530356	0.105668
523.746928	0.106327
523.963481	0.106670
524.180017	0.107046
524.396534	0.107608
524.613032	0.108103
524.829513	0.107565
525.045975	0.108152
525.262420	0.107972
525.478845	0.108310
525.695253	0.108555
525.911643	0.108723
526.128014	0.108830
526.344367	0.109184
526.560702	0.109346
526.777018	0.110196
526.993316	0.110304
527.209597	0.111151
527.425858	0.111870
527.642102	0.112055
527.858328	0.111591
528.074535	0.111967
528.290724	0.112110
528.506894	0.112474
528.723047	0.112810
528.939181	0.112752
529.155297	0.112764
529.371395	0.112477
529.587475	0.112598
529.803536	0.113053
530.019579	0.113395
530.235604	0.113920
530.451611	0.114142
530.667600	0.114275
530.883570	0.115084
531.099522	0.115129
531.315456	0.115413
531.531372	0.115783
531.747269	0.116369
531.963148	0.117122
532.179009	0.117095
532.394852	0.117852
532.610676	0.118275
532.826482	0.118039
533.042271	0.118672
533.258040	0.118926
533.473792	0.119724
533.689525	0.119964
533.905240	0.119932
534.120937	0.119620
534.336616	0.119671
534.552277	0.119458
534.767919	0.120021
534.983543	0.119821
535.199149	0.120087
535.414736	0.119852
535.630306	0.119702
535.845857	0.119481
536.061390	0.120175
536.276904	0.119933
536.492401	0.120043
536.707879	0.120475
536.923339	0.121238
537.138781	0.121478
537.354204	0.122200
537.569610	0.122831
537.784997	0.123403
538.000366	0.123161
538.215716	0.123600
538.431049	0.124303
538.646363	0.124075
538.861659	0.124060
539.076937	0.124054
539.292196	0.123899
539.507438	0.124202
539.722661	0.124209
539.937866	0.124994
540.153052	0.125404
540.368221	0.125367
540.583371	0.125907
540.798503	0.126278
541.013617	0.126783
541.228712	0.126708
541.443789	0.126707
541.658848	0.126723
541.873889	0.127009
542.088912	0.127226
542.303916	0.127450
542.518902	0.127126
542.733870	0.127341
542.948820	0.127721
543.163752	0.128154
543.378665	0.128383
543.593560	0.128864
543.808437	0.129117
544.023295	0.129463
544.238136	0.129993
544.452958	0.130185
544.667762	0.130438
544.882548	0.130227
545.097315	0.130294
545.312064	0.130785
545.526795	0.130945
545.741508	0.131172
545.956203	0.131331
546.170879	0.131252
546.385537	0.131698
546.600177	0.131247
546.814799	0.131541
547.029402	0.132031
547.243988	0.132057
547.458555	0.132138
547.673103	0.131942
547.887634	0.131878
548.102146	0.131897
548.316640	0.132184
548.531116	0.132757
548.745574	0.133281
548.960013	0.133367
549.174435	0.133268
549.388838	0.132932
549.603222	0.132956
549.817589	0.132951
550.031937	0.133316
550.246267	0.133391
550.460579	0.133130
550.674873	0.133262
550.889148	0.132894
551.103405	0.133157
551.317644	0.134215
551.531865	0.134496
551.746068	0.134620
551.960252	0.134611
552.174418	0.134891
552.388566	0.135523
552.602696	0.135267
552.816807	0.135617
553.030900	0.135558
553.244975	0.135291
553.459032	0.135506
553.673070	0.136034
553.887091	0.135994
554.101093	0.136204
554.315077	0.136139
554.529042	0.136370
554.742990	0.136606
554.956919	0.137148
555.170830	0.137430
555.384722	0.137625
555.598597	0.137495
555.812453	0.137667
556.026291	0.137562
556.240111	0.137797
556.453913	0.138023
556.667696	0.138619
556.881461	0.138908
557.095208	0.138937
557.308937	0.139166
557.522647	0.139458
557.736339	0.139706
557.950013	0.140020
558.163669	0.140124
558.377307	0.140324
558.590926	0.140551
558.804527	0.140610
559.018110	0.141267
559.231675	0.141407
559.445221	0.141199
559.658749	0.141344
559.872259	0.141182
560.085751	0.141647
560.299225	0.141350
560.512680	0.141388
560.726117	0.141030
560.939536	0.140570
561.152937	0.141021
561.366319	0.141606
561.579683	0.141831
561.793029	0.141948
562.006357	0.142128
562.219667	0.142836
562.432958	0.142444
562.646231	0.142867
562.859486	0.143053
563.072723	0.142638
563.285941	0.142424
563.499141	0.142296
563.712323	0.142502
563.925487	0.142490
564.138632	0.142346
564.351760	0.142738
564.564869	0.142881
564.777960	0.143016
564.991032	0.143121
565.204087	0.143807
565.417123	0.144228
565.630141	0.144223
565.843140	0.144058
566.056122	0.143973
566.269085	0.144075
566.482030	0.144110
566.694957	0.144268
566.907866	0.144887
567.120756	0.144795
567.333628	0.144829
567.546482	0.145263
567.759318	0.145632
567.972135	0.145790
568.184935	0.145802
568.397716	0.145900
568.610478	0.145756
568.823223	0.145318
569.035949	0.145363
569.248657	0.145643
569.461347	0.145722
569.674019	0.145750
569.886672	0.146082
570.099308	0.146264
570.311925	0.146381
570.524523	0.146441
570.737104	0.146782
570.949666	0.146816
571.162210	0.146725
571.374736	0.146797
571.587244	0.146630
571.799733	0.146493
572.012205	0.146627
572.224658	0.146765
572.437092	0.147226
572.649509	0.147304
572.861907	0.147322
573.074287	0.147558
573.286649	0.147647
573.498993	0.148054
573.711318	0.148586
573.923625	0.148171
574.135914	0.147884
574.348185	0.148002
574.560438	0.148270
574.772672	0.148352
574.984888	0.148554
575.197086	0.148816
575.409266	0.148696
575.621427	0.148786
575.833570	0.149106
576.045695	0.149538
576.257802	0.149340
576.469890	0.149023
576.681961	0.149238
576.894013	0.149258
577.106046	0.149253
577.318062	0.149568
577.530059	0.149296
577.742039	0.149714
577.954000	0.149811
578.165942	0.150602
578.377867	0.150833
578.589773	0.150809
578.801661	0.150899
579.013531	0.151134
579.225382	0.151135
579.437216	0.151422
579.649031	0.151377
579.860828	0.151485
580.072606	0.151062
580.284367	0.151044
580.496109	0.151287
580.707833	0.151381
580.919539	0.151214
581.131227	0.151233
581.342896	0.151250
581.554547	0.151471
581.766180	0.151724
581.977795	0.152112
582.189391	0.152473
582.400969	0.152589
582.612529	0.152491
582.824071	0.152493
583.035595	0.152757
583.247100	0.152825
583.458587	0.153259
583.670056	0.153136
583.881506	0.153039
584.092939	0.153153
584.304353	0.153235
584.515749	0.153416
584.727127	0.153707
584.938486	0.153883
585.149828	0.154075
585.361151	0.153611
585.572456	0.153984
585.783742	0.154323
585.995011	0.154170
586.206261	0.154456
586.417493	0.154442
586.628706	0.154551
586.839902	0.154613
587.051079	0.154666
587.262238	0.155002
587.473379	0.154771
587.684502	0.154663
587.895606	0.154760
588.106692	0.154660
588.317760	0.154892
588.528810	0.155042
588.739841	0.155057
588.950855	0.155352
589.161850	0.155365
589.372827	0.155589
589.583785	0.155493
589.794726	0.155905
590.005648	0.156163
590.216552	0.156172
590.427437	0.156495
590.638305	0.156795
590.849154	0.156923
591.059985	0.156981
591.270798	0.157128
591.481592	0.157564
591.692369	0.157869
591.903127	0.158237
592.113867	0.158808
592.324588	0.158993
592.535292	0.159395
592.745977	0.159682
592.956644	0.160124
593.167293	0.160520
593.377923	0.160744
593.588536	0.160403
593.799130	0.160217
594.009706	0.160182
594.220263	0.160137
594.430803	0.159828
594.641324	0.159652
594.851827	0.159738
595.062312	0.159637
595.272778	0.159581
595.483227	0.159864
595.693657	0.160228
595.904069	0.159928
596.114462	0.159956
596.324838	0.160184
596.535195	0.160606
596.745534	0.160559
596.955855	0.160994
597.166157	0.161239
597.376441	0.161475
597.586707	0.161225
597.796955	0.161521
598.007185	0.161786
598.217396	0.161848
598.427589	0.161659
598.637764	0.161747
598.847921	0.161449
599.058060	0.161515
599.268180	0.161388
599.478282	0.161630
599.688366	0.161810
599.898431	0.161784
600.108479	0.161955
600.318508	0.162277
600.528519	0.162352
600.738511	0.162575
600.948486	0.162621
601.158442	0.162831
601.368380	0.163011
601.578300	0.162986
601.788202	0.163256
601.998085	0.163240
602.207950	0.163332
602.417797	0.163605
602.627626	0.163897
602.837436	0.163801
603.047228	0.164047
603.257002	0.164137
603.466758	0.164346
603.676496	0.164426
603.886215	0.164739
604.095916	0.164528
604.305599	0.164459
604.515264	0.164573
604.724910	0.164654
604.934538	0.164732
605.144148	0.164440
605.353740	0.164807
605.563314	0.164599
605.772869	0.164785
605.982406	0.164942
606.191925	0.164968
606.401425	0.164960
606.610908	0.165243
606.820372	0.165487
607.029818	0.166100
607.239246	0.166146
607.448655	0.166212
607.658047	0.166093
607.867420	0.166323
608.076775	0.166321
608.286111	0.166420
608.495430	0.166518
608.704730	0.166562
608.914012	0.166395
609.123275	0.166371
609.332521	0.166916
609.541748	0.167130
609.750957	0.167200
609.960148	0.167707
610.169321	0.167731
610.378475	0.167841
610.587611	0.167945
610.796729	0.167866
611.005829	0.167974
611.214910	0.167868
611.423974	0.167614
611.633019	0.167656
611.842045	0.167749
612.051054	0.167590
612.260044	0.167994
612.469017	0.167898
612.677970	0.168222
612.886906	0.168279
613.095824	0.168235
613.304723	0.168797
613.513604	0.168465
613.722467	0.168615
613.931311	0.169114
614.140138	0.168950
614.348946	0.169075
614.557736	0.168996
614.766507	0.168919
614.975261	0.169040
615.183996	0.168945
615.392713	0.169665
615.601412	0.169623
615.810092	0.169692
616.018754	0.169684
616.227399	0.169975
616.436024	0.170266
616.644632	0.170555
616.853222	0.170736
617.061793	0.170844
617.270346	0.171095
617.478880	0.171036
617.687397	0.171087
617.895895	0.171142
618.104375	0.170871
618.312837	0.170864
618.521281	0.171106
618.729706	0.171177
618.938113	0.171109
619.146502	0.171022
619.354873	0.171183
619.563226	0.171278
619.771560	0.171465
619.979876	0.171542
620.188174	0.171510
620.396453	0.171428
620.604715	0.171201
620.812958	0.171302
621.021183	0.171217
621.229390	0.171457
621.437578	0.171631
621.645748	0.171634
621.853900	0.171714
622.062034	0.171735
622.270150	0.171813
622.478247	0.172165
622.686326	0.171921
622.894387	0.172038
623.102430	0.172062
623.310454	0.171548
623.518461	0.171668
623.726449	0.172007
623.934418	0.172299
624.142370	0.172454
624.350303	0.172692
624.558218	0.173407
624.766115	0.173560
624.973994	0.173815
625.181855	0.174462
625.389697	0.174622
625.597521	0.174557
625.805327	0.174768
626.013114	0.174937
626.220883	0.174713
626.428634	0.174381
626.636367	0.174450
626.844082	0.174443
627.051778	0.174477
627.259457	0.174559
627.467117	0.174824
627.674758	0.174611
627.882382	0.174552
628.089987	0.175095
628.297574	0.175184
628.505143	0.175129
628.712694	0.175040
628.920226	0.175200
629.127740	0.175266
629.335236	0.175099
629.542714	0.175245
629.750174	0.175529
629.957615	0.175295
630.165038	0.175587
630.372443	0.175802
630.579829	0.176110
630.787198	0.176327
630.994548	0.176483
631.201880	0.176837
631.409194	0.176969
631.616489	0.176842
631.823766	0.177160
632.031025	0.177540
632.238266	0.177650
632.445489	0.177455
632.652693	0.177375
632.859879	0.177346
633.067047	0.177414
633.274197	0.177552
633.481329	0.177869
633.688442	0.177716
633.895537	0.177286
634.102614	0.177489
634.309672	0.177765
634.516713	0.178041
634.723735	0.178468
634.930739	0.178543
635.137724	0.178550
635.344692	0.178584
635.551641	0.178741
635.758572	0.178942
635.965485	0.178807
636.172379	0.179037
636.379256	0.178881
636.586114	0.178689
636.792954	0.178807
636.999775	0.179266
637.206579	0.179428
637.413364	0.179545
637.620131	0.179935
637.826880	0.180302
638.033610	0.180208
638.240323	0.180235
638.447017	0.180574
638.653692	0.180877
638.860350	0.180921
639.066990	0.180922
639.273611	0.181158
639.480214	0.181216
639.686798	0.181203
639.893365	0.181442
640.099913	0.181682
640.306443	0.181705
640.512955	0.181660
640.719449	0.181641
640.925924	0.181782
641.132381	0.181829
641.338820	0.181913
641.545241	0.182148
641.751644	0.182311
641.958028	0.182564
642.164394	0.182755
642.370742	0.182581
642.577071	0.182766
642.783383	0.182960
642.989676	0.183052
643.195951	0.183121
643.402207	0.183163
643.608446	0.183145
643.814666	0.183344
644.020868	0.183508
644.227052	0.184067
644.433218	0.184059
644.639365	0.184302
644.845494	0.184466
645.051605	0.184611
645.257698	0.184750
645.463772	0.184806
645.669828	0.184600
645.875866	0.184570
646.081886	0.184644
646.287888	0.184958
646.493871	0.184826
646.699836	0.184854
646.905783	0.185020
647.111712	0.184882
647.317622	0.185208
647.523514	0.185365
647.729388	0.185399
647.935244	0.185345
648.141082	0.185597
648.346901	0.185636
648.552702	0.185767
648.758485	0.185820
648.964250	0.186304
649.169996	0.186302
649.375724	0.186542
649.581434	0.186866
649.787126	0.187174
649.992800	0.187017
650.198455	0.187199
650.404092	0.187372
650.609711	0.187584
650.815311	0.187567
651.020894	0.187850
651.226458	0.187964
651.432004	0.188270
651.637532	0.188288
651.843041	0.188559
652.048532	0.188728
652.254006	0.188816
652.459460	0.188894
652.664897	0.189044
652.870315	0.189132
653.075716	0.189335
653.281097	0.189372
653.486461	0.189572
653.691807	0.189566
653.897134	0.189696
654.102443	0.190147
654.307734	0.190477
654.513006	0.190534
654.718261	0.190692
654.923497	0.190971
655.128715	0.191151
655.333915	0.191565
655.539096	0.191909
655.744259	0.192263
655.949404	0.192156
656.154531	0.192194
656.359640	0.192633
656.564730	0.192752
656.769802	0.192735
656.974856	0.192729
657.179892	0.192772
657.384909	0.192888
657.589908	0.193185
657.794889	0.193386
657.999852	0.193510
658.204797	0.193630
658.409723	0.193725
658.614631	0.193954
658.819521	0.194000
659.024393	0.193929
659.229246	0.193992
659.434081	0.193892
659.638898	0.194025
659.843697	0.194049
660.048478	0.193953
660.253240	0.194344
660.457984	0.194554
660.662710	0.194894
660.867417	0.195080
661.072107	0.195252
661.276778	0.195408
661.481431	0.195619
661.686066	0.195830
661.890682	0.196169
662.095281	0.196265
662.299861	0.196233
662.504422	0.196179
662.708966	0.196568
662.913491	0.196815
663.117999	0.196597
663.322488	0.196815
663.526958	0.197131
663.731411	0.197310
663.935845	0.197331
664.140261	0.197424
664.344659	0.197569
664.549038	0.197631
664.753400	0.197606
664.957743	0.198300
665.162068	0.198570
665.366375	0.198657
665.570663	0.198625
665.774933	0.199135
665.979185	0.199347
666.183419	0.199676
666.387635	0.199742
666.591832	0.199933
666.796011	0.199949
667.000172	0.200014
667.204315	0.200041
667.408439	0.200252
667.612545	0.200108
667.816634	0.200337
668.020703	0.200446
668.224755	0.200621
668.428788	0.200750
668.632803	0.200905
668.836800	0.200888
669.040779	0.201212
669.244739	0.201393
669.448681	0.201585
669.652605	0.201706
669.856511	0.201781
670.060399	0.201986
670.264268	0.202481
670.468119	0.202540
670.671952	0.202969
670.875767	0.203105
671.079563	0.203349
671.283341	0.203564
671.487101	0.203837
671.690843	0.204217
671.894567	0.204301
672.098272	0.204245
672.301959	0.204479
672.505628	0.204382
672.709278	0.204488
672.912911	0.204672
673.116525	0.204675
673.320121	0.204712
673.523699	0.204620
673.727258	0.204852
673.930799	0.205161
674.134322	0.205396
674.337827	0.205665
674.541314	0.205950
674.744782	0.205884
674.948232	0.206095
675.151664	0.206271
675.355078	0.206747
675.558474	0.206770
675.761851	0.206782
675.965210	0.206985
676.168551	0.207151
676.371873	0.207262
676.575178	0.207661
676.778464	0.207706
676.981732	0.207666
677.184981	0.207630
677.388213	0.207887
677.591426	0.208066
677.794621	0.208252
677.997798	0.208398
678.200956	0.208539
678.404097	0.208486
678.607219	0.208607
678.810323	0.208991
679.013408	0.209034
679.216476	0.209315
679.419525	0.209439
679.622556	0.209502
679.825569	0.209598
680.028563	0.209612
680.231540	0.210000
680.434498	0.210305
680.637438	0.210554
680.840359	0.210781
681.043263	0.210680
681.246148	0.210982
681.449015	0.210963
681.651864	0.211027
681.854694	0.211273
682.057506	0.211432
682.260301	0.211640
682.463076	0.211583
682.665834	0.211599
682.868573	0.212068
683.071295	0.212077
683.273998	0.212313
683.476682	0.212598
683.679349	0.212684
683.881997	0.212813
684.084627	0.212807
684.287239	0.212674
684.489833	0.212864
684.692408	0.212549
684.894965	0.212634
685.097504	0.212880
685.300025	0.213118
685.502527	0.212987
685.705012	0.212786
685.907478	0.212791
686.109925	0.213179
686.312355	0.213421
686.514766	0.213670
686.717159	0.213922
686.919534	0.213855
687.121891	0.213764
687.324230	0.214362
687.526550	0.214559
687.728852	0.214841
687.931136	0.215168
688.133401	0.215084
688.335649	0.215134
688.537878	0.214940
688.740089	0.215002
688.942281	0.215210
689.144456	0.215177
689.346612	0.215519
689.548750	0.215559
689.750870	0.215516
689.952971	0.215574
690.155055	0.215837
690.357120	0.215855
690.559167	0.216079
690.761195	0.216176
690.963206	0.216329
691.165198	0.216402
691.367172	0.216462
691.569128	0.216448
691.771065	0.216906
691.972984	0.217054
692.174885	0.217507
692.376768	0.217681
692.578633	0.217872
692.780479	0.217965
692.982308	0.218109
693.184118	0.218389
693.385909	0.218502
