sample name	sample
index	1476
start time	 05-18-2021  12:21:39 PM


Wavelength (nm)	Absorbance
494.344910	0.250083
494.563924	0.250083
494.782919	0.250083
495.001897	-0.090691
495.220856	0.027487
495.439797	-0.004582
495.658719	-0.018533
495.877624	-0.060007
496.096510	-0.072807
496.315378	-0.071147
496.534227	-0.066492
496.753059	-0.056209
496.971872	-0.043726
497.190667	0.064636
497.409444	0.078511
497.628203	0.078042
497.846943	0.081256
498.065665	0.084085
498.284369	0.083887
498.503055	0.084042
498.721723	0.084986
498.940372	0.085637
499.159003	0.085100
499.377616	0.084929
499.596210	0.085897
499.814787	0.086373
500.033345	0.086749
500.251885	0.087472
500.470406	0.088621
500.688910	0.087915
500.907395	0.088199
501.125862	0.088445
501.344311	0.088117
501.562742	0.087653
501.781154	0.087639
501.999548	0.088754
502.217924	0.088874
502.436282	0.088445
502.654621	0.087617
502.872942	0.087093
503.091245	0.086590
503.309530	0.087133
503.527797	0.087713
503.746045	0.086734
503.964275	0.084948
504.182487	0.084707
504.400681	0.084286
504.618856	0.084622
504.837013	0.084920
505.055152	0.084745
505.273273	0.085017
505.491376	0.084607
505.709460	0.084913
505.927526	0.084860
506.145574	0.085239
506.363604	0.084452
506.581615	0.083722
506.799608	0.083486
507.017583	0.084570
507.235540	0.083974
507.453478	0.083263
507.671399	0.083172
507.889301	0.083578
508.107185	0.083118
508.325050	0.083197
508.542898	0.084246
508.760727	0.084713
508.978538	0.084060
509.196330	0.084008
509.414105	0.084458
509.631861	0.085049
509.849599	0.084435
510.067319	0.084355
510.285021	0.084502
510.502704	0.084367
510.720369	0.084676
510.938016	0.084812
511.155645	0.085379
511.373255	0.085637
511.590848	0.085345
511.808422	0.086193
512.025977	0.086068
512.243515	0.085837
512.461034	0.086385
512.678536	0.085869
512.896018	0.085059
513.113483	0.084335
513.330930	0.085096
513.548358	0.085018
513.765768	0.084841
513.983160	0.086313
514.200533	0.086773
514.417889	0.086192
514.635226	0.086363
514.852545	0.086782
515.069845	0.087246
515.287128	0.087103
515.504392	0.086934
515.721638	0.086547
515.938866	0.084380
516.156075	0.083895
516.373267	0.084537
516.590440	0.083910
516.807594	0.084335
517.024731	0.084248
517.241850	0.083913
517.458950	0.083674
517.676032	0.083181
517.893095	0.084486
518.110141	0.084879
518.327168	0.084525
518.544177	0.084449
518.761168	0.083761
518.978141	0.084692
519.195095	0.084225
519.412031	0.084812
519.628949	0.085043
519.845849	0.084386
520.062731	0.084046
520.279594	0.083985
520.496439	0.084106
520.713266	0.084368
520.930074	0.083408
521.146865	0.084111
521.363637	0.083932
521.580391	0.084470
521.797127	0.085394
522.013844	0.085723
522.230543	0.086058
522.447224	0.086513
522.663887	0.087064
522.880532	0.086739
523.097158	0.085976
523.313766	0.085798
523.530356	0.085586
523.746928	0.085280
523.963481	0.085968
524.180017	0.085959
524.396534	0.085588
524.613032	0.085161
524.829513	0.085393
525.045975	0.086216
525.262420	0.086605
525.478845	0.086589
525.695253	0.085977
525.911643	0.085027
526.128014	0.084595
526.344367	0.084734
526.560702	0.084850
526.777018	0.085453
526.993316	0.085151
527.209597	0.085144
527.425858	0.085455
527.642102	0.085938
527.858328	0.085831
528.074535	0.086184
528.290724	0.086489
528.506894	0.085942
528.723047	0.085751
528.939181	0.085563
529.155297	0.085632
529.371395	0.085749
529.587475	0.085969
529.803536	0.087035
530.019579	0.087192
530.235604	0.087256
530.451611	0.088215
530.667600	0.088112
530.883570	0.088205
531.099522	0.087742
531.315456	0.087864
531.531372	0.087522
531.747269	0.087002
531.963148	0.087034
532.179009	0.087218
532.394852	0.087063
532.610676	0.086961
532.826482	0.087396
533.042271	0.088002
533.258040	0.088070
533.473792	0.088343
533.689525	0.088816
533.905240	0.089045
534.120937	0.088696
534.336616	0.088599
534.552277	0.089149
534.767919	0.088953
534.983543	0.088804
535.199149	0.088758
535.414736	0.089071
535.630306	0.088499
535.845857	0.088464
536.061390	0.088422
536.276904	0.088720
536.492401	0.089046
536.707879	0.089817
536.923339	0.089446
537.138781	0.089472
537.354204	0.089470
537.569610	0.089515
537.784997	0.089452
538.000366	0.090020
538.215716	0.090313
538.431049	0.090048
538.646363	0.089045
538.861659	0.089887
539.076937	0.090034
539.292196	0.090160
539.507438	0.090782
539.722661	0.090329
539.937866	0.090235
540.153052	0.089613
540.368221	0.089580
540.583371	0.089770
540.798503	0.089520
541.013617	0.089255
541.228712	0.089351
541.443789	0.089265
541.658848	0.089998
541.873889	0.089992
542.088912	0.090669
542.303916	0.090615
542.518902	0.091038
542.733870	0.091458
542.948820	0.091778
543.163752	0.091409
543.378665	0.091644
543.593560	0.091711
543.808437	0.091654
544.023295	0.091653
544.238136	0.091908
544.452958	0.092249
544.667762	0.092102
544.882548	0.091997
545.097315	0.092014
545.312064	0.091631
545.526795	0.091323
545.741508	0.091794
545.956203	0.091879
546.170879	0.091665
546.385537	0.091167
546.600177	0.091280
546.814799	0.091373
547.029402	0.091555
547.243988	0.091794
547.458555	0.092019
547.673103	0.091776
547.887634	0.091743
548.102146	0.091955
548.316640	0.092200
548.531116	0.092154
548.745574	0.092175
548.960013	0.092306
549.174435	0.092591
549.388838	0.092685
549.603222	0.092821
549.817589	0.093076
550.031937	0.093489
550.246267	0.093623
550.460579	0.093682
550.674873	0.093632
550.889148	0.093913
551.103405	0.093510
551.317644	0.093652
551.531865	0.093911
551.746068	0.093300
551.960252	0.093052
552.174418	0.092723
552.388566	0.092580
552.602696	0.092800
552.816807	0.092618
553.030900	0.092979
553.244975	0.092975
553.459032	0.092639
553.673070	0.093294
553.887091	0.093557
554.101093	0.094151
554.315077	0.094625
554.529042	0.094949
554.742990	0.094792
554.956919	0.094834
555.170830	0.094757
555.384722	0.094769
555.598597	0.094855
555.812453	0.094753
556.026291	0.094576
556.240111	0.094305
556.453913	0.094205
556.667696	0.094657
556.881461	0.094948
557.095208	0.095045
557.308937	0.095487
557.522647	0.095301
557.736339	0.094951
557.950013	0.094905
558.163669	0.094931
558.377307	0.094800
558.590926	0.094459
558.804527	0.094122
559.018110	0.094259
559.231675	0.093712
559.445221	0.093717
559.658749	0.094307
559.872259	0.094219
560.085751	0.094258
560.299225	0.094180
560.512680	0.094419
560.726117	0.094135
560.939536	0.094158
561.152937	0.094645
561.366319	0.094649
561.579683	0.094788
561.793029	0.094929
562.006357	0.095046
562.219667	0.095390
562.432958	0.095549
562.646231	0.096040
562.859486	0.096357
563.072723	0.096169
563.285941	0.096125
563.499141	0.095907
563.712323	0.096129
563.925487	0.096341
564.138632	0.096550
564.351760	0.096738
564.564869	0.096944
564.777960	0.096698
564.991032	0.096902
565.204087	0.097150
565.417123	0.097080
565.630141	0.097045
565.843140	0.096981
566.056122	0.097150
566.269085	0.097028
566.482030	0.097091
566.694957	0.096968
566.907866	0.097184
567.120756	0.097084
567.333628	0.097123
567.546482	0.097350
567.759318	0.097283
567.972135	0.096870
568.184935	0.096979
568.397716	0.096818
568.610478	0.096989
568.823223	0.096945
569.035949	0.097158
569.248657	0.097309
569.461347	0.097422
569.674019	0.097617
569.886672	0.098137
570.099308	0.098249
570.311925	0.098534
570.524523	0.098959
570.737104	0.099315
570.949666	0.099155
571.162210	0.099145
571.374736	0.099062
571.587244	0.098837
571.799733	0.098826
572.012205	0.098980
572.224658	0.099119
572.437092	0.098833
572.649509	0.098651
572.861907	0.099132
573.074287	0.099398
573.286649	0.099664
573.498993	0.099942
573.711318	0.099331
573.923625	0.099308
574.135914	0.099086
574.348185	0.099080
574.560438	0.099211
574.772672	0.099254
574.984888	0.099488
575.197086	0.099579
575.409266	0.099875
575.621427	0.100228
575.833570	0.100160
576.045695	0.100396
576.257802	0.100533
576.469890	0.100511
576.681961	0.100371
576.894013	0.100302
577.106046	0.100134
577.318062	0.100040
577.530059	0.100349
577.742039	0.100527
577.954000	0.100490
578.165942	0.100476
578.377867	0.100600
578.589773	0.100576
578.801661	0.100248
579.013531	0.100034
579.225382	0.100059
579.437216	0.100080
579.649031	0.100010
579.860828	0.099976
580.072606	0.100498
580.284367	0.100393
580.496109	0.100586
580.707833	0.100792
580.919539	0.101432
581.131227	0.101707
581.342896	0.101759
581.554547	0.101991
581.766180	0.102285
581.977795	0.101819
582.189391	0.101914
582.400969	0.101593
582.612529	0.101932
582.824071	0.101558
583.035595	0.101328
583.247100	0.101006
583.458587	0.100492
583.670056	0.100495
583.881506	0.100614
584.092939	0.100593
584.304353	0.100892
584.515749	0.100986
584.727127	0.101027
584.938486	0.101236
585.149828	0.101696
585.361151	0.102578
585.572456	0.102424
585.783742	0.102651
585.995011	0.102608
586.206261	0.102901
586.417493	0.102337
586.628706	0.102274
586.839902	0.102096
587.051079	0.101967
587.262238	0.101535
587.473379	0.101469
587.684502	0.101679
587.895606	0.101827
588.106692	0.101522
588.317760	0.101823
588.528810	0.102236
588.739841	0.102428
588.950855	0.102408
589.161850	0.102601
589.372827	0.102736
589.583785	0.102862
589.794726	0.103101
590.005648	0.103647
590.216552	0.103718
590.427437	0.103850
590.638305	0.103593
590.849154	0.103640
591.059985	0.103766
591.270798	0.103746
591.481592	0.103875
591.692369	0.103851
591.903127	0.103507
592.113867	0.103912
592.324588	0.103599
592.535292	0.104204
592.745977	0.104625
592.956644	0.104560
593.167293	0.104967
593.377923	0.104446
593.588536	0.104446
593.799130	0.104487
594.009706	0.104437
594.220263	0.104711
594.430803	0.104513
594.641324	0.104315
594.851827	0.104374
595.062312	0.104316
595.272778	0.104552
595.483227	0.104448
595.693657	0.104707
595.904069	0.104506
596.114462	0.104740
596.324838	0.104797
596.535195	0.104811
596.745534	0.104817
596.955855	0.104871
597.166157	0.105013
597.376441	0.105423
597.586707	0.105184
597.796955	0.105446
598.007185	0.105442
598.217396	0.105531
598.427589	0.105838
598.637764	0.106070
598.847921	0.106289
599.058060	0.106211
599.268180	0.106360
599.478282	0.106649
599.688366	0.106882
599.898431	0.106875
600.108479	0.107015
600.318508	0.106887
600.528519	0.106687
600.738511	0.106480
600.948486	0.106670
601.158442	0.106595
601.368380	0.106831
601.578300	0.106612
601.788202	0.106509
601.998085	0.106432
602.207950	0.106455
602.417797	0.106591
602.627626	0.106902
602.837436	0.106704
603.047228	0.106578
603.257002	0.106565
603.466758	0.106632
603.676496	0.106632
603.886215	0.106962
604.095916	0.107102
604.305599	0.107520
604.515264	0.107436
604.724910	0.107794
604.934538	0.107919
605.144148	0.107832
605.353740	0.107846
605.563314	0.107933
605.772869	0.107657
605.982406	0.107593
606.191925	0.107104
606.401425	0.106870
606.610908	0.106718
606.820372	0.106724
607.029818	0.106678
607.239246	0.106727
607.448655	0.106563
607.658047	0.106655
607.867420	0.106559
608.076775	0.106720
608.286111	0.106914
608.495430	0.106938
608.704730	0.106906
608.914012	0.107139
609.123275	0.107208
609.332521	0.107710
609.541748	0.107671
609.750957	0.107855
609.960148	0.108093
610.169321	0.108277
610.378475	0.108590
610.587611	0.108785
610.796729	0.108675
611.005829	0.108683
611.214910	0.108398
611.423974	0.108591
611.633019	0.108738
611.842045	0.108609
612.051054	0.108649
612.260044	0.108550
612.469017	0.108599
612.677970	0.108848
612.886906	0.108916
613.095824	0.109255
613.304723	0.109186
613.513604	0.109308
613.722467	0.109555
613.931311	0.109715
614.140138	0.109973
614.348946	0.109878
614.557736	0.109706
614.766507	0.109938
614.975261	0.109721
615.183996	0.110034
615.392713	0.109924
615.601412	0.109732
615.810092	0.109703
616.018754	0.109386
616.227399	0.109537
616.436024	0.109889
616.644632	0.109795
616.853222	0.109878
617.061793	0.109606
617.270346	0.109705
617.478880	0.109837
617.687397	0.109906
617.895895	0.109954
618.104375	0.110056
618.312837	0.109806
618.521281	0.109767
618.729706	0.110111
618.938113	0.110227
619.146502	0.110262
619.354873	0.110334
619.563226	0.110319
619.771560	0.110638
619.979876	0.110505
620.188174	0.110419
620.396453	0.110423
620.604715	0.110125
620.812958	0.110270
621.021183	0.110418
621.229390	0.110540
621.437578	0.110521
621.645748	0.110674
621.853900	0.110696
622.062034	0.110831
622.270150	0.111038
622.478247	0.111014
622.686326	0.110988
622.894387	0.110954
623.102430	0.110832
623.310454	0.110927
623.518461	0.110942
623.726449	0.111229
623.934418	0.111374
624.142370	0.111382
624.350303	0.111877
624.558218	0.112033
624.766115	0.112164
624.973994	0.112487
625.181855	0.112397
625.389697	0.112333
625.597521	0.112226
625.805327	0.112290
626.013114	0.112240
626.220883	0.112167
626.428634	0.112178
626.636367	0.111898
626.844082	0.111912
627.051778	0.111884
627.259457	0.111919
627.467117	0.112128
627.674758	0.112369
627.882382	0.112619
628.089987	0.112518
628.297574	0.112649
628.505143	0.113004
628.712694	0.112957
628.920226	0.113380
629.127740	0.113453
629.335236	0.113529
629.542714	0.113665
629.750174	0.113861
629.957615	0.114100
630.165038	0.114259
630.372443	0.114315
630.579829	0.114458
630.787198	0.114353
630.994548	0.114422
631.201880	0.114372
631.409194	0.114245
631.616489	0.114320
631.823766	0.114240
632.031025	0.114175
632.238266	0.114302
632.445489	0.114452
632.652693	0.114675
632.859879	0.114729
633.067047	0.114911
633.274197	0.115048
633.481329	0.114983
633.688442	0.115006
633.895537	0.115172
634.102614	0.115272
634.309672	0.115333
634.516713	0.115306
634.723735	0.115576
634.930739	0.115558
635.137724	0.115417
635.344692	0.115264
635.551641	0.115437
635.758572	0.115189
635.965485	0.115047
636.172379	0.114801
636.379256	0.114776
636.586114	0.114558
636.792954	0.114340
636.999775	0.114506
637.206579	0.114535
637.413364	0.114613
637.620131	0.114745
637.826880	0.114817
638.033610	0.115044
638.240323	0.115035
638.447017	0.115142
638.653692	0.115337
638.860350	0.115280
639.066990	0.115656
639.273611	0.115825
639.480214	0.116065
639.686798	0.116321
639.893365	0.116330
640.099913	0.116552
640.306443	0.116539
640.512955	0.116916
640.719449	0.117277
640.925924	0.117280
641.132381	0.117117
641.338820	0.117287
641.545241	0.117281
641.751644	0.117607
641.958028	0.117610
642.164394	0.117579
642.370742	0.117508
642.577071	0.117524
642.783383	0.117459
642.989676	0.117698
643.195951	0.117485
643.402207	0.117567
643.608446	0.117310
643.814666	0.117287
644.020868	0.117401
644.227052	0.117340
644.433218	0.117237
644.639365	0.117437
644.845494	0.117581
645.051605	0.117795
645.257698	0.117805
645.463772	0.117783
645.669828	0.118104
645.875866	0.118237
646.081886	0.118401
646.287888	0.118454
646.493871	0.118268
646.699836	0.118035
646.905783	0.118183
647.111712	0.118266
647.317622	0.118362
647.523514	0.118201
647.729388	0.118208
647.935244	0.118334
648.141082	0.118326
648.346901	0.118582
648.552702	0.118807
648.758485	0.119016
648.964250	0.118830
649.169996	0.119225
649.375724	0.119401
649.581434	0.119530
649.787126	0.119545
649.992800	0.119835
650.198455	0.119977
650.404092	0.120096
650.609711	0.120119
650.815311	0.120514
651.020894	0.120579
651.226458	0.120589
651.432004	0.120721
651.637532	0.120910
651.843041	0.121006
652.048532	0.120798
652.254006	0.120708
652.459460	0.120667
652.664897	0.120579
652.870315	0.120306
653.075716	0.120339
653.281097	0.120496
653.486461	0.120461
653.691807	0.120361
653.897134	0.120654
654.102443	0.120889
654.307734	0.120808
654.513006	0.121041
654.718261	0.121375
654.923497	0.121697
655.128715	0.121709
655.333915	0.121543
655.539096	0.121515
655.744259	0.121573
655.949404	0.121561
656.154531	0.121647
656.359640	0.121534
656.564730	0.121555
656.769802	0.121534
656.974856	0.121432
657.179892	0.121878
657.384909	0.122101
657.589908	0.121951
657.794889	0.121878
657.999852	0.122007
658.204797	0.122132
658.409723	0.122205
658.614631	0.122025
658.819521	0.122181
659.024393	0.122110
659.229246	0.122277
659.434081	0.122576
659.638898	0.122784
659.843697	0.122922
660.048478	0.123033
660.253240	0.123203
660.457984	0.123520
660.662710	0.123630
660.867417	0.123762
661.072107	0.123713
661.276778	0.123870
661.481431	0.124125
661.686066	0.124133
661.890682	0.124319
662.095281	0.124377
662.299861	0.124417
662.504422	0.124431
662.708966	0.124522
662.913491	0.124749
663.117999	0.124688
663.322488	0.124633
663.526958	0.124605
663.731411	0.124716
663.935845	0.124600
664.140261	0.124663
664.344659	0.124753
664.549038	0.124683
664.753400	0.124567
664.957743	0.124598
665.162068	0.124350
665.366375	0.124316
665.570663	0.124191
665.774933	0.124220
665.979185	0.124297
666.183419	0.124141
666.387635	0.124353
666.591832	0.124597
666.796011	0.124771
667.000172	0.125146
667.204315	0.125332
667.408439	0.125453
667.612545	0.125694
667.816634	0.125580
668.020703	0.125991
668.224755	0.125924
668.428788	0.125704
668.632803	0.125822
668.836800	0.126020
669.040779	0.126062
669.244739	0.126089
669.448681	0.126115
669.652605	0.126411
669.856511	0.126448
670.060399	0.126641
670.264268	0.126939
670.468119	0.126756
670.671952	0.126596
670.875767	0.126673
671.079563	0.126819
671.283341	0.126829
671.487101	0.126908
671.690843	0.127090
671.894567	0.127006
672.098272	0.127179
672.301959	0.127496
672.505628	0.127795
672.709278	0.127980
672.912911	0.127884
673.116525	0.128049
673.320121	0.127978
673.523699	0.128031
673.727258	0.128290
673.930799	0.128194
674.134322	0.128276
674.337827	0.128219
674.541314	0.128404
674.744782	0.128589
674.948232	0.128513
675.151664	0.128521
675.355078	0.128519
675.558474	0.128419
675.761851	0.128505
675.965210	0.128408
676.168551	0.128492
676.371873	0.128562
676.575178	0.128713
676.778464	0.128913
676.981732	0.129151
677.184981	0.128995
677.388213	0.129348
677.591426	0.129461
677.794621	0.129585
677.997798	0.129672
678.200956	0.129850
678.404097	0.129987
678.607219	0.129970
678.810323	0.129927
679.013408	0.130344
679.216476	0.130323
679.419525	0.130339
679.622556	0.130592
679.825569	0.130675
680.028563	0.130556
680.231540	0.130703
680.434498	0.130899
680.637438	0.131161
680.840359	0.131200
681.043263	0.131155
681.246148	0.131304
681.449015	0.131400
681.651864	0.131623
681.854694	0.131661
682.057506	0.131658
682.260301	0.131648
682.463076	0.131636
682.665834	0.131522
682.868573	0.131866
683.071295	0.132000
683.273998	0.131805
683.476682	0.131672
683.679349	0.131819
683.881997	0.131746
684.084627	0.131901
684.287239	0.132047
684.489833	0.132184
684.692408	0.132006
684.894965	0.131922
685.097504	0.132125
685.300025	0.132147
685.502527	0.132025
685.705012	0.131967
685.907478	0.132066
686.109925	0.132137
686.312355	0.132250
686.514766	0.132359
686.717159	0.132675
686.919534	0.132740
687.121891	0.133079
687.324230	0.133455
687.526550	0.133822
687.728852	0.133707
687.931136	0.133638
688.133401	0.133807
688.335649	0.133877
688.537878	0.133828
688.740089	0.133922
688.942281	0.133867
689.144456	0.133610
689.346612	0.133528
689.548750	0.133752
689.750870	0.133999
689.952971	0.133900
690.155055	0.133884
690.357120	0.133853
690.559167	0.133969
690.761195	0.134128
690.963206	0.134174
691.165198	0.134330
691.367172	0.134455
691.569128	0.134316
691.771065	0.134513
691.972984	0.134587
692.174885	0.134631
692.376768	0.134564
692.578633	0.134713
692.780479	0.135201
692.982308	0.135270
693.184118	0.135335
693.385909	0.135358
