sample name	sample
index	1173
start time	 04-26-2021  11:05:19 AM


Wavelength (nm)	Absorbance
494.344910	-0.026443
494.563924	-0.026443
494.782919	-0.026443
495.001897	0.542875
495.220856	0.008233
495.439797	-0.026249
495.658719	-0.018682
495.877624	-0.045251
496.096510	-0.058030
496.315378	-0.009380
496.534227	-0.040358
496.753059	-0.042712
496.971872	-0.050958
497.190667	0.076027
497.409444	0.105103
497.628203	0.111915
497.846943	0.117953
498.065665	0.118327
498.284369	0.121270
498.503055	0.122768
498.721723	0.124096
498.940372	0.124237
499.159003	0.124935
499.377616	0.125597
499.596210	0.125314
499.814787	0.124849
500.033345	0.124753
500.251885	0.123326
500.470406	0.123272
500.688910	0.120503
500.907395	0.120223
501.125862	0.120007
501.344311	0.120222
501.562742	0.119972
501.781154	0.119824
501.999548	0.119120
502.217924	0.119461
502.436282	0.118519
502.654621	0.120439
502.872942	0.121066
503.091245	0.122127
503.309530	0.123095
503.527797	0.123229
503.746045	0.123498
503.964275	0.123732
504.182487	0.123501
504.400681	0.123911
504.618856	0.123175
504.837013	0.123674
505.055152	0.122885
505.273273	0.121544
505.491376	0.121613
505.709460	0.120801
505.927526	0.120937
506.145574	0.120940
506.363604	0.121720
506.581615	0.122378
506.799608	0.121824
507.017583	0.121799
507.235540	0.121749
507.453478	0.122613
507.671399	0.123162
507.889301	0.123509
508.107185	0.124241
508.325050	0.124190
508.542898	0.124371
508.760727	0.124159
508.978538	0.124916
509.196330	0.125089
509.414105	0.125980
509.631861	0.126420
509.849599	0.127120
510.067319	0.127091
510.285021	0.127393
510.502704	0.127942
510.720369	0.128897
510.938016	0.129156
511.155645	0.129843
511.373255	0.128497
511.590848	0.128041
511.808422	0.128832
512.025977	0.128580
512.243515	0.128119
512.461034	0.128030
512.678536	0.128069
512.896018	0.127966
513.113483	0.127255
513.330930	0.128118
513.548358	0.128972
513.765768	0.127854
513.983160	0.128386
514.200533	0.129067
514.417889	0.129483
514.635226	0.129091
514.852545	0.128762
515.069845	0.129655
515.287128	0.129248
515.504392	0.129168
515.721638	0.131039
515.938866	0.132239
516.156075	0.132793
516.373267	0.133025
516.590440	0.133353
516.807594	0.133868
517.024731	0.134148
517.241850	0.134793
517.458950	0.135747
517.676032	0.135747
517.893095	0.135317
518.110141	0.134956
518.327168	0.135172
518.544177	0.134887
518.761168	0.135074
518.978141	0.134372
519.195095	0.133895
519.412031	0.133398
519.628949	0.132136
519.845849	0.132140
520.062731	0.131740
520.279594	0.132456
520.496439	0.133277
520.713266	0.133936
520.930074	0.135141
521.146865	0.135106
521.363637	0.135960
521.580391	0.136380
521.797127	0.136532
522.013844	0.137213
522.230543	0.136308
522.447224	0.137190
522.663887	0.137469
522.880532	0.137792
523.097158	0.138597
523.313766	0.139082
523.530356	0.140127
523.746928	0.140172
523.963481	0.140562
524.180017	0.140612
524.396534	0.140725
524.613032	0.141084
524.829513	0.141067
525.045975	0.141640
525.262420	0.141232
525.478845	0.141250
525.695253	0.142403
525.911643	0.142682
526.128014	0.143729
526.344367	0.143894
526.560702	0.144012
526.777018	0.144171
526.993316	0.144095
527.209597	0.144529
527.425858	0.145118
527.642102	0.144608
527.858328	0.144816
528.074535	0.145217
528.290724	0.145569
528.506894	0.145676
528.723047	0.145905
528.939181	0.145793
529.155297	0.146287
529.371395	0.146748
529.587475	0.147357
529.803536	0.147750
530.019579	0.148212
530.235604	0.147476
530.451611	0.147829
530.667600	0.148495
530.883570	0.149278
531.099522	0.148842
531.315456	0.149001
531.531372	0.149451
531.747269	0.149842
531.963148	0.148952
532.179009	0.150232
532.394852	0.150187
532.610676	0.150148
532.826482	0.150662
533.042271	0.151423
533.258040	0.152108
533.473792	0.151775
533.689525	0.152209
533.905240	0.153037
534.120937	0.152876
534.336616	0.153720
534.552277	0.154068
534.767919	0.154436
534.983543	0.154627
535.199149	0.154442
535.414736	0.155319
535.630306	0.155275
535.845857	0.155424
536.061390	0.155543
536.276904	0.155818
536.492401	0.156325
536.707879	0.156640
536.923339	0.156972
537.138781	0.157673
537.354204	0.157920
537.569610	0.158849
537.784997	0.159252
538.000366	0.159688
538.215716	0.159993
538.431049	0.160277
538.646363	0.160577
538.861659	0.160578
539.076937	0.160141
539.292196	0.159719
539.507438	0.159576
539.722661	0.159872
539.937866	0.160069
540.153052	0.159971
540.368221	0.160178
540.583371	0.160546
540.798503	0.160912
541.013617	0.161155
541.228712	0.162065
541.443789	0.162135
541.658848	0.162927
541.873889	0.163716
542.088912	0.164468
542.303916	0.164487
542.518902	0.164292
542.733870	0.165128
542.948820	0.165507
543.163752	0.166044
543.378665	0.166296
543.593560	0.165942
543.808437	0.165470
544.023295	0.166111
544.238136	0.166335
544.452958	0.166830
544.667762	0.166319
544.882548	0.166471
545.097315	0.166004
545.312064	0.166353
545.526795	0.166824
545.741508	0.167478
545.956203	0.166828
546.170879	0.167135
546.385537	0.167501
546.600177	0.168014
546.814799	0.168329
547.029402	0.168813
547.243988	0.169134
547.458555	0.169423
547.673103	0.169618
547.887634	0.169952
548.102146	0.170605
548.316640	0.170561
548.531116	0.170953
548.745574	0.170964
548.960013	0.171155
549.174435	0.171606
549.388838	0.171701
549.603222	0.171624
549.817589	0.171535
550.031937	0.171729
550.246267	0.171996
550.460579	0.172060
550.674873	0.172461
550.889148	0.172832
551.103405	0.172620
551.317644	0.172934
551.531865	0.173504
551.746068	0.174103
551.960252	0.173730
552.174418	0.173839
552.388566	0.174065
552.602696	0.173780
552.816807	0.173702
553.030900	0.174413
553.244975	0.174935
553.459032	0.175042
553.673070	0.175408
553.887091	0.175796
554.101093	0.176301
554.315077	0.176351
554.529042	0.176889
554.742990	0.176902
554.956919	0.176571
555.170830	0.176128
555.384722	0.176014
555.598597	0.175638
555.812453	0.175683
556.026291	0.175393
556.240111	0.175690
556.453913	0.175760
556.667696	0.176161
556.881461	0.176541
557.095208	0.176684
557.308937	0.176991
557.522647	0.177448
557.736339	0.177819
557.950013	0.178462
558.163669	0.178455
558.377307	0.178856
558.590926	0.179068
558.804527	0.179388
559.018110	0.179784
559.231675	0.180060
559.445221	0.180312
559.658749	0.180585
559.872259	0.180414
560.085751	0.180588
560.299225	0.180779
560.512680	0.181229
560.726117	0.181118
560.939536	0.181266
561.152937	0.181443
561.366319	0.181379
561.579683	0.181434
561.793029	0.181632
562.006357	0.181925
562.219667	0.182133
562.432958	0.181974
562.646231	0.182355
562.859486	0.182365
563.072723	0.182883
563.285941	0.182780
563.499141	0.182756
563.712323	0.182959
563.925487	0.183454
564.138632	0.183506
564.351760	0.183660
564.564869	0.183889
564.777960	0.184076
564.991032	0.183686
565.204087	0.183936
565.417123	0.184327
565.630141	0.184026
565.843140	0.184130
566.056122	0.184133
566.269085	0.184464
566.482030	0.184130
566.694957	0.184397
566.907866	0.184934
567.120756	0.185460
567.333628	0.185767
567.546482	0.186547
567.759318	0.186635
567.972135	0.186883
568.184935	0.186785
568.397716	0.187087
568.610478	0.186952
568.823223	0.186954
569.035949	0.186969
569.248657	0.187016
569.461347	0.186726
569.674019	0.186580
569.886672	0.186883
570.099308	0.187275
570.311925	0.187156
570.524523	0.187529
570.737104	0.187990
570.949666	0.188247
571.162210	0.188134
571.374736	0.188294
571.587244	0.188573
571.799733	0.188209
572.012205	0.188361
572.224658	0.188805
572.437092	0.189206
572.649509	0.189157
572.861907	0.189143
573.074287	0.189258
573.286649	0.189509
573.498993	0.189359
573.711318	0.189816
573.923625	0.189632
574.135914	0.189845
574.348185	0.189652
574.560438	0.189815
574.772672	0.190071
574.984888	0.190090
575.197086	0.190444
575.409266	0.190619
575.621427	0.190738
575.833570	0.191036
576.045695	0.190837
576.257802	0.190964
576.469890	0.190777
576.681961	0.191017
576.894013	0.191089
577.106046	0.191213
577.318062	0.191427
577.530059	0.191585
577.742039	0.191552
577.954000	0.192036
578.165942	0.192473
578.377867	0.192374
578.589773	0.192355
578.801661	0.192892
579.013531	0.192974
579.225382	0.193245
579.437216	0.193173
579.649031	0.193254
579.860828	0.193399
580.072606	0.192877
580.284367	0.193452
580.496109	0.193556
580.707833	0.193565
580.919539	0.193651
581.131227	0.193730
581.342896	0.194173
581.554547	0.194214
581.766180	0.194150
581.977795	0.194645
582.189391	0.194557
582.400969	0.194540
582.612529	0.194801
582.824071	0.195010
583.035595	0.195287
583.247100	0.195271
583.458587	0.195520
583.670056	0.195623
583.881506	0.195938
584.092939	0.196553
584.304353	0.196883
584.515749	0.197043
584.727127	0.196917
584.938486	0.196923
585.149828	0.197119
585.361151	0.197420
585.572456	0.197770
585.783742	0.198240
585.995011	0.197878
586.206261	0.198002
586.417493	0.197986
586.628706	0.198496
586.839902	0.198727
587.051079	0.199339
587.262238	0.199522
587.473379	0.199855
587.684502	0.199963
587.895606	0.200292
588.106692	0.200695
588.317760	0.200959
588.528810	0.201160
588.739841	0.201292
588.950855	0.201433
589.161850	0.201529
589.372827	0.201337
589.583785	0.201037
589.794726	0.201169
590.005648	0.201398
590.216552	0.201543
590.427437	0.201428
590.638305	0.201809
590.849154	0.201578
591.059985	0.202100
591.270798	0.202270
591.481592	0.202606
591.692369	0.203141
591.903127	0.203041
592.113867	0.203015
592.324588	0.203360
592.535292	0.203069
592.745977	0.203402
592.956644	0.203278
593.167293	0.203643
593.377923	0.203568
593.588536	0.203739
593.799130	0.204307
594.009706	0.204719
594.220263	0.204836
594.430803	0.205303
594.641324	0.205684
594.851827	0.205723
595.062312	0.205960
595.272778	0.206391
595.483227	0.206296
595.693657	0.206143
595.904069	0.206038
596.114462	0.206371
596.324838	0.206479
596.535195	0.206143
596.745534	0.206935
596.955855	0.207300
597.166157	0.207387
597.376441	0.207375
597.586707	0.207471
597.796955	0.207840
598.007185	0.207970
598.217396	0.208033
598.427589	0.208524
598.637764	0.208281
598.847921	0.207964
599.058060	0.207918
599.268180	0.208218
599.478282	0.208172
599.688366	0.208601
599.898431	0.208636
600.108479	0.209107
600.318508	0.209026
600.528519	0.208997
600.738511	0.209371
600.948486	0.209657
601.158442	0.210062
601.368380	0.210553
601.578300	0.210076
601.788202	0.209870
601.998085	0.209662
602.207950	0.209943
602.417797	0.210503
602.627626	0.210253
602.837436	0.210481
603.047228	0.210120
603.257002	0.210123
603.466758	0.210599
603.676496	0.211204
603.886215	0.211534
604.095916	0.211279
604.305599	0.210882
604.515264	0.211582
604.724910	0.211815
604.934538	0.212241
605.144148	0.211974
605.353740	0.212142
605.563314	0.212118
605.772869	0.212229
605.982406	0.212550
606.191925	0.212924
606.401425	0.212594
606.610908	0.212720
606.820372	0.213155
607.029818	0.213558
607.239246	0.213732
607.448655	0.213614
607.658047	0.213558
607.867420	0.213589
608.076775	0.213484
608.286111	0.213437
608.495430	0.213003
608.704730	0.212572
608.914012	0.212842
609.123275	0.212634
609.332521	0.213212
609.541748	0.213559
609.750957	0.213695
609.960148	0.213909
610.169321	0.214277
610.378475	0.214845
610.587611	0.215238
610.796729	0.215177
611.005829	0.215602
611.214910	0.215479
611.423974	0.215935
611.633019	0.216122
611.842045	0.216387
612.051054	0.216526
612.260044	0.216703
612.469017	0.216592
612.677970	0.216695
612.886906	0.216489
613.095824	0.216685
613.304723	0.216620
613.513604	0.216910
613.722467	0.216894
613.931311	0.216997
614.140138	0.217189
614.348946	0.217286
614.557736	0.217605
614.766507	0.217906
614.975261	0.217569
615.183996	0.217424
615.392713	0.217349
615.601412	0.217616
615.810092	0.217572
616.018754	0.217282
616.227399	0.217317
616.436024	0.217285
616.644632	0.217310
616.853222	0.217754
617.061793	0.218084
617.270346	0.218343
617.478880	0.217976
617.687397	0.218214
617.895895	0.218491
618.104375	0.218617
618.312837	0.218842
618.521281	0.218999
618.729706	0.219035
618.938113	0.218915
619.146502	0.218860
619.354873	0.219222
619.563226	0.219400
619.771560	0.219501
619.979876	0.219754
620.188174	0.219778
620.396453	0.219822
620.604715	0.219797
620.812958	0.219897
621.021183	0.220010
621.229390	0.220007
621.437578	0.220171
621.645748	0.220365
621.853900	0.220485
622.062034	0.220586
622.270150	0.221005
622.478247	0.221505
622.686326	0.221329
622.894387	0.221460
623.102430	0.222085
623.310454	0.222301
623.518461	0.222436
623.726449	0.222632
623.934418	0.222685
624.142370	0.222618
624.350303	0.222526
624.558218	0.223365
624.766115	0.223704
624.973994	0.223701
625.181855	0.223808
625.389697	0.223770
625.597521	0.223878
625.805327	0.224352
626.013114	0.224646
626.220883	0.224832
626.428634	0.224591
626.636367	0.224851
626.844082	0.224937
627.051778	0.225148
627.259457	0.225630
627.467117	0.225994
627.674758	0.226010
627.882382	0.226009
628.089987	0.225960
628.297574	0.226052
628.505143	0.225938
628.712694	0.225961
628.920226	0.226194
629.127740	0.226124
629.335236	0.226167
629.542714	0.226199
629.750174	0.226282
629.957615	0.226421
630.165038	0.226563
630.372443	0.226221
630.579829	0.226388
630.787198	0.226354
630.994548	0.226715
631.201880	0.226661
631.409194	0.226833
631.616489	0.226883
631.823766	0.227253
632.031025	0.227441
632.238266	0.228069
632.445489	0.228153
632.652693	0.228114
632.859879	0.228082
633.067047	0.227961
633.274197	0.227990
633.481329	0.228174
633.688442	0.228028
633.895537	0.227993
634.102614	0.228110
634.309672	0.228209
634.516713	0.228447
634.723735	0.228529
634.930739	0.228954
635.137724	0.229043
635.344692	0.228987
635.551641	0.229114
635.758572	0.229485
635.965485	0.229708
636.172379	0.229737
636.379256	0.229676
636.586114	0.229641
636.792954	0.229946
636.999775	0.230419
637.206579	0.230876
637.413364	0.231130
637.620131	0.231286
637.826880	0.231213
638.033610	0.231470
638.240323	0.231756
638.447017	0.232108
638.653692	0.231827
638.860350	0.231738
639.066990	0.231929
639.273611	0.232070
639.480214	0.232342
639.686798	0.232695
639.893365	0.233118
640.099913	0.233389
640.306443	0.233560
640.512955	0.234017
640.719449	0.234162
640.925924	0.234295
641.132381	0.234556
641.338820	0.234452
641.545241	0.234544
641.751644	0.234552
641.958028	0.234727
642.164394	0.235090
642.370742	0.235163
642.577071	0.235131
642.783383	0.235405
642.989676	0.235397
643.195951	0.235597
643.402207	0.235761
643.608446	0.236050
643.814666	0.236375
644.020868	0.236334
644.227052	0.236634
644.433218	0.237123
644.639365	0.236929
644.845494	0.237331
645.051605	0.237759
645.257698	0.237973
645.463772	0.238141
645.669828	0.238035
645.875866	0.238349
646.081886	0.238520
646.287888	0.238648
646.493871	0.239090
646.699836	0.239278
646.905783	0.238944
647.111712	0.239138
647.317622	0.239060
647.523514	0.239360
647.729388	0.239495
647.935244	0.239680
648.141082	0.239858
648.346901	0.240010
648.552702	0.240015
648.758485	0.240471
648.964250	0.240589
649.169996	0.240743
649.375724	0.240704
649.581434	0.240643
649.787126	0.240760
649.992800	0.240801
650.198455	0.240977
650.404092	0.241388
650.609711	0.241549
650.815311	0.241701
651.020894	0.241908
651.226458	0.242207
651.432004	0.242450
651.637532	0.242636
651.843041	0.242888
652.048532	0.242971
652.254006	0.242755
652.459460	0.242892
652.664897	0.242826
652.870315	0.243226
653.075716	0.243335
653.281097	0.243661
653.486461	0.243756
653.691807	0.243966
653.897134	0.244129
654.102443	0.244344
654.307734	0.244629
654.513006	0.245009
654.718261	0.245084
654.923497	0.245214
655.128715	0.245457
655.333915	0.245779
655.539096	0.245821
655.744259	0.245994
655.949404	0.246347
656.154531	0.246312
656.359640	0.246396
656.564730	0.246847
656.769802	0.247112
656.974856	0.247180
657.179892	0.247360
657.384909	0.247701
657.589908	0.247942
657.794889	0.248130
657.999852	0.248468
658.204797	0.248712
658.409723	0.248534
658.614631	0.248948
658.819521	0.248944
659.024393	0.249033
659.229246	0.249197
659.434081	0.249656
659.638898	0.250157
659.843697	0.250027
660.048478	0.250097
660.253240	0.250345
660.457984	0.250380
660.662710	0.250886
660.867417	0.251345
661.072107	0.251515
661.276778	0.251380
661.481431	0.251047
661.686066	0.251553
661.890682	0.252134
662.095281	0.252177
662.299861	0.252460
662.504422	0.252469
662.708966	0.252599
662.913491	0.252867
663.117999	0.253301
663.322488	0.253811
663.526958	0.253897
663.731411	0.253746
663.935845	0.254162
664.140261	0.254141
664.344659	0.254438
664.549038	0.254813
664.753400	0.254871
664.957743	0.254865
665.162068	0.254988
665.366375	0.255240
665.570663	0.255584
665.774933	0.255767
665.979185	0.255943
666.183419	0.256297
666.387635	0.255977
666.591832	0.256137
666.796011	0.256216
667.000172	0.256330
667.204315	0.256344
667.408439	0.256478
667.612545	0.256715
667.816634	0.256979
668.020703	0.256822
668.224755	0.257264
668.428788	0.257591
668.632803	0.257781
668.836800	0.257935
669.040779	0.258356
669.244739	0.258403
669.448681	0.258564
669.652605	0.258763
669.856511	0.258899
670.060399	0.259001
670.264268	0.259152
670.468119	0.259540
670.671952	0.259826
670.875767	0.259877
671.079563	0.260043
671.283341	0.260162
671.487101	0.260551
671.690843	0.260926
671.894567	0.261079
672.098272	0.261237
672.301959	0.261167
672.505628	0.261338
672.709278	0.261780
672.912911	0.262205
673.116525	0.262280
673.320121	0.262526
673.523699	0.262908
673.727258	0.263162
673.930799	0.263380
674.134322	0.264008
674.337827	0.264597
674.541314	0.264705
674.744782	0.265134
674.948232	0.265587
675.151664	0.265506
675.355078	0.265715
675.558474	0.266097
675.761851	0.266134
675.965210	0.266369
676.168551	0.266381
676.371873	0.266639
676.575178	0.266991
676.778464	0.267111
676.981732	0.267567
677.184981	0.267403
677.388213	0.267603
677.591426	0.268078
677.794621	0.268199
677.997798	0.268452
678.200956	0.268532
678.404097	0.268336
678.607219	0.268560
678.810323	0.268631
679.013408	0.268863
679.216476	0.269112
679.419525	0.269227
679.622556	0.269121
679.825569	0.269329
680.028563	0.269500
680.231540	0.269435
680.434498	0.269490
680.637438	0.269770
680.840359	0.270132
681.043263	0.269830
681.246148	0.270019
681.449015	0.270160
681.651864	0.270028
681.854694	0.270414
682.057506	0.271065
682.260301	0.271264
682.463076	0.271442
682.665834	0.271510
682.868573	0.272130
683.071295	0.272290
683.273998	0.272762
683.476682	0.273074
683.679349	0.273227
683.881997	0.273292
684.084627	0.273576
684.287239	0.273565
684.489833	0.273997
684.692408	0.274071
684.894965	0.274269
685.097504	0.274483
685.300025	0.274897
685.502527	0.274858
685.705012	0.274808
685.907478	0.274937
686.109925	0.275222
686.312355	0.275350
686.514766	0.275338
686.717159	0.275317
686.919534	0.275344
687.121891	0.275157
687.324230	0.275425
687.526550	0.275812
687.728852	0.275861
687.931136	0.275821
688.133401	0.275706
688.335649	0.275894
688.537878	0.276108
688.740089	0.276050
688.942281	0.276305
689.144456	0.276148
689.346612	0.276274
689.548750	0.276219
689.750870	0.276507
689.952971	0.276620
690.155055	0.276782
690.357120	0.277085
690.559167	0.277330
690.761195	0.277380
690.963206	0.277842
691.165198	0.278088
691.367172	0.278460
691.569128	0.278559
691.771065	0.278757
691.972984	0.279009
692.174885	0.279073
692.376768	0.279414
692.578633	0.279684
692.780479	0.279936
692.982308	0.279899
693.184118	0.280286
693.385909	0.280586
