sample name	sample
index	888
start time	 04-08-2021  02:38:43 PM


Wavelength (nm)	Absorbance
494.344910	-0.001804
494.563924	-0.001804
494.782919	-0.001804
495.001897	0.005026
495.220856	-0.003280
495.439797	-0.005129
495.658719	-0.004512
495.877624	-0.004198
496.096510	-0.003297
496.315378	-0.002841
496.534227	-0.008501
496.753059	-0.001969
496.971872	0.002275
497.190667	0.050873
497.409444	0.080111
497.628203	0.092336
497.846943	0.100433
498.065665	0.105501
498.284369	0.108286
498.503055	0.111431
498.721723	0.112818
498.940372	0.114516
499.159003	0.115231
499.377616	0.114702
499.596210	0.115732
499.814787	0.115698
500.033345	0.115195
500.251885	0.116181
500.470406	0.116339
500.688910	0.115430
500.907395	0.115155
501.125862	0.116080
501.344311	0.117019
501.562742	0.115789
501.781154	0.115433
501.999548	0.115895
502.217924	0.115392
502.436282	0.115268
502.654621	0.116163
502.872942	0.116493
503.091245	0.114996
503.309530	0.115425
503.527797	0.115832
503.746045	0.116812
503.964275	0.117389
504.182487	0.117421
504.400681	0.118151
504.618856	0.119312
504.837013	0.119871
505.055152	0.121326
505.273273	0.121795
505.491376	0.122029
505.709460	0.122211
505.927526	0.122544
506.145574	0.123250
506.363604	0.122795
506.581615	0.123003
506.799608	0.123494
507.017583	0.123884
507.235540	0.123488
507.453478	0.124269
507.671399	0.123930
507.889301	0.123791
508.107185	0.124614
508.325050	0.125452
508.542898	0.124806
508.760727	0.124054
508.978538	0.124582
509.196330	0.124942
509.414105	0.125105
509.631861	0.124763
509.849599	0.125181
510.067319	0.124997
510.285021	0.125490
510.502704	0.126423
510.720369	0.126317
510.938016	0.125838
511.155645	0.126135
511.373255	0.125982
511.590848	0.126842
511.808422	0.127783
512.025977	0.127715
512.243515	0.127810
512.461034	0.128103
512.678536	0.128952
512.896018	0.129476
513.113483	0.129058
513.330930	0.129326
513.548358	0.129763
513.765768	0.129163
513.983160	0.130086
514.200533	0.129660
514.417889	0.129121
514.635226	0.129998
514.852545	0.128843
515.069845	0.129822
515.287128	0.130242
515.504392	0.130248
515.721638	0.130736
515.938866	0.130533
516.156075	0.131697
516.373267	0.132128
516.590440	0.131606
516.807594	0.133346
517.024731	0.133590
517.241850	0.133783
517.458950	0.134051
517.676032	0.133391
517.893095	0.133101
518.110141	0.132796
518.327168	0.133751
518.544177	0.134141
518.761168	0.134386
518.978141	0.134950
519.195095	0.134943
519.412031	0.135521
519.628949	0.136334
519.845849	0.136351
520.062731	0.136262
520.279594	0.135711
520.496439	0.136240
520.713266	0.135864
520.930074	0.135809
521.146865	0.136457
521.363637	0.136173
521.580391	0.136953
521.797127	0.138028
522.013844	0.138894
522.230543	0.139558
522.447224	0.139965
522.663887	0.140500
522.880532	0.140779
523.097158	0.141348
523.313766	0.142005
523.530356	0.142172
523.746928	0.142913
523.963481	0.142705
524.180017	0.143319
524.396534	0.143391
524.613032	0.143520
524.829513	0.144270
525.045975	0.144323
525.262420	0.144948
525.478845	0.144991
525.695253	0.144769
525.911643	0.145393
526.128014	0.144769
526.344367	0.144819
526.560702	0.145195
526.777018	0.145447
526.993316	0.145800
527.209597	0.145963
527.425858	0.146411
527.642102	0.146874
527.858328	0.147441
528.074535	0.148494
528.290724	0.148966
528.506894	0.149229
528.723047	0.148836
528.939181	0.149419
529.155297	0.150033
529.371395	0.150213
529.587475	0.150288
529.803536	0.150439
530.019579	0.150347
530.235604	0.150603
530.451611	0.150476
530.667600	0.151152
530.883570	0.151355
531.099522	0.151658
531.315456	0.152404
531.531372	0.153348
531.747269	0.153879
531.963148	0.154840
532.179009	0.155397
532.394852	0.155894
532.610676	0.156400
532.826482	0.156898
533.042271	0.157178
533.258040	0.157382
533.473792	0.157207
533.689525	0.157133
533.905240	0.157676
534.120937	0.157952
534.336616	0.158559
534.552277	0.158720
534.767919	0.158766
534.983543	0.159108
535.199149	0.158772
535.414736	0.159197
535.630306	0.159885
535.845857	0.159441
536.061390	0.159688
536.276904	0.160572
536.492401	0.161208
536.707879	0.161340
536.923339	0.161854
537.138781	0.163094
537.354204	0.163589
537.569610	0.164276
537.784997	0.164861
538.000366	0.165239
538.215716	0.165497
538.431049	0.165290
538.646363	0.165472
538.861659	0.165765
539.076937	0.165849
539.292196	0.166187
539.507438	0.166088
539.722661	0.166482
539.937866	0.166959
540.153052	0.167161
540.368221	0.168067
540.583371	0.169045
540.798503	0.168782
541.013617	0.169448
541.228712	0.169986
541.443789	0.170414
541.658848	0.170873
541.873889	0.171130
542.088912	0.171512
542.303916	0.171780
542.518902	0.172038
542.733870	0.173301
542.948820	0.173263
543.163752	0.172903
543.378665	0.172877
543.593560	0.172924
543.808437	0.173520
544.023295	0.174157
544.238136	0.174781
544.452958	0.174818
544.667762	0.174288
544.882548	0.174258
545.097315	0.174883
545.312064	0.175674
545.526795	0.176209
545.741508	0.176097
545.956203	0.176176
546.170879	0.175735
546.385537	0.175877
546.600177	0.176228
546.814799	0.176864
547.029402	0.177030
547.243988	0.176788
547.458555	0.177199
547.673103	0.177425
547.887634	0.177625
548.102146	0.178164
548.316640	0.178700
548.531116	0.178817
548.745574	0.178964
548.960013	0.179455
549.174435	0.180263
549.388838	0.180397
549.603222	0.180472
549.817589	0.180905
550.031937	0.181514
550.246267	0.181765
550.460579	0.181587
550.674873	0.182202
550.889148	0.182281
551.103405	0.182516
551.317644	0.182093
551.531865	0.182608
551.746068	0.182371
551.960252	0.181758
552.174418	0.181516
552.388566	0.182486
552.602696	0.182466
552.816807	0.182710
553.030900	0.182584
553.244975	0.183611
553.459032	0.183830
553.673070	0.184355
553.887091	0.185350
554.101093	0.186157
554.315077	0.186563
554.529042	0.187081
554.742990	0.187451
554.956919	0.188090
555.170830	0.188115
555.384722	0.188229
555.598597	0.188738
555.812453	0.189209
556.026291	0.189281
556.240111	0.189481
556.453913	0.189325
556.667696	0.189696
556.881461	0.189686
557.095208	0.189836
557.308937	0.189773
557.522647	0.189779
557.736339	0.189463
557.950013	0.189538
558.163669	0.189436
558.377307	0.189659
558.590926	0.189171
558.804527	0.189175
559.018110	0.189498
559.231675	0.190263
559.445221	0.190300
559.658749	0.190957
559.872259	0.191140
560.085751	0.191323
560.299225	0.191876
560.512680	0.192559
560.726117	0.193238
560.939536	0.193189
561.152937	0.193293
561.366319	0.193262
561.579683	0.192993
561.793029	0.193750
562.006357	0.193820
562.219667	0.193584
562.432958	0.193674
562.646231	0.193515
562.859486	0.193787
563.072723	0.193904
563.285941	0.194615
563.499141	0.194879
563.712323	0.194858
563.925487	0.195428
564.138632	0.195716
564.351760	0.195952
564.564869	0.195906
564.777960	0.196401
564.991032	0.196827
565.204087	0.196740
565.417123	0.197056
565.630141	0.197003
565.843140	0.196968
566.056122	0.197144
566.269085	0.197264
566.482030	0.197848
566.694957	0.197784
566.907866	0.198141
567.120756	0.198395
567.333628	0.198420
567.546482	0.198896
567.759318	0.199470
567.972135	0.199405
568.184935	0.199400
568.397716	0.199478
568.610478	0.199468
568.823223	0.198917
569.035949	0.198973
569.248657	0.199002
569.461347	0.199020
569.674019	0.198942
569.886672	0.199884
570.099308	0.199978
570.311925	0.200159
570.524523	0.200705
570.737104	0.200910
570.949666	0.201556
571.162210	0.201827
571.374736	0.202352
571.587244	0.202322
571.799733	0.202183
572.012205	0.202919
572.224658	0.203321
572.437092	0.203734
572.649509	0.203800
572.861907	0.203436
573.074287	0.203735
573.286649	0.203884
573.498993	0.204480
573.711318	0.204346
573.923625	0.204385
574.135914	0.204388
574.348185	0.204118
574.560438	0.204737
574.772672	0.204984
574.984888	0.205219
575.197086	0.204906
575.409266	0.204869
575.621427	0.204966
575.833570	0.205146
576.045695	0.205249
576.257802	0.205503
576.469890	0.205598
576.681961	0.205664
576.894013	0.205961
577.106046	0.206508
577.318062	0.206747
577.530059	0.206887
577.742039	0.206986
577.954000	0.207188
578.165942	0.207349
578.377867	0.207390
578.589773	0.207423
578.801661	0.207419
579.013531	0.207199
579.225382	0.207212
579.437216	0.207416
579.649031	0.207511
579.860828	0.207726
580.072606	0.207790
580.284367	0.208440
580.496109	0.209120
580.707833	0.209288
580.919539	0.209922
581.131227	0.209859
581.342896	0.210263
581.554547	0.210476
581.766180	0.210755
581.977795	0.210758
582.189391	0.210718
582.400969	0.210551
582.612529	0.210728
582.824071	0.210623
583.035595	0.211071
583.247100	0.211018
583.458587	0.211299
583.670056	0.211227
583.881506	0.211892
584.092939	0.211790
584.304353	0.212063
584.515749	0.212179
584.727127	0.212245
584.938486	0.212281
585.149828	0.212806
585.361151	0.212862
585.572456	0.213066
585.783742	0.212786
585.995011	0.213341
586.206261	0.213507
586.417493	0.213577
586.628706	0.213518
586.839902	0.213492
587.051079	0.213292
587.262238	0.213520
587.473379	0.213760
587.684502	0.213802
587.895606	0.213778
588.106692	0.213842
588.317760	0.214329
588.528810	0.214797
588.739841	0.214807
588.950855	0.215343
589.161850	0.215921
589.372827	0.216347
589.583785	0.216650
589.794726	0.216748
590.005648	0.216870
590.216552	0.216793
590.427437	0.216824
590.638305	0.217784
590.849154	0.217769
591.059985	0.217517
591.270798	0.217324
591.481592	0.217411
591.692369	0.217623
591.903127	0.218050
592.113867	0.217791
592.324588	0.218085
592.535292	0.218112
592.745977	0.218358
592.956644	0.218425
593.167293	0.218419
593.377923	0.218798
593.588536	0.218943
593.799130	0.218994
594.009706	0.219605
594.220263	0.220022
594.430803	0.220032
594.641324	0.220148
594.851827	0.220428
595.062312	0.220775
595.272778	0.221133
595.483227	0.221510
595.693657	0.221628
595.904069	0.221860
596.114462	0.221967
596.324838	0.222416
596.535195	0.222474
596.745534	0.222460
596.955855	0.222171
597.166157	0.222292
597.376441	0.222340
597.586707	0.222492
597.796955	0.222750
598.007185	0.222627
598.217396	0.222577
598.427589	0.222943
598.637764	0.223108
598.847921	0.223390
599.058060	0.223436
599.268180	0.223661
599.478282	0.223827
599.688366	0.224164
599.898431	0.224442
600.108479	0.224517
600.318508	0.224583
600.528519	0.224848
600.738511	0.225665
600.948486	0.225513
601.158442	0.225657
601.368380	0.226306
601.578300	0.226266
601.788202	0.226630
601.998085	0.226559
602.207950	0.226500
602.417797	0.226640
602.627626	0.226614
602.837436	0.227028
603.047228	0.226990
603.257002	0.226875
603.466758	0.226543
603.676496	0.226655
603.886215	0.227108
604.095916	0.227649
604.305599	0.228050
604.515264	0.228073
604.724910	0.228327
604.934538	0.228607
605.144148	0.228439
605.353740	0.229084
605.563314	0.228859
605.772869	0.228999
605.982406	0.228936
606.191925	0.228681
606.401425	0.228764
606.610908	0.228745
606.820372	0.228842
607.029818	0.229143
607.239246	0.229065
607.448655	0.229338
607.658047	0.229279
607.867420	0.229270
608.076775	0.229405
608.286111	0.229589
608.495430	0.229921
608.704730	0.230187
608.914012	0.230395
609.123275	0.230631
609.332521	0.230518
609.541748	0.230446
609.750957	0.230507
609.960148	0.230677
610.169321	0.230697
610.378475	0.230709
610.587611	0.230709
610.796729	0.230446
611.005829	0.230249
611.214910	0.230597
611.423974	0.230941
611.633019	0.230951
611.842045	0.231282
612.051054	0.231494
612.260044	0.231743
612.469017	0.231678
612.677970	0.232171
612.886906	0.232779
613.095824	0.233045
613.304723	0.233157
613.513604	0.233686
613.722467	0.233751
613.931311	0.233947
614.140138	0.234000
614.348946	0.234216
614.557736	0.234212
614.766507	0.234063
614.975261	0.234176
615.183996	0.234462
615.392713	0.234420
615.601412	0.234689
615.810092	0.234615
616.018754	0.234916
616.227399	0.235052
616.436024	0.235508
616.644632	0.235803
616.853222	0.235781
617.061793	0.235863
617.270346	0.236096
617.478880	0.236026
617.687397	0.236298
617.895895	0.236141
618.104375	0.236699
618.312837	0.236480
618.521281	0.236566
618.729706	0.237041
618.938113	0.237248
619.146502	0.237580
619.354873	0.237976
619.563226	0.238323
619.771560	0.238586
619.979876	0.238288
620.188174	0.238525
620.396453	0.238712
620.604715	0.238749
620.812958	0.238844
621.021183	0.238750
621.229390	0.238803
621.437578	0.238984
621.645748	0.238833
621.853900	0.239222
622.062034	0.239494
622.270150	0.239635
622.478247	0.239835
622.686326	0.240018
622.894387	0.239929
623.102430	0.239972
623.310454	0.239690
623.518461	0.240082
623.726449	0.239958
623.934418	0.240401
624.142370	0.240514
624.350303	0.240354
624.558218	0.240596
624.766115	0.241140
624.973994	0.241301
625.181855	0.241656
625.389697	0.241854
625.597521	0.242131
625.805327	0.242055
626.013114	0.242347
626.220883	0.242728
626.428634	0.242794
626.636367	0.242788
626.844082	0.243094
627.051778	0.243228
627.259457	0.243307
627.467117	0.243509
627.674758	0.243489
627.882382	0.243582
628.089987	0.243800
628.297574	0.243876
628.505143	0.244020
628.712694	0.243983
628.920226	0.244036
629.127740	0.244394
629.335236	0.244426
629.542714	0.244877
629.750174	0.245018
629.957615	0.245088
630.165038	0.245377
630.372443	0.245652
630.579829	0.246281
630.787198	0.246607
630.994548	0.246456
631.201880	0.246817
631.409194	0.246661
631.616489	0.246991
631.823766	0.247279
632.031025	0.247404
632.238266	0.247862
632.445489	0.247630
632.652693	0.247684
632.859879	0.247944
633.067047	0.248016
633.274197	0.248026
633.481329	0.247926
633.688442	0.247855
633.895537	0.248140
634.102614	0.247811
634.309672	0.248103
634.516713	0.248494
634.723735	0.248581
634.930739	0.248801
635.137724	0.249236
635.344692	0.249409
635.551641	0.249489
635.758572	0.249396
635.965485	0.249672
636.172379	0.249627
636.379256	0.249686
636.586114	0.250004
636.792954	0.250121
636.999775	0.250220
637.206579	0.250462
637.413364	0.250823
637.620131	0.251133
637.826880	0.251185
638.033610	0.251431
638.240323	0.251428
638.447017	0.251509
638.653692	0.251705
638.860350	0.251797
639.066990	0.251729
639.273611	0.252111
639.480214	0.252441
639.686798	0.253024
639.893365	0.253281
640.099913	0.253501
640.306443	0.253778
640.512955	0.254234
640.719449	0.254618
640.925924	0.255202
641.132381	0.254938
641.338820	0.254990
641.545241	0.254940
641.751644	0.255042
641.958028	0.255144
642.164394	0.255476
642.370742	0.255388
642.577071	0.255353
642.783383	0.255093
642.989676	0.255586
643.195951	0.255449
643.402207	0.255530
643.608446	0.255721
643.814666	0.256210
644.020868	0.256107
644.227052	0.256154
644.433218	0.256565
644.639365	0.256816
644.845494	0.256820
645.051605	0.257259
645.257698	0.257542
645.463772	0.257362
645.669828	0.257327
645.875866	0.257443
646.081886	0.257842
646.287888	0.257741
646.493871	0.257974
646.699836	0.258416
646.905783	0.258596
647.111712	0.258902
647.317622	0.259516
647.523514	0.259628
647.729388	0.260099
647.935244	0.260120
648.141082	0.260306
648.346901	0.260240
648.552702	0.260178
648.758485	0.260359
648.964250	0.260343
649.169996	0.260463
649.375724	0.260595
649.581434	0.260668
649.787126	0.261056
649.992800	0.261218
650.198455	0.261598
650.404092	0.262038
650.609711	0.262244
650.815311	0.262359
651.020894	0.262534
651.226458	0.262917
651.432004	0.263133
651.637532	0.262850
651.843041	0.263111
652.048532	0.263465
652.254006	0.263355
652.459460	0.263350
652.664897	0.263577
652.870315	0.263799
653.075716	0.264033
653.281097	0.264046
653.486461	0.264413
653.691807	0.264446
653.897134	0.264546
654.102443	0.264743
654.307734	0.264799
654.513006	0.265174
654.718261	0.265331
654.923497	0.265312
655.128715	0.265445
655.333915	0.265816
655.539096	0.265967
655.744259	0.265995
655.949404	0.266187
656.154531	0.266606
656.359640	0.266537
656.564730	0.266395
656.769802	0.266844
656.974856	0.267126
657.179892	0.267206
657.384909	0.267773
657.589908	0.268115
657.794889	0.268299
657.999852	0.268379
658.204797	0.268824
658.409723	0.269461
658.614631	0.269426
658.819521	0.269817
659.024393	0.270010
659.229246	0.270101
659.434081	0.270134
659.638898	0.270394
659.843697	0.270937
660.048478	0.271098
660.253240	0.271143
660.457984	0.271491
660.662710	0.271571
660.867417	0.271743
661.072107	0.271871
661.276778	0.272157
661.481431	0.272283
661.686066	0.272218
661.890682	0.272397
662.095281	0.272508
662.299861	0.272799
662.504422	0.273157
662.708966	0.273608
662.913491	0.273900
663.117999	0.274168
663.322488	0.274476
663.526958	0.274672
663.731411	0.274826
663.935845	0.275062
664.140261	0.275112
664.344659	0.275160
664.549038	0.275321
664.753400	0.275401
664.957743	0.275623
665.162068	0.275953
665.366375	0.276152
665.570663	0.276183
665.774933	0.276492
665.979185	0.276656
666.183419	0.276753
666.387635	0.276788
666.591832	0.276989
666.796011	0.277370
667.000172	0.277526
667.204315	0.277849
667.408439	0.278391
667.612545	0.278478
667.816634	0.278664
668.020703	0.278883
668.224755	0.279149
668.428788	0.279542
668.632803	0.279644
668.836800	0.279931
669.040779	0.280075
669.244739	0.280165
669.448681	0.280496
669.652605	0.280943
669.856511	0.281347
670.060399	0.281578
670.264268	0.281803
670.468119	0.282095
670.671952	0.282202
670.875767	0.282429
671.079563	0.282727
671.283341	0.283332
671.487101	0.283688
671.690843	0.283735
671.894567	0.283840
672.098272	0.284032
672.301959	0.284320
672.505628	0.284865
672.709278	0.285071
672.912911	0.285310
673.116525	0.284979
673.320121	0.284883
673.523699	0.285180
673.727258	0.285516
673.930799	0.285478
674.134322	0.285467
674.337827	0.285330
674.541314	0.285382
674.744782	0.285414
674.948232	0.285764
675.151664	0.286226
675.355078	0.286453
675.558474	0.286720
675.761851	0.286948
675.965210	0.287300
676.168551	0.287549
676.371873	0.288182
676.575178	0.288494
676.778464	0.288520
676.981732	0.288547
677.184981	0.288743
677.388213	0.288796
677.591426	0.289317
677.794621	0.289308
677.997798	0.289489
678.200956	0.289453
678.404097	0.289597
678.607219	0.290015
678.810323	0.290190
679.013408	0.290503
679.216476	0.290843
679.419525	0.290924
679.622556	0.291270
679.825569	0.291452
680.028563	0.291571
680.231540	0.291871
680.434498	0.292229
680.637438	0.292346
680.840359	0.292441
681.043263	0.292683
681.246148	0.293113
681.449015	0.293039
681.651864	0.293158
681.854694	0.293363
682.057506	0.293400
682.260301	0.293457
682.463076	0.293715
682.665834	0.294003
682.868573	0.294144
683.071295	0.293843
683.273998	0.294358
683.476682	0.294563
683.679349	0.294674
683.881997	0.294874
684.084627	0.295051
684.287239	0.295408
684.489833	0.295540
684.692408	0.295706
684.894965	0.296272
685.097504	0.296416
685.300025	0.296714
685.502527	0.297224
685.705012	0.297527
685.907478	0.297821
686.109925	0.297918
686.312355	0.298064
686.514766	0.298532
686.717159	0.298629
686.919534	0.299057
687.121891	0.299285
687.324230	0.299493
687.526550	0.299630
687.728852	0.299668
687.931136	0.299981
688.133401	0.300331
688.335649	0.300225
688.537878	0.300284
688.740089	0.300058
688.942281	0.300272
689.144456	0.300585
689.346612	0.300815
689.548750	0.301200
689.750870	0.301383
689.952971	0.301551
690.155055	0.301722
690.357120	0.302226
690.559167	0.302594
690.761195	0.302874
690.963206	0.302819
691.165198	0.302777
691.367172	0.302783
691.569128	0.302782
691.771065	0.302761
691.972984	0.302901
692.174885	0.302825
692.376768	0.303159
692.578633	0.303045
692.780479	0.303118
692.982308	0.303715
693.184118	0.304005
693.385909	0.304175
