sample name	sample
index	1186
start time	 04-26-2021  11:57:57 AM
880	0.399361
Peak Time (s)	91.536
Peak Height 	0.3994
calc peak height	90,93
Baseline Time (s)	9.036
Baseline Value 	-0.004487
subtract baseline	10,4
Abs	0.290941
Peak Time (s)	90.535
Peak Height 	0.2909
calc peak height	90,93
Baseline Time (s)	11.037
Baseline Value 	0.00178
subtract baseline	10,3
PK_550	0.173058
Peak Time (s)	92.537
Peak Height 	0.1731
calc peak height	90,93
Baseline Time (s)	8.536
Baseline Value 	3.9218E-4
subtract baseline	10,2
PK_880	0.280226
Peak Time (s)	92.537
Peak Height 	0.2802
calc peak height	90,93
Baseline Time (s)	10.537
Baseline Value 	9.516E-4
subtract baseline	10,1


Time (s)	A880-A510	A880-A775	A880-A975	A880	I510	I775	I975	I880	
0.036000	0.000366	0.000643	-0.003049	0.004157	6159.667472	43691.534838	3851.584941	22524.361362
0.536000	-0.003958	-0.000839	0.000177	0.007088	6105.675942	43279.405247	3852.251527	22392.310715
1.036500	-0.001493	-0.000551	0.001029	0.004206	6145.374497	43574.955509	3860.717534	22522.116716
1.537500	-0.001607	0.000115	-0.003551	0.002444	6157.709169	43802.886706	3854.321724	22601.927657
2.037000	-0.002286	0.000197	-0.001178	0.002860	6149.511763	43771.473931	3858.760552	22583.069090
2.534500	-0.003261	-0.001164	0.006650	0.003345	6138.612159	43598.267768	3875.595361	22561.098289
3.037500	0.002296	0.000315	-0.001904	-0.000942	6212.833437	44141.884545	3865.777264	22756.192938
3.535000	-0.000849	-0.000033	-0.003544	0.000798	6175.790142	43944.141853	3858.069712	22676.769852
4.035000	0.000741	0.000694	-0.001448	0.001914	6179.359853	43907.431341	3860.297243	22625.980278
4.536000	0.000068	-0.000352	-0.003008	0.000397	6185.736706	43951.861506	3860.198746	22695.026839
5.036000	-0.001695	-0.000687	-0.002586	-0.000192	6176.875498	43975.949296	3862.504409	22721.918048
5.536500	-0.000766	-0.000023	0.001481	0.000162	6181.213757	44005.201410	3871.013400	22705.765442
6.039500	-0.000641	-0.000809	0.001004	-0.000334	6185.908845	43977.713859	3871.055178	22728.384992
6.537500	-0.001674	-0.000699	0.000427	0.000064	6175.098127	43950.586607	3868.815322	22710.216111
7.037500	-0.000728	0.000356	0.002801	0.000305	6180.420603	44027.517604	3873.725687	22699.241644
7.535000	0.000186	0.000339	0.003216	-0.000208	6191.217832	44074.516611	3875.868991	22722.639743
8.035000	0.000126	-0.000270	0.003463	-0.000282	6191.321294	44023.838751	3876.612126	22726.013888
8.535500	-0.001014	0.000000	0.006618	-0.000183	6181.945151	44040.025244	3883.710276	22721.496107
9.035500	-0.000647	-0.000314	-0.001911	0.000000	6183.338222	43993.014573	3863.606762	22713.152582
9.536000	-0.003483	-0.000612	-0.001017	0.005161	6123.442777	43479.968169	3853.906390	22478.987711
10.036500	0.000524	0.000370	0.001792	0.000256	6190.261532	44033.522866	3871.513787	22701.485840
10.537000	0.000000	0.000369	0.001634	-0.000401	6191.270996	44095.723874	3872.662789	22731.475536
11.037000	0.001030	-0.000005	0.000000	-0.000002	6196.055859	44022.444521	3867.987356	22713.254437
11.537000	0.000375	0.000896	-0.003025	0.000276	6188.982051	44081.437260	3860.436244	22700.559631
12.037500	-0.001869	-0.000559	0.000724	-0.000842	6180.468826	44049.507521	3871.582676	22751.621226
12.534500	-0.000598	0.000182	-0.002770	-0.000370	6186.507132	44074.981849	3862.490208	22730.048513
13.038500	-0.000147	-0.000045	0.000151	-0.000901	6193.941177	44103.812159	3870.398816	22754.314103
13.535000	-0.005552	-0.000239	-0.003767	0.005987	6102.042840	43437.743268	3845.851654	22441.797797
14.035500	-0.000397	-0.000115	0.002684	0.003144	6161.535557	43715.403558	3866.926334	22570.184322
14.536000	-0.001485	-0.000621	-0.001568	0.002183	6160.578861	43758.215316	3859.410596	22613.755630
15.042500	-0.003150	0.000267	0.005834	0.000849	6158.101817	43967.665142	3879.485569	22674.433943
15.539500	-0.004299	-0.000374	0.000172	0.005948	6111.574076	43428.793943	3854.817067	22443.551107
16.036500	-0.000197	0.000751	-0.000211	0.001437	6175.881350	43957.818190	3864.207368	22647.665554
16.537500	0.000321	0.000064	0.003797	0.000667	6185.607997	43965.678928	3875.188892	22682.719322
17.035000	-0.002574	-0.000186	0.002418	0.000234	6167.044451	43982.978857	3873.006289	22702.459462
17.535000	-0.000604	0.000432	-0.001483	0.003284	6158.932126	43753.746375	3857.103658	22563.845041
18.035000	-0.001146	0.000478	0.005787	0.001782	6166.140622	43899.507011	3877.213490	22631.998029
18.535000	-0.000818	0.000011	0.000618	0.001603	6169.955202	43872.302616	3865.723092	22640.114412
19.036000	-0.000714	-0.000526	0.002377	0.001141	6174.220831	43865.240114	3870.822413	22661.141766
19.536500	-0.003415	0.000431	0.000815	0.003474	6136.496984	43735.711382	3861.898915	22555.233259
20.039000	-0.000738	0.000868	0.000193	0.002089	6166.904427	43907.359142	3863.641689	22618.043802
20.536500	-0.000341	0.000513	-0.001045	0.002395	6167.582509	43844.986801	3860.120234	22604.130579
21.037500	-0.002347	0.000254	0.000762	0.001686	6157.844992	43887.431814	3865.864709	22636.350602
21.537000	-0.003173	-0.000548	-0.002766	0.002963	6142.111513	43691.742664	3854.922484	22578.377415
22.035000	-0.002966	-0.000689	0.000878	0.001026	6158.157402	43860.733362	3867.643632	22666.398626
22.535000	-0.002241	-0.000040	-0.001769	0.001478	6160.201578	43879.330181	3860.559908	22645.821609
23.035000	0.001082	0.000304	-0.006160	0.001846	6182.451834	43877.063630	3849.779733	22629.083456
23.535500	-0.002085	0.000375	0.001642	0.003810	6143.907905	43698.859475	3863.019067	22540.009633
24.036000	-0.003697	-0.000946	-0.000039	0.001315	6150.509072	43809.243038	3864.880099	22653.216632
24.536000	0.000122	0.000866	0.005660	0.002041	6173.735837	43911.661749	3876.321593	22620.230187
25.036500	-0.003095	-0.000178	-0.003169	0.001813	6151.296297	43834.792459	3856.617628	22630.602948
25.536000	-0.002615	-0.000896	-0.002229	0.002590	6149.067284	43694.119738	3856.986673	22595.310282
26.037500	0.000120	-0.000432	-0.004688	0.001159	6180.375345	43872.426964	3854.656359	22660.330520
26.534500	-0.001220	-0.000016	0.001960	0.001545	6167.369855	43875.321864	3868.935009	22642.781663
27.035000	0.000779	0.000816	-0.000977	0.002362	6176.268564	43876.678355	3860.350278	22605.628838
27.537500	0.001997	0.000413	0.003529	-0.002208	6220.216839	44271.503018	3881.232337	22814.161861
28.037500	-0.004690	0.000362	-0.003638	0.005549	6111.631390	43534.777266	3847.122288	22461.510838
28.535500	0.000676	0.000049	-0.000605	0.000380	6190.470381	43991.380382	3865.724589	22695.813027
29.036000	-0.002574	0.000479	0.005305	0.000901	6162.031420	43982.773429	3878.136647	22672.055676
29.539000	-0.002688	-0.000456	-0.000272	0.005822	6124.441025	43432.852157	3854.096482	22449.206476
30.037000	-0.002269	-0.000525	-0.003466	0.005393	6130.743221	43466.411401	3847.860242	22468.543295
30.537000	0.002057	0.001077	0.003391	0.001017	6196.111641	44028.415322	3873.444087	22666.803086
31.038000	-0.001116	0.000057	-0.001502	0.003263	6155.252234	43720.439287	3857.109666	22564.809063
31.537500	-0.003173	0.000938	-0.003970	0.007545	6108.096116	43402.235970	3841.909219	22371.797471
32.035500	-0.001601	-0.000284	0.001053	0.004054	6145.703359	43614.227721	3861.119717	22529.004065
32.535500	-0.000243	0.000155	-0.000121	0.000719	6180.956636	43969.397442	3866.055249	22680.354657
33.035500	0.000202	0.000043	0.002554	0.000893	6183.008915	43942.448188	3871.801687	22672.460203
33.536000	-0.003024	-0.000199	-0.002499	0.005476	6124.512568	43489.072824	3849.848709	22464.794470
34.036000	-0.003503	-0.000773	-0.001264	0.004056	6131.509546	43568.224742	3855.848344	22528.893305
34.536500	-0.001286	0.000221	0.001648	0.002754	6157.794447	43783.747158	3865.448257	22587.869656
35.036500	-0.002631	-0.000149	-0.000091	0.001986	6153.473481	43821.231680	3863.229746	22622.739302
35.537500	-0.002994	0.000409	-0.001187	0.004380	6132.882014	43648.655807	3855.289654	22514.256286
36.037500	-0.004380	-0.000260	-0.000070	0.004608	6120.900811	43564.657657	3857.306436	22503.981854
36.534500	-0.000349	0.000820	0.000739	0.003485	6159.335596	43771.197660	3861.701318	22554.720141
37.035500	-0.000635	0.000489	-0.001353	0.002893	6161.637289	43795.824039	3858.286915	22581.572068
37.536000	-0.002024	0.000318	0.002964	0.004475	6139.407883	43631.170830	3864.522018	22509.979511
38.036000	-0.001610	-0.000533	-0.003377	0.003679	6148.440390	43626.032048	3851.922813	22545.952665
38.536000	0.002328	-0.000124	-0.001673	0.002581	6186.314192	43767.495442	3858.267017	22595.688605
39.039000	-0.000639	0.000064	0.002883	0.002842	6161.985964	43760.661476	3868.076696	22583.873356
39.536500	-0.003565	-0.000372	0.000225	0.003643	6134.123698	43644.559397	3860.169740	22547.597773
40.036500	-0.001922	-0.000254	-0.002427	0.002708	6153.375010	43743.417156	3856.270667	22589.956440
40.537000	-0.001255	-0.000640	0.000605	0.001994	6163.732009	43774.269166	3864.801811	22622.374514
41.034500	-0.001442	-0.000415	0.001775	0.002359	6159.586739	43761.049662	3866.644442	22605.789228
41.535000	-0.003631	-0.000392	-0.001037	0.003581	6134.094596	43648.454444	3857.442425	22550.393498
42.035500	-0.000594	0.000212	0.001118	0.002875	6162.080729	43771.441796	3863.959575	22582.381298
42.535500	-0.002998	0.000056	0.003855	0.002673	6145.584581	43775.719811	3870.698302	22591.519038
43.035500	-0.001185	0.000028	-0.000430	0.002815	6158.091491	43759.855897	3860.563592	22585.103832
43.537000	-0.001413	0.000632	0.000540	0.004332	6145.027550	43673.985408	3859.318193	22516.420226
44.037000	0.000828	-0.000231	0.006229	-0.003056	6217.768897	44290.966097	3889.516222	22853.131733
44.536500	0.000092	0.001179	0.002555	0.001366	6178.602669	44005.051207	3870.714603	22650.916818
45.034500	-0.001650	-0.000219	0.003896	0.000490	6172.076702	43955.686406	3875.827144	22690.804695
45.534000	-0.004229	0.000225	-0.001752	0.005130	6118.153009	43561.154513	3852.315683	22480.425083
46.035000	-0.004432	-0.000659	-0.006801	0.005672	6112.632849	43427.879398	3839.768773	22455.970256
46.535500	0.000119	-0.000147	-0.002430	0.000776	6183.262775	43935.468378	3860.652845	22677.778187
47.035500	0.000605	0.000258	0.002721	0.001076	6184.668149	43945.445902	3871.764729	22664.118122
47.536000	-0.003847	0.000167	-0.000991	0.005881	6115.416028	43485.539980	3852.337854	22446.572555
48.036000	-0.003030	0.000064	-0.000657	0.006295	6118.404053	43437.227896	3852.157230	22427.947142
48.539000	-0.000740	0.000462	0.005127	0.000754	6176.942693	43995.065607	3878.066466	22678.749732
49.036500	-0.001082	-0.000102	0.001889	0.000014	6179.940749	44011.665281	3872.293054	22712.496287
49.537000	-0.002411	0.000618	0.001346	0.006095	6124.477834	43507.646279	3857.146107	22436.939324
50.037500	-0.003494	-0.000471	-0.000913	0.004921	6125.145243	43515.541185	3854.685743	22489.820226
50.535000	-0.000259	-0.000310	-0.000342	0.002433	6167.916411	43763.940937	3861.636250	22602.428471
51.035000	0.018259	-0.008043	0.019610	0.314108	4564.278685	22496.669226	3377.280122	12508.991479
51.535000	-0.002257	-0.020968	-0.015508	0.264829	4678.174604	24205.831566	3394.045353	13664.449576
52.035000	-0.012604	-0.026720	-0.032754	-0.099152	6913.185151	51482.372490	4032.599228	27796.468553
52.536000	0.009355	-0.032946	0.001982	-0.124944	7379.519266	53720.199528	4206.244145	29320.281239
53.039000	-0.033505	-0.026167	-0.036932	-0.114370	6861.024254	53278.266270	4062.492454	28684.587272
53.536500	-0.009858	-0.026530	-0.011145	-0.157583	7520.128606	58500.018657	4267.577942	31382.900079
54.036500	0.014781	-0.021890	0.010876	-0.133360	7524.560100	56049.620059	4260.519384	29837.376163
54.536500	0.021158	-0.020335	0.020975	-0.068626	6943.198958	48856.691042	4096.319921	26106.119408
55.034500	0.022589	-0.012731	0.022499	-0.023135	6553.205941	45019.186447	3978.387852	23797.598742
55.535000	0.030349	-0.005166	0.033458	-0.020950	6600.400894	45543.935609	4000.979908	23692.699112
56.037500	0.042547	0.001982	0.038714	-0.011636	6625.051414	45331.909781	3990.475102	23251.380955
56.536000	0.068214	0.011418	0.065734	-0.001436	6760.073448	45257.399749	4034.664777	22778.793684
57.035500	0.090210	0.021148	0.085863	0.042546	6569.562906	42046.766284	3972.500536	20863.516046
57.535000	0.113699	0.034718	0.112892	0.074765	6496.559002	40402.244301	3959.421754	19578.586957
58.036500	0.135634	0.047532	0.136250	0.143265	6130.969907	35891.743758	3852.015079	17143.826347
58.536000	0.159255	0.066809	0.162591	0.193283	5940.487182	33638.652132	3799.989145	15593.514345
59.037000	0.178431	0.080586	0.180175	0.244227	5726.085430	31119.239087	3731.336982	14187.746226
59.537500	0.196993	0.092556	0.195375	0.284522	5588.186638	29338.929636	3683.060018	13186.927523
60.037500	0.203113	0.100804	0.211240	0.323498	5392.377336	27534.372013	3640.999670	12303.312569
60.535000	0.221290	0.111448	0.227958	0.336103	5424.550193	27423.476740	3648.322545	12034.102561
61.038000	0.227328	0.120714	0.230193	0.353330	5360.364315	26978.418873	3621.962962	11678.604015
61.535500	0.234292	0.123184	0.243123	0.362775	5346.353066	26595.196424	3628.009781	11489.599217
62.036000	0.235026	0.127683	0.242673	0.366646	5328.752738	26629.385683	3620.520482	11413.302596
62.539000	0.237684	0.131477	0.239703	0.364229	5357.292246	26970.904281	3619.567580	11460.857120
63.036500	0.239735	0.134806	0.251093	0.364548	5367.102294	27138.145539	3638.881309	11454.558899
63.538500	0.240551	0.137532	0.243232	0.368647	5348.533115	27061.734840	3618.037207	11374.144448
64.042000	0.242906	0.138334	0.246823	0.361022	5405.433223	27534.690252	3637.567692	11524.358530
64.537000	0.245775	0.141604	0.248309	0.362288	5414.690538	27648.533141	3637.955896	11499.229385
65.037000	0.249486	0.144610	0.253873	0.365001	5420.479381	27665.241288	3643.006537	11445.648356
65.535000	0.246600	0.144527	0.253587	0.371958	5364.017280	27267.392250	3630.244971	11309.733701
66.038500	0.248124	0.146396	0.256380	0.370859	5378.938187	27434.368993	3637.075722	11331.059062
66.536000	0.249148	0.146476	0.254374	0.370561	5386.489330	27455.646770	3634.069596	11336.844408
67.038500	0.252375	0.148459	0.260113	0.374323	5383.426253	27355.369603	3637.547930	11264.005220
67.535500	0.250130	0.148422	0.256611	0.381905	5327.885817	26930.447001	3618.245545	11119.131202
68.037000	0.253817	0.150184	0.261797	0.380209	5358.157042	27122.388413	3630.172019	11151.319368
68.536500	0.254919	0.150852	0.266480	0.380670	5361.791379	27133.943184	3637.584974	11142.571110
69.036500	0.255482	0.152774	0.260650	0.383019	5351.686956	27110.100465	3623.292123	11098.061015
69.537500	0.257221	0.153921	0.263680	0.390467	5319.685101	26761.726661	3615.682174	10958.551486
70.034500	0.253433	0.154746	0.265564	0.387688	5314.065285	26960.388586	3623.715048	11010.316484
70.538000	0.256413	0.156150	0.261527	0.388129	5328.218336	27013.767821	3616.000061	11002.083208
71.035000	0.256219	0.155462	0.264504	0.388859	5323.061526	26935.246157	3619.861574	10988.468534
71.535500	0.255986	0.156816	0.258710	0.396433	5279.906851	26593.754550	3597.176270	10848.501839
72.039000	0.257662	0.157374	0.270611	0.392897	5308.625908	26817.936928	3623.435256	10913.539376
72.536500	0.264607	0.159017	0.267229	0.392992	5346.909010	26903.282963	3617.440422	10911.790878
73.039500	0.263892	0.158836	0.274182	0.393141	5342.045390	26885.101778	3629.218359	10909.040484
73.537000	0.261818	0.157247	0.265208	0.397968	5303.563568	26533.654270	3605.517787	10820.438300
74.037000	0.263173	0.159235	0.279092	0.396567	5318.853853	26718.580953	3631.810736	10846.038267
74.534500	0.266848	0.160077	0.269035	0.393099	5358.955927	26955.943797	3620.362856	10909.812716
75.034500	0.266952	0.158172	0.275690	0.391752	5367.183916	26925.125277	3634.290483	10934.719209
75.535000	0.268673	0.160426	0.276009	0.394051	5363.903788	26922.600418	3630.819516	10892.260850
76.038500	0.271928	0.162462	0.276079	0.396773	5366.929018	26884.761016	3626.197360	10842.281767
76.535500	0.273467	0.163231	0.282504	0.395421	5383.393940	27002.044428	3639.832938	10867.054816
77.036000	0.273875	0.163179	0.280272	0.394215	5392.640238	27066.110763	3638.019915	10889.235309
77.536500	0.270720	0.162480	0.279372	0.398333	5351.258980	26799.814026	3629.214675	10813.776192
78.036500	0.273681	0.163476	0.282833	0.395314	5385.228575	27021.525524	3640.605147	10869.016947
78.537500	0.277564	0.164170	0.280772	0.392794	5422.127252	27200.590940	3641.418464	10915.437977
79.040000	0.277650	0.164656	0.290057	0.392241	5425.841977	27258.735236	3659.059669	10925.663583
79.538000	0.279162	0.163988	0.284754	0.391836	5437.015649	27244.013231	3650.226250	10933.166082
80.035000	0.276852	0.165634	0.280934	0.395025	5405.101939	27157.734871	3637.759660	10874.334121
80.535500	0.277654	0.165673	0.283452	0.392838	5422.394848	27282.277184	3646.105308	10914.628174
81.035500	0.281812	0.167503	0.284142	0.395048	5433.734433	27261.013231	3643.399631	10873.918045
81.539000	0.277015	0.166865	0.282294	0.393281	5416.123680	27324.326980	3643.255156	10906.445972
82.036500	0.277953	0.166523	0.284236	0.395373	5409.444547	27187.925041	3642.987912	10867.934106
82.536500	0.279327	0.167119	0.285177	0.393601	5427.686493	27320.616925	3647.823518	10900.540333
83.037000	0.279193	0.167098	0.284947	0.391936	5436.610450	27413.179839	3650.392673	10931.308304
83.537000	0.277403	0.167243	0.280533	0.397116	5396.241670	27130.903684	3633.375966	10836.006406
84.034500	0.278948	0.168695	0.286027	0.392966	5429.175318	27445.148617	3650.482081	10912.261761
84.535000	0.276733	0.168826	0.283482	0.392534	5418.817577	27476.994550	3646.702764	10920.254513
85.035000	0.278718	0.168906	0.280757	0.392742	5429.143400	27469.722610	3641.483377	10916.400556
85.535500	0.275922	0.168333	0.280291	0.397738	5384.185068	27156.979976	3631.860174	10824.634186
86.038500	0.278256	0.169665	0.286087	0.393388	5422.696388	27476.136804	3649.833088	10904.474577
86.536000	0.276843	0.169587	0.284668	0.392198	5421.404801	27539.063446	3649.423090	10926.457171
87.036500	0.280557	0.170919	0.290057	0.392914	5438.866045	27574.013716	3657.840486	10913.233635
87.537000	0.276487	0.169587	0.279254	0.397220	5390.387064	27256.050213	3630.953026	10834.097792
88.037000	0.275630	0.169487	0.285194	0.393610	5406.214420	27453.504293	3647.838546	10900.381807
88.537000	0.279890	0.170545	0.285518	0.392090	5439.781336	27599.563429	3651.141971	10928.455939
89.035000	0.279085	0.171740	0.291643	0.392818	5430.836677	27626.099282	3660.889751	10914.995789
89.535000	0.277055	0.168985	0.286085	0.396754	5396.316869	27248.416967	3643.820903	10842.617708
90.036000	0.277985	0.170711	0.282527	0.394116	5416.907496	27494.122816	3642.186387	10891.060122
90.535500	0.278688	0.171654	0.290941	0.393702	5423.389637	27571.032627	3658.014569	10898.695578
91.036000	0.279435	0.170639	0.280458	0.392811	5432.915340	27563.935152	3640.831302	10915.120504
91.536000	0.279066	0.170986	0.289086	0.399361	5392.899978	27214.509876	3644.522037	10795.053133
92.037000	0.280166	0.170833	0.285152	0.394058	5429.914765	27504.303901	3646.962795	10892.134271
92.536500	0.280226	0.173058	0.285204	0.395504	5421.851503	27548.450525	3644.477488	10865.538242
93.037500	0.280744	0.173347	0.283741	0.395547	5424.610718	27562.370834	3641.801177	10864.750130
93.534500	0.283281	0.172089	0.279842	0.395029	5442.428839	27520.473896	3635.828447	10874.269567
94.035500	0.279968	0.171143	0.285895	0.394455	5426.449948	27499.422366	3647.581509	10884.826272
94.535500	0.280467	0.173406	0.293541	0.395827	5421.379158	27549.831572	3658.873416	10859.612387
95.035500	0.281441	0.172196	0.282450	0.395268	5430.292492	27512.959487	3640.009810	10869.873583
95.538500	0.278695	0.172412	0.283010	0.401372	5379.266358	27181.776077	3630.259775	10758.533628
96.036000	0.279459	0.174251	0.291970	0.398338	5401.033301	27455.573729	3651.507936	10813.680897
