sample name	sample
index	601
start time	 03-16-2021  05:09:09 PM


Wavelength (nm)	Absorbance
494.344910	-0.532116
494.563924	-0.532116
494.782919	-0.532116
495.001897	0.641921
495.220856	-0.055106
495.439797	0.024400
495.658719	0.391899
495.877624	0.408862
496.096510	0.774789
496.315378	NaN
496.534227	2.383409
496.753059	0.458429
496.971872	0.111281
497.190667	0.082371
497.409444	0.080546
497.628203	0.078907
497.846943	0.080239
498.065665	0.081436
498.284369	0.081089
498.503055	0.081068
498.721723	0.082058
498.940372	0.081639
499.159003	0.081731
499.377616	0.081424
499.596210	0.079551
499.814787	0.079544
500.033345	0.078392
500.251885	0.078810
500.470406	0.079269
500.688910	0.078789
500.907395	0.080048
501.125862	0.079302
501.344311	0.079416
501.562742	0.081208
501.781154	0.082192
501.999548	0.081660
502.217924	0.081776
502.436282	0.080931
502.654621	0.081394
502.872942	0.079631
503.091245	0.079327
503.309530	0.079303
503.527797	0.078658
503.746045	0.078302
503.964275	0.077805
504.182487	0.077982
504.400681	0.077679
504.618856	0.077982
504.837013	0.078975
505.055152	0.080530
505.273273	0.080248
505.491376	0.080958
505.709460	0.080584
505.927526	0.081931
506.145574	0.080965
506.363604	0.081094
506.581615	0.082628
506.799608	0.082299
507.017583	0.081523
507.235540	0.081308
507.453478	0.081089
507.671399	0.080827
507.889301	0.080719
508.107185	0.081493
508.325050	0.082796
508.542898	0.081024
508.760727	0.081452
508.978538	0.081126
509.196330	0.082437
509.414105	0.082343
509.631861	0.081207
509.849599	0.080814
510.067319	0.079649
510.285021	0.079778
510.502704	0.080337
510.720369	0.080090
510.938016	0.080209
511.155645	0.079636
511.373255	0.079585
511.590848	0.080281
511.808422	0.080972
512.025977	0.082317
512.243515	0.081744
512.461034	0.080690
512.678536	0.080121
512.896018	0.079989
513.113483	0.080405
513.330930	0.079684
513.548358	0.079982
513.765768	0.080048
513.983160	0.079604
514.200533	0.080066
514.417889	0.080645
514.635226	0.080672
514.852545	0.081883
515.069845	0.081380
515.287128	0.081898
515.504392	0.081131
515.721638	0.080196
515.938866	0.080488
516.156075	0.080659
516.373267	0.081399
516.590440	0.081622
516.807594	0.080488
517.024731	0.080398
517.241850	0.082015
517.458950	0.082648
517.676032	0.083898
517.893095	0.083569
518.110141	0.083584
518.327168	0.082225
518.544177	0.083018
518.761168	0.083373
518.978141	0.083562
519.195095	0.082716
519.412031	0.083500
519.628949	0.082696
519.845849	0.083004
520.062731	0.082293
520.279594	0.083318
520.496439	0.082856
520.713266	0.083605
520.930074	0.084058
521.146865	0.083884
521.363637	0.083966
521.580391	0.084498
521.797127	0.084835
522.013844	0.084008
522.230543	0.084522
522.447224	0.085204
522.663887	0.085071
522.880532	0.085854
523.097158	0.086204
523.313766	0.085724
523.530356	0.085341
523.746928	0.085374
523.963481	0.087455
524.180017	0.088056
524.396534	0.088551
524.613032	0.088361
524.829513	0.087343
525.045975	0.087706
525.262420	0.087944
525.478845	0.088388
525.695253	0.088459
525.911643	0.087909
526.128014	0.086959
526.344367	0.086870
526.560702	0.087766
526.777018	0.087957
526.993316	0.088152
527.209597	0.088422
527.425858	0.088504
527.642102	0.088970
527.858328	0.088733
528.074535	0.089609
528.290724	0.089907
528.506894	0.090372
528.723047	0.091604
528.939181	0.091641
529.155297	0.091568
529.371395	0.092124
529.587475	0.092235
529.803536	0.093608
530.019579	0.092779
530.235604	0.092530
530.451611	0.091804
530.667600	0.091597
530.883570	0.090906
531.099522	0.091489
531.315456	0.091521
531.531372	0.091310
531.747269	0.090638
531.963148	0.091555
532.179009	0.092438
532.394852	0.092686
532.610676	0.092081
532.826482	0.092284
533.042271	0.091865
533.258040	0.092195
533.473792	0.091773
533.689525	0.091535
533.905240	0.091365
534.120937	0.090586
534.336616	0.091050
534.552277	0.091842
534.767919	0.092115
534.983543	0.092192
535.199149	0.091984
535.414736	0.093148
535.630306	0.093400
535.845857	0.093111
536.061390	0.093719
536.276904	0.093374
536.492401	0.093401
536.707879	0.093380
536.923339	0.094407
537.138781	0.094759
537.354204	0.094693
537.569610	0.094924
537.784997	0.095470
538.000366	0.095444
538.215716	0.096034
538.431049	0.096188
538.646363	0.097013
538.861659	0.096455
539.076937	0.096334
539.292196	0.096474
539.507438	0.096383
539.722661	0.096548
539.937866	0.096756
540.153052	0.097033
540.368221	0.097101
540.583371	0.096664
540.798503	0.097252
541.013617	0.097431
541.228712	0.097422
541.443789	0.097623
541.658848	0.098104
541.873889	0.097893
542.088912	0.097288
542.303916	0.097527
542.518902	0.097512
542.733870	0.097148
542.948820	0.096841
543.163752	0.096740
543.378665	0.097145
543.593560	0.097459
543.808437	0.097696
544.023295	0.098512
544.238136	0.098893
544.452958	0.100010
544.667762	0.100609
544.882548	0.101183
545.097315	0.101665
545.312064	0.101703
545.526795	0.101616
545.741508	0.102207
545.956203	0.101555
546.170879	0.101174
546.385537	0.101375
546.600177	0.101879
546.814799	0.101594
547.029402	0.101686
547.243988	0.102351
547.458555	0.101939
547.673103	0.101533
547.887634	0.102146
548.102146	0.102842
548.316640	0.102281
548.531116	0.101813
548.745574	0.102655
548.960013	0.102685
549.174435	0.102428
549.388838	0.102900
549.603222	0.103143
549.817589	0.103595
550.031937	0.103066
550.246267	0.103707
550.460579	0.104026
550.674873	0.103868
550.889148	0.103944
551.103405	0.104153
551.317644	0.104697
551.531865	0.104834
551.746068	0.104696
551.960252	0.104764
552.174418	0.104611
552.388566	0.104610
552.602696	0.104767
552.816807	0.104841
553.030900	0.104862
553.244975	0.104598
553.459032	0.104501
553.673070	0.104642
553.887091	0.104960
554.101093	0.105061
554.315077	0.105382
554.529042	0.105065
554.742990	0.105022
554.956919	0.104781
555.170830	0.104751
555.384722	0.104810
555.598597	0.104657
555.812453	0.104307
556.026291	0.104352
556.240111	0.103962
556.453913	0.104488
556.667696	0.104917
556.881461	0.104935
557.095208	0.104708
557.308937	0.104823
557.522647	0.105526
557.736339	0.106005
557.950013	0.105342
558.163669	0.105695
558.377307	0.105633
558.590926	0.105472
558.804527	0.105926
559.018110	0.106267
559.231675	0.105987
559.445221	0.106121
559.658749	0.106487
559.872259	0.106713
560.085751	0.106346
560.299225	0.106230
560.512680	0.106361
560.726117	0.106375
560.939536	0.106228
561.152937	0.106909
561.366319	0.106624
561.579683	0.106837
561.793029	0.107433
562.006357	0.107505
562.219667	0.107685
562.432958	0.108515
562.646231	0.108516
562.859486	0.108936
563.072723	0.108473
563.285941	0.108402
563.499141	0.108190
563.712323	0.108322
563.925487	0.109021
564.138632	0.109172
564.351760	0.108982
564.564869	0.108931
564.777960	0.108696
564.991032	0.109099
565.204087	0.109105
565.417123	0.108828
565.630141	0.108529
565.843140	0.108738
566.056122	0.109414
566.269085	0.108988
566.482030	0.109175
566.694957	0.109311
566.907866	0.109864
567.120756	0.109850
567.333628	0.109948
567.546482	0.110085
567.759318	0.109985
567.972135	0.109842
568.184935	0.110223
568.397716	0.110215
568.610478	0.110549
568.823223	0.110175
569.035949	0.110578
569.248657	0.111111
569.461347	0.111212
569.674019	0.111073
569.886672	0.110932
570.099308	0.110665
570.311925	0.111136
570.524523	0.111364
570.737104	0.111176
570.949666	0.110562
571.162210	0.110145
571.374736	0.110150
571.587244	0.109968
571.799733	0.109507
572.012205	0.109381
572.224658	0.109092
572.437092	0.108955
572.649509	0.109371
572.861907	0.109450
573.074287	0.110069
573.286649	0.110522
573.498993	0.110834
573.711318	0.111278
573.923625	0.111673
574.135914	0.111691
574.348185	0.111696
574.560438	0.111430
574.772672	0.112202
574.984888	0.111982
575.197086	0.111655
575.409266	0.111659
575.621427	0.111575
575.833570	0.111604
576.045695	0.111559
576.257802	0.111468
576.469890	0.111390
576.681961	0.111058
576.894013	0.111350
577.106046	0.111731
577.318062	0.112043
577.530059	0.112323
577.742039	0.111909
577.954000	0.112174
578.165942	0.112514
578.377867	0.112808
578.589773	0.112817
578.801661	0.112638
579.013531	0.112613
579.225382	0.112263
579.437216	0.112291
579.649031	0.112831
579.860828	0.112930
580.072606	0.112723
580.284367	0.112812
580.496109	0.113387
580.707833	0.113086
580.919539	0.112893
581.131227	0.113233
581.342896	0.113299
581.554547	0.113397
581.766180	0.112951
581.977795	0.113239
582.189391	0.113261
582.400969	0.112657
582.612529	0.112965
582.824071	0.113116
583.035595	0.112985
583.247100	0.112592
583.458587	0.112536
583.670056	0.113280
583.881506	0.113025
584.092939	0.113577
584.304353	0.114630
584.515749	0.115067
584.727127	0.115127
584.938486	0.115387
585.149828	0.115783
585.361151	0.115658
585.572456	0.115437
585.783742	0.115763
585.995011	0.115479
586.206261	0.114247
586.417493	0.114495
586.628706	0.114452
586.839902	0.114330
587.051079	0.114412
587.262238	0.114956
587.473379	0.114816
587.684502	0.114800
587.895606	0.115164
588.106692	0.115954
588.317760	0.115608
588.528810	0.115977
588.739841	0.116181
588.950855	0.116337
589.161850	0.115837
589.372827	0.116406
589.583785	0.116517
589.794726	0.116361
590.005648	0.116061
590.216552	0.116276
590.427437	0.116219
590.638305	0.116297
590.849154	0.116247
591.059985	0.116575
591.270798	0.116704
591.481592	0.116988
591.692369	0.116863
591.903127	0.116880
592.113867	0.116785
592.324588	0.117088
592.535292	0.117554
592.745977	0.117577
592.956644	0.117803
593.167293	0.117394
593.377923	0.117166
593.588536	0.117546
593.799130	0.117941
594.009706	0.118086
594.220263	0.118115
594.430803	0.118154
594.641324	0.118486
594.851827	0.118429
595.062312	0.118605
595.272778	0.118750
595.483227	0.118607
595.693657	0.118812
595.904069	0.119005
596.114462	0.119093
596.324838	0.118877
596.535195	0.118480
596.745534	0.118747
596.955855	0.118584
597.166157	0.118436
597.376441	0.118514
597.586707	0.118319
597.796955	0.118192
598.007185	0.118227
598.217396	0.117775
598.427589	0.117985
598.637764	0.117657
598.847921	0.117734
599.058060	0.117981
599.268180	0.118185
599.478282	0.118597
599.688366	0.118762
599.898431	0.118872
600.108479	0.119261
600.318508	0.119412
600.528519	0.119548
600.738511	0.119848
600.948486	0.119733
601.158442	0.119519
601.368380	0.119610
601.578300	0.119472
601.788202	0.119241
601.998085	0.119659
602.207950	0.119783
602.417797	0.120115
602.627626	0.120260
602.837436	0.120397
603.047228	0.120355
603.257002	0.120211
603.466758	0.120397
603.676496	0.120766
603.886215	0.120539
604.095916	0.120642
604.305599	0.120548
604.515264	0.120883
604.724910	0.121429
604.934538	0.121752
605.144148	0.121733
605.353740	0.121661
605.563314	0.121616
605.772869	0.121878
605.982406	0.121943
606.191925	0.122040
606.401425	0.121868
606.610908	0.121966
606.820372	0.121954
607.029818	0.121991
607.239246	0.122383
607.448655	0.122106
607.658047	0.122253
607.867420	0.122221
608.076775	0.122314
608.286111	0.122374
608.495430	0.122055
608.704730	0.122037
608.914012	0.122143
609.123275	0.122248
609.332521	0.122545
609.541748	0.122515
609.750957	0.122736
609.960148	0.122760
610.169321	0.122491
610.378475	0.122504
610.587611	0.122867
610.796729	0.123215
611.005829	0.123284
611.214910	0.123478
611.423974	0.123352
611.633019	0.123530
611.842045	0.123435
612.051054	0.123905
612.260044	0.124167
612.469017	0.124317
612.677970	0.124302
612.886906	0.124034
613.095824	0.124382
613.304723	0.124451
613.513604	0.124425
613.722467	0.124567
613.931311	0.124652
614.140138	0.124437
614.348946	0.124386
614.557736	0.124286
614.766507	0.124422
614.975261	0.124233
615.183996	0.124483
615.392713	0.124523
615.601412	0.124786
615.810092	0.124844
616.018754	0.125133
616.227399	0.125210
616.436024	0.125358
616.644632	0.125462
616.853222	0.125638
617.061793	0.126064
617.270346	0.126027
617.478880	0.126031
617.687397	0.125897
617.895895	0.125881
618.104375	0.125947
618.312837	0.126271
618.521281	0.126486
618.729706	0.126642
618.938113	0.126164
619.146502	0.126216
619.354873	0.126391
619.563226	0.126734
619.771560	0.126827
619.979876	0.126970
620.188174	0.126642
620.396453	0.126567
620.604715	0.126221
620.812958	0.126756
621.021183	0.127006
621.229390	0.127211
621.437578	0.127143
621.645748	0.127356
621.853900	0.127082
622.062034	0.127384
622.270150	0.127283
622.478247	0.127773
622.686326	0.127508
622.894387	0.127626
623.102430	0.127530
623.310454	0.127403
623.518461	0.127548
623.726449	0.127952
623.934418	0.128013
624.142370	0.128395
624.350303	0.128303
624.558218	0.128386
624.766115	0.128347
624.973994	0.128518
625.181855	0.128803
625.389697	0.128693
625.597521	0.128623
625.805327	0.128622
626.013114	0.128525
626.220883	0.128576
626.428634	0.128793
626.636367	0.128709
626.844082	0.128341
627.051778	0.128213
627.259457	0.128256
627.467117	0.128260
627.674758	0.128395
627.882382	0.128444
628.089987	0.128523
628.297574	0.128463
628.505143	0.128624
628.712694	0.128978
628.920226	0.129116
629.127740	0.128996
629.335236	0.129306
629.542714	0.129241
629.750174	0.129330
629.957615	0.129238
630.165038	0.129265
630.372443	0.129533
630.579829	0.129562
630.787198	0.129821
630.994548	0.129863
631.201880	0.129864
631.409194	0.130104
631.616489	0.130121
631.823766	0.130252
632.031025	0.130443
632.238266	0.130451
632.445489	0.130870
632.652693	0.131014
632.859879	0.131602
633.067047	0.131520
633.274197	0.131631
633.481329	0.131841
633.688442	0.132213
633.895537	0.132227
634.102614	0.132377
634.309672	0.132132
634.516713	0.132213
634.723735	0.132123
634.930739	0.132270
635.137724	0.132153
635.344692	0.132312
635.551641	0.132370
635.758572	0.132591
635.965485	0.132428
636.172379	0.132677
636.379256	0.132698
636.586114	0.132655
636.792954	0.132962
636.999775	0.133218
637.206579	0.133302
637.413364	0.133132
637.620131	0.133097
637.826880	0.133481
638.033610	0.133460
638.240323	0.133567
638.447017	0.133651
638.653692	0.133417
638.860350	0.133387
639.066990	0.133421
639.273611	0.133653
639.480214	0.133748
639.686798	0.133807
639.893365	0.133857
640.099913	0.133860
640.306443	0.134101
640.512955	0.134322
640.719449	0.134429
640.925924	0.134507
641.132381	0.134659
641.338820	0.134712
641.545241	0.134744
641.751644	0.135110
641.958028	0.135433
642.164394	0.135615
642.370742	0.135763
642.577071	0.135700
642.783383	0.136072
642.989676	0.136045
643.195951	0.136011
643.402207	0.135981
643.608446	0.135622
643.814666	0.135775
644.020868	0.135846
644.227052	0.136043
644.433218	0.136638
644.639365	0.136457
644.845494	0.136546
645.051605	0.136735
645.257698	0.136600
645.463772	0.136908
645.669828	0.136638
645.875866	0.136641
646.081886	0.136575
646.287888	0.136432
646.493871	0.136556
646.699836	0.136578
646.905783	0.136463
647.111712	0.136579
647.317622	0.136855
647.523514	0.137087
647.729388	0.137028
647.935244	0.137106
648.141082	0.137058
648.346901	0.137052
648.552702	0.137260
648.758485	0.137558
648.964250	0.137770
649.169996	0.137814
649.375724	0.137842
649.581434	0.138161
649.787126	0.138415
649.992800	0.138693
650.198455	0.139042
650.404092	0.139044
650.609711	0.138942
650.815311	0.138919
651.020894	0.138772
651.226458	0.138898
651.432004	0.138778
651.637532	0.138774
651.843041	0.138816
652.048532	0.138745
652.254006	0.138772
652.459460	0.139010
652.664897	0.139151
652.870315	0.139321
653.075716	0.139205
653.281097	0.139260
653.486461	0.139157
653.691807	0.139377
653.897134	0.139320
654.102443	0.139499
654.307734	0.139461
654.513006	0.139614
654.718261	0.139826
654.923497	0.140214
655.128715	0.140174
655.333915	0.140478
655.539096	0.140304
655.744259	0.140575
655.949404	0.140645
656.154531	0.140858
656.359640	0.140800
656.564730	0.140524
656.769802	0.140352
656.974856	0.140637
657.179892	0.140352
657.384909	0.140486
657.589908	0.140507
657.794889	0.140420
657.999852	0.140676
658.204797	0.140862
658.409723	0.141192
658.614631	0.141575
658.819521	0.141554
659.024393	0.141983
659.229246	0.142249
659.434081	0.142447
659.638898	0.142739
659.843697	0.142399
660.048478	0.142714
660.253240	0.142828
660.457984	0.142998
660.662710	0.143382
660.867417	0.143408
661.072107	0.143246
661.276778	0.143153
661.481431	0.143161
661.686066	0.143697
661.890682	0.143753
662.095281	0.143938
662.299861	0.143746
662.504422	0.143809
662.708966	0.144039
662.913491	0.144030
663.117999	0.144343
663.322488	0.144780
663.526958	0.144966
663.731411	0.145064
663.935845	0.144776
664.140261	0.145017
664.344659	0.144920
664.549038	0.145078
664.753400	0.145216
664.957743	0.145209
665.162068	0.144989
665.366375	0.144853
665.570663	0.144753
665.774933	0.145232
665.979185	0.145191
666.183419	0.145461
666.387635	0.145413
666.591832	0.145719
666.796011	0.145820
667.000172	0.145883
667.204315	0.145920
667.408439	0.146219
667.612545	0.146037
667.816634	0.146045
668.020703	0.146174
668.224755	0.146337
668.428788	0.146413
668.632803	0.146513
668.836800	0.146533
669.040779	0.146877
669.244739	0.146896
669.448681	0.147281
669.652605	0.147372
669.856511	0.147358
670.060399	0.147384
670.264268	0.147717
670.468119	0.147506
670.671952	0.147925
670.875767	0.147897
671.079563	0.148231
671.283341	0.148437
671.487101	0.148700
671.690843	0.148910
671.894567	0.148974
672.098272	0.148949
672.301959	0.149498
672.505628	0.149368
672.709278	0.149666
672.912911	0.149728
673.116525	0.149518
673.320121	0.149971
673.523699	0.150157
673.727258	0.150267
673.930799	0.150360
674.134322	0.150417
674.337827	0.150718
674.541314	0.150542
674.744782	0.150533
674.948232	0.150823
675.151664	0.150709
675.355078	0.150738
675.558474	0.150795
675.761851	0.150716
675.965210	0.150951
676.168551	0.150919
676.371873	0.151132
676.575178	0.151366
676.778464	0.151420
676.981732	0.151493
677.184981	0.151431
677.388213	0.151771
677.591426	0.152010
677.794621	0.151967
677.997798	0.151974
678.200956	0.152143
678.404097	0.152137
678.607219	0.152143
678.810323	0.152239
679.013408	0.152129
679.216476	0.151972
679.419525	0.151832
679.622556	0.151928
679.825569	0.152065
680.028563	0.151856
680.231540	0.152298
680.434498	0.152607
680.637438	0.152551
680.840359	0.153014
681.043263	0.153345
681.246148	0.153789
681.449015	0.153777
681.651864	0.153994
681.854694	0.154540
682.057506	0.154535
682.260301	0.154735
682.463076	0.155056
682.665834	0.155112
682.868573	0.155069
683.071295	0.155322
683.273998	0.155366
683.476682	0.155496
683.679349	0.155573
683.881997	0.155441
684.084627	0.155222
684.287239	0.155085
684.489833	0.155323
684.692408	0.155413
684.894965	0.155362
685.097504	0.155546
685.300025	0.155689
685.502527	0.155651
685.705012	0.155633
685.907478	0.156028
686.109925	0.156253
686.312355	0.156410
686.514766	0.156618
686.717159	0.156604
686.919534	0.156839
687.121891	0.156891
687.324230	0.156927
687.526550	0.157191
687.728852	0.157144
687.931136	0.157464
688.133401	0.157300
688.335649	0.157213
688.537878	0.157165
688.740089	0.157305
688.942281	0.157338
689.144456	0.157496
689.346612	0.157314
689.548750	0.157596
689.750870	0.157451
689.952971	0.157805
690.155055	0.157899
690.357120	0.158149
690.559167	0.158289
690.761195	0.158383
690.963206	0.158595
691.165198	0.158939
691.367172	0.158825
691.569128	0.158813
691.771065	0.158776
691.972984	0.159009
692.174885	0.159225
692.376768	0.159098
692.578633	0.159411
692.780479	0.159488
692.982308	0.159565
693.184118	0.159626
693.385909	0.159655
