sample name	sample
index	1303
start time	 04-29-2021  03:54:10 PM


Wavelength (nm)	Absorbance
494.344910	0.693075
494.563924	0.693075
494.782919	0.693075
495.001897	NaN
495.220856	0.537729
495.439797	0.715222
495.658719	0.726267
495.877624	0.699541
496.096510	0.112433
496.315378	0.141640
496.534227	0.230951
496.753059	0.106686
496.971872	0.076144
497.190667	0.244237
497.409444	0.243648
497.628203	0.242469
497.846943	0.246430
498.065665	0.251070
498.284369	0.252603
498.503055	0.252481
498.721723	0.254372
498.940372	0.254447
499.159003	0.253948
499.377616	0.255642
499.596210	0.257660
499.814787	0.256595
500.033345	0.255863
500.251885	0.255576
500.470406	0.254939
500.688910	0.254732
500.907395	0.254605
501.125862	0.255351
501.344311	0.256924
501.562742	0.256933
501.781154	0.257253
501.999548	0.259787
502.217924	0.259636
502.436282	0.260609
502.654621	0.261244
502.872942	0.262737
503.091245	0.262431
503.309530	0.260090
503.527797	0.258979
503.746045	0.261054
503.964275	0.259931
504.182487	0.260718
504.400681	0.260120
504.618856	0.259389
504.837013	0.258943
505.055152	0.259729
505.273273	0.260511
505.491376	0.261847
505.709460	0.260103
505.927526	0.259425
506.145574	0.258422
506.363604	0.258778
506.581615	0.258231
506.799608	0.257954
507.017583	0.257485
507.235540	0.258304
507.453478	0.258016
507.671399	0.258869
507.889301	0.258838
508.107185	0.258780
508.325050	0.259835
508.542898	0.261724
508.760727	0.260634
508.978538	0.260198
509.196330	0.258984
509.414105	0.258339
509.631861	0.258158
509.849599	0.258161
510.067319	0.258362
510.285021	0.256677
510.502704	0.256072
510.720369	0.257048
510.938016	0.258352
511.155645	0.258538
511.373255	0.259736
511.590848	0.259356
511.808422	0.261219
512.025977	0.261570
512.243515	0.262089
512.461034	0.262439
512.678536	0.263425
512.896018	0.261959
513.113483	0.262931
513.330930	0.262345
513.548358	0.263939
513.765768	0.262917
513.983160	0.262933
514.200533	0.263878
514.417889	0.263073
514.635226	0.262368
514.852545	0.263707
515.069845	0.264683
515.287128	0.265155
515.504392	0.265211
515.721638	0.266653
515.938866	0.266885
516.156075	0.267767
516.373267	0.268823
516.590440	0.270028
516.807594	0.270305
517.024731	0.269847
517.241850	0.270355
517.458950	0.270013
517.676032	0.269149
517.893095	0.269882
518.110141	0.269814
518.327168	0.269414
518.544177	0.269099
518.761168	0.268833
518.978141	0.268477
519.195095	0.268462
519.412031	0.268717
519.628949	0.269095
519.845849	0.269302
520.062731	0.269158
520.279594	0.270125
520.496439	0.270387
520.713266	0.270886
520.930074	0.270945
521.146865	0.271714
521.363637	0.271967
521.580391	0.272319
521.797127	0.272410
522.013844	0.272387
522.230543	0.272732
522.447224	0.272801
522.663887	0.274325
522.880532	0.273987
523.097158	0.274516
523.313766	0.274382
523.530356	0.275180
523.746928	0.275577
523.963481	0.277374
524.180017	0.276641
524.396534	0.277030
524.613032	0.275600
524.829513	0.277366
525.045975	0.276649
525.262420	0.277698
525.478845	0.277767
525.695253	0.278347
525.911643	0.277175
526.128014	0.278029
526.344367	0.277707
526.560702	0.279269
526.777018	0.279482
526.993316	0.280766
527.209597	0.280594
527.425858	0.281487
527.642102	0.282303
527.858328	0.283380
528.074535	0.284538
528.290724	0.284753
528.506894	0.284355
528.723047	0.284751
528.939181	0.284616
529.155297	0.285040
529.371395	0.284272
529.587475	0.283896
529.803536	0.283568
530.019579	0.283715
530.235604	0.285341
530.451611	0.286039
530.667600	0.285601
530.883570	0.286642
531.099522	0.286447
531.315456	0.287221
531.531372	0.287171
531.747269	0.287786
531.963148	0.288267
532.179009	0.288222
532.394852	0.287758
532.610676	0.289206
532.826482	0.288611
533.042271	0.289424
533.258040	0.289233
533.473792	0.290055
533.689525	0.290124
533.905240	0.290042
534.120937	0.290097
534.336616	0.291054
534.552277	0.290251
534.767919	0.290813
534.983543	0.290935
535.199149	0.292076
535.414736	0.292534
535.630306	0.292117
535.845857	0.292377
536.061390	0.292530
536.276904	0.292553
536.492401	0.293575
536.707879	0.293713
536.923339	0.294142
537.138781	0.294502
537.354204	0.294450
537.569610	0.295165
537.784997	0.295595
538.000366	0.295816
538.215716	0.296115
538.431049	0.295784
538.646363	0.296418
538.861659	0.296552
539.076937	0.296623
539.292196	0.296559
539.507438	0.296631
539.722661	0.296586
539.937866	0.297229
540.153052	0.297367
540.368221	0.297354
540.583371	0.297504
540.798503	0.298376
541.013617	0.298044
541.228712	0.298311
541.443789	0.299645
541.658848	0.299586
541.873889	0.299443
542.088912	0.300211
542.303916	0.300609
542.518902	0.300627
542.733870	0.299920
542.948820	0.300602
543.163752	0.301451
543.378665	0.301606
543.593560	0.302176
543.808437	0.302321
544.023295	0.302558
544.238136	0.303281
544.452958	0.303528
544.667762	0.304628
544.882548	0.305291
545.097315	0.305138
545.312064	0.304616
545.526795	0.304672
545.741508	0.305356
545.956203	0.305317
546.170879	0.305295
546.385537	0.305979
546.600177	0.306014
546.814799	0.305977
547.029402	0.305733
547.243988	0.306318
547.458555	0.307184
547.673103	0.307307
547.887634	0.307900
548.102146	0.307860
548.316640	0.308006
548.531116	0.308181
548.745574	0.308234
548.960013	0.308950
549.174435	0.309544
549.388838	0.309723
549.603222	0.310371
549.817589	0.310423
550.031937	0.310825
550.246267	0.311209
550.460579	0.311889
550.674873	0.312240
550.889148	0.312741
551.103405	0.313073
551.317644	0.312499
551.531865	0.312213
551.746068	0.311924
551.960252	0.312106
552.174418	0.312652
552.388566	0.312462
552.602696	0.312870
552.816807	0.312813
553.030900	0.312547
553.244975	0.313268
553.459032	0.313666
553.673070	0.314213
553.887091	0.315415
554.101093	0.315527
554.315077	0.315704
554.529042	0.316187
554.742990	0.316496
554.956919	0.317276
555.170830	0.317653
555.384722	0.317960
555.598597	0.318545
555.812453	0.317784
556.026291	0.317237
556.240111	0.318006
556.453913	0.317354
556.667696	0.317481
556.881461	0.316801
557.095208	0.316762
557.308937	0.317251
557.522647	0.317464
557.736339	0.317755
557.950013	0.318342
558.163669	0.318254
558.377307	0.319215
558.590926	0.319021
558.804527	0.318955
559.018110	0.318960
559.231675	0.318890
559.445221	0.318786
559.658749	0.318903
559.872259	0.318742
560.085751	0.318874
560.299225	0.318649
560.512680	0.319660
560.726117	0.320835
560.939536	0.321379
561.152937	0.321806
561.366319	0.321605
561.579683	0.322313
561.793029	0.322570
562.006357	0.322913
562.219667	0.322957
562.432958	0.322499
562.646231	0.322790
562.859486	0.322372
563.072723	0.322215
563.285941	0.322828
563.499141	0.323124
563.712323	0.323794
563.925487	0.324103
564.138632	0.324551
564.351760	0.325103
564.564869	0.325200
564.777960	0.326153
564.991032	0.326649
565.204087	0.326973
565.417123	0.326870
565.630141	0.327203
565.843140	0.327440
566.056122	0.328364
566.269085	0.328520
566.482030	0.328444
566.694957	0.328653
566.907866	0.328617
567.120756	0.328731
567.333628	0.329077
567.546482	0.328869
567.759318	0.328851
567.972135	0.329067
568.184935	0.329848
568.397716	0.330034
568.610478	0.330040
568.823223	0.329879
569.035949	0.329763
569.248657	0.330201
569.461347	0.330345
569.674019	0.330332
569.886672	0.329745
570.099308	0.330016
570.311925	0.329925
570.524523	0.330308
570.737104	0.330961
570.949666	0.331439
571.162210	0.331117
571.374736	0.331152
571.587244	0.331511
571.799733	0.331815
572.012205	0.331630
572.224658	0.332646
572.437092	0.332376
572.649509	0.332482
572.861907	0.332535
573.074287	0.332996
573.286649	0.333581
573.498993	0.333377
573.711318	0.333503
573.923625	0.333176
574.135914	0.332870
574.348185	0.333601
574.560438	0.333957
574.772672	0.334663
574.984888	0.334827
575.197086	0.334918
575.409266	0.335367
575.621427	0.335669
575.833570	0.336191
576.045695	0.336606
576.257802	0.336756
576.469890	0.337154
576.681961	0.337029
576.894013	0.337513
577.106046	0.337932
577.318062	0.338378
577.530059	0.338183
577.742039	0.338195
577.954000	0.338175
578.165942	0.337637
578.377867	0.337814
578.589773	0.337676
578.801661	0.337721
579.013531	0.337701
579.225382	0.337684
579.437216	0.338344
579.649031	0.338609
579.860828	0.338985
580.072606	0.339470
580.284367	0.339500
580.496109	0.339880
580.707833	0.339693
580.919539	0.339843
581.131227	0.340414
581.342896	0.340510
581.554547	0.340415
581.766180	0.340465
581.977795	0.341141
582.189391	0.341246
582.400969	0.341776
582.612529	0.342225
582.824071	0.342370
583.035595	0.342097
583.247100	0.341973
583.458587	0.342630
583.670056	0.342734
583.881506	0.342667
584.092939	0.342798
584.304353	0.343210
584.515749	0.343392
584.727127	0.343472
584.938486	0.343740
585.149828	0.344326
585.361151	0.344003
585.572456	0.344262
585.783742	0.344468
585.995011	0.344877
586.206261	0.344764
586.417493	0.344864
586.628706	0.345107
586.839902	0.344864
587.051079	0.344725
587.262238	0.344944
587.473379	0.344763
587.684502	0.344619
587.895606	0.344088
588.106692	0.344057
588.317760	0.344044
588.528810	0.344193
588.739841	0.344850
588.950855	0.345590
589.161850	0.346130
589.372827	0.346703
589.583785	0.346830
589.794726	0.347503
590.005648	0.348084
590.216552	0.348629
590.427437	0.349288
590.638305	0.349456
590.849154	0.348827
591.059985	0.349004
591.270798	0.349320
591.481592	0.349935
591.692369	0.350170
591.903127	0.350033
592.113867	0.350131
592.324588	0.349793
592.535292	0.350201
592.745977	0.350593
592.956644	0.350984
593.167293	0.351057
593.377923	0.351264
593.588536	0.351393
593.799130	0.351734
594.009706	0.351905
594.220263	0.352597
594.430803	0.352361
594.641324	0.352328
594.851827	0.352171
595.062312	0.352004
595.272778	0.352080
595.483227	0.352201
595.693657	0.352331
595.904069	0.352183
596.114462	0.352169
596.324838	0.352625
596.535195	0.353512
596.745534	0.353899
596.955855	0.354273
597.166157	0.354396
597.376441	0.355177
597.586707	0.355287
597.796955	0.355776
598.007185	0.356270
598.217396	0.356364
598.427589	0.356122
598.637764	0.356265
598.847921	0.356348
599.058060	0.356540
599.268180	0.356178
599.478282	0.356550
599.688366	0.356245
599.898431	0.355793
600.108479	0.355834
600.318508	0.356233
600.528519	0.356778
600.738511	0.356898
600.948486	0.356954
601.158442	0.357121
601.368380	0.356943
601.578300	0.357419
601.788202	0.357733
601.998085	0.358365
602.207950	0.358029
602.417797	0.357556
602.627626	0.357918
602.837436	0.358345
603.047228	0.358599
603.257002	0.359081
603.466758	0.359155
603.676496	0.359656
603.886215	0.359187
604.095916	0.359592
604.305599	0.359829
604.515264	0.359920
604.724910	0.359974
604.934538	0.359775
605.144148	0.359775
605.353740	0.360109
605.563314	0.359794
605.772869	0.359980
605.982406	0.360006
606.191925	0.360328
606.401425	0.360385
606.610908	0.360473
606.820372	0.360464
607.029818	0.360414
607.239246	0.360411
607.448655	0.360839
607.658047	0.361370
607.867420	0.361613
608.076775	0.361656
608.286111	0.362099
608.495430	0.362607
608.704730	0.363068
608.914012	0.363103
609.123275	0.363248
609.332521	0.363372
609.541748	0.363370
609.750957	0.363158
609.960148	0.363256
610.169321	0.363096
610.378475	0.362720
610.587611	0.362849
610.796729	0.363167
611.005829	0.363879
611.214910	0.363766
611.423974	0.363771
611.633019	0.364136
611.842045	0.364262
612.051054	0.364383
612.260044	0.364676
612.469017	0.365085
612.677970	0.365138
612.886906	0.364972
613.095824	0.364967
613.304723	0.365454
613.513604	0.365763
613.722467	0.365893
613.931311	0.365921
614.140138	0.366220
614.348946	0.366066
614.557736	0.366273
614.766507	0.366273
614.975261	0.366500
615.183996	0.366190
615.392713	0.366156
615.601412	0.366118
615.810092	0.366227
616.018754	0.366050
616.227399	0.366083
616.436024	0.366285
616.644632	0.366306
616.853222	0.366201
617.061793	0.366382
617.270346	0.366341
617.478880	0.366686
617.687397	0.367051
617.895895	0.367103
618.104375	0.367219
618.312837	0.367105
618.521281	0.367447
618.729706	0.367669
618.938113	0.367611
619.146502	0.367959
619.354873	0.367899
619.563226	0.367866
619.771560	0.368080
619.979876	0.368084
620.188174	0.368472
620.396453	0.368437
620.604715	0.368710
620.812958	0.368876
621.021183	0.368658
621.229390	0.368678
621.437578	0.368751
621.645748	0.368914
621.853900	0.369278
622.062034	0.369565
622.270150	0.369783
622.478247	0.370067
622.686326	0.370317
622.894387	0.370701
623.102430	0.371129
623.310454	0.371005
623.518461	0.371087
623.726449	0.371322
623.934418	0.371025
624.142370	0.370914
624.350303	0.370873
624.558218	0.370744
624.766115	0.370637
624.973994	0.370792
625.181855	0.371427
625.389697	0.371214
625.597521	0.371279
625.805327	0.371372
626.013114	0.371571
626.220883	0.371677
626.428634	0.372016
626.636367	0.372640
626.844082	0.372567
627.051778	0.372672
627.259457	0.373331
627.467117	0.373270
627.674758	0.373378
627.882382	0.373347
628.089987	0.373438
628.297574	0.373651
628.505143	0.373267
628.712694	0.373159
628.920226	0.373280
629.127740	0.373523
629.335236	0.373701
629.542714	0.374122
629.750174	0.374453
629.957615	0.374917
630.165038	0.375219
630.372443	0.375734
630.579829	0.376289
630.787198	0.376506
630.994548	0.376692
631.201880	0.376978
631.409194	0.377059
631.616489	0.377534
631.823766	0.377519
632.031025	0.377490
632.238266	0.378041
632.445489	0.378122
632.652693	0.377971
632.859879	0.378115
633.067047	0.378302
633.274197	0.378451
633.481329	0.378478
633.688442	0.378649
633.895537	0.378733
634.102614	0.378612
634.309672	0.378775
634.516713	0.378897
634.723735	0.378856
634.930739	0.379130
635.137724	0.379601
635.344692	0.379631
635.551641	0.379849
635.758572	0.380048
635.965485	0.380378
636.172379	0.380533
636.379256	0.380958
636.586114	0.381182
636.792954	0.380945
636.999775	0.381069
637.206579	0.381097
637.413364	0.381323
637.620131	0.381834
637.826880	0.381852
638.033610	0.382109
638.240323	0.382103
638.447017	0.382186
638.653692	0.382770
638.860350	0.382774
639.066990	0.383181
639.273611	0.383197
639.480214	0.383550
639.686798	0.383939
639.893365	0.383901
640.099913	0.384282
640.306443	0.384372
640.512955	0.384234
640.719449	0.384221
640.925924	0.384255
641.132381	0.384836
641.338820	0.384708
641.545241	0.385040
641.751644	0.385453
641.958028	0.385700
642.164394	0.385862
642.370742	0.386333
642.577071	0.386857
642.783383	0.387030
642.989676	0.386890
643.195951	0.386893
643.402207	0.386676
643.608446	0.387036
643.814666	0.387132
644.020868	0.387417
644.227052	0.387400
644.433218	0.387522
644.639365	0.387680
644.845494	0.387662
645.051605	0.387982
645.257698	0.388556
645.463772	0.388305
645.669828	0.388686
645.875866	0.388998
646.081886	0.389234
646.287888	0.389083
646.493871	0.389347
646.699836	0.389746
646.905783	0.389784
647.111712	0.389443
647.317622	0.389929
647.523514	0.389859
647.729388	0.389913
647.935244	0.389981
648.141082	0.390318
648.346901	0.390439
648.552702	0.390565
648.758485	0.390961
648.964250	0.391114
649.169996	0.391474
649.375724	0.391754
649.581434	0.392115
649.787126	0.392647
649.992800	0.392642
650.198455	0.392954
650.404092	0.393329
650.609711	0.393239
650.815311	0.393574
651.020894	0.393321
651.226458	0.393418
651.432004	0.393438
651.637532	0.393318
651.843041	0.393602
652.048532	0.393661
652.254006	0.393671
652.459460	0.393930
652.664897	0.394491
652.870315	0.395108
653.075716	0.395653
653.281097	0.395730
653.486461	0.395844
653.691807	0.395818
653.897134	0.396102
654.102443	0.396498
654.307734	0.396619
654.513006	0.396534
654.718261	0.396561
654.923497	0.396772
655.128715	0.397071
655.333915	0.397495
655.539096	0.398048
655.744259	0.398372
655.949404	0.398475
656.154531	0.399007
656.359640	0.399196
656.564730	0.399513
656.769802	0.399698
656.974856	0.400060
657.179892	0.400272
657.384909	0.400372
657.589908	0.400630
657.794889	0.400860
657.999852	0.401257
658.204797	0.401800
658.409723	0.402012
658.614631	0.401999
658.819521	0.402060
659.024393	0.402233
659.229246	0.402745
659.434081	0.403049
659.638898	0.403206
659.843697	0.403067
660.048478	0.403075
660.253240	0.403123
660.457984	0.403152
660.662710	0.403671
660.867417	0.403991
661.072107	0.404326
661.276778	0.404438
661.481431	0.404841
661.686066	0.405225
661.890682	0.405475
662.095281	0.405778
662.299861	0.406325
662.504422	0.406500
662.708966	0.407101
662.913491	0.407255
663.117999	0.407442
663.322488	0.407719
663.526958	0.408000
663.731411	0.408201
663.935845	0.408563
664.140261	0.408722
664.344659	0.408876
664.549038	0.408795
664.753400	0.408916
664.957743	0.409060
665.162068	0.409341
665.366375	0.409489
665.570663	0.409630
665.774933	0.409724
665.979185	0.409961
666.183419	0.410242
666.387635	0.410342
666.591832	0.410736
666.796011	0.411481
667.000172	0.411537
667.204315	0.411692
667.408439	0.412078
667.612545	0.412129
667.816634	0.412031
668.020703	0.412113
668.224755	0.412459
668.428788	0.412407
668.632803	0.412132
668.836800	0.412223
669.040779	0.412512
669.244739	0.412472
669.448681	0.413065
669.652605	0.413317
669.856511	0.413686
670.060399	0.413936
670.264268	0.414325
670.468119	0.414763
670.671952	0.415126
670.875767	0.415458
671.079563	0.416218
671.283341	0.416522
671.487101	0.417154
671.690843	0.417374
671.894567	0.417497
672.098272	0.417775
672.301959	0.417770
672.505628	0.417904
672.709278	0.418214
672.912911	0.418015
673.116525	0.418220
673.320121	0.418324
673.523699	0.418594
673.727258	0.418632
673.930799	0.418894
674.134322	0.419538
674.337827	0.419786
674.541314	0.419834
674.744782	0.419920
674.948232	0.420123
675.151664	0.420299
675.355078	0.420355
675.558474	0.420797
675.761851	0.420772
675.965210	0.420394
676.168551	0.420580
676.371873	0.420824
676.575178	0.421111
676.778464	0.420958
676.981732	0.421327
677.184981	0.421436
677.388213	0.421279
677.591426	0.421865
677.794621	0.422473
677.997798	0.422671
678.200956	0.422734
678.404097	0.422774
678.607219	0.423262
678.810323	0.423294
679.013408	0.423761
679.216476	0.424575
679.419525	0.424653
679.622556	0.424882
679.825569	0.425040
680.028563	0.425552
680.231540	0.426121
680.434498	0.426369
680.637438	0.426589
680.840359	0.426686
681.043263	0.426839
681.246148	0.426939
681.449015	0.427094
681.651864	0.427322
681.854694	0.427551
682.057506	0.427941
682.260301	0.428239
682.463076	0.428502
682.665834	0.428895
682.868573	0.428878
683.071295	0.428895
683.273998	0.429139
683.476682	0.429240
683.679349	0.429416
683.881997	0.429691
684.084627	0.429721
684.287239	0.430097
684.489833	0.430128
684.692408	0.430592
684.894965	0.431020
685.097504	0.431237
685.300025	0.431787
685.502527	0.431565
685.705012	0.431664
685.907478	0.432141
686.109925	0.432231
686.312355	0.432556
686.514766	0.432427
686.717159	0.432721
686.919534	0.432825
687.121891	0.432969
687.324230	0.433302
687.526550	0.433045
687.728852	0.432970
687.931136	0.433161
688.133401	0.433111
688.335649	0.433631
688.537878	0.433609
688.740089	0.433858
688.942281	0.434312
689.144456	0.434818
689.346612	0.435519
689.548750	0.435597
689.750870	0.436003
689.952971	0.436418
690.155055	0.436593
690.357120	0.437158
690.559167	0.437475
690.761195	0.437507
690.963206	0.437624
691.165198	0.437992
691.367172	0.438400
691.569128	0.438472
691.771065	0.439115
691.972984	0.439356
692.174885	0.439348
692.376768	0.439540
692.578633	0.439806
692.780479	0.439804
692.982308	0.439528
693.184118	0.439812
693.385909	0.439972
