sample name	sample
index	749
start time	 03-25-2021  04:08:42 PM
880	0.499604
Peak Time (s)	90.534
Peak Height 	0.4996
calc peak height	90,93
Baseline Time (s)	11.536
Baseline Value 	-0.003393
subtract baseline	10,4
Abs	0.339175
Peak Time (s)	92.535
Peak Height 	0.3392
calc peak height	90,93
Baseline Time (s)	11.536
Baseline Value 	0.001322
subtract baseline	10,3
PK_550	0.160085
Peak Time (s)	91.535
Peak Height 	0.1601
calc peak height	90,93
Baseline Time (s)	8.536
Baseline Value 	3.4939E-4
subtract baseline	10,2
PK_880	0.318462
Peak Time (s)	92.035
Peak Height 	0.3185
calc peak height	90,93
Baseline Time (s)	9.037
Baseline Value 	0.001229
subtract baseline	10,1


Time (s)	A880-A510	A880-A775	A880-A975	A880	I510	I775	I975	I880	
0.037500	-0.003408	-0.001077	-0.000156	0.002708	7139.739999	43898.031756	3972.029893	23475.357882
0.535000	-0.001091	-0.000138	-0.002822	0.004065	7149.124295	43858.596579	3961.853044	23411.110534
1.035500	-0.000688	0.000605	0.000597	0.004347	7150.323636	43902.111668	3969.780880	23397.823590
1.536000	-0.003655	-0.000319	-0.005248	0.005519	7109.966861	43704.822329	3952.131792	23342.544120
2.036000	-0.002005	-0.000554	-0.002146	0.001078	7169.483739	44101.678727	3971.115533	23552.767368
2.536500	-0.004428	-0.000379	-0.000526	0.005871	7099.068839	43666.131555	3963.089200	23325.985665
3.036500	0.002145	0.000018	-0.002121	-0.000916	7230.358164	44345.577073	3976.254308	23647.845705
3.536500	-0.001935	-0.000021	-0.001788	0.005579	7126.108059	43727.150389	3960.648442	23339.724421
4.037000	0.000698	-0.000130	0.000082	0.000860	7198.309124	44162.535530	3977.342304	23563.125753
4.534500	0.000685	0.000683	0.000280	0.000364	7203.101991	44287.001762	3979.116786	23586.751981
5.035000	-0.001721	-0.000585	-0.001144	-0.000484	7187.681267	44247.001261	3977.644853	23627.212985
5.535000	0.000306	-0.000875	-0.002731	-0.000796	7210.852448	44249.091242	3974.392828	23642.109660
6.035500	0.000632	0.000350	0.000383	0.000037	7205.809327	44286.363562	3980.215300	23602.321775
6.535500	0.000921	0.000135	0.002455	0.000030	7208.757530	44266.700969	3985.552119	23602.700731
7.036000	0.000869	-0.000188	-0.002574	-0.000521	7213.711468	44288.293910	3974.092448	23628.972246
7.535500	0.001096	0.000511	0.000818	0.000514	7205.684077	44256.311527	3980.109882	23579.598116
8.036500	0.000326	-0.000326	0.002637	-0.000288	7206.001576	44253.011961	3986.835750	23617.831316
8.536000	-0.001183	0.000000	-0.002778	-0.000044	7188.647894	44260.844701	3972.361310	23606.215799
9.037000	0.000000	-0.000531	0.000762	-0.000134	7201.244925	44218.820120	3981.625985	23610.494889
9.535500	0.001153	0.000407	0.004461	0.000304	7208.342943	44266.520005	3990.014840	23589.633255
10.034500	0.000709	0.000154	0.000592	0.000307	7203.904335	44242.054320	3980.060823	23589.462966
10.535500	-0.001845	-0.000286	-0.003981	0.004553	7136.983057	43798.688617	3957.714441	23388.062994
11.036000	-0.000558	-0.000433	-0.000114	-0.001107	7205.358475	44320.835977	3981.873846	23656.966244
11.536000	0.001187	0.000102	0.000000	0.000000	7211.694071	44266.346310	3979.331286	23604.107721
12.036500	0.001732	0.001048	-0.001836	0.000675	7210.403127	44292.197216	3972.928263	23571.940100
12.536500	-0.001723	0.000096	-0.003739	0.005476	7129.175583	43747.843140	3956.009830	23344.580214
13.036500	0.002342	0.000110	0.003965	-0.001151	7234.667668	44376.842685	3992.494208	23659.069900
13.537000	-0.000796	0.000203	-0.005391	0.000801	7184.114125	44199.722394	3963.606336	23565.919973
14.056000	0.000630	0.000181	0.002495	0.000879	7197.443142	44190.210491	3983.472145	23562.203960
14.540500	-0.001905	0.000264	0.003957	0.003959	7142.202862	43906.563287	3979.326397	23416.150119
15.038000	-0.001305	-0.000534	-0.000905	0.001670	7170.542809	44047.422026	3972.766282	23524.617554
15.588500	0.001963	0.001235	0.002582	0.001540	7204.108787	44227.625908	3982.000970	23530.791212
16.036000	-0.001387	0.000600	0.000932	0.000917	7177.153512	44226.510367	3979.369673	23560.424751
16.535500	-0.002369	-0.000212	-0.002997	0.006052	7117.281338	43664.814467	3956.424269	23317.444211
17.036500	-0.000587	0.000099	0.003262	0.000517	7188.995088	44216.820667	3986.373767	23579.455201
17.536500	0.002887	0.001171	-0.004111	0.001457	7214.113603	44229.424529	3965.180363	23534.737705
18.036500	0.002006	0.000542	0.002470	-0.002399	7243.780760	44537.405709	3991.854459	23718.825878
18.536500	0.000400	0.000202	-0.000023	0.003756	7166.789546	43919.777810	3969.705897	23425.713113
19.037500	-0.000383	0.000329	0.002017	0.002264	7173.768786	44072.924736	3978.700023	23496.420668
19.535500	-0.000287	-0.000124	-0.001208	0.001927	7178.037330	44061.947814	3971.341085	23512.401543
20.035500	0.000887	0.000279	0.002834	0.002661	7182.372181	44030.551665	3979.772010	23477.557466
20.535500	-0.000820	0.000435	0.000625	0.003463	7157.691523	43969.529553	3972.097372	23439.613191
21.035500	-0.001123	0.000385	-0.003169	0.002259	7166.532918	44078.660574	3965.534157	23496.645551
21.536000	0.001285	0.000026	0.000571	0.001803	7194.789118	44087.900875	3976.184437	23518.287781
22.036500	0.001002	-0.000277	0.000099	0.002104	7189.007588	44030.679584	3974.215354	23503.991120
22.539000	-0.000780	-0.000257	0.001477	0.001773	7174.695442	44063.941188	3978.574242	23519.723527
23.037500	0.000723	0.000058	-0.001256	0.001891	7188.361918	44082.579023	3971.312234	23514.119177
23.542500	0.000693	0.000247	-0.001862	0.002166	7185.350078	44074.369888	3969.075460	23501.047370
24.035000	0.000147	0.000155	0.002740	0.001658	7184.979465	44113.913757	3982.101946	23525.195104
24.535000	-0.001145	-0.000337	-0.004104	0.003024	7158.805980	43938.016546	3961.246879	23460.357335
25.035000	-0.000818	-0.000032	0.003968	0.001692	7175.121738	44092.932960	3985.167959	23523.565997
25.535500	0.000005	0.000315	0.004372	0.002362	7176.620395	44062.278248	3984.483350	23491.746590
26.036000	-0.001132	0.000126	-0.001336	0.002145	7167.569359	44064.885048	3970.463010	23502.043638
26.536500	-0.001743	0.000292	-0.003699	0.003439	7148.873448	43958.211448	3961.222384	23440.735862
27.036500	0.000304	0.000473	0.000381	0.002248	7180.691256	44088.050894	3974.566153	23497.153102
27.537000	-0.000222	0.000302	0.000578	0.002941	7168.687868	44006.207380	3973.302645	23464.292000
28.036500	0.000067	0.000260	-0.000447	0.000447	7196.154372	44238.788830	3977.045900	23582.781398
28.536500	0.000158	-0.000252	0.005799	0.000515	7196.384764	44183.741675	3992.929975	23579.558409
29.035000	0.001340	0.001265	0.001057	0.001000	7203.296463	44281.933146	3979.478774	23556.488284
29.546000	-0.002403	-0.000436	0.000159	0.003870	7138.204533	43848.874652	3969.878861	23420.342247
30.035500	0.001134	-0.000519	0.000002	0.000246	7208.731689	44183.922933	3978.708820	23592.400881
30.536000	-0.001199	-0.000175	0.003347	0.005114	7137.815145	43756.362018	3974.821382	23361.628592
31.036000	0.001882	0.001005	0.001883	0.001486	7203.843810	44210.933308	3980.347294	23533.365904
31.546500	-0.000103	0.000022	0.002255	0.003864	7160.788000	43892.646750	3975.222738	23420.627955
32.036500	0.000273	0.000640	0.004189	0.003709	7166.008596	43965.567434	3980.559024	23427.948075
32.536000	0.000272	0.001173	0.003185	0.003270	7170.314493	44057.544004	3979.114978	23448.731050
33.062000	-0.000262	-0.000183	0.002095	0.000641	7190.988620	44178.380639	3983.057258	23573.579586
33.543000	0.000036	0.000764	0.002630	0.004111	7159.730758	43939.369888	3975.549714	23408.973212
34.035000	0.000450	0.000276	0.005019	0.001031	7194.162619	44184.814975	3989.579366	23554.988162
34.535000	-0.001862	0.000745	-0.009005	0.007033	7112.679978	43662.594042	3939.059776	23271.374557
35.035500	0.001065	-0.000649	-0.003098	0.000341	7207.102248	44162.535310	3970.569478	23587.847668
35.536500	0.000020	0.000071	0.001300	0.002134	7179.028513	44060.835440	3977.199998	23502.589935
36.036500	0.000496	0.000349	-0.000727	0.002583	7179.288204	44044.547359	3970.898037	23481.272243
36.536500	-0.000726	0.000490	-0.001845	0.004158	7151.795168	43909.015728	3964.083656	23406.744688
37.036500	-0.001189	0.000336	0.004133	0.002941	7159.189093	44009.476276	3982.383993	23464.311881
37.542500	-0.000854	0.000266	-0.000462	0.002872	7163.157135	44009.414367	3970.837100	23467.596207
38.035000	0.002099	0.000859	-0.003800	0.002797	7193.005572	44072.598934	3962.584991	23471.139014
38.535000	-0.000643	0.000243	-0.000762	0.003875	7155.385186	43912.475512	3967.533967	23420.124010
39.035500	-0.000618	-0.000205	-0.000437	0.002043	7173.633407	44043.194713	3973.004520	23506.880123
39.535500	0.000017	0.000734	-0.002829	0.002963	7170.824339	44045.075934	3964.613565	23463.255512
40.036000	-0.000456	0.001083	-0.001019	0.003398	7161.897516	44036.988839	3968.092278	23442.683940
40.536000	-0.002820	-0.000526	-0.002980	0.002637	7146.184344	43956.722845	3965.056768	23478.713376
41.036500	-0.001685	0.000139	0.001223	0.002555	7158.106850	44027.311225	3975.929656	23482.600365
41.536000	-0.000921	-0.000122	0.000445	0.002213	7168.976364	44035.071382	3974.818748	23498.837589
42.037000	-0.000837	0.000164	-0.002860	0.002702	7164.990584	44015.781302	3965.196595	23475.640788
42.537000	-0.001181	-0.000122	0.003912	0.003480	7153.973339	43915.220997	3980.436031	23438.767835
43.035000	-0.000295	-0.000058	0.003323	0.002620	7171.127410	44002.574798	3981.131158	23479.512196
43.534500	-0.001158	0.000619	0.001369	0.002858	7160.310418	44044.149194	3975.530555	23468.246399
44.035500	0.000337	-0.000030	0.000229	0.002571	7177.834657	44009.893979	3973.357265	23481.843324
44.535500	-0.000783	0.001369	0.000780	0.004298	7149.866904	43978.885523	3970.369023	23400.124061
45.035500	-0.001615	0.000542	0.005030	0.003033	7154.112622	44020.224662	3984.450816	23459.949440
45.541000	0.000449	0.000363	0.001088	0.002138	7183.216621	44088.099601	3976.649054	23502.388302
46.036500	0.001304	0.000727	-0.002069	0.001374	7199.222439	44195.086569	3970.558650	23538.670262
46.537000	-0.003796	-0.000254	0.003348	0.005394	7109.817302	43722.579366	3974.111297	23348.425242
47.039000	0.001108	0.000813	0.000041	0.001462	7196.414755	44194.963448	3975.701333	23534.492576
47.537500	-0.000030	0.000457	0.001730	0.003118	7168.831103	44004.116100	3975.786076	23455.914334
48.035000	0.000213	-0.000824	0.006631	0.000314	7198.924259	44148.472526	3995.608386	23589.149739
48.535500	-0.002873	0.000302	-0.003088	0.006120	7111.731632	43706.667112	3956.029144	23314.277504
49.036000	0.000547	0.000042	-0.000206	0.001043	7195.013185	44161.509747	3976.143107	23554.439551
49.536000	0.000925	0.000621	0.000390	0.003612	7173.379892	43973.054487	3971.121850	23432.563588
50.036000	-0.000971	0.000258	0.001437	0.003183	7158.947585	43979.178823	3974.873144	23452.826829
50.538000	-0.000898	-0.000552	-0.004463	0.005775	7134.297560	43658.871938	3953.449764	23330.478869
51.036000	0.001219	0.000860	-0.001907	0.001101	7201.087016	44233.730872	3971.663637	23551.668915
51.537000	0.001209	0.001025	-0.001134	0.001995	7192.141319	44164.400509	3971.357541	23509.174582
52.037000	0.002884	0.000809	0.005858	-0.000769	7236.268106	44407.094159	3996.413198	23640.838093
52.534500	-0.001343	-0.000046	0.002867	0.004186	7145.485412	43855.888411	3975.964066	23405.419612
53.037500	0.004450	0.000873	0.000542	0.002382	7220.461305	44113.343379	3974.635869	23490.822178
53.535000	-0.023802	-0.003964	0.009210	0.118283	5999.153147	34116.974734	3732.623781	18665.540572
54.037000	-0.033615	-0.004544	0.006985	0.225940	5263.893373	27236.657923	3539.460325	15202.029653
54.535500	-0.046756	-0.010977	0.013122	0.035483	6457.540654	40063.518558	3923.584941	21979.006255
55.036000	-0.022495	-0.018766	0.022967	-0.145236	8605.381994	58227.855581	4504.748572	31830.177957
55.536500	0.007819	-0.016092	0.052471	-0.153394	9134.170368	59624.427320	4652.976137	32378.937799
56.036500	0.031785	0.007479	0.075681	-0.051035	8104.018423	50217.573493	4355.676449	26187.012233
56.537000	0.056201	0.025145	0.100833	0.005559	7732.139088	46163.252228	4251.813400	23340.665224
57.037500	0.083288	0.042995	0.116418	0.072124	7311.978604	41575.484962	4098.604326	20434.593996
57.537500	0.123054	0.061872	0.146524	0.104384	7388.940124	40402.642668	4092.515729	19178.584060
58.035000	0.154424	0.077857	0.180531	0.146506	7279.097131	38213.867667	4069.858897	17672.996511
58.535500	0.172024	0.091325	0.193249	0.197247	6957.104670	35311.676078	3969.151201	16042.907702
59.035500	0.214973	0.110704	0.218460	0.207927	7270.300648	35966.923522	4006.600428	15723.402344
59.536000	0.240083	0.124319	0.239552	0.221970	7383.193229	35934.427158	4025.224969	15315.096928
60.036000	0.253894	0.133150	0.253772	0.266404	7077.722362	33336.422337	3947.486036	14106.724690
60.536500	0.265420	0.141291	0.262578	0.322444	6670.409954	30160.864441	3836.294483	12748.877777
61.036500	0.257223	0.140909	0.273962	0.357228	6314.816633	28042.653997	3785.530560	11990.070841
61.537500	0.264284	0.143443	0.275657	0.357375	6369.667178	28181.034495	3788.803706	11986.982763
62.037500	0.276027	0.148843	0.284414	0.335871	6645.992395	29794.967885	3855.216323	12448.754781
62.544000	0.275896	0.149678	0.283969	0.376815	6307.625232	27424.702676	3765.522152	11588.761877
63.035000	0.281382	0.153241	0.306035	0.396971	6194.340545	26506.435758	3769.477205	11194.297126
63.535500	0.282715	0.155470	0.311504	0.415900	6063.394807	25616.961668	3741.981461	10840.131812
64.035000	0.284219	0.155578	0.306966	0.419565	6047.678176	25431.859661	3725.637796	10773.321717
64.536000	0.299431	0.163036	0.310780	0.445828	5968.503207	24478.161708	3682.458500	10310.725668
65.036000	0.297036	0.164421	0.309099	0.446711	5945.406386	24503.095542	3677.666548	10295.654733
65.536000	0.299785	0.163449	0.303139	0.448163	5954.524666	24383.021914	3663.974165	10270.940189
66.043500	0.300708	0.164605	0.306538	0.451539	5937.307106	24273.623593	3664.017664	10213.799268
66.536500	0.304120	0.166418	0.311868	0.456613	5925.689647	24113.953452	3664.486344	10128.731643
67.045500	0.303702	0.166890	0.307309	0.459179	5904.951338	24012.039933	3651.534170	10086.081434
67.535000	0.305922	0.166819	0.313844	0.461715	5902.759234	23885.822523	3658.777466	10044.185738
68.034500	0.308771	0.167400	0.318945	0.465842	5893.931673	23715.427231	3660.551345	9976.528027
68.538000	0.307202	0.168235	0.317768	0.476147	5813.088378	23267.030284	3639.885612	9810.364927
69.035500	0.311335	0.169119	0.317379	0.473714	5857.517446	23422.951149	3643.525636	9849.243025
69.537000	0.312195	0.167273	0.317963	0.477246	5839.357814	23170.717343	3638.283251	9792.878606
70.036500	0.313423	0.168989	0.317793	0.481817	5816.791097	23038.074257	3629.925053	9720.600212
70.538000	0.308708	0.167822	0.309842	0.490201	5730.029608	22600.608511	3601.817205	9590.008145
71.037500	0.313992	0.169033	0.321103	0.488573	5775.486668	22729.657375	3623.907464	9615.169446
71.534500	0.313640	0.168427	0.319290	0.491121	5756.324737	22586.342991	3616.359123	9575.829401
72.034500	0.311338	0.167077	0.316115	0.492687	5730.972766	22454.841265	3608.240369	9551.771425
72.534500	0.306811	0.166927	0.318558	0.499619	5657.161578	22138.935297	3600.634172	9446.280979
73.035000	0.311862	0.167884	0.322965	0.497223	5704.909610	22287.856044	3612.191738	9482.555508
73.535500	0.310235	0.166080	0.324707	0.496687	5697.862284	22231.414128	3616.104118	9490.698606
74.036000	0.310625	0.165333	0.319866	0.497332	5696.222764	22169.664204	3606.719308	9480.903060
74.536500	0.307357	0.164268	0.307810	0.503543	5635.778736	21849.968584	3576.313835	9387.317895
75.036000	0.312149	0.167087	0.325189	0.501513	5679.144041	22062.385912	3608.662157	9417.754286
75.540000	0.310661	0.164967	0.318102	0.500920	5673.417354	21995.230181	3597.677552	9426.676140
76.037000	0.310337	0.164277	0.318943	0.500655	5673.039478	21976.601043	3599.536708	9430.659539
76.534500	0.310435	0.163894	0.325154	0.500384	5675.396064	21971.645423	3610.528457	9434.737989
77.035500	0.310818	0.165508	0.324388	0.502238	5665.998280	21961.137767	3606.066476	9406.861580
77.535000	0.312452	0.165882	0.324338	0.503457	5668.651662	21924.193941	3603.915133	9388.606279
78.035500	0.311399	0.164708	0.326001	0.503235	5663.349641	21882.558058	3607.112626	9391.917254
78.536000	0.308244	0.163461	0.325329	0.508267	5611.678034	21610.451196	3597.476271	9317.020190
79.036500	0.309377	0.163372	0.331444	0.502128	5657.527991	21872.564199	3618.337587	9408.522665
79.536500	0.312703	0.164560	0.322550	0.504075	5666.306885	21839.472025	3599.850463	9379.352364
80.053000	0.311994	0.163350	0.327343	0.502865	5669.501339	21839.462924	3610.030704	9397.462045
80.534000	0.308406	0.163000	0.314080	0.507901	5614.986672	21606.370899	3579.435294	9322.439938
81.037000	0.312747	0.162729	0.324276	0.502772	5674.913343	21816.511056	3604.969993	9398.858991
81.535000	0.314149	0.163977	0.321785	0.502606	5684.960997	21878.104095	3601.038162	9401.345033
82.035000	0.310073	0.161551	0.332669	0.500028	5675.354956	21884.744042	3624.099724	9440.105006
82.535000	0.308655	0.162723	0.314160	0.506623	5624.563907	21649.505236	3581.663049	9341.403186
83.035500	0.312743	0.162657	0.328407	0.501152	5685.269849	21883.965051	3614.787711	9423.187331
83.536000	0.311655	0.162197	0.330428	0.499863	5686.560052	21920.154898	3620.496142	9442.596494
84.036000	0.316148	0.162966	0.330923	0.500363	5712.327893	21931.946096	3620.488327	9435.064605
84.536500	0.312730	0.162867	0.332187	0.504841	5661.600087	21732.723131	3614.943548	9367.926719
85.034000	0.314217	0.161098	0.331792	0.497933	5715.563900	21956.528878	3626.220719	9471.777862
85.534000	0.312808	0.161044	0.329702	0.497529	5709.050581	21971.874709	3623.286494	9477.903571
86.034500	0.312906	0.161571	0.334491	0.497385	5710.620238	22001.334815	3631.908854	9480.096511
86.538000	0.314319	0.161587	0.329904	0.496946	5722.644724	22021.360178	3624.652855	9486.761773
87.034500	0.314342	0.161103	0.330571	0.495815	5730.161528	22049.835078	3627.788962	9503.963622
87.535000	0.314685	0.161736	0.334036	0.496215	5729.790273	22060.047895	3633.165597	9497.867692
88.035500	0.315584	0.161819	0.329173	0.496319	5734.977815	22059.139521	3624.471180	9496.284037
88.535500	0.316130	0.159911	0.332775	0.494603	5749.805192	22050.698756	3633.784622	9522.445279
89.036000	0.312200	0.160502	0.330542	0.496778	5709.979263	21981.066230	3626.056930	9489.311016
89.536500	0.315750	0.160885	0.334825	0.494420	5748.509999	22101.706776	3637.728623	9525.232823
90.036500	0.314719	0.160063	0.327501	0.493060	5750.669396	22125.441187	3627.237640	9546.044767
90.534000	0.313275	0.159501	0.333339	0.499604	5698.655586	21813.895395	3626.007113	9446.514584
91.034500	0.315171	0.158832	0.328834	0.495804	5735.650659	21950.588656	3624.777878	9504.133277
91.534500	0.316933	0.160085	0.333676	0.494145	5758.101366	22078.545086	3636.184049	9529.442243
92.035000	0.318462	0.158693	0.335032	0.492663	5778.003683	22082.470291	3641.215375	9552.126438
92.535500	0.318177	0.159271	0.339175	0.493317	5771.787309	22079.163511	3647.449428	9542.111723
93.035500	0.313341	0.157409	0.329310	0.495558	5725.314905	21899.084965	3626.036566	9507.875457
93.536000	0.316685	0.157885	0.337044	0.493125	5763.189349	22026.569438	3643.977325	9545.044765
94.036500	0.315684	0.156917	0.336096	0.492779	5758.872039	21999.256168	3642.905561	9550.358479
94.536500	0.315944	0.157818	0.334499	0.493417	5756.380963	22010.766737	3638.928647	9540.575566
95.034000	0.312985	0.158567	0.331342	0.497898	5707.809540	21847.536230	3625.498395	9472.319553
95.534500	0.313815	0.156601	0.329641	0.493449	5742.186458	21955.994114	3630.304324	9540.095540
96.034500	0.316623	0.157169	0.329176	0.495166	5749.342976	21905.708358	3626.485260	9513.851636
96.576500	0.312425	0.156405	0.329938	0.498096	5702.898883	21744.938185	3622.710074	9469.308004
97.059500	0.314935	0.157796	0.333026	0.501704	5695.816725	21649.118771	3621.808865	9414.876984
97.535500	0.315809	0.154368	0.328318	0.495336	5742.883167	21776.303114	3624.693272	9511.250564
98.035500	0.315374	0.156917	0.331627	0.497495	5725.940070	21793.264002	3626.698866	9478.431125
