sample name	sample
index	899
start time	 04-08-2021  03:29:55 PM


Wavelength (nm)	Absorbance
494.344910	NaN
494.563924	NaN
494.782919	NaN
495.001897	-0.219911
495.220856	NaN
495.439797	NaN
495.658719	1.195900
495.877624	0.343815
496.096510	0.588153
496.315378	0.253106
496.534227	0.246872
496.753059	0.436339
496.971872	0.433999
497.190667	0.196049
497.409444	0.177891
497.628203	0.178662
497.846943	0.179269
498.065665	0.177585
498.284369	0.177047
498.503055	0.177408
498.721723	0.178004
498.940372	0.177325
499.159003	0.177748
499.377616	0.178903
499.596210	0.178563
499.814787	0.178042
500.033345	0.178794
500.251885	0.178529
500.470406	0.178286
500.688910	0.178238
500.907395	0.178682
501.125862	0.177058
501.344311	0.177804
501.562742	0.177610
501.781154	0.179248
501.999548	0.179226
502.217924	0.180330
502.436282	0.180497
502.654621	0.180433
502.872942	0.181296
503.091245	0.182896
503.309530	0.182172
503.527797	0.182513
503.746045	0.182636
503.964275	0.182061
504.182487	0.181824
504.400681	0.181841
504.618856	0.181297
504.837013	0.180454
505.055152	0.180148
505.273273	0.180558
505.491376	0.180937
505.709460	0.180085
505.927526	0.180923
506.145574	0.181814
506.363604	0.181666
506.581615	0.181572
506.799608	0.182519
507.017583	0.183170
507.235540	0.183661
507.453478	0.183400
507.671399	0.184056
507.889301	0.183924
508.107185	0.183028
508.325050	0.183734
508.542898	0.184638
508.760727	0.184563
508.978538	0.184780
509.196330	0.184484
509.414105	0.183973
509.631861	0.183395
509.849599	0.183744
510.067319	0.185201
510.285021	0.185345
510.502704	0.185339
510.720369	0.186205
510.938016	0.186062
511.155645	0.186805
511.373255	0.188141
511.590848	0.189344
511.808422	0.189989
512.025977	0.189502
512.243515	0.189205
512.461034	0.189665
512.678536	0.188656
512.896018	0.189434
513.113483	0.189214
513.330930	0.188544
513.548358	0.187731
513.765768	0.187158
513.983160	0.186900
514.200533	0.188464
514.417889	0.189147
514.635226	0.189310
514.852545	0.188860
515.069845	0.188374
515.287128	0.188693
515.504392	0.189299
515.721638	0.190235
515.938866	0.191014
516.156075	0.190363
516.373267	0.190104
516.590440	0.191179
516.807594	0.191800
517.024731	0.192311
517.241850	0.193760
517.458950	0.193862
517.676032	0.192911
517.893095	0.192931
518.110141	0.192998
518.327168	0.193331
518.544177	0.193919
518.761168	0.194113
518.978141	0.195137
519.195095	0.195107
519.412031	0.195224
519.628949	0.196345
519.845849	0.197193
520.062731	0.197228
520.279594	0.196795
520.496439	0.195830
520.713266	0.195794
520.930074	0.196179
521.146865	0.196139
521.363637	0.196876
521.580391	0.196987
521.797127	0.196664
522.013844	0.197087
522.230543	0.197281
522.447224	0.197685
522.663887	0.198074
522.880532	0.198507
523.097158	0.198788
523.313766	0.199570
523.530356	0.201058
523.746928	0.201113
523.963481	0.201625
524.180017	0.202076
524.396534	0.202543
524.613032	0.202816
524.829513	0.202164
525.045975	0.202351
525.262420	0.201939
525.478845	0.201509
525.695253	0.202225
525.911643	0.202222
526.128014	0.202329
526.344367	0.202544
526.560702	0.202376
526.777018	0.202843
526.993316	0.203319
527.209597	0.203878
527.425858	0.204223
527.642102	0.204692
527.858328	0.205373
528.074535	0.205538
528.290724	0.206164
528.506894	0.207277
528.723047	0.208040
528.939181	0.208151
529.155297	0.207571
529.371395	0.207366
529.587475	0.208032
529.803536	0.208401
530.019579	0.208571
530.235604	0.208480
530.451611	0.208624
530.667600	0.208836
530.883570	0.209333
531.099522	0.210540
531.315456	0.210843
531.531372	0.210128
531.747269	0.210538
531.963148	0.211542
532.179009	0.212228
532.394852	0.212771
532.610676	0.212985
532.826482	0.213386
533.042271	0.213597
533.258040	0.214421
533.473792	0.215316
533.689525	0.215818
533.905240	0.216076
534.120937	0.216879
534.336616	0.216610
534.552277	0.217230
534.767919	0.217410
534.983543	0.217274
535.199149	0.217402
535.414736	0.217570
535.630306	0.217511
535.845857	0.217690
536.061390	0.217953
536.276904	0.218523
536.492401	0.218609
536.707879	0.219307
536.923339	0.220115
537.138781	0.220540
537.354204	0.220717
537.569610	0.221506
537.784997	0.222698
538.000366	0.222371
538.215716	0.223115
538.431049	0.223261
538.646363	0.223407
538.861659	0.223233
539.076937	0.223221
539.292196	0.223638
539.507438	0.223493
539.722661	0.223327
539.937866	0.223823
540.153052	0.224077
540.368221	0.224665
540.583371	0.224612
540.798503	0.225604
541.013617	0.226492
541.228712	0.227024
541.443789	0.227245
541.658848	0.227651
541.873889	0.228116
542.088912	0.227894
542.303916	0.228048
542.518902	0.228610
542.733870	0.228662
542.948820	0.228676
543.163752	0.229270
543.378665	0.229789
543.593560	0.230000
543.808437	0.230484
544.023295	0.231292
544.238136	0.231859
544.452958	0.232504
544.667762	0.232602
544.882548	0.233055
545.097315	0.233177
545.312064	0.233393
545.526795	0.233381
545.741508	0.233250
545.956203	0.233268
546.170879	0.232988
546.385537	0.233288
546.600177	0.233893
546.814799	0.233911
547.029402	0.233695
547.243988	0.234486
547.458555	0.235001
547.673103	0.235178
547.887634	0.234967
548.102146	0.235480
548.316640	0.235678
548.531116	0.235950
548.745574	0.236723
548.960013	0.237363
549.174435	0.237248
549.388838	0.237653
549.603222	0.237860
549.817589	0.238755
550.031937	0.238973
550.246267	0.239144
550.460579	0.238878
550.674873	0.238633
550.889148	0.238995
551.103405	0.238731
551.317644	0.238511
551.531865	0.239135
551.746068	0.239330
551.960252	0.239617
552.174418	0.240108
552.388566	0.240691
552.602696	0.240887
552.816807	0.241181
553.030900	0.241542
553.244975	0.242470
553.459032	0.242610
553.673070	0.242443
553.887091	0.243000
554.101093	0.242576
554.315077	0.242927
554.529042	0.242953
554.742990	0.242957
554.956919	0.243163
555.170830	0.242828
555.384722	0.243063
555.598597	0.243392
555.812453	0.243517
556.026291	0.243840
556.240111	0.244051
556.453913	0.244840
556.667696	0.245070
556.881461	0.245853
557.095208	0.246084
557.308937	0.246368
557.522647	0.246747
557.736339	0.246617
557.950013	0.246672
558.163669	0.246719
558.377307	0.246795
558.590926	0.246778
558.804527	0.246718
559.018110	0.247101
559.231675	0.247295
559.445221	0.247062
559.658749	0.247347
559.872259	0.247763
560.085751	0.247940
560.299225	0.247917
560.512680	0.248322
560.726117	0.248379
560.939536	0.248548
561.152937	0.248857
561.366319	0.249351
561.579683	0.249422
561.793029	0.249213
562.006357	0.249070
562.219667	0.249211
562.432958	0.249330
562.646231	0.249273
562.859486	0.249512
563.072723	0.249407
563.285941	0.249610
563.499141	0.249856
563.712323	0.250089
563.925487	0.250328
564.138632	0.251014
564.351760	0.251138
564.564869	0.251550
564.777960	0.251557
564.991032	0.252075
565.204087	0.252740
565.417123	0.253278
565.630141	0.253800
565.843140	0.254201
566.056122	0.254029
566.269085	0.254236
566.482030	0.254491
566.694957	0.255002
566.907866	0.255096
567.120756	0.254629
567.333628	0.254554
567.546482	0.254665
567.759318	0.254693
567.972135	0.254871
568.184935	0.255379
568.397716	0.255349
568.610478	0.255399
568.823223	0.255672
569.035949	0.256273
569.248657	0.256599
569.461347	0.256749
569.674019	0.257042
569.886672	0.257336
570.099308	0.256906
570.311925	0.257517
570.524523	0.257740
570.737104	0.258123
570.949666	0.257950
571.162210	0.257949
571.374736	0.258277
571.587244	0.258232
571.799733	0.258344
572.012205	0.258513
572.224658	0.258241
572.437092	0.258232
572.649509	0.258097
572.861907	0.258646
573.074287	0.259271
573.286649	0.259464
573.498993	0.259745
573.711318	0.260049
573.923625	0.260728
574.135914	0.261126
574.348185	0.261222
574.560438	0.261680
574.772672	0.262020
574.984888	0.261718
575.197086	0.261830
575.409266	0.261862
575.621427	0.261950
575.833570	0.262042
576.045695	0.262008
576.257802	0.262011
576.469890	0.262100
576.681961	0.261484
576.894013	0.261682
577.106046	0.261469
577.318062	0.261807
577.530059	0.262114
577.742039	0.262394
577.954000	0.262505
578.165942	0.262897
578.377867	0.263033
578.589773	0.263434
578.801661	0.263720
579.013531	0.263878
579.225382	0.264064
579.437216	0.264033
579.649031	0.263709
579.860828	0.264410
580.072606	0.264798
580.284367	0.264447
580.496109	0.264828
580.707833	0.264990
580.919539	0.265528
581.131227	0.265646
581.342896	0.265733
581.554547	0.266055
581.766180	0.265658
581.977795	0.265942
582.189391	0.266587
582.400969	0.266688
582.612529	0.266882
582.824071	0.266981
583.035595	0.267258
583.247100	0.267311
583.458587	0.267583
583.670056	0.267957
583.881506	0.267578
584.092939	0.267388
584.304353	0.267399
584.515749	0.267239
584.727127	0.267376
584.938486	0.267502
585.149828	0.267895
585.361151	0.268118
585.572456	0.268179
585.783742	0.268120
585.995011	0.268299
586.206261	0.268514
586.417493	0.268950
586.628706	0.269120
586.839902	0.269297
587.051079	0.269144
587.262238	0.268976
587.473379	0.269353
587.684502	0.269686
587.895606	0.269842
588.106692	0.269829
588.317760	0.269941
588.528810	0.270270
588.739841	0.270586
588.950855	0.270894
589.161850	0.271335
589.372827	0.271365
589.583785	0.271486
589.794726	0.271500
590.005648	0.272035
590.216552	0.272098
590.427437	0.271989
590.638305	0.271577
590.849154	0.271791
591.059985	0.272035
591.270798	0.271991
591.481592	0.272399
591.692369	0.272359
591.903127	0.272384
592.113867	0.272341
592.324588	0.272785
592.535292	0.273484
592.745977	0.273416
592.956644	0.273165
593.167293	0.273319
593.377923	0.273346
593.588536	0.273932
593.799130	0.273551
594.009706	0.273828
594.220263	0.273938
594.430803	0.274180
594.641324	0.274379
594.851827	0.274816
595.062312	0.275220
595.272778	0.275654
595.483227	0.275677
595.693657	0.276420
595.904069	0.276905
596.114462	0.276862
596.324838	0.277026
596.535195	0.277153
596.745534	0.277051
596.955855	0.276918
597.166157	0.277025
597.376441	0.277286
597.586707	0.277813
597.796955	0.277617
598.007185	0.277670
598.217396	0.277957
598.427589	0.278274
598.637764	0.278514
598.847921	0.278955
599.058060	0.278949
599.268180	0.278995
599.478282	0.278535
599.688366	0.278865
599.898431	0.279280
600.108479	0.278705
600.318508	0.279125
600.528519	0.279274
600.738511	0.279604
600.948486	0.279507
601.158442	0.279541
601.368380	0.279978
601.578300	0.279942
601.788202	0.279750
601.998085	0.280424
602.207950	0.280204
602.417797	0.280321
602.627626	0.280304
602.837436	0.280781
603.047228	0.281715
603.257002	0.281645
603.466758	0.282019
603.676496	0.282627
603.886215	0.283183
604.095916	0.283100
604.305599	0.283304
604.515264	0.283440
604.724910	0.283521
604.934538	0.283167
605.144148	0.283229
605.353740	0.283625
605.563314	0.283560
605.772869	0.283445
605.982406	0.283973
606.191925	0.284539
606.401425	0.284617
606.610908	0.284416
606.820372	0.284168
607.029818	0.284486
607.239246	0.284398
607.448655	0.284517
607.658047	0.284588
607.867420	0.284544
608.076775	0.284276
608.286111	0.284217
608.495430	0.284516
608.704730	0.284612
608.914012	0.284641
609.123275	0.284898
609.332521	0.285090
609.541748	0.284837
609.750957	0.285030
609.960148	0.285408
610.169321	0.285523
610.378475	0.285602
610.587611	0.285810
610.796729	0.285819
611.005829	0.285624
611.214910	0.285622
611.423974	0.286199
611.633019	0.286526
611.842045	0.286335
612.051054	0.286669
612.260044	0.286816
612.469017	0.287097
612.677970	0.287535
612.886906	0.287731
613.095824	0.288015
613.304723	0.288257
613.513604	0.288272
613.722467	0.288749
613.931311	0.289054
614.140138	0.289554
614.348946	0.290097
614.557736	0.290105
614.766507	0.290430
614.975261	0.290493
615.183996	0.290428
615.392713	0.290611
615.601412	0.290712
615.810092	0.290406
616.018754	0.290312
616.227399	0.290274
616.436024	0.290483
616.644632	0.290332
616.853222	0.290232
617.061793	0.290204
617.270346	0.290077
617.478880	0.289882
617.687397	0.290262
617.895895	0.290273
618.104375	0.290145
618.312837	0.290070
618.521281	0.290076
618.729706	0.290355
618.938113	0.290536
619.146502	0.290904
619.354873	0.291121
619.563226	0.291171
619.771560	0.291137
619.979876	0.291436
620.188174	0.291640
620.396453	0.291987
620.604715	0.292072
620.812958	0.292056
621.021183	0.291720
621.229390	0.291836
621.437578	0.291996
621.645748	0.292558
621.853900	0.292457
622.062034	0.292621
622.270150	0.293026
622.478247	0.293396
622.686326	0.293560
622.894387	0.294041
623.102430	0.294276
623.310454	0.294353
623.518461	0.294418
623.726449	0.294655
623.934418	0.294856
624.142370	0.295036
624.350303	0.294959
624.558218	0.295108
624.766115	0.295373
624.973994	0.295581
625.181855	0.295896
625.389697	0.296140
625.597521	0.296277
625.805327	0.296641
626.013114	0.296118
626.220883	0.296294
626.428634	0.296466
626.636367	0.296360
626.844082	0.296183
627.051778	0.296316
627.259457	0.296431
627.467117	0.296443
627.674758	0.296631
627.882382	0.297271
628.089987	0.297351
628.297574	0.297176
628.505143	0.297211
628.712694	0.297703
628.920226	0.297622
629.127740	0.297626
629.335236	0.297877
629.542714	0.297474
629.750174	0.297455
629.957615	0.297656
630.165038	0.298234
630.372443	0.298613
630.579829	0.298432
630.787198	0.298979
630.994548	0.299139
631.201880	0.299307
631.409194	0.299453
631.616489	0.299776
631.823766	0.300038
632.031025	0.300021
632.238266	0.300079
632.445489	0.300565
632.652693	0.300315
632.859879	0.300472
633.067047	0.300619
633.274197	0.300913
633.481329	0.300962
633.688442	0.301130
633.895537	0.301290
634.102614	0.301672
634.309672	0.301591
634.516713	0.301774
634.723735	0.302152
634.930739	0.302275
635.137724	0.302506
635.344692	0.302880
635.551641	0.302909
635.758572	0.303260
635.965485	0.303321
636.172379	0.303439
636.379256	0.303868
636.586114	0.303724
636.792954	0.304192
636.999775	0.304629
637.206579	0.304523
637.413364	0.304670
637.620131	0.304656
637.826880	0.304744
638.033610	0.305251
638.240323	0.305470
638.447017	0.305528
638.653692	0.305451
638.860350	0.305219
639.066990	0.305102
639.273611	0.305499
639.480214	0.305787
639.686798	0.306273
639.893365	0.306372
640.099913	0.306099
640.306443	0.306592
640.512955	0.306737
640.719449	0.307033
640.925924	0.307458
641.132381	0.307515
641.338820	0.307537
641.545241	0.307325
641.751644	0.307577
641.958028	0.308448
642.164394	0.308524
642.370742	0.308729
642.577071	0.309253
642.783383	0.309336
642.989676	0.309356
643.195951	0.309711
643.402207	0.309941
643.608446	0.309932
643.814666	0.309954
644.020868	0.310147
644.227052	0.310193
644.433218	0.309880
644.639365	0.310098
644.845494	0.310493
645.051605	0.310493
645.257698	0.310457
645.463772	0.310627
645.669828	0.310281
645.875866	0.310364
646.081886	0.310677
646.287888	0.310879
646.493871	0.311034
646.699836	0.310731
646.905783	0.310820
647.111712	0.311385
647.317622	0.311530
647.523514	0.311845
647.729388	0.312083
647.935244	0.312433
648.141082	0.312797
648.346901	0.313083
648.552702	0.313781
648.758485	0.314162
648.964250	0.313914
649.169996	0.313973
649.375724	0.314432
649.581434	0.314755
649.787126	0.314751
649.992800	0.315135
650.198455	0.315462
650.404092	0.315492
650.609711	0.315725
650.815311	0.316038
651.020894	0.316361
651.226458	0.316576
651.432004	0.316408
651.637532	0.316665
651.843041	0.316503
652.048532	0.316354
652.254006	0.316441
652.459460	0.316328
652.664897	0.316762
652.870315	0.316951
653.075716	0.316957
653.281097	0.317345
653.486461	0.317177
653.691807	0.317218
653.897134	0.317467
654.102443	0.317741
654.307734	0.318266
654.513006	0.318273
654.718261	0.318555
654.923497	0.318965
655.128715	0.318972
655.333915	0.319712
655.539096	0.320060
655.744259	0.320537
655.949404	0.320865
656.154531	0.320980
656.359640	0.321468
656.564730	0.321392
656.769802	0.321318
656.974856	0.321788
657.179892	0.321740
657.384909	0.321864
657.589908	0.321719
657.794889	0.321851
657.999852	0.322154
658.204797	0.322100
658.409723	0.322542
658.614631	0.322730
658.819521	0.322839
659.024393	0.322922
659.229246	0.323347
659.434081	0.323723
659.638898	0.324157
659.843697	0.324129
660.048478	0.324205
660.253240	0.324727
660.457984	0.325198
660.662710	0.325472
660.867417	0.325942
661.072107	0.326374
661.276778	0.326615
661.481431	0.326705
661.686066	0.326721
661.890682	0.327280
662.095281	0.327320
662.299861	0.327314
662.504422	0.327645
662.708966	0.327780
662.913491	0.327719
663.117999	0.327920
663.322488	0.328014
663.526958	0.328369
663.731411	0.328284
663.935845	0.328581
664.140261	0.328943
664.344659	0.329168
664.549038	0.329370
664.753400	0.329519
664.957743	0.329850
665.162068	0.330069
665.366375	0.330682
665.570663	0.330962
665.774933	0.330988
665.979185	0.331122
666.183419	0.331127
666.387635	0.331356
666.591832	0.331465
666.796011	0.331757
667.000172	0.331856
667.204315	0.331532
667.408439	0.332135
667.612545	0.332350
667.816634	0.332628
668.020703	0.332811
668.224755	0.333118
668.428788	0.333674
668.632803	0.333824
668.836800	0.334279
669.040779	0.334907
669.244739	0.334938
669.448681	0.335279
669.652605	0.335599
669.856511	0.336087
670.060399	0.336147
670.264268	0.336470
670.468119	0.336604
670.671952	0.336710
670.875767	0.337067
671.079563	0.337384
671.283341	0.337643
671.487101	0.337710
671.690843	0.337846
671.894567	0.338156
672.098272	0.338195
672.301959	0.338520
672.505628	0.338861
672.709278	0.338909
672.912911	0.339193
673.116525	0.339186
673.320121	0.339468
673.523699	0.339654
673.727258	0.339938
673.930799	0.340262
674.134322	0.340380
674.337827	0.340346
674.541314	0.340569
674.744782	0.340684
674.948232	0.340833
675.151664	0.341085
675.355078	0.341365
675.558474	0.341511
675.761851	0.341602
675.965210	0.341922
676.168551	0.342128
676.371873	0.342501
676.575178	0.342667
676.778464	0.343134
676.981732	0.343381
677.184981	0.343561
677.388213	0.343751
677.591426	0.343794
677.794621	0.344111
677.997798	0.344399
678.200956	0.344445
678.404097	0.344603
678.607219	0.344562
678.810323	0.344567
679.013408	0.344962
679.216476	0.345275
679.419525	0.345820
679.622556	0.345894
679.825569	0.346320
680.028563	0.346372
680.231540	0.346548
680.434498	0.346762
680.637438	0.346792
680.840359	0.346729
681.043263	0.347030
681.246148	0.347213
681.449015	0.347478
681.651864	0.347623
681.854694	0.348094
682.057506	0.348512
682.260301	0.348930
682.463076	0.349306
682.665834	0.349414
682.868573	0.349888
683.071295	0.350013
683.273998	0.350300
683.476682	0.350447
683.679349	0.350382
683.881997	0.350639
684.084627	0.350665
684.287239	0.351035
684.489833	0.351531
684.692408	0.351337
684.894965	0.351412
685.097504	0.351364
685.300025	0.351692
685.502527	0.352053
685.705012	0.351951
685.907478	0.352512
686.109925	0.352536
686.312355	0.352885
686.514766	0.353225
686.717159	0.353536
686.919534	0.353946
687.121891	0.354227
687.324230	0.354703
687.526550	0.355061
687.728852	0.355226
687.931136	0.355583
688.133401	0.355719
688.335649	0.355877
688.537878	0.355993
688.740089	0.356395
688.942281	0.356338
689.144456	0.356450
689.346612	0.356778
689.548750	0.356875
689.750870	0.357285
689.952971	0.357466
690.155055	0.357578
690.357120	0.357817
690.559167	0.357818
690.761195	0.358420
690.963206	0.358593
691.165198	0.358684
691.367172	0.358922
691.569128	0.359026
691.771065	0.358985
691.972984	0.359056
692.174885	0.359464
692.376768	0.359634
692.578633	0.359475
692.780479	0.359568
692.982308	0.359613
693.184118	0.359559
693.385909	0.359544
693.587683	0.360071
