sample name	sample
index	366
start time	 03-04-2021  11:40:40 AM


Wavelength (nm)	Absorbance
494.344910	-0.138099
494.563924	-0.138099
494.782919	-0.138099
495.001897	NaN
495.220856	-0.097820
495.439797	-0.100439
495.658719	-0.102607
495.877624	-0.078861
496.096510	-0.138018
496.315378	-0.134152
496.534227	-0.112791
496.753059	-0.072225
496.971872	-0.049149
497.190667	0.074017
497.409444	0.079155
497.628203	0.081648
497.846943	0.080844
498.065665	0.081552
498.284369	0.083488
498.503055	0.083840
498.721723	0.082987
498.940372	0.083902
499.159003	0.083332
499.377616	0.083721
499.596210	0.084537
499.814787	0.085036
500.033345	0.084873
500.251885	0.083397
500.470406	0.082880
500.688910	0.083470
500.907395	0.081863
501.125862	0.081934
501.344311	0.082476
501.562742	0.081316
501.781154	0.081267
501.999548	0.081420
502.217924	0.082350
502.436282	0.083540
502.654621	0.083907
502.872942	0.085392
503.091245	0.086070
503.309530	0.085396
503.527797	0.086192
503.746045	0.086650
503.964275	0.087542
504.182487	0.087839
504.400681	0.086811
504.618856	0.087064
504.837013	0.087037
505.055152	0.086216
505.273273	0.086307
505.491376	0.086447
505.709460	0.086529
505.927526	0.086021
506.145574	0.085998
506.363604	0.086600
506.581615	0.086956
506.799608	0.086487
507.017583	0.086603
507.235540	0.087249
507.453478	0.087538
507.671399	0.087430
507.889301	0.087215
508.107185	0.086676
508.325050	0.086638
508.542898	0.086638
508.760727	0.087077
508.978538	0.088189
509.196330	0.087640
509.414105	0.087245
509.631861	0.086675
509.849599	0.086841
510.067319	0.087140
510.285021	0.087241
510.502704	0.087217
510.720369	0.087485
510.938016	0.087294
511.155645	0.088508
511.373255	0.089211
511.590848	0.089599
511.808422	0.090067
512.025977	0.090074
512.243515	0.090464
512.461034	0.090075
512.678536	0.090475
512.896018	0.090633
513.113483	0.090027
513.330930	0.089913
513.548358	0.090542
513.765768	0.090677
513.983160	0.090877
514.200533	0.090293
514.417889	0.091301
514.635226	0.091325
514.852545	0.091075
515.069845	0.091396
515.287128	0.091561
515.504392	0.090982
515.721638	0.091141
515.938866	0.091470
516.156075	0.092414
516.373267	0.092196
516.590440	0.092184
516.807594	0.092415
517.024731	0.092883
517.241850	0.093749
517.458950	0.094726
517.676032	0.094479
517.893095	0.094916
518.110141	0.094622
518.327168	0.095092
518.544177	0.095788
518.761168	0.096017
518.978141	0.095649
519.195095	0.095186
519.412031	0.095765
519.628949	0.096473
519.845849	0.096464
520.062731	0.097137
520.279594	0.097086
520.496439	0.096477
520.713266	0.096860
520.930074	0.097832
521.146865	0.098055
521.363637	0.098417
521.580391	0.098787
521.797127	0.099327
522.013844	0.098735
522.230543	0.099005
522.447224	0.099514
522.663887	0.099175
522.880532	0.098692
523.097158	0.098643
523.313766	0.097927
523.530356	0.098418
523.746928	0.098217
523.963481	0.099118
524.180017	0.099236
524.396534	0.099657
524.613032	0.099847
524.829513	0.100208
525.045975	0.101112
525.262420	0.101672
525.478845	0.101423
525.695253	0.101926
525.911643	0.102019
526.128014	0.101902
526.344367	0.101688
526.560702	0.102035
526.777018	0.102090
526.993316	0.102281
527.209597	0.102127
527.425858	0.103019
527.642102	0.102880
527.858328	0.102657
528.074535	0.103133
528.290724	0.103763
528.506894	0.104837
528.723047	0.105069
528.939181	0.105383
529.155297	0.106211
529.371395	0.105652
529.587475	0.106464
529.803536	0.107361
530.019579	0.107968
530.235604	0.108129
530.451611	0.107416
530.667600	0.107576
530.883570	0.106846
531.099522	0.107669
531.315456	0.107562
531.531372	0.107769
531.747269	0.107698
531.963148	0.108236
532.179009	0.108902
532.394852	0.109725
532.610676	0.110420
532.826482	0.111206
533.042271	0.110495
533.258040	0.110979
533.473792	0.111158
533.689525	0.111390
533.905240	0.111371
534.120937	0.111524
534.336616	0.111233
534.552277	0.111457
534.767919	0.111636
534.983543	0.111788
535.199149	0.112544
535.414736	0.112675
535.630306	0.112944
535.845857	0.112998
536.061390	0.113066
536.276904	0.113832
536.492401	0.114108
536.707879	0.114479
536.923339	0.115469
537.138781	0.115851
537.354204	0.116091
537.569610	0.116800
537.784997	0.117297
538.000366	0.117561
538.215716	0.117508
538.431049	0.117392
538.646363	0.117550
538.861659	0.117205
539.076937	0.117440
539.292196	0.117562
539.507438	0.117413
539.722661	0.117564
539.937866	0.117510
540.153052	0.117651
540.368221	0.118426
540.583371	0.118979
540.798503	0.119285
541.013617	0.119372
541.228712	0.119297
541.443789	0.118974
541.658848	0.118720
541.873889	0.119324
542.088912	0.119885
542.303916	0.119891
542.518902	0.119585
542.733870	0.119505
542.948820	0.119953
543.163752	0.120700
543.378665	0.121555
543.593560	0.122130
543.808437	0.122155
544.023295	0.122645
544.238136	0.123007
544.452958	0.123311
544.667762	0.123997
544.882548	0.123931
545.097315	0.123972
545.312064	0.124391
545.526795	0.124812
545.741508	0.124901
545.956203	0.124797
546.170879	0.125017
546.385537	0.125373
546.600177	0.125212
546.814799	0.125570
547.029402	0.125782
547.243988	0.125720
547.458555	0.125499
547.673103	0.125650
547.887634	0.125663
548.102146	0.125439
548.316640	0.125547
548.531116	0.125770
548.745574	0.125933
548.960013	0.126094
549.174435	0.125966
549.388838	0.126464
549.603222	0.127197
549.817589	0.127300
550.031937	0.127702
550.246267	0.127815
550.460579	0.128010
550.674873	0.127527
550.889148	0.127673
551.103405	0.128263
551.317644	0.128195
551.531865	0.127935
551.746068	0.128059
551.960252	0.127948
552.174418	0.128330
552.388566	0.128586
552.602696	0.129123
552.816807	0.129375
553.030900	0.129599
553.244975	0.129711
553.459032	0.129798
553.673070	0.130400
553.887091	0.130726
554.101093	0.130518
554.315077	0.131025
554.529042	0.131002
554.742990	0.131023
554.956919	0.130858
555.170830	0.131363
555.384722	0.131826
555.598597	0.131663
555.812453	0.131819
556.026291	0.132205
556.240111	0.132240
556.453913	0.132601
556.667696	0.132873
556.881461	0.133183
557.095208	0.132996
557.308937	0.133166
557.522647	0.133241
557.736339	0.133316
557.950013	0.133525
558.163669	0.133592
558.377307	0.133651
558.590926	0.133954
558.804527	0.134051
559.018110	0.134130
559.231675	0.134166
559.445221	0.134294
559.658749	0.134317
559.872259	0.134825
560.085751	0.134855
560.299225	0.134926
560.512680	0.134835
560.726117	0.135087
560.939536	0.135327
561.152937	0.135584
561.366319	0.135668
561.579683	0.136191
561.793029	0.136018
562.006357	0.136339
562.219667	0.136873
562.432958	0.137075
562.646231	0.137380
562.859486	0.137648
563.072723	0.137541
563.285941	0.137747
563.499141	0.137617
563.712323	0.137650
563.925487	0.137690
564.138632	0.137470
564.351760	0.137541
564.564869	0.137309
564.777960	0.137330
564.991032	0.137652
565.204087	0.137768
565.417123	0.138180
565.630141	0.138450
565.843140	0.138693
566.056122	0.138788
566.269085	0.138928
566.482030	0.139265
566.694957	0.139726
566.907866	0.139796
567.120756	0.140071
567.333628	0.140174
567.546482	0.140092
567.759318	0.140183
567.972135	0.140381
568.184935	0.140482
568.397716	0.140734
568.610478	0.140646
568.823223	0.140903
569.035949	0.141026
569.248657	0.140900
569.461347	0.141062
569.674019	0.141282
569.886672	0.141958
570.099308	0.142046
570.311925	0.142302
570.524523	0.142484
570.737104	0.142429
570.949666	0.142740
571.162210	0.142988
571.374736	0.143341
571.587244	0.143367
571.799733	0.142820
572.012205	0.143104
572.224658	0.142693
572.437092	0.142718
572.649509	0.142834
572.861907	0.142722
573.074287	0.142488
573.286649	0.142236
573.498993	0.142183
573.711318	0.142456
573.923625	0.142503
574.135914	0.142949
574.348185	0.143306
574.560438	0.143563
574.772672	0.143645
574.984888	0.144121
575.197086	0.144245
575.409266	0.144168
575.621427	0.144319
575.833570	0.144500
576.045695	0.144623
576.257802	0.144521
576.469890	0.144223
576.681961	0.144410
576.894013	0.144712
577.106046	0.144604
577.318062	0.144455
577.530059	0.144596
577.742039	0.144825
577.954000	0.144724
578.165942	0.144806
578.377867	0.145078
578.589773	0.145205
578.801661	0.145128
579.013531	0.145590
579.225382	0.146328
579.437216	0.146642
579.649031	0.146599
579.860828	0.146639
580.072606	0.146907
580.284367	0.147087
580.496109	0.147476
580.707833	0.147834
580.919539	0.148230
581.131227	0.148201
581.342896	0.148131
581.554547	0.148480
581.766180	0.148955
581.977795	0.148962
582.189391	0.149300
582.400969	0.149103
582.612529	0.149047
582.824071	0.148897
583.035595	0.148979
583.247100	0.149092
583.458587	0.149068
583.670056	0.148968
583.881506	0.149007
584.092939	0.148934
584.304353	0.149061
584.515749	0.149097
584.727127	0.149306
584.938486	0.149319
585.149828	0.149534
585.361151	0.149485
585.572456	0.149699
585.783742	0.150060
585.995011	0.150495
586.206261	0.150618
586.417493	0.150778
586.628706	0.150730
586.839902	0.151225
587.051079	0.151367
587.262238	0.151349
587.473379	0.151662
587.684502	0.151707
587.895606	0.151806
588.106692	0.152153
588.317760	0.152131
588.528810	0.152565
588.739841	0.152587
588.950855	0.152650
589.161850	0.153122
589.372827	0.152922
589.583785	0.153012
589.794726	0.152668
590.005648	0.152662
590.216552	0.152895
590.427437	0.152617
590.638305	0.152987
590.849154	0.153162
591.059985	0.153063
591.270798	0.153514
591.481592	0.153642
591.692369	0.154087
591.903127	0.154250
592.113867	0.154535
592.324588	0.155243
592.535292	0.155134
592.745977	0.155172
592.956644	0.155756
593.167293	0.155560
593.377923	0.155675
593.588536	0.155650
593.799130	0.156116
594.009706	0.156252
594.220263	0.156180
594.430803	0.156326
594.641324	0.156399
594.851827	0.156315
595.062312	0.156455
595.272778	0.156251
595.483227	0.156629
595.693657	0.156356
595.904069	0.156296
596.114462	0.156339
596.324838	0.156636
596.535195	0.156717
596.745534	0.156987
596.955855	0.157085
597.166157	0.157746
597.376441	0.157497
597.586707	0.157795
597.796955	0.158145
598.007185	0.158110
598.217396	0.157986
598.427589	0.158177
598.637764	0.158474
598.847921	0.158808
599.058060	0.159076
599.268180	0.159194
599.478282	0.159352
599.688366	0.159248
599.898431	0.159574
600.108479	0.159621
600.318508	0.159642
600.528519	0.159180
600.738511	0.159443
600.948486	0.159140
601.158442	0.159496
601.368380	0.159202
601.578300	0.159431
601.788202	0.159536
601.998085	0.159587
602.207950	0.160048
602.417797	0.160405
602.627626	0.160158
602.837436	0.160322
603.047228	0.160612
603.257002	0.161166
603.466758	0.161298
603.676496	0.161565
603.886215	0.161997
604.095916	0.161792
604.305599	0.161946
604.515264	0.162020
604.724910	0.162090
604.934538	0.161956
605.144148	0.161731
605.353740	0.161786
605.563314	0.161417
605.772869	0.161265
605.982406	0.161566
606.191925	0.161495
606.401425	0.161613
606.610908	0.161844
606.820372	0.162012
607.029818	0.162094
607.239246	0.162190
607.448655	0.162429
607.658047	0.162453
607.867420	0.162307
608.076775	0.162346
608.286111	0.162352
608.495430	0.162486
608.704730	0.162459
608.914012	0.162815
609.123275	0.162709
609.332521	0.162981
609.541748	0.163262
609.750957	0.163337
609.960148	0.163472
610.169321	0.163588
610.378475	0.163630
610.587611	0.163722
610.796729	0.163766
611.005829	0.163835
611.214910	0.163751
611.423974	0.163787
611.633019	0.163789
611.842045	0.163775
612.051054	0.163925
612.260044	0.163998
612.469017	0.164147
612.677970	0.164111
612.886906	0.164682
613.095824	0.165034
613.304723	0.165117
613.513604	0.165263
613.722467	0.165494
613.931311	0.165569
614.140138	0.165745
614.348946	0.165719
614.557736	0.165997
614.766507	0.166055
614.975261	0.166022
615.183996	0.165996
615.392713	0.166212
615.601412	0.166103
615.810092	0.166192
616.018754	0.166021
616.227399	0.166204
616.436024	0.165999
616.644632	0.165865
616.853222	0.165849
617.061793	0.166308
617.270346	0.166410
617.478880	0.166742
617.687397	0.167063
617.895895	0.167391
618.104375	0.167559
618.312837	0.167850
618.521281	0.167886
618.729706	0.168066
618.938113	0.167880
619.146502	0.167728
619.354873	0.167767
619.563226	0.167913
619.771560	0.167846
619.979876	0.167897
620.188174	0.167895
620.396453	0.167944
620.604715	0.167905
620.812958	0.168004
621.021183	0.168570
621.229390	0.168577
621.437578	0.168583
621.645748	0.168486
621.853900	0.168598
622.062034	0.168811
622.270150	0.168824
622.478247	0.169046
622.686326	0.169133
622.894387	0.169042
623.102430	0.169355
623.310454	0.169511
623.518461	0.169838
623.726449	0.169933
623.934418	0.169937
624.142370	0.170142
624.350303	0.170252
624.558218	0.170433
624.766115	0.170695
624.973994	0.170706
625.181855	0.170602
625.389697	0.170619
625.597521	0.170779
625.805327	0.170900
626.013114	0.171076
626.220883	0.171158
626.428634	0.171308
626.636367	0.171520
626.844082	0.171599
627.051778	0.171811
627.259457	0.172033
627.467117	0.172049
627.674758	0.172134
627.882382	0.172269
628.089987	0.172170
628.297574	0.172098
628.505143	0.171739
628.712694	0.172014
628.920226	0.172141
629.127740	0.172025
629.335236	0.172162
629.542714	0.172343
629.750174	0.172367
629.957615	0.172663
630.165038	0.172920
630.372443	0.173298
630.579829	0.173130
630.787198	0.173183
630.994548	0.173398
631.201880	0.173576
631.409194	0.173520
631.616489	0.173665
631.823766	0.173841
632.031025	0.173874
632.238266	0.173722
632.445489	0.173914
632.652693	0.174077
632.859879	0.174388
633.067047	0.174520
633.274197	0.174598
633.481329	0.174848
633.688442	0.174901
633.895537	0.175053
634.102614	0.175308
634.309672	0.175544
634.516713	0.175427
634.723735	0.175607
634.930739	0.175482
635.137724	0.175516
635.344692	0.175503
635.551641	0.175660
635.758572	0.176052
635.965485	0.176131
636.172379	0.176304
636.379256	0.176811
636.586114	0.176916
636.792954	0.177110
636.999775	0.177551
637.206579	0.177947
637.413364	0.178141
637.620131	0.177923
637.826880	0.178322
638.033610	0.178427
638.240323	0.178559
638.447017	0.178586
638.653692	0.178805
638.860350	0.178835
639.066990	0.178754
639.273611	0.178770
639.480214	0.178969
639.686798	0.178924
639.893365	0.179072
640.099913	0.179072
640.306443	0.179281
640.512955	0.179421
640.719449	0.179462
640.925924	0.179662
641.132381	0.179868
641.338820	0.179841
641.545241	0.180254
641.751644	0.180049
641.958028	0.180253
642.164394	0.180428
642.370742	0.180323
642.577071	0.180438
642.783383	0.180638
642.989676	0.180591
643.195951	0.180901
643.402207	0.180937
643.608446	0.181377
643.814666	0.181424
644.020868	0.181403
644.227052	0.181592
644.433218	0.181612
644.639365	0.181460
644.845494	0.181755
645.051605	0.181912
645.257698	0.181770
645.463772	0.181820
645.669828	0.181980
645.875866	0.182028
646.081886	0.182186
646.287888	0.182518
646.493871	0.182616
646.699836	0.182731
646.905783	0.182816
647.111712	0.183049
647.317622	0.183226
647.523514	0.183524
647.729388	0.183690
647.935244	0.183898
648.141082	0.184125
648.346901	0.184483
648.552702	0.184719
648.758485	0.185000
648.964250	0.185121
649.169996	0.185183
649.375724	0.185041
649.581434	0.185237
649.787126	0.185455
649.992800	0.185665
650.198455	0.185578
650.404092	0.185713
650.609711	0.185835
650.815311	0.185808
651.020894	0.186055
651.226458	0.186354
651.432004	0.186429
651.637532	0.186616
651.843041	0.186720
652.048532	0.186948
652.254006	0.186966
652.459460	0.187114
652.664897	0.187313
652.870315	0.187155
653.075716	0.187068
653.281097	0.187351
653.486461	0.187494
653.691807	0.187359
653.897134	0.187722
654.102443	0.187958
654.307734	0.188111
654.513006	0.188358
654.718261	0.188766
654.923497	0.189050
655.128715	0.189332
655.333915	0.189510
655.539096	0.189842
655.744259	0.189877
655.949404	0.190233
656.154531	0.190401
656.359640	0.190809
656.564730	0.190912
656.769802	0.191257
656.974856	0.191460
657.179892	0.191559
657.384909	0.191703
657.589908	0.191793
657.794889	0.191709
657.999852	0.191816
658.204797	0.191803
658.409723	0.191930
658.614631	0.192059
658.819521	0.191855
659.024393	0.192122
659.229246	0.192371
659.434081	0.192722
659.638898	0.192896
659.843697	0.192980
660.048478	0.193215
660.253240	0.193266
660.457984	0.193173
660.662710	0.193435
660.867417	0.193500
661.072107	0.193642
661.276778	0.193644
661.481431	0.193817
661.686066	0.194166
661.890682	0.194039
662.095281	0.194438
662.299861	0.194705
662.504422	0.194865
662.708966	0.194918
662.913491	0.195225
663.117999	0.195503
663.322488	0.195725
663.526958	0.195575
663.731411	0.195801
663.935845	0.195904
664.140261	0.196007
664.344659	0.196249
664.549038	0.196634
664.753400	0.196682
664.957743	0.196967
665.162068	0.197233
665.366375	0.197650
665.570663	0.198113
665.774933	0.198231
665.979185	0.198482
666.183419	0.198566
666.387635	0.198413
666.591832	0.198582
666.796011	0.198661
667.000172	0.198669
667.204315	0.198693
667.408439	0.198773
667.612545	0.199094
667.816634	0.199192
668.020703	0.199427
668.224755	0.199893
668.428788	0.199997
668.632803	0.200019
668.836800	0.200101
669.040779	0.200376
669.244739	0.200343
669.448681	0.200554
669.652605	0.201055
669.856511	0.201194
670.060399	0.201219
670.264268	0.201338
670.468119	0.201571
670.671952	0.201749
670.875767	0.201879
671.079563	0.202185
671.283341	0.202370
671.487101	0.202467
671.690843	0.202748
671.894567	0.203071
672.098272	0.203306
672.301959	0.203455
672.505628	0.203871
672.709278	0.204141
672.912911	0.204197
673.116525	0.204149
673.320121	0.204097
673.523699	0.204320
673.727258	0.204240
673.930799	0.204433
674.134322	0.204696
674.337827	0.204721
674.541314	0.204679
674.744782	0.205086
674.948232	0.205131
675.151664	0.205347
675.355078	0.205270
675.558474	0.205513
675.761851	0.205577
675.965210	0.205578
676.168551	0.205860
676.371873	0.206066
676.575178	0.206179
676.778464	0.206528
676.981732	0.206541
677.184981	0.206751
677.388213	0.207029
677.591426	0.207407
677.794621	0.207552
677.997798	0.207517
678.200956	0.207628
678.404097	0.207819
678.607219	0.207973
678.810323	0.208442
679.013408	0.208817
679.216476	0.209093
679.419525	0.209152
679.622556	0.209608
679.825569	0.209830
680.028563	0.210254
680.231540	0.210308
680.434498	0.210674
680.637438	0.210812
680.840359	0.210770
681.043263	0.210795
681.246148	0.210843
681.449015	0.210758
681.651864	0.210765
681.854694	0.210794
682.057506	0.211018
682.260301	0.211144
682.463076	0.211090
682.665834	0.211299
682.868573	0.211454
683.071295	0.211883
683.273998	0.212116
683.476682	0.212291
683.679349	0.212459
683.881997	0.212506
684.084627	0.212514
684.287239	0.212518
684.489833	0.212437
684.692408	0.212484
684.894965	0.212496
685.097504	0.212544
685.300025	0.212839
685.502527	0.212947
685.705012	0.213016
685.907478	0.213070
686.109925	0.213234
686.312355	0.213496
686.514766	0.213697
686.717159	0.213859
686.919534	0.213990
687.121891	0.214022
687.324230	0.214126
687.526550	0.214500
687.728852	0.214476
687.931136	0.214843
688.133401	0.214898
688.335649	0.215103
688.537878	0.215049
688.740089	0.215131
688.942281	0.215311
689.144456	0.215331
689.346612	0.215220
689.548750	0.215354
689.750870	0.215328
689.952971	0.215357
690.155055	0.215454
690.357120	0.215603
690.559167	0.215618
690.761195	0.215725
690.963206	0.216031
691.165198	0.216187
691.367172	0.216446
691.569128	0.216503
691.771065	0.216804
691.972984	0.216753
692.174885	0.217032
692.376768	0.217405
692.578633	0.217557
692.780479	0.217588
692.982308	0.217806
693.184118	0.218050
693.385909	0.218212
