sample name	sample
index	198
start time	 02-18-2021  12:19:52 PM
880	0.420589
Peak Time (s)	92.536
Peak Height 	0.4206
calc peak height	90,93
Baseline Time (s)	10.536
Baseline Value 	-0.00424
subtract baseline	10,4
Abs	0.319591
Peak Time (s)	91.535
Peak Height 	0.3196
calc peak height	90,93
Baseline Time (s)	9.034
Baseline Value 	-0.00133
subtract baseline	10,3
PK_550	0.156087
Peak Time (s)	91.035
Peak Height 	0.1561
calc peak height	90,93
Baseline Time (s)	9.538
Baseline Value 	3.5966E-4
subtract baseline	10,2
PK_880	0.310203
Peak Time (s)	91.035
Peak Height 	0.3102
calc peak height	90,93
Baseline Time (s)	11.539
Baseline Value 	0.002447
subtract baseline	10,1


Time (s)	A880-A510	A880-A775	A880-A975	A880	I510	I775	I975	I880	
0.035000	-0.001126	-0.000275	-0.001559	0.001670	6689.064658	43409.839845	3905.429079	22922.155221
0.535500	-0.000883	-0.000307	0.001055	0.004382	6667.651381	43155.019985	3905.201650	22797.551035
1.036000	-0.002839	-0.000237	-0.002299	0.004655	6648.407036	43136.158357	3896.691542	22785.024410
1.536500	-0.000226	-0.000137	0.004987	0.000268	6709.151319	43553.719169	3924.328524	22986.911655
2.036500	-0.001057	-0.000037	0.004761	0.000120	6703.179862	43576.888311	3924.141445	22993.747809
2.536500	-0.000455	0.000405	0.006472	0.002079	6691.352269	43435.228974	3923.546399	22903.339609
3.037000	-0.000903	-0.000117	0.004880	-0.001518	6718.877224	43723.040722	3928.365325	23069.707924
3.537000	-0.001457	-0.000142	0.001868	-0.000550	6705.537979	43629.818312	3918.820410	23024.769870
4.034500	-0.000003	-0.000008	0.004463	-0.000060	6713.973534	43596.406561	3923.857073	23002.084506
4.535000	0.000237	-0.000290	0.005052	-0.000016	6715.698778	43566.015613	3925.167833	23000.070187
5.035000	-0.001023	-0.000412	0.003943	-0.000464	6708.587074	43596.492950	3923.580052	23020.811140
5.535500	-0.000638	-0.000345	0.007985	-0.000220	6709.822532	43579.887051	3932.726020	23009.488458
6.036000	-0.000165	-0.000192	-0.001545	-0.000280	6714.486740	43599.835638	3910.067691	23012.262078
6.536000	-0.002286	0.000742	0.004635	0.000025	6693.298172	43658.771541	3924.066995	22998.162323
7.036000	-0.001201	0.000489	0.005788	0.000204	6701.202437	43618.312577	3926.408051	22989.896014
7.536500	0.000580	0.000309	0.001629	0.000317	6715.783415	43590.840481	3916.185516	22984.634221
8.043000	-0.000466	-0.000250	0.003087	-0.000337	6712.352690	43599.775890	3921.224950	23014.919035
8.534500	0.000562	-0.000563	-0.001059	-0.000464	6722.469021	43582.240742	3911.654111	23020.778443
9.034500	-0.001933	0.000093	0.000000	0.000484	6692.374234	43555.045668	3911.919479	22976.942605
9.538000	-0.001472	0.000000	0.003280	0.000016	6700.467832	43590.082089	3920.842150	22998.570218
10.035500	-0.000626	0.000095	-0.001190	0.000286	6705.503097	43573.777382	3909.569937	22986.093222
10.536000	0.000673	-0.000204	0.003540	0.000000	6719.378572	43572.506328	3921.502109	22999.314681
11.036000	0.000916	-0.000482	0.000673	-0.000874	6729.186742	43628.220247	3916.743741	23039.784858
11.538500	0.000000	0.000106	-0.002015	-0.000125	6714.574094	43613.213712	3908.589837	23005.097262
12.036500	-0.000493	0.000568	-0.000073	0.000505	6704.748334	43597.527870	3911.695666	22975.969617
12.537000	0.001475	0.000263	-0.001316	0.000360	6723.254319	43582.445474	3909.095095	22982.643578
13.036500	-0.004360	-0.000371	0.000199	0.004777	6634.299885	43112.539669	3902.259387	22779.468399
13.537500	0.001184	0.000270	0.004643	-0.000295	6726.450996	43644.495730	3924.851822	23012.950290
14.039000	-0.000407	-0.000099	0.003699	0.002098	6691.603660	43386.368998	3916.872449	22902.446036
14.535000	-0.002571	-0.000826	0.002544	0.001441	6678.502218	43379.885993	3915.686781	22932.729018
15.037000	-0.002577	0.000372	0.001293	0.005341	6644.769783	43129.079228	3903.503960	22753.669387
15.536000	-0.002039	-0.000174	0.004159	-0.000828	6702.881139	43652.829854	3924.969634	23037.647597
16.038500	0.000274	-0.000072	0.007003	-0.000624	6721.353279	43643.354572	3931.329760	23028.225142
16.536500	-0.001346	-0.000093	0.005514	0.000011	6701.620531	43581.902233	3926.212175	22998.823101
17.036500	-0.002460	-0.000216	-0.001623	0.002829	6667.436503	43307.546581	3902.553226	22868.814748
17.537500	-0.001162	0.000344	0.008973	-0.001411	6715.658214	43756.195629	3938.009718	23064.710507
18.037000	-0.000735	0.000111	0.003832	0.001115	6697.311423	43497.746593	3919.536951	22947.798838
18.534500	0.000998	0.000102	0.002153	0.001677	6707.537688	43444.452026	3914.198100	22921.864915
19.035000	-0.001647	0.000018	-0.002030	0.003145	6671.739979	43299.900866	3900.855983	22854.294440
19.535000	-0.001309	0.000363	-0.000022	0.001513	6688.841826	43484.002139	3909.429507	22929.396414
20.035500	-0.002196	-0.000443	0.001402	0.001036	6685.276759	43453.419919	3913.937243	22951.436940
20.536000	0.000384	0.000343	0.001907	0.001366	6704.882181	43495.919388	3914.351371	22936.174873
21.036000	-0.002659	-0.000399	0.004638	0.001862	6674.092860	43380.499986	3919.677450	22913.322827
21.537000	-0.001486	-0.000258	0.003847	0.001109	6690.820190	43463.877093	3919.585718	22948.075099
22.036500	-0.000560	-0.000450	0.002872	0.000795	6701.629079	43475.265987	3918.009280	22962.565207
22.537000	-0.002576	-0.000835	0.003131	0.000514	6686.512761	43465.529485	3919.298402	22975.551587
23.040500	-0.001124	-0.000028	0.003799	0.001985	6686.348972	43403.584918	3917.383422	22907.678502
23.535000	-0.003545	0.000190	0.003752	0.001378	6670.609712	43480.549368	3918.716198	22935.639827
24.035000	-0.001837	-0.000345	0.009149	0.001145	6687.453448	43452.293117	3932.239766	22946.394193
24.535500	-0.001571	0.000021	0.008486	0.001061	6690.499479	43494.321672	3930.841164	22950.264395
25.038500	-0.000039	0.000380	0.007610	0.001509	6699.941286	43486.038946	3927.647890	22929.586187
25.536000	-0.001468	-0.000462	0.001362	0.000853	6693.210620	43468.688645	3914.275493	22959.878464
26.036500	-0.000094	-0.000485	0.002884	0.001107	6702.979610	43442.876283	3917.293566	22948.152827
26.536500	-0.000240	0.000034	0.007770	0.001173	6701.122988	43485.045757	3928.844298	22945.083156
27.037000	-0.000374	0.000030	0.005373	0.000960	6701.810902	43504.626262	3923.594030	22954.925481
27.537000	0.001496	-0.000112	0.004821	-0.002464	6748.322240	43812.400788	3930.503379	23113.674458
28.034500	-0.000694	0.000684	0.002342	0.000008	6707.337732	43654.936406	3918.621832	22998.959577
28.535000	0.001546	0.000104	0.006126	-0.000533	6731.728708	43651.194088	3928.993439	23023.975533
29.035500	0.001183	0.000358	0.005151	-0.000310	6726.575950	43654.195043	3926.108944	23013.659109
29.535500	-0.001009	-0.000354	0.002766	-0.000850	6712.082623	43638.034697	3921.684988	23038.678792
30.041500	0.000045	0.000180	0.004617	-0.000629	6719.391862	43667.446664	3925.594734	23028.459502
30.547000	-0.003705	-0.000307	0.000955	0.005064	6637.452095	43091.894818	3903.359932	22766.327013
31.036500	-0.001376	0.000621	0.005076	0.002953	6675.749377	43373.874688	3918.117245	22863.103731
31.546500	-0.000160	0.000362	0.003578	-0.000032	6712.356494	43628.483060	3921.672371	23000.805868
32.037500	-0.000276	-0.000030	0.000149	-0.000709	6717.271252	43655.182977	3915.105403	23032.153642
32.540000	-0.002907	0.000097	-0.001020	0.005647	6639.294536	43075.300180	3897.363602	22739.649284
33.035000	-0.003491	0.000238	0.001880	0.004420	6644.823095	43202.034922	3907.056228	22795.823564
33.537500	0.000763	-0.000256	0.002965	-0.002125	6738.865314	43766.986570	3925.218855	23097.919099
34.036000	-0.004466	0.000371	0.001526	0.001575	6660.938353	43479.033610	3912.950377	22926.562547
34.536000	-0.001524	-0.000297	0.001152	0.003110	6673.111706	43273.878426	3908.429198	22855.882396
35.036000	-0.002234	0.000409	0.003773	0.002615	6671.249551	43385.551335	3915.817657	22878.644318
35.536000	-0.002677	0.000439	0.003148	0.002033	6672.446768	43442.574706	3915.716010	22905.438545
36.036500	-0.000584	0.000497	0.006369	0.002333	6688.015964	43420.093440	3922.691012	22891.634938
36.537000	-0.001975	0.000719	0.004119	0.003231	6668.155495	43357.087440	3915.176634	22850.347984
37.037000	0.000358	0.000363	0.004843	0.001952	6699.544289	43443.154440	3919.952198	22909.198864
37.535000	-0.002337	0.000172	0.002763	0.001770	6677.686287	43442.330826	3915.427198	22917.578607
38.035000	-0.000252	-0.000353	0.001006	0.001634	6696.995011	43406.001946	3911.577028	22923.819858
38.535000	-0.001289	0.000271	0.006701	0.002004	6684.748978	43429.704514	3924.274662	22906.789138
39.035500	-0.001166	0.000525	0.002806	0.002363	6682.700355	43419.892390	3914.118091	22890.245149
39.536000	-0.001879	-0.000594	0.002333	0.001153	6687.015047	43428.323908	3915.869419	22946.008799
40.036000	-0.000029	0.000056	-0.000388	0.002048	6695.331725	43405.569905	3907.300113	22904.755595
40.536500	-0.002600	0.000014	-0.000214	0.001829	6674.887002	43422.045084	3908.230620	22914.859136
41.036000	-0.000105	0.000935	0.002211	0.003036	6686.067097	43395.328724	3911.109622	22859.291552
41.536500	-0.001544	-0.000305	0.002466	0.001103	6690.375118	43460.006545	3916.308646	22948.349045
42.037500	-0.002326	0.000258	0.005008	0.001658	6678.752225	43460.745307	3921.050196	22922.745556
42.537500	-0.000595	0.000630	0.003600	0.002251	6688.632087	43440.065777	3916.273633	22895.404193
43.035000	-0.001585	0.000529	0.001514	0.003457	6669.575889	43318.395640	3908.464813	22839.950555
43.535000	-0.000852	0.000342	0.007132	0.000708	6699.839357	43557.318755	3928.426486	22966.580279
44.036000	0.002048	0.000045	0.008434	-0.003325	6760.831423	43908.327850	3941.358537	23153.796390
44.536000	0.001413	-0.000039	0.005822	-0.000685	6731.896944	43652.111782	3928.626561	23031.038884
45.036500	-0.004117	-0.000790	0.004402	0.004621	6637.716826	43088.106467	3912.547145	22786.577835
45.536500	-0.000804	-0.000082	0.005469	-0.000582	6711.543873	43638.436361	3927.529252	23026.287047
46.037000	0.000498	-0.000025	0.007617	-0.000179	6719.417802	43606.047957	3931.738174	23007.619192
46.537000	-0.002826	-0.000695	0.003010	0.004623	6648.803638	43096.757951	3909.245888	22786.510181
47.034500	-0.001638	0.000569	-0.000942	0.005896	6648.064586	43095.935985	3896.963898	22728.309310
47.535000	-0.000180	-0.000580	0.010824	0.001985	6694.570538	43352.177761	3934.262109	22907.663067
48.035000	0.000419	-0.000188	0.006612	0.000477	6712.971629	43529.346502	3927.730086	22977.235982
48.535500	-0.004934	-0.000043	0.001974	0.005324	6624.698390	43092.321677	3905.146652	22754.449526
49.038500	-0.002230	0.000047	0.003228	0.005693	6644.713803	43066.443909	3907.230913	22737.548393
49.536000	0.000626	0.000381	0.001500	-0.002095	6737.384840	43824.075933	3921.635929	23096.524742
50.036500	0.002605	0.000551	0.005521	-0.000100	6737.239727	43652.588354	3926.493173	23003.928116
50.537000	-0.002587	-0.000670	0.002842	-0.000064	6691.454001	43534.933896	3919.987745	23002.295068
51.037000	-0.009768	-0.000027	0.003654	0.041387	6290.851903	39893.704026	3827.289771	21172.429207
51.537000	-0.018801	-0.011483	-0.004322	0.314405	4675.917922	22132.221119	3377.094696	12645.288849
52.035000	-0.024159	-0.019524	0.003222	-0.017097	6652.136089	43365.083695	3962.440653	23806.332595
52.535000	-0.034950	-0.056337	-0.002137	-0.224454	8794.185523	62810.561464	4602.111151	36599.883050
53.035000	-0.002123	-0.045769	0.030964	-0.214693	9115.151277	62921.906228	4697.066109	35850.910886
53.535500	0.010091	-0.014983	0.044866	-0.117431	8011.577037	54408.062741	4380.123393	29239.545222
54.036000	0.038330	0.005264	0.065400	-0.044542	7513.133160	48532.093196	4210.011361	25170.046516
54.536500	0.059728	0.021767	0.085815	0.003999	7234.243496	45289.440086	4126.751852	22815.085183
55.039000	0.097784	0.042894	0.115017	0.053514	7121.641436	42609.435652	4069.883994	20669.274032
55.537000	0.131864	0.062704	0.141831	0.080897	7187.094245	41923.611444	4068.329126	19583.531942
56.037000	0.159066	0.080616	0.165995	0.125451	7019.572764	39603.725576	4013.932168	17956.917538
56.534500	0.183778	0.094121	0.189926	0.167268	6860.854980	37289.403536	3968.271474	16574.794870
57.034500	0.202430	0.106250	0.210631	0.187584	6845.745431	36647.925741	3969.245946	15949.874791
57.535500	0.215398	0.115867	0.219949	0.235374	6542.495869	33811.152731	3877.099362	14590.148050
58.035000	0.230493	0.125168	0.225415	0.233685	6685.627707	34602.396678	3893.623807	14635.682001
58.535500	0.234439	0.125189	0.243546	0.272937	6390.827732	31867.168007	3845.615205	13621.586910
59.038500	0.240425	0.130253	0.249317	0.292113	6286.699172	30942.143168	3816.336563	13158.514143
59.536000	0.250467	0.137137	0.263069	0.261411	6618.832569	33474.064476	3917.010090	13909.933914
60.037000	0.257599	0.142557	0.274552	0.313092	6257.244768	30388.237253	3825.533398	12674.779838
60.536500	0.262123	0.147155	0.273613	0.343939	6060.389736	28778.101205	3758.963378	12004.635851
61.039500	0.268850	0.149458	0.284941	0.355130	6028.167816	28254.561793	3759.240158	11773.040975
61.534500	0.271621	0.151545	0.284263	0.354573	6052.159572	28409.169196	3758.995155	11784.427485
62.034500	0.277671	0.156408	0.283382	0.379015	5921.864346	27286.225552	3709.336356	11298.267416
62.535000	0.278743	0.158626	0.287380	0.339362	6217.971126	29750.954507	3796.788124	12101.103039
63.037500	0.279964	0.159054	0.292211	0.343625	6194.874552	29515.161786	3797.982364	12011.217611
63.536000	0.284562	0.161172	0.286634	0.349917	6182.090856	29260.898313	3773.295821	11880.178033
64.036000	0.284644	0.162281	0.291955	0.356655	6132.325477	28921.913731	3770.394578	11741.943592
64.539500	0.284476	0.163979	0.294060	0.363716	6079.131745	28602.978847	3760.315916	11599.360635
65.042500	0.282251	0.161928	0.286015	0.372964	5996.502779	27943.737167	3726.042164	11416.089598
65.537000	0.287817	0.163133	0.296154	0.373915	6029.481093	27958.437913	3744.082315	11397.473748
66.040500	0.288354	0.162575	0.295774	0.379085	5996.381630	27630.525633	3733.139109	11296.924468
66.537500	0.286431	0.161862	0.294839	0.382912	5955.786558	27373.713644	3723.860009	11223.257162
67.035000	0.284885	0.162335	0.296685	0.393230	5873.703012	26825.933897	3707.602000	11027.856169
67.535500	0.287382	0.162523	0.294290	0.391235	5904.519459	26946.339864	3706.844215	11065.287179
68.036500	0.287818	0.161330	0.297846	0.394123	5887.657442	26721.745770	3708.112749	11011.169935
68.536000	0.286176	0.161754	0.298256	0.397883	5850.848194	26539.694506	3701.764948	10941.247033
69.036000	0.283601	0.161158	0.291199	0.405536	5782.401430	26095.608552	3674.474393	10800.816674
69.536500	0.285209	0.160634	0.299101	0.402734	5811.715613	26217.377218	3694.241773	10851.941890
70.039500	0.286851	0.161012	0.300695	0.405187	5806.302572	26106.442577	3692.638362	10807.156618
70.537500	0.286201	0.160444	0.295239	0.410222	5768.637125	25809.414131	3673.297969	10716.033344
71.034500	0.285233	0.160650	0.298720	0.415459	5728.080543	25545.922095	3670.105211	10622.352671
71.537000	0.288843	0.160018	0.305571	0.411059	5780.536558	25742.953693	3690.779895	10700.971911
72.035000	0.290409	0.159712	0.302180	0.412089	5784.086703	25672.884037	3682.592992	10682.496632
72.535500	0.288201	0.158967	0.298960	0.412469	5767.005460	25614.056569	3675.986141	10675.689325
73.035500	0.289220	0.159401	0.296158	0.421146	5717.070512	25187.671786	3655.282675	10521.892880
73.536000	0.292437	0.161137	0.303342	0.416655	5767.337534	25509.069200	3676.343395	10601.112500
74.035500	0.293758	0.159751	0.305049	0.416920	5774.299235	25423.440759	3678.985949	10596.425033
74.537000	0.293273	0.158156	0.295995	0.417157	5769.537940	25328.766769	3662.123427	10592.224457
75.040000	0.293741	0.158819	0.303974	0.418342	5764.822496	25301.849303	3674.418792	10571.262740
75.540000	0.295649	0.159751	0.304187	0.419645	5768.798987	25282.754799	3672.432220	10548.289140
76.034500	0.295021	0.160190	0.302194	0.420366	5759.931554	25268.248933	3667.509151	10535.597221
76.535000	0.294119	0.160279	0.313111	0.423452	5733.887321	25114.673886	3681.797337	10481.545524
77.035000	0.294965	0.159539	0.302378	0.421342	5753.172774	25184.736786	3666.079530	10518.463026
77.535500	0.295126	0.158196	0.303930	0.419114	5768.849038	25230.106142	3672.929818	10557.634142
78.035500	0.297908	0.159077	0.313145	0.420522	5777.913216	25203.052225	3687.272847	10532.854501
78.536000	0.296520	0.158507	0.306057	0.422581	5755.242000	25068.693227	3670.495000	10496.761268
79.036500	0.301821	0.158605	0.305198	0.419582	5810.138644	25227.081108	3674.389718	10549.400469
79.539500	0.301647	0.160087	0.308036	0.420669	5801.729424	25247.321824	3677.589086	10530.267177
80.043000	0.301857	0.158714	0.307806	0.419688	5809.670449	25227.248285	3678.964535	10547.524132
80.537500	0.302329	0.157487	0.306838	0.419641	5813.138181	25166.738469	3677.276381	10548.348882
81.034500	0.302275	0.158824	0.304972	0.418821	5818.263024	25277.439979	3675.365618	10562.808218
81.535000	0.302172	0.158352	0.308464	0.418521	5819.582180	25268.612950	3682.320790	10568.100455
82.035500	0.300396	0.157648	0.307446	0.417087	5817.292839	25306.168170	3683.086837	10593.459898
82.535500	0.301180	0.158771	0.304574	0.419591	5805.798902	25235.136599	3673.233882	10549.228019
83.036000	0.300284	0.157619	0.311754	0.422113	5783.100708	25047.239613	3681.763976	10504.942745
83.537000	0.301812	0.158161	0.314928	0.416938	5827.789023	25340.343549	3697.282465	10596.110332
84.036000	0.303099	0.158094	0.309870	0.417064	5835.603513	25330.360476	3687.612148	10593.875492
84.537000	0.306297	0.159637	0.311173	0.419357	5841.700417	25291.665160	3685.776885	10553.350989
85.037000	0.304373	0.160265	0.310709	0.418153	5836.850533	25386.202662	3687.148134	10574.606472
85.537000	0.304892	0.157613	0.309328	0.416056	5854.532780	25357.520705	3688.475574	10611.745550
86.035000	0.302530	0.156489	0.313285	0.415123	5844.859742	25347.663737	3697.605086	10628.328972
86.535500	0.304338	0.157305	0.308294	0.416714	5846.323417	25307.747612	3685.342168	10600.078418
87.035500	0.301713	0.156840	0.308355	0.420213	5805.208767	25104.463357	3679.008724	10538.291274
87.536000	0.305937	0.157365	0.313212	0.416409	5859.227917	25326.552532	3695.058240	10605.485258
88.036500	0.308238	0.157473	0.309246	0.417194	5869.533137	25291.607463	3686.214838	10591.559763
88.536500	0.305338	0.156233	0.314141	0.417862	5845.322007	25193.658701	3694.077605	10579.744605
89.036500	0.306334	0.156475	0.313709	0.419573	5840.499742	25118.470349	3690.082806	10549.558935
89.537000	0.308121	0.155495	0.319173	0.417534	5866.430385	25172.661260	3704.160244	10585.555881
90.034000	0.306610	0.154225	0.307691	0.417285	5857.844826	25120.439333	3683.174370	10589.955386
90.535000	0.309011	0.155082	0.313679	0.418317	5867.156887	25111.490428	3692.365937	10571.705409
91.035000	0.310203	0.156087	0.317485	0.419166	5869.488126	25119.426166	3697.900198	10556.720291
91.535500	0.308013	0.153902	0.319591	0.418885	5856.505610	25022.407348	3702.394559	10561.674991
92.038000	0.309590	0.154577	0.314313	0.419492	5863.102824	25025.881689	3691.357813	10550.988547
92.536000	0.308429	0.154116	0.318652	0.420589	5847.782943	24946.732134	3697.418007	10531.675885
93.035500	0.311785	0.154822	0.316784	0.421768	5862.543372	24922.798887	3691.720472	10510.988320
93.553500	0.309353	0.153030	0.318285	0.421053	5850.897504	24868.305283	3695.861107	10523.529266
94.037000	0.310607	0.153680	0.316804	0.422520	5849.449490	24827.103785	3690.356746	10497.818331
94.537000	0.311411	0.151934	0.308883	0.421956	5858.728645	24767.583166	3676.783069	10507.691574
95.037500	0.305213	0.150122	0.311052	0.426684	5785.470041	24441.278564	3672.116054	10425.335210
95.534500	0.311770	0.152035	0.313443	0.424314	5845.190185	24654.455675	3680.822865	10466.517452
96.038000	0.308909	0.152211	0.320190	0.425095	5820.672674	24624.178584	3691.866842	10452.914600
