sample name	sample
index	1414
start time	 05-10-2021  11:47:10 AM
880	0.374096
Peak Time (s)	92.037
Peak Height 	0.3741
calc peak height	90,93
Baseline Time (s)	10.037
Baseline Value 	-0.004342
subtract baseline	10,4
Abs	0.249055
Peak Time (s)	91.537
Peak Height 	0.2491
calc peak height	90,93
Baseline Time (s)	8.536
Baseline Value 	0.003867
subtract baseline	10,3
PK_550	0.141734
Peak Time (s)	91.039
Peak Height 	0.1417
calc peak height	90,93
Baseline Time (s)	10.037
Baseline Value 	4.3092E-4
subtract baseline	10,2
PK_880	0.238509
Peak Time (s)	90.539
Peak Height 	0.2385
calc peak height	90,93
Baseline Time (s)	10.537
Baseline Value 	0.002071
subtract baseline	10,1


Time (s)	A880-A510	A880-A775	A880-A975	A880	I510	I775	I975	I880	
0.036000	-0.000852	-0.000246	-0.000438	0.002480	6495.263217	44212.115793	3930.138601	22594.388940
0.537000	-0.002677	0.001054	-0.001700	0.008330	6431.424235	43782.012606	3912.031954	22330.342391
1.037500	-0.002166	-0.000133	-0.005984	0.004758	6465.236613	44006.879272	3910.233579	22491.123649
1.537500	-0.002686	0.000277	-0.001134	0.002071	6483.325344	44300.798162	3929.402610	22612.991102
2.035000	0.000529	0.000304	-0.002453	0.001942	6511.412715	44315.737021	3926.355755	22618.871682
2.538000	-0.004171	-0.000353	-0.006897	0.006082	6437.643327	43861.186807	3904.609618	22431.392127
3.035500	0.001011	0.000532	0.000178	-0.000287	6534.327317	44550.386387	3938.855861	22720.520682
3.536000	-0.002150	0.000170	-0.003793	0.000861	6497.958645	44405.995354	3925.689479	22668.083832
4.036000	0.001411	0.000311	-0.000350	0.000944	6527.288935	44411.553597	3934.313646	22664.303571
4.536500	-0.002933	0.000009	-0.001767	0.005577	6452.062591	43942.954057	3918.834233	22454.145473
5.037000	-0.000044	0.000215	0.000507	0.000801	6516.195058	44416.053739	3936.895350	22670.830676
5.537000	-0.002549	-0.000006	0.001040	0.000630	6496.552234	44411.224261	3938.715139	22678.635633
6.037500	0.000492	-0.000362	-0.005597	0.000240	6525.465714	44414.476000	3922.670580	22696.437892
6.534500	-0.000539	0.000023	-0.004612	0.000313	6516.137744	44444.252257	3924.997210	22693.090401
7.037500	-0.000908	0.000646	0.000347	0.000729	6509.512861	44464.098359	3936.667630	22674.110726
7.535500	-0.004208	-0.000603	-0.000683	-0.000446	6491.656647	44457.009545	3937.042459	22727.818814
8.035500	-0.001400	-0.001407	-0.003423	-0.000942	6519.466540	44427.574525	3931.262437	22750.524967
8.535500	0.001644	0.000292	0.000000	0.000562	6532.492831	44446.180298	3936.202479	22681.730509
9.036000	-0.001126	-0.000453	0.002192	-0.000563	6518.579213	44482.579474	3944.798020	22733.167180
9.536500	-0.000042	0.000675	0.001858	0.000697	6517.090537	44469.900390	3940.658814	22675.574143
10.036500	0.000838	0.000000	-0.001807	0.000000	6530.434821	44472.028165	3932.993419	22707.411786
10.537000	0.000000	-0.000919	-0.002011	-0.001069	6532.387789	44486.389541	3935.223274	22756.325565
11.037500	-0.001018	0.000298	0.001364	0.000085	6514.016194	44492.399637	3940.964549	22703.526088
11.538000	0.000708	-0.000255	-0.003264	-0.000086	6530.058328	44455.879428	3929.472636	22711.344495
12.035000	-0.001349	-0.000481	-0.001971	0.001978	6495.304374	44237.557290	3927.495668	22617.222390
12.535500	0.000393	-0.000453	-0.002919	-0.000332	6529.475259	44460.505108	3930.990081	22722.607436
13.035500	0.001140	0.000489	-0.004699	-0.000770	6539.530027	44592.570491	3927.545709	22742.642877
13.536000	0.000154	0.000265	-0.002682	-0.000283	6527.029244	44524.400092	3931.469880	22720.329550
14.036000	-0.002002	-0.000121	-0.003722	0.003324	6478.573288	44143.932393	3919.593223	22556.093593
14.536500	-0.001464	-0.000006	-0.006242	0.002287	6491.748645	44253.276422	3915.828106	22603.151817
15.034000	-0.000774	-0.000063	-0.001607	-0.000548	6521.426375	44518.464869	3934.919743	22732.469612
15.537000	-0.001367	-0.000153	-0.002950	-0.000498	6515.990309	44504.983449	3931.334115	22730.169524
16.040500	-0.002550	0.000068	-0.004112	0.002517	6480.731944	44238.547752	3920.652437	22592.716184
16.535500	-0.003970	-0.000704	-0.005188	0.004438	6452.914985	43983.190601	3913.051508	22505.624709
17.035000	0.001166	0.000638	0.001073	-0.002454	6554.087585	44768.827068	3946.807745	22819.906446
17.536000	-0.000833	0.000150	-0.005861	0.000553	6511.636733	44433.491437	3921.199336	22682.157323
18.036000	-0.003167	-0.000085	0.001118	0.001853	6481.128644	44287.068944	3935.756040	22622.899838
18.536500	-0.001384	-0.000695	-0.000207	0.000789	6504.999893	44330.351506	3935.083980	22671.374383
19.036500	0.001368	0.000246	-0.002721	0.001457	6522.586683	44356.418533	3926.910383	22640.941506
19.537000	-0.000827	0.000047	-0.004003	0.001242	6505.882328	44357.958443	3924.180744	22650.739312
20.037000	-0.001223	0.000134	-0.003568	0.001705	6498.658170	44322.121094	3924.109600	22629.656943
20.537000	-0.000815	0.000329	0.001276	0.001145	6506.791987	44394.022202	3937.993641	22655.139566
21.035000	0.000471	-0.000220	-0.002949	0.000903	6519.685320	44364.717152	3927.741877	22666.176119
21.535000	-0.002190	0.000191	-0.002798	0.001104	6495.579184	44384.725175	3927.615132	22657.000986
22.035500	0.000283	-0.000244	-0.005435	0.001668	6511.644045	44289.621892	3919.447766	22631.336404
22.536000	-0.002719	-0.000268	-0.000584	0.000922	6492.675498	44358.417272	3933.768710	22665.321316
23.036500	-0.000696	-0.000123	0.000123	0.000917	6509.721513	44372.738163	3935.606831	22665.565422
23.536000	-0.000320	-0.000431	-0.002281	0.000630	6515.306694	44370.675300	3930.156866	22678.629348
24.037000	-0.002686	-0.000090	-0.000694	0.000597	6495.677210	44406.372572	3934.324164	22680.145623
24.537000	-0.000602	-0.000213	-0.005006	0.001053	6509.366316	44351.176882	3922.105658	22659.351246
25.037500	-0.000110	0.000903	0.002118	0.001351	6511.000303	44429.231916	3939.638520	22645.762562
25.535000	-0.002221	0.000330	-0.000188	0.001213	6494.409587	44387.662281	3934.039569	22652.040360
26.034500	-0.000110	-0.000165	0.000506	0.000268	6520.137655	44430.612211	3938.268097	22695.156847
26.535000	-0.001522	0.000864	-0.000647	0.002094	6492.877480	44354.564522	3930.593458	22611.927059
27.035500	0.001071	-0.000068	-0.002851	-0.001625	6546.207234	44621.177155	3934.490140	22781.808188
27.537500	0.000753	-0.000304	0.000145	-0.001088	6538.936731	44547.061864	3940.846427	22757.192306
28.036000	0.000146	-0.000095	-0.003721	-0.000239	6526.588719	44485.791679	3928.691251	22718.326933
28.536500	-0.002262	-0.000342	-0.002023	0.000994	6495.902216	44344.419326	3929.883236	22662.015428
29.039500	0.000314	-0.000034	-0.002816	-0.000272	6528.301413	44494.800716	3931.098958	22719.855994
29.537000	-0.001756	-0.000083	0.001354	-0.000763	6514.952139	44537.138758	3943.140678	22742.328024
30.037500	-0.000399	-0.000825	0.002141	-0.000759	6526.385502	44465.743757	3945.175862	22742.140985
30.535000	-0.003093	0.000036	-0.004689	0.003586	6467.281432	44133.876590	3916.469061	22544.171081
31.034500	-0.002087	-0.000208	-0.000986	0.001609	6492.207946	44298.620474	3930.967014	22634.008858
31.535500	-0.000033	0.000056	0.000680	-0.000121	6524.084402	44488.950948	3939.728754	22712.960969
32.036000	-0.000979	0.000234	-0.002861	0.002760	6491.857047	44231.180451	3923.223779	22581.690497
32.536000	-0.000635	0.000552	-0.000146	0.001869	6502.224719	44346.262167	3932.458777	22622.181756
33.036500	-0.002048	-0.000086	-0.001730	-0.000878	6513.452345	44547.825438	3935.453783	22747.578750
33.539000	0.000328	0.000230	-0.006718	0.000676	6520.391021	44429.398983	3918.706954	22676.520154
34.037000	-0.000518	0.000239	-0.002741	0.002875	6494.752926	44220.645548	3923.233470	22576.436670
34.536500	-0.000590	0.000564	-0.006857	0.002226	6499.602316	44313.453130	3914.426355	22605.953108
35.035000	-0.000404	0.000022	-0.003308	0.001888	6504.005004	44293.995819	3924.306886	22621.314021
35.535000	-0.000579	0.000026	-0.000498	0.001901	6502.421661	44293.083672	3931.470706	22620.708166
36.035000	-0.000311	0.000902	0.004394	0.003177	6493.953250	44254.988196	3940.803599	22562.728328
36.535500	-0.000723	0.000464	-0.004357	0.001774	6502.279316	44346.963338	3921.921574	22626.507321
37.035500	-0.000310	0.000785	0.003472	0.002259	6501.676829	44331.356048	3940.795560	22604.455660
37.536000	-0.003271	0.000030	-0.003310	0.001355	6484.423595	44345.552519	3925.663710	22645.592335
38.039000	-0.002501	-0.000603	0.000784	0.001828	6486.905480	44240.199815	3934.958285	22624.030360
38.536500	-0.001289	-0.000037	-0.000865	0.001161	6502.674237	44357.582469	3932.432250	22654.423767
39.036500	-0.002271	-0.000241	-0.000337	0.000864	6496.917362	44366.473183	3934.555276	22667.973194
39.537500	-0.001224	-0.000017	-0.003988	0.001455	6500.750173	44331.545765	3923.676983	22641.028414
40.037500	-0.001659	0.000128	0.002849	0.002792	6485.887864	44218.017746	3937.802275	22580.213625
40.535000	-0.002288	0.000163	-0.004903	0.001496	6491.472650	44344.718302	3921.238325	22639.138268
41.035500	-0.000355	0.000493	0.001126	0.001745	6505.621550	44352.507884	3936.055973	22627.826233
41.535500	-0.002491	-0.000033	-0.001435	0.001276	6491.614847	44346.966652	3930.670094	22649.161523
42.036000	-0.001517	0.000519	0.003151	0.002667	6488.114011	44267.114937	3938.904094	22585.875431
42.536000	-0.000669	0.000965	-0.006751	0.002270	6498.567901	44347.379539	3914.580452	22603.930542
43.037000	-0.000678	-0.000083	-0.003076	0.001301	6506.634078	44339.870019	3926.399565	22648.031756
43.537000	0.002297	0.001045	-0.001202	-0.002427	6563.506813	44805.412481	3940.826597	22818.655058
44.037000	-0.003503	0.000441	-0.002136	0.002786	6470.535176	44248.390968	3925.005852	22580.505917
44.537500	0.000584	0.000833	-0.000534	0.001678	6514.090999	44391.280929	3931.952158	22630.858694
45.034500	0.000338	0.001325	0.000618	0.000324	6523.460373	44567.874934	3938.414758	22692.626194
45.535500	0.000432	0.000705	0.001681	-0.000324	6529.731788	44570.482046	3942.848406	22722.210280
46.035500	-0.001417	0.000204	-0.000082	0.002654	6489.065124	44238.376877	3930.605405	22586.462666
46.536000	0.000177	-0.000176	-0.003088	0.000143	6523.629053	44441.587815	3929.336336	22700.899994
47.036000	-0.001677	-0.000547	-0.001013	0.001432	6497.137279	44283.269039	3931.355305	22642.085325
47.536500	0.001183	0.001664	-0.004302	0.003177	6506.506011	44327.520418	3918.489304	22562.723333
48.039500	-0.001474	0.000270	-0.000786	0.003074	6485.067782	44204.713848	3927.723097	22567.401955
48.537000	-0.001223	0.000823	-0.000927	0.000840	6505.930353	44470.364767	3933.097408	22669.058806
49.037000	-0.000495	0.000332	-0.002054	-0.000338	6522.009691	44536.140497	3933.228663	22722.865588
49.535000	0.002076	0.000652	0.000457	-0.002448	6561.796737	44769.564091	3945.188342	22819.622632
50.035000	-0.000823	-0.000369	0.000672	0.002474	6495.558531	44201.036899	3933.009428	22594.678558
50.535500	0.001278	0.000192	-0.003640	-0.004636	6573.700715	44936.326306	3940.232825	22920.452808
51.036000	0.033673	-0.030062	0.129044	0.614525	3814.580576	12354.541666	3182.263071	7680.212755
51.536000	-0.018259	-0.031142	-0.019613	-0.034316	6661.679085	44776.738673	3976.304572	24339.437752
52.036000	-0.021260	-0.093621	-0.040964	-0.269638	9357.575378	65227.404681	4715.546020	39788.283890
52.536500	-0.011595	-0.099437	-0.027540	-0.277470	9625.073923	65517.131653	4810.860333	40460.228862
53.036500	-0.006629	-0.055510	-0.012296	-0.215083	8786.049532	62913.101446	4605.586783	35428.769189
53.537000	-0.007111	-0.037066	-0.002271	-0.160049	8073.784057	58067.198476	4429.329814	31552.201917
54.034500	-0.004567	-0.021137	-0.002375	-0.103965	7467.943695	53198.616503	4233.450852	28076.006266
54.534500	-0.003505	-0.022624	-0.001760	-0.130483	7770.708512	56180.506656	4324.883511	29663.822822
55.035000	0.006463	-0.027456	0.003542	-0.167199	8329.078171	60236.112763	4478.232258	32028.503026
55.538500	0.020728	-0.019210	0.022461	-0.142211	8195.472677	58069.507874	4455.161296	30397.557496
56.036000	0.035925	-0.004033	0.043718	-0.064357	7477.360749	50660.692607	4254.788353	25877.899791
56.536000	0.045118	0.008633	0.052823	0.019290	6748.394821	43465.309061	4027.748973	21845.061337
57.036000	0.062338	0.019270	0.075037	0.069145	6466.218013	39966.156012	3952.985216	19785.944421
57.536500	0.076933	0.028955	0.091966	0.109654	6256.777067	37429.328925	3892.860755	18278.413721
58.037000	0.095355	0.039599	0.112710	0.151537	6077.641784	35035.627769	3841.665334	16860.768059
58.537500	0.114599	0.051849	0.129640	0.178898	6017.881569	33938.084295	3817.306300	16005.817207
59.034500	0.130278	0.064885	0.140753	0.186772	6075.317660	34308.654394	3824.806564	15769.579208
59.535000	0.148555	0.075529	0.156038	0.207431	6057.687242	33593.614748	3812.392406	15169.803795
60.038000	0.160521	0.083446	0.170187	0.258442	5781.918660	30697.972431	3731.250879	13805.426232
60.535500	0.165087	0.084293	0.182186	0.257906	5816.558284	30786.485757	3758.073892	13818.946842
61.036000	0.171586	0.090426	0.187682	0.264366	5816.820741	30765.516075	3755.983623	13657.097423
61.536000	0.178433	0.096737	0.195614	0.296454	5649.334439	29162.065877	3705.090166	12888.012893
62.039000	0.187827	0.106419	0.196629	0.292990	5733.436716	29967.894060	3714.312771	12968.315537
62.536500	0.185632	0.108573	0.198354	0.288898	5746.055733	30359.440544	3726.435258	13064.019824
63.044000	0.193204	0.110104	0.202877	0.284113	5829.630476	30761.121658	3746.175510	13177.100633
63.537000	0.193564	0.113209	0.202628	0.284501	5829.434324	30935.672320	3744.808702	13167.868737
64.038000	0.197522	0.115105	0.202748	0.291266	5810.244971	30623.603226	3730.696544	13008.536315
64.538000	0.199603	0.118008	0.209031	0.291067	5825.823209	30822.038740	3744.462052	13013.178177
65.035500	0.202454	0.119704	0.208321	0.293956	5825.564111	30745.579994	3736.794608	12945.860288
65.536000	0.205585	0.121674	0.214327	0.298347	5816.944559	30590.973927	3740.227946	12844.384975
66.036500	0.208013	0.123084	0.216357	0.301995	5808.625065	30448.851330	3736.787171	12760.848635
66.536500	0.209806	0.124646	0.217595	0.305080	5799.838513	30352.584037	3732.877425	12690.764532
67.036000	0.215179	0.127352	0.220722	0.308314	5814.399332	30319.218190	3732.648792	12617.800209
67.537000	0.215102	0.128603	0.219644	0.310619	5798.184022	30252.882613	3725.530657	12566.142328
68.037000	0.216876	0.129926	0.219059	0.318151	5759.359997	29865.141949	3708.676018	12399.233345
68.537500	0.219031	0.130002	0.226652	0.316361	5785.900488	29981.062899	3728.188170	12438.633521
69.038000	0.220686	0.133123	0.229588	0.321091	5765.195431	29881.162566	3724.426738	12334.878910
69.535500	0.223807	0.135102	0.231752	0.325162	5758.825298	29751.651741	3720.442904	12246.446496
70.035500	0.225432	0.135127	0.228692	0.327387	5754.811306	29616.133367	3709.492932	12198.470543
70.536000	0.225487	0.135423	0.228984	0.330887	5731.869035	29420.139838	3702.913503	12123.516747
71.036500	0.225811	0.137267	0.235165	0.334202	5712.085051	29330.544609	3708.788717	12053.050441
71.536500	0.228854	0.137766	0.240820	0.337140	5712.777955	29182.797868	3714.398117	11991.068644
72.037000	0.221121	0.136211	0.235223	0.342697	5626.510699	28756.526337	3691.598530	11874.946561
72.537000	0.229676	0.138975	0.242766	0.343632	5675.648096	28865.477547	3705.034945	11855.559387
73.034500	0.231748	0.139215	0.244183	0.345134	5679.362821	28790.212218	3704.861086	11824.497290
73.537500	0.230224	0.140307	0.245560	0.347394	5654.816900	28720.808740	3703.053244	11777.954767
74.035500	0.227276	0.140121	0.240564	0.352718	5601.910873	28395.820639	3682.207266	11669.283896
74.535500	0.233141	0.140703	0.239014	0.349637	5659.176010	28611.424043	3685.268390	11732.019994
75.035000	0.232609	0.139812	0.236776	0.349515	5656.528260	28565.997209	3681.039707	11734.506097
75.536000	0.232897	0.142224	0.243208	0.351242	5647.240756	28606.434896	3690.468618	11699.270882
76.036500	0.234091	0.143189	0.245105	0.356118	5623.625641	28376.312790	3684.486782	11600.564432
76.536500	0.232654	0.143771	0.244964	0.351838	5641.848812	28662.689109	3692.812376	11687.158888
77.037000	0.235226	0.142937	0.246472	0.350764	5665.377413	28676.896016	3698.042281	11709.009634
77.537500	0.235120	0.145915	0.244574	0.352760	5651.788705	28735.182440	3690.165381	11668.437968
78.035000	0.232758	0.144680	0.246531	0.355872	5616.694376	28478.229696	3687.839577	11605.517025
78.535000	0.234684	0.144991	0.240722	0.351536	5656.871995	28752.998913	3684.886417	11693.296719
79.038000	0.237831	0.146028	0.244508	0.353109	5667.059771	28721.144283	3689.328550	11661.347633
79.535500	0.238011	0.147191	0.241566	0.353544	5665.407997	28764.422121	3682.557755	11652.540145
80.035500	0.234156	0.146161	0.247385	0.357862	5612.925252	28448.329787	3685.558924	11565.527025
80.536000	0.234395	0.146344	0.247610	0.353502	5642.345614	28716.602228	3694.797898	11653.399821
81.037000	0.238354	0.145909	0.248067	0.354415	5661.990365	28636.746833	3693.874828	11634.929591
81.536000	0.239202	0.145974	0.249661	0.355227	5662.225104	28592.555109	3695.456670	11618.523347
82.040000	0.239166	0.145473	0.245342	0.360869	5625.702920	28232.310950	3675.500023	11505.465458
82.538000	0.236747	0.145095	0.243389	0.356212	5640.034682	28482.653666	3680.872079	11598.671545
83.037500	0.238876	0.146284	0.246212	0.357723	5644.012605	28463.731191	3683.491430	11568.321848
83.535000	0.240838	0.146651	0.242497	0.358935	5648.840453	28414.181891	3673.696468	11544.054151
84.035500	0.235292	0.143957	0.239088	0.360719	5602.005688	28152.839584	3663.494297	11508.447862
84.535500	0.238789	0.144381	0.243106	0.359126	5634.439619	28270.175821	3674.522625	11540.224466
85.036000	0.237914	0.145676	0.245459	0.360759	5618.411122	28250.447182	3675.949096	11507.638723
85.536500	0.236469	0.144735	0.244986	0.361031	5607.486814	28179.859096	3674.473566	11502.226766
86.037000	0.234290	0.143312	0.248372	0.360783	5595.257728	28111.682141	3681.692074	11507.160470
86.539500	0.237523	0.143081	0.255509	0.361339	5612.233880	28066.141873	3694.922251	11496.105540
87.037500	0.239219	0.143924	0.240427	0.362917	5612.978020	28023.659707	3661.816437	11464.774010
87.534500	0.234198	0.142033	0.247633	0.362529	5583.664332	27936.966262	3676.750311	11472.464663
88.035000	0.236757	0.143199	0.248359	0.368321	5563.394069	27672.099351	3666.758647	11358.339454
88.535500	0.236574	0.142479	0.250994	0.365220	5581.680582	27808.080583	3678.078577	11419.250378
89.036000	0.236125	0.142835	0.251364	0.365761	5575.466432	27797.500673	3677.740637	11408.598647
89.535500	0.238803	0.142840	0.248721	0.367514	5581.278447	27697.671129	3669.054327	11374.159877
90.036000	0.236029	0.141460	0.248893	0.371950	5536.311864	27368.337299	3660.711605	11287.613339
90.539000	0.238509	0.141543	0.246422	0.368090	5575.808536	27591.081777	3663.421638	11362.865774
91.039000	0.237903	0.141734	0.246847	0.370281	5558.312855	27477.836804	3659.980037	11320.074520
91.536500	0.238268	0.138816	0.249055	0.369079	5568.100916	27381.076697	3666.636791	11343.520232
92.037000	0.237965	0.140040	0.241376	0.374096	5535.015732	27168.601782	3642.111043	11246.074130
92.534500	0.237608	0.138272	0.245322	0.371331	5549.942124	27224.254508	3654.985978	11299.637347
93.081500	0.237172	0.138879	0.249993	0.373042	5536.627634	27162.601410	3660.728061	11266.454898
93.535500	0.237954	0.138832	0.253088	0.374437	5532.838845	27082.251187	3664.043433	11239.475552
94.035500	0.232629	0.137585	0.249152	0.379132	5471.657446	26754.203572	3647.342066	11149.362592
94.536000	0.237212	0.138857	0.249886	0.377514	5509.355897	26913.231045	3651.861817	11180.314836
95.036000	0.240457	0.138951	0.248791	0.378849	5521.074940	26844.826928	3647.193236	11154.775091
95.536500	0.240964	0.137125	0.251913	0.378824	5524.349683	26745.933243	3653.243876	11155.251779
96.036500	0.235469	0.136491	0.248633	0.384074	5459.000433	26425.535647	3636.945225	11055.549749
