sample name	sample
index	687
start time	 03-22-2021  12:15:13 PM


Wavelength (nm)	Absorbance
494.344910	-0.374607
494.563924	-0.374607
494.782919	-0.374607
495.001897	NaN
495.220856	-0.052388
495.439797	-0.004450
495.658719	-0.019481
495.877624	-0.077555
496.096510	-0.153771
496.315378	-0.199976
496.534227	-0.115269
496.753059	-0.170207
496.971872	-0.120238
497.190667	0.073121
497.409444	0.087786
497.628203	0.090691
497.846943	0.093724
498.065665	0.094378
498.284369	0.096975
498.503055	0.096814
498.721723	0.097397
498.940372	0.097524
499.159003	0.097799
499.377616	0.096837
499.596210	0.096557
499.814787	0.097844
500.033345	0.098308
500.251885	0.097010
500.470406	0.096275
500.688910	0.096007
500.907395	0.096337
501.125862	0.096502
501.344311	0.097391
501.562742	0.097798
501.781154	0.097490
501.999548	0.097186
502.217924	0.097208
502.436282	0.097108
502.654621	0.097123
502.872942	0.096587
503.091245	0.095847
503.309530	0.095532
503.527797	0.096143
503.746045	0.095413
503.964275	0.095000
504.182487	0.095960
504.400681	0.096396
504.618856	0.097375
504.837013	0.097586
505.055152	0.097845
505.273273	0.098688
505.491376	0.098047
505.709460	0.098151
505.927526	0.098308
506.145574	0.097754
506.363604	0.098454
506.581615	0.097469
506.799608	0.097846
507.017583	0.097313
507.235540	0.096428
507.453478	0.097172
507.671399	0.097433
507.889301	0.097442
508.107185	0.097092
508.325050	0.096988
508.542898	0.097572
508.760727	0.097661
508.978538	0.098515
509.196330	0.098793
509.414105	0.098159
509.631861	0.097607
509.849599	0.098098
510.067319	0.098705
510.285021	0.098280
510.502704	0.098954
510.720369	0.099147
510.938016	0.099847
511.155645	0.099504
511.373255	0.099640
511.590848	0.099631
511.808422	0.100275
512.025977	0.100312
512.243515	0.100524
512.461034	0.100253
512.678536	0.100449
512.896018	0.099760
513.113483	0.100155
513.330930	0.100837
513.548358	0.101430
513.765768	0.100959
513.983160	0.101109
514.200533	0.101214
514.417889	0.100817
514.635226	0.100622
514.852545	0.100867
515.069845	0.101114
515.287128	0.100654
515.504392	0.101120
515.721638	0.100720
515.938866	0.101470
516.156075	0.101747
516.373267	0.101468
516.590440	0.101470
516.807594	0.101521
517.024731	0.101295
517.241850	0.101335
517.458950	0.100802
517.676032	0.101418
517.893095	0.101429
518.110141	0.101188
518.327168	0.101484
518.544177	0.102033
518.761168	0.102607
518.978141	0.103349
519.195095	0.103660
519.412031	0.104081
519.628949	0.104563
519.845849	0.104137
520.062731	0.104103
520.279594	0.105002
520.496439	0.104953
520.713266	0.104783
520.930074	0.104423
521.146865	0.104936
521.363637	0.105006
521.580391	0.105087
521.797127	0.106076
522.013844	0.107186
522.230543	0.107009
522.447224	0.107162
522.663887	0.107842
522.880532	0.108226
523.097158	0.108636
523.313766	0.108942
523.530356	0.108579
523.746928	0.108082
523.963481	0.108365
524.180017	0.108629
524.396534	0.108919
524.613032	0.108774
524.829513	0.109134
525.045975	0.108918
525.262420	0.109292
525.478845	0.109600
525.695253	0.110423
525.911643	0.110405
526.128014	0.110406
526.344367	0.110626
526.560702	0.111169
526.777018	0.111264
526.993316	0.111556
527.209597	0.111328
527.425858	0.111245
527.642102	0.110774
527.858328	0.110631
528.074535	0.110699
528.290724	0.110502
528.506894	0.110246
528.723047	0.110520
528.939181	0.110471
529.155297	0.110803
529.371395	0.111301
529.587475	0.111431
529.803536	0.112052
530.019579	0.112708
530.235604	0.113183
530.451611	0.113245
530.667600	0.113806
530.883570	0.114516
531.099522	0.114697
531.315456	0.115000
531.531372	0.115489
531.747269	0.115070
531.963148	0.114804
532.179009	0.115048
532.394852	0.115468
532.610676	0.115582
532.826482	0.115323
533.042271	0.115646
533.258040	0.116320
533.473792	0.116778
533.689525	0.117107
533.905240	0.117286
534.120937	0.117073
534.336616	0.117566
534.552277	0.117462
534.767919	0.117704
534.983543	0.117623
535.199149	0.117390
535.414736	0.116944
535.630306	0.117274
535.845857	0.117743
536.061390	0.118169
536.276904	0.118125
536.492401	0.118107
536.707879	0.118543
536.923339	0.118813
537.138781	0.118718
537.354204	0.119148
537.569610	0.119063
537.784997	0.118957
538.000366	0.118986
538.215716	0.119243
538.431049	0.119786
538.646363	0.119979
538.861659	0.120133
539.076937	0.120366
539.292196	0.120561
539.507438	0.120916
539.722661	0.121368
539.937866	0.121764
540.153052	0.121983
540.368221	0.122288
540.583371	0.122519
540.798503	0.122690
541.013617	0.122527
541.228712	0.122778
541.443789	0.122725
541.658848	0.122571
541.873889	0.122676
542.088912	0.122727
542.303916	0.122609
542.518902	0.122640
542.733870	0.122403
542.948820	0.123046
543.163752	0.123137
543.378665	0.123162
543.593560	0.123701
543.808437	0.123462
544.023295	0.123653
544.238136	0.123629
544.452958	0.123872
544.667762	0.124764
544.882548	0.124786
545.097315	0.125179
545.312064	0.125525
545.526795	0.125742
545.741508	0.125922
545.956203	0.126008
546.170879	0.125912
546.385537	0.125740
546.600177	0.125308
546.814799	0.125844
547.029402	0.125258
547.243988	0.125434
547.458555	0.125100
547.673103	0.125314
547.887634	0.125300
548.102146	0.125870
548.316640	0.126072
548.531116	0.126598
548.745574	0.126157
548.960013	0.126851
549.174435	0.126604
549.388838	0.126844
549.603222	0.127316
549.817589	0.127396
550.031937	0.127183
550.246267	0.127379
550.460579	0.127734
550.674873	0.127918
550.889148	0.127818
551.103405	0.128243
551.317644	0.128763
551.531865	0.128894
551.746068	0.128875
551.960252	0.129180
552.174418	0.129172
552.388566	0.129257
552.602696	0.129709
552.816807	0.129633
553.030900	0.129581
553.244975	0.129339
553.459032	0.129313
553.673070	0.129705
553.887091	0.129882
554.101093	0.130107
554.315077	0.130009
554.529042	0.129938
554.742990	0.130444
554.956919	0.130699
555.170830	0.131112
555.384722	0.131083
555.598597	0.131469
555.812453	0.131835
556.026291	0.131903
556.240111	0.131897
556.453913	0.131834
556.667696	0.131640
556.881461	0.131814
557.095208	0.131912
557.308937	0.132501
557.522647	0.132617
557.736339	0.132695
557.950013	0.133104
558.163669	0.133434
558.377307	0.133472
558.590926	0.133622
558.804527	0.134081
559.018110	0.133853
559.231675	0.133559
559.445221	0.133643
559.658749	0.133439
559.872259	0.133151
560.085751	0.133311
560.299225	0.133733
560.512680	0.134465
560.726117	0.134422
560.939536	0.134692
561.152937	0.135081
561.366319	0.135101
561.579683	0.135205
561.793029	0.135771
562.006357	0.135275
562.219667	0.135608
562.432958	0.135302
562.646231	0.135743
562.859486	0.136059
563.072723	0.136420
563.285941	0.136873
563.499141	0.137162
563.712323	0.137017
563.925487	0.137605
564.138632	0.137633
564.351760	0.137756
564.564869	0.137752
564.777960	0.137931
564.991032	0.137806
565.204087	0.137269
565.417123	0.137585
565.630141	0.137597
565.843140	0.138115
566.056122	0.138068
566.269085	0.138217
566.482030	0.138332
566.694957	0.138032
566.907866	0.137977
567.120756	0.138539
567.333628	0.138679
567.546482	0.138886
567.759318	0.138389
567.972135	0.138770
568.184935	0.139193
568.397716	0.139340
568.610478	0.140114
568.823223	0.140440
569.035949	0.140418
569.248657	0.140527
569.461347	0.140484
569.674019	0.141117
569.886672	0.141183
570.099308	0.141070
570.311925	0.140747
570.524523	0.140480
570.737104	0.140698
570.949666	0.140705
571.162210	0.140334
571.374736	0.140578
571.587244	0.140719
571.799733	0.140591
572.012205	0.140521
572.224658	0.140618
572.437092	0.140574
572.649509	0.140406
572.861907	0.140424
573.074287	0.140895
573.286649	0.140915
573.498993	0.140810
573.711318	0.141234
573.923625	0.141503
574.135914	0.142082
574.348185	0.142056
574.560438	0.142596
574.772672	0.143245
574.984888	0.143075
575.197086	0.143038
575.409266	0.143019
575.621427	0.142849
575.833570	0.142566
576.045695	0.142382
576.257802	0.142804
576.469890	0.142479
576.681961	0.142224
576.894013	0.142754
577.106046	0.143318
577.318062	0.143343
577.530059	0.143374
577.742039	0.143487
577.954000	0.143579
578.165942	0.143785
578.377867	0.143984
578.589773	0.144184
578.801661	0.143886
579.013531	0.143804
579.225382	0.144040
579.437216	0.144145
579.649031	0.144457
579.860828	0.144236
580.072606	0.144059
580.284367	0.144054
580.496109	0.144014
580.707833	0.144381
580.919539	0.144724
581.131227	0.144865
581.342896	0.145245
581.554547	0.145415
581.766180	0.145633
581.977795	0.145805
582.189391	0.146046
582.400969	0.146082
582.612529	0.146356
582.824071	0.146178
583.035595	0.145929
583.247100	0.146017
583.458587	0.146205
583.670056	0.146481
583.881506	0.146480
584.092939	0.146415
584.304353	0.146485
584.515749	0.146421
584.727127	0.146890
584.938486	0.147427
585.149828	0.147335
585.361151	0.147462
585.572456	0.147752
585.783742	0.147735
585.995011	0.147888
586.206261	0.148125
586.417493	0.148386
586.628706	0.148150
586.839902	0.148483
587.051079	0.148649
587.262238	0.148543
587.473379	0.148617
587.684502	0.148943
587.895606	0.149168
588.106692	0.149349
588.317760	0.149150
588.528810	0.149273
588.739841	0.149090
588.950855	0.149469
589.161850	0.149834
589.372827	0.149696
589.583785	0.149861
589.794726	0.149635
590.005648	0.149445
590.216552	0.149713
590.427437	0.149997
590.638305	0.149785
590.849154	0.149785
591.059985	0.149921
591.270798	0.150135
591.481592	0.150206
591.692369	0.150624
591.903127	0.150995
592.113867	0.151095
592.324588	0.151021
592.535292	0.151425
592.745977	0.151388
592.956644	0.151555
593.167293	0.151735
593.377923	0.151947
593.588536	0.152066
593.799130	0.152099
594.009706	0.152094
594.220263	0.152035
594.430803	0.151874
594.641324	0.152051
594.851827	0.152094
595.062312	0.152122
595.272778	0.152041
595.483227	0.152182
595.693657	0.152325
595.904069	0.152648
596.114462	0.153081
596.324838	0.153338
596.535195	0.153237
596.745534	0.153380
596.955855	0.153932
597.166157	0.154268
597.376441	0.154137
597.586707	0.154292
597.796955	0.154526
598.007185	0.154349
598.217396	0.154785
598.427589	0.155061
598.637764	0.155070
598.847921	0.155010
599.058060	0.154985
599.268180	0.154811
599.478282	0.154953
599.688366	0.154832
599.898431	0.154987
600.108479	0.154987
600.318508	0.155023
600.528519	0.155410
600.738511	0.155157
600.948486	0.155433
601.158442	0.155641
601.368380	0.155612
601.578300	0.155447
601.788202	0.155547
601.998085	0.155545
602.207950	0.155776
602.417797	0.155509
602.627626	0.155414
602.837436	0.155486
603.047228	0.155710
603.257002	0.155830
603.466758	0.156403
603.676496	0.156597
603.886215	0.156722
604.095916	0.156658
604.305599	0.157036
604.515264	0.157358
604.724910	0.157343
604.934538	0.157608
605.144148	0.157783
605.353740	0.157706
605.563314	0.157907
605.772869	0.158143
605.982406	0.158171
606.191925	0.158222
606.401425	0.158535
606.610908	0.158601
606.820372	0.158513
607.029818	0.158353
607.239246	0.158328
607.448655	0.158420
607.658047	0.158050
607.867420	0.158481
608.076775	0.158186
608.286111	0.158001
608.495430	0.158165
608.704730	0.158481
608.914012	0.158687
609.123275	0.158559
609.332521	0.158381
609.541748	0.158684
609.750957	0.158636
609.960148	0.158945
610.169321	0.159203
610.378475	0.159370
610.587611	0.159478
610.796729	0.159716
611.005829	0.160177
611.214910	0.160283
611.423974	0.160466
611.633019	0.160451
611.842045	0.160528
612.051054	0.160703
612.260044	0.160750
612.469017	0.160971
612.677970	0.160838
612.886906	0.160658
613.095824	0.160933
613.304723	0.161020
613.513604	0.160957
613.722467	0.161140
613.931311	0.161100
614.140138	0.160845
614.348946	0.160588
614.557736	0.160760
614.766507	0.160940
614.975261	0.161229
615.183996	0.161016
615.392713	0.161048
615.601412	0.161115
615.810092	0.161194
616.018754	0.161547
616.227399	0.161560
616.436024	0.161538
616.644632	0.161687
616.853222	0.161632
617.061793	0.162097
617.270346	0.162450
617.478880	0.162465
617.687397	0.162638
617.895895	0.162910
618.104375	0.163275
618.312837	0.163684
618.521281	0.163698
618.729706	0.163743
618.938113	0.163870
619.146502	0.163855
619.354873	0.163856
619.563226	0.163970
619.771560	0.164063
619.979876	0.164309
620.188174	0.164421
620.396453	0.164571
620.604715	0.164805
620.812958	0.164657
621.021183	0.164668
621.229390	0.164755
621.437578	0.164671
621.645748	0.164554
621.853900	0.164475
622.062034	0.164219
622.270150	0.164382
622.478247	0.164406
622.686326	0.164547
622.894387	0.164782
623.102430	0.164936
623.310454	0.164923
623.518461	0.164890
623.726449	0.164784
623.934418	0.165147
624.142370	0.165263
624.350303	0.165230
624.558218	0.165458
624.766115	0.165532
624.973994	0.165707
625.181855	0.166089
625.389697	0.166351
625.597521	0.166549
625.805327	0.166487
626.013114	0.166587
626.220883	0.166722
626.428634	0.166683
626.636367	0.166752
626.844082	0.166807
627.051778	0.166660
627.259457	0.166684
627.467117	0.166858
627.674758	0.167189
627.882382	0.167323
628.089987	0.167245
628.297574	0.167492
628.505143	0.167548
628.712694	0.167685
628.920226	0.167800
629.127740	0.167828
629.335236	0.167831
629.542714	0.167675
629.750174	0.167561
629.957615	0.167554
630.165038	0.167433
630.372443	0.167398
630.579829	0.167257
630.787198	0.167497
630.994548	0.167544
631.201880	0.167548
631.409194	0.167464
631.616489	0.167502
631.823766	0.167669
632.031025	0.167853
632.238266	0.168288
632.445489	0.168578
632.652693	0.168671
632.859879	0.168940
633.067047	0.169009
633.274197	0.169263
633.481329	0.169415
633.688442	0.169821
633.895537	0.169806
634.102614	0.169702
634.309672	0.169729
634.516713	0.169480
634.723735	0.169481
634.930739	0.169600
635.137724	0.169730
635.344692	0.169719
635.551641	0.169783
635.758572	0.169789
635.965485	0.169834
636.172379	0.169985
636.379256	0.170567
636.586114	0.170697
636.792954	0.170881
636.999775	0.170947
637.206579	0.171023
637.413364	0.170937
637.620131	0.171210
637.826880	0.171261
638.033610	0.171461
638.240323	0.171228
638.447017	0.171204
638.653692	0.171158
638.860350	0.171312
639.066990	0.171457
639.273611	0.171505
639.480214	0.171513
639.686798	0.171734
639.893365	0.171711
640.099913	0.171814
640.306443	0.171863
640.512955	0.172128
640.719449	0.172157
640.925924	0.172407
641.132381	0.172639
641.338820	0.172677
641.545241	0.172862
641.751644	0.172872
641.958028	0.173055
642.164394	0.173265
642.370742	0.173227
642.577071	0.173360
642.783383	0.173299
642.989676	0.173423
643.195951	0.173599
643.402207	0.173632
643.608446	0.173786
643.814666	0.173865
644.020868	0.173944
644.227052	0.174231
644.433218	0.174228
644.639365	0.174254
644.845494	0.174231
645.051605	0.174252
645.257698	0.174228
645.463772	0.174243
645.669828	0.174349
645.875866	0.174463
646.081886	0.174394
646.287888	0.174573
646.493871	0.174942
646.699836	0.175010
646.905783	0.175150
647.111712	0.175281
647.317622	0.175385
647.523514	0.175509
647.729388	0.175657
647.935244	0.175780
648.141082	0.176009
648.346901	0.176038
648.552702	0.176316
648.758485	0.176538
648.964250	0.176631
649.169996	0.176843
649.375724	0.176879
649.581434	0.176843
649.787126	0.177059
649.992800	0.176972
650.198455	0.177073
650.404092	0.176784
650.609711	0.176794
650.815311	0.176882
651.020894	0.176749
651.226458	0.176649
651.432004	0.176903
651.637532	0.176704
651.843041	0.176735
652.048532	0.176649
652.254006	0.176847
652.459460	0.177133
652.664897	0.177176
652.870315	0.177464
653.075716	0.177722
653.281097	0.177643
653.486461	0.178051
653.691807	0.178257
653.897134	0.178639
654.102443	0.178524
654.307734	0.178619
654.513006	0.178867
654.718261	0.179018
654.923497	0.179278
655.128715	0.179557
655.333915	0.179574
655.539096	0.179735
655.744259	0.179816
655.949404	0.180412
656.154531	0.180331
656.359640	0.180410
656.564730	0.180434
656.769802	0.180392
656.974856	0.180444
657.179892	0.180717
657.384909	0.180988
657.589908	0.180926
657.794889	0.180993
657.999852	0.181146
658.204797	0.181383
658.409723	0.181625
658.614631	0.181824
658.819521	0.181947
659.024393	0.181968
659.229246	0.181906
659.434081	0.182041
659.638898	0.182116
659.843697	0.182104
660.048478	0.182053
660.253240	0.181947
660.457984	0.181932
660.662710	0.181770
660.867417	0.181695
661.072107	0.181895
661.276778	0.181819
661.481431	0.181733
661.686066	0.181871
661.890682	0.182020
662.095281	0.182398
662.299861	0.182673
662.504422	0.183030
662.708966	0.183049
662.913491	0.182791
663.117999	0.182907
663.322488	0.183149
663.526958	0.183305
663.731411	0.183560
663.935845	0.183621
664.140261	0.183642
664.344659	0.183670
664.549038	0.184036
664.753400	0.184317
664.957743	0.184686
665.162068	0.184817
665.366375	0.184920
665.570663	0.184959
665.774933	0.185123
665.979185	0.185332
666.183419	0.185588
666.387635	0.185396
666.591832	0.185633
666.796011	0.185858
667.000172	0.185991
667.204315	0.186230
667.408439	0.186299
667.612545	0.186170
667.816634	0.186034
668.020703	0.185954
668.224755	0.186341
668.428788	0.186334
668.632803	0.186443
668.836800	0.186749
669.040779	0.186947
669.244739	0.187270
669.448681	0.187666
669.652605	0.187875
669.856511	0.188307
670.060399	0.188520
670.264268	0.188804
670.468119	0.188841
670.671952	0.189056
670.875767	0.188945
671.079563	0.188961
671.283341	0.188918
671.487101	0.189388
671.690843	0.189341
671.894567	0.189507
672.098272	0.189678
672.301959	0.189742
672.505628	0.189621
672.709278	0.189923
672.912911	0.189934
673.116525	0.190113
673.320121	0.190063
673.523699	0.190463
673.727258	0.190422
673.930799	0.190473
674.134322	0.190461
674.337827	0.190390
674.541314	0.190405
674.744782	0.190443
674.948232	0.190478
675.151664	0.190567
675.355078	0.190245
675.558474	0.190342
675.761851	0.190368
675.965210	0.190594
676.168551	0.190662
676.371873	0.191009
676.575178	0.191277
676.778464	0.191455
676.981732	0.191607
677.184981	0.192040
677.388213	0.192417
677.591426	0.192550
677.794621	0.192709
677.997798	0.193249
678.200956	0.192993
678.404097	0.193314
678.607219	0.193286
678.810323	0.193328
679.013408	0.193529
679.216476	0.193363
679.419525	0.193505
679.622556	0.193574
679.825569	0.193404
680.028563	0.193603
680.231540	0.193264
680.434498	0.193436
680.637438	0.193610
680.840359	0.193450
681.043263	0.193319
681.246148	0.193385
681.449015	0.193495
681.651864	0.193486
681.854694	0.193571
682.057506	0.193911
682.260301	0.194211
682.463076	0.194331
682.665834	0.194477
682.868573	0.194906
683.071295	0.195073
683.273998	0.195149
683.476682	0.195309
683.679349	0.195655
683.881997	0.195853
684.084627	0.195905
684.287239	0.195889
684.489833	0.196073
684.692408	0.196062
684.894965	0.196113
685.097504	0.196370
685.300025	0.196817
685.502527	0.196849
685.705012	0.196970
685.907478	0.197044
686.109925	0.197296
686.312355	0.197355
686.514766	0.197518
686.717159	0.197535
686.919534	0.197616
687.121891	0.197252
687.324230	0.197388
687.526550	0.197289
687.728852	0.197219
687.931136	0.197293
688.133401	0.197362
688.335649	0.197486
688.537878	0.197586
688.740089	0.197616
688.942281	0.197827
689.144456	0.197905
689.346612	0.197975
689.548750	0.198016
689.750870	0.197982
689.952971	0.197883
690.155055	0.197887
690.357120	0.197788
690.559167	0.197595
690.761195	0.197410
690.963206	0.197271
691.165198	0.197495
691.367172	0.197786
691.569128	0.197850
691.771065	0.198193
691.972984	0.198515
692.174885	0.199047
692.376768	0.199542
692.578633	0.200179
692.780479	0.200315
692.982308	0.200469
693.184118	0.200514
693.385909	0.200621
