sample name	sample
index	1230
start time	 04-29-2021  11:06:15 AM
880	0.435812
Peak Time (s)	92.535
Peak Height 	0.4358
calc peak height	90,93
Baseline Time (s)	11.036
Baseline Value 	-0.002633
subtract baseline	10,4
Abs	0.317073
Peak Time (s)	92.535
Peak Height 	0.3171
calc peak height	90,93
Baseline Time (s)	9.537
Baseline Value 	0.002028
subtract baseline	10,3
PK_550	0.173028
Peak Time (s)	92.035
Peak Height 	0.173
calc peak height	90,93
Baseline Time (s)	10.536
Baseline Value 	4.1491E-4
subtract baseline	10,2
PK_880	0.295594
Peak Time (s)	90.538
Peak Height 	0.2956
calc peak height	90,93
Baseline Time (s)	11.036
Baseline Value 	2.6211E-4
subtract baseline	10,1


Time (s)	A880-A510	A880-A775	A880-A975	A880	I510	I775	I975	I880	
0.034500	-0.003019	-0.001361	0.002036	0.005029	6161.368704	43832.940022	3876.021436	22660.775924
0.538000	-0.004216	-0.000601	-0.000944	0.005339	6149.995323	43875.330213	3868.327036	22646.666033
1.036000	-0.001122	-0.000781	-0.002537	0.004088	6182.893052	43976.543770	3867.527852	22703.689786
1.535500	-0.000280	0.000228	0.000859	0.000901	6213.693737	44375.360545	3882.974508	22849.780088
2.039000	-0.000624	-0.000188	0.001937	0.005113	6178.882963	43935.734468	3875.593330	22656.957758
2.536500	-0.000865	0.000518	0.001900	0.001639	6203.548897	44332.675332	3883.693148	22815.871851
3.036500	0.001114	0.000422	-0.002690	-0.000297	6233.669673	44508.599332	3877.434153	22904.992477
3.536500	0.000732	0.000228	-0.003305	0.001215	6219.056926	44345.397189	3872.441144	22835.328604
4.037000	-0.003597	-0.000987	-0.005523	0.004863	6158.253995	43883.918837	3858.808940	22668.361262
4.534500	-0.002090	0.000474	0.000758	0.001454	6195.593544	44346.094222	3881.429779	22824.361988
5.035000	-0.001531	-0.000306	0.001200	0.000108	6210.180006	44400.104259	3885.658238	22886.281065
5.534500	-0.000461	-0.000267	-0.001536	0.000693	6213.903674	44348.020706	3877.816574	22859.348224
6.035500	-0.002107	0.000053	-0.001159	0.000415	6203.411641	44405.089726	3879.360477	22872.152164
6.536000	0.000112	-0.000083	-0.003176	0.000395	6220.598717	44394.045219	3874.666196	22873.085505
7.036000	-0.000957	-0.000128	-0.000717	0.000696	6210.073036	44360.945793	3879.738319	22859.213252
7.536500	0.000580	0.000887	-0.002870	0.001059	6219.090128	44423.265418	3873.826887	22842.524881
8.036500	0.001636	0.000371	-0.003723	0.000424	6232.121064	44434.601504	3873.316292	22871.728450
8.537000	0.000231	-0.000152	-0.001251	-0.000146	6225.681957	44439.217736	3880.466359	22898.018555
9.034000	0.001171	0.000779	-0.002287	0.000709	6226.338694	44446.439358	3876.015652	22858.623642
9.537000	-0.000827	0.000084	0.000000	0.000078	6215.819239	44440.329359	3882.890660	22887.686099
10.038000	0.000817	-0.000761	-0.003758	-0.000737	6234.767776	44437.501678	3875.957573	22925.299069
10.535500	-0.000950	0.000000	0.004089	-0.000084	6216.112182	44447.746502	3892.987792	22895.141856
11.035500	0.000000	-0.000093	0.000712	0.000000	6222.778865	44430.856971	3884.760867	22891.278299
11.536000	-0.001648	0.000693	0.000756	0.000651	6205.121519	44443.772005	3883.322071	22861.282920
12.036500	-0.001591	-0.000170	-0.001535	-0.000081	6211.167483	44431.252921	3879.641922	22895.019249
12.536500	0.000361	0.000301	-0.004099	0.000508	6221.649288	44419.906050	3872.239640	22867.875541
13.037000	-0.002315	0.000582	0.001797	-0.000889	6211.814832	44580.704623	3889.446128	22932.313631
13.537000	0.001228	0.000598	0.001086	-0.000859	6238.892245	44579.345568	3887.685090	22930.924896
14.037500	-0.002475	0.000703	0.001877	0.002387	6185.544458	44278.980312	3881.869229	22781.540711
14.543000	-0.000458	0.000631	0.000093	0.002512	6199.985263	44260.187074	3877.370445	22775.808156
15.035500	-0.002101	0.000587	-0.001195	0.004803	6170.023879	44038.341650	3868.989628	22671.058866
15.535500	-0.000486	-0.000612	0.004556	-0.001548	6230.965252	44529.346923	3897.608381	22962.758202
16.036000	-0.000381	0.000280	-0.000296	-0.001152	6228.718996	44576.923724	3885.101355	22944.453211
16.536500	0.002325	0.000434	0.002993	-0.000737	6246.445068	44551.860690	3891.932864	22925.276026
17.036000	-0.000914	-0.000138	0.006615	0.000346	6213.090312	44393.461548	3898.006811	22875.347420
17.536500	0.001355	0.000804	0.002426	0.001037	6225.230710	44417.386408	3886.362763	22843.520369
18.037500	-0.000902	-0.000347	0.002013	0.000760	6210.001345	44333.957977	3886.042466	22856.273412
18.537000	-0.001037	-0.000209	-0.000914	0.001148	6205.999310	44310.111724	3878.211630	22838.445377
19.037500	-0.003098	-0.000088	-0.000549	0.001820	6185.112084	44257.580823	3877.487722	22807.530373
19.538000	-0.001943	0.000192	-0.003440	0.001020	6200.034474	44360.628323	3872.582693	22844.307970
20.035500	0.000571	0.000067	-0.000627	0.001287	6217.269328	44323.191756	3878.558883	22832.031980
20.535500	-0.002499	-0.000276	0.002469	0.000606	6198.945364	44355.423586	3887.488320	22863.342209
21.036000	0.001097	-0.000549	0.000738	0.001050	6223.140238	44287.025841	3882.337908	22842.944805
21.536500	-0.001059	-0.000426	-0.000890	0.000861	6208.025501	44316.832311	3878.942888	22851.641868
22.037000	-0.003772	0.000606	-0.000181	0.001752	6180.501633	44330.261070	3878.514334	22810.661947
22.537000	-0.000108	0.000128	0.000236	0.001245	6212.372407	44332.975994	3880.692495	22833.960085
23.037500	-0.000687	0.000490	-0.001901	0.001479	6206.132910	44345.230031	3875.113083	22823.200121
23.534500	0.002560	0.000400	-0.004731	0.001650	6229.791999	44320.332562	3868.097731	22815.362735
24.035000	-0.000720	-0.000152	-0.002390	0.001331	6207.024486	44298.103417	3874.314794	22830.027316
24.535000	-0.000626	-0.000197	-0.002675	0.000852	6211.413142	44339.449313	3874.768824	22852.027232
25.035500	-0.000087	-0.000183	0.004349	0.001067	6213.905156	44320.317822	3890.863131	22842.147069
25.535500	0.000341	0.000832	0.001307	0.001913	6210.694002	44336.402141	3881.642627	22803.263496
26.036000	-0.000670	0.000291	0.002600	0.001005	6209.904900	44371.451307	3886.852323	22844.995402
26.536500	0.000840	0.000674	0.000502	0.001898	6214.639860	44322.771032	3879.779116	22803.956763
27.036500	0.001125	0.000268	0.000859	-0.001079	6239.798001	44568.798800	3887.667739	22941.076477
27.537000	-0.000370	0.000950	0.003372	-0.001053	6228.045311	44631.810770	3893.591857	22939.897586
28.037500	0.000220	0.000051	0.001692	0.002513	6205.166777	44204.861817	3881.135027	22775.766073
28.537000	0.001331	0.000170	0.002469	-0.000962	6240.481814	44548.128040	3891.219783	22935.660013
29.035500	-0.001387	0.000544	-0.003923	0.003169	6187.874560	44189.382738	3866.442937	22745.729030
29.535500	-0.002180	0.000397	0.000366	-0.000463	6209.581274	44522.073355	3885.037579	22912.628566
30.036000	-0.002433	0.000250	0.002090	0.004459	6170.112568	44038.949729	3877.487498	22686.750694
30.535500	-0.002542	-0.000508	-0.002122	0.001758	6189.828862	44223.578937	3873.941325	22810.410471
31.036500	-0.002754	0.000494	0.000123	0.002025	6186.176342	44293.550320	3878.587441	22798.141967
31.536500	0.002359	0.000475	-0.002140	-0.000573	6245.433381	44540.052664	3879.376107	22917.700672
32.037000	-0.002187	-0.000205	-0.005651	0.002787	6184.688456	44154.492766	3863.315471	22763.200549
32.537000	-0.001013	0.000156	0.004252	-0.000838	6221.425864	44534.903061	3895.180241	22929.935425
33.034500	0.001715	0.000473	-0.002379	-0.000720	6241.584117	44553.944884	3879.157923	22924.479490
33.538000	-0.002016	0.000380	-0.004597	0.001197	6198.124442	44361.660477	3869.465968	22836.165055
34.035500	-0.000724	-0.000163	-0.006851	0.001474	6205.889919	44283.405984	3863.577912	22823.432618
34.535500	-0.000233	0.000036	0.004748	0.001626	6208.497747	44287.899187	3890.484308	22816.472864
35.035500	-0.002070	-0.000713	0.004695	0.001056	6198.787257	44270.858354	3891.714524	22842.652482
35.536000	-0.000790	-0.000683	-0.001355	0.001558	6204.741766	44225.873631	3876.210994	22819.576760
36.036000	-0.002453	0.000285	-0.003451	0.002492	6184.906743	44229.122385	3869.117957	22776.704799
36.536500	-0.000576	0.000841	-0.002327	0.002701	6197.640832	44262.223880	3871.256235	22767.160065
37.037000	-0.001551	0.000854	-0.001490	0.002199	6194.028482	44311.284084	3874.390087	22790.181973
37.537000	-0.001269	0.000280	-0.001019	0.001977	6197.865443	44277.701402	3876.014223	22800.323955
38.038000	-0.001988	0.000011	0.000380	0.002023	6192.033566	44247.729422	3879.198564	22798.244059
38.535000	-0.001300	-0.000251	0.000287	0.001715	6199.637329	44252.128434	3879.704288	22812.384363
39.035500	-0.000960	-0.000352	0.003115	0.002095	6199.329218	44206.320445	3885.488752	22794.922499
39.535500	-0.002436	-0.000643	-0.001921	0.001402	6193.356576	44244.558836	3875.248177	22826.770722
40.035500	-0.001929	0.000160	-0.000044	0.001938	6193.124208	44269.987498	3878.398107	22802.118477
40.536500	-0.001279	0.000249	0.006419	0.001925	6198.194503	44279.715943	3893.754528	22802.718436
41.036500	0.001015	0.000987	0.000542	0.002704	6209.796399	44275.807327	3877.977592	22767.032731
41.536500	-0.002011	0.000452	-0.003322	0.002137	6190.985020	44278.830933	3870.249453	22793.008585
42.037000	-0.000318	0.000178	0.006553	0.002351	6202.289278	44232.441965	3893.058954	22783.203477
42.537500	-0.000655	0.001245	-0.000720	0.002587	6197.904426	44311.526004	3875.285737	22772.373971
43.037500	-0.001292	-0.000185	0.000264	0.001685	6199.933730	44261.212490	3879.720658	22813.755227
43.535000	0.000758	0.000819	0.001461	-0.002015	6244.198763	44711.688065	3891.324598	22984.364849
44.035500	0.001311	0.000708	0.003403	-0.000345	6235.558657	44540.632161	3891.975536	22907.194529
44.536000	-0.000679	0.000266	0.005856	-0.000517	6221.527546	44514.710686	3898.253467	22915.121199
45.036500	-0.001861	0.000026	0.000874	0.004174	6176.620995	44044.805668	3875.301367	22699.765081
45.536000	-0.001495	0.000296	0.003263	-0.000618	6216.037131	44527.286533	3892.292976	22919.810766
46.037000	0.000143	0.000873	0.004854	0.001642	6211.254294	44366.222912	3890.699342	22815.740789
46.536500	-0.000368	0.000461	-0.000238	-0.000557	6224.240021	44537.218300	3883.828913	22916.981955
47.036500	-0.002116	0.000234	0.002002	0.003547	6179.452099	44124.023174	3879.428471	22728.444099
47.540000	-0.001364	0.000426	-0.000394	0.002050	6196.582701	44284.605059	3877.310782	22796.973455
48.038500	-0.000438	0.000528	0.002235	0.000491	6215.628226	44443.245133	3887.204999	22868.637333
48.537500	0.003399	0.000725	-0.001297	-0.000584	6253.597633	44565.087189	3881.388982	22918.211201
49.035500	-0.004300	-0.000051	-0.002809	0.004990	6151.990140	43960.249720	3864.800469	22662.561267
49.536000	0.001585	0.001209	0.002737	-0.001909	6249.790613	44739.094207	3894.119374	22979.458908
50.036000	0.000487	-0.000147	0.001011	0.004031	6195.595965	44041.981356	3875.959828	22706.321393
50.536500	0.017920	-0.008840	0.033527	0.367496	4373.509095	20359.210048	3332.138819	11460.199948
51.036500	0.006213	-0.015133	0.018100	0.515375	3913.624858	15139.892377	3182.974654	8981.252039
51.537500	0.008296	-0.020189	0.004822	0.066430	5803.722857	36927.351949	3747.265537	20051.559464
52.037500	-0.004540	-0.026074	0.000045	-0.087974	6931.242162	50804.267662	4113.782843	27386.874691
52.537500	0.001043	-0.026005	0.003782	-0.147380	7585.507649	57836.031434	4310.583913	30980.626277
53.035000	0.020293	-0.011162	0.022839	-0.074480	7038.455193	50960.929377	4141.000515	26636.809033
53.535500	0.028800	-0.007722	0.037766	-0.010127	6536.429202	44670.392944	4002.794739	23363.618936
54.036000	0.035489	-0.002065	0.042947	0.042937	6165.905734	40350.133081	3883.098998	21006.569826
54.536000	0.049725	0.009963	0.058084	0.040440	6295.064517	41624.159543	3925.653416	21111.175117
55.036000	0.067410	0.022758	0.075890	0.066793	6227.534132	40433.698220	3904.811191	20037.229716
55.536500	0.088162	0.037970	0.090017	0.069126	6372.642160	41563.542573	3933.677960	19945.227755
56.037000	0.109979	0.048430	0.106682	0.081819	6446.845305	41365.243858	3943.577719	19453.416618
56.537000	0.126790	0.058949	0.127906	0.103355	6408.223756	40401.559079	3942.797315	18651.138541
57.037500	0.147363	0.070689	0.149198	0.143071	6255.995278	38061.505720	3897.663379	17271.994787
57.535000	0.157235	0.076841	0.161799	0.168145	6139.804830	36562.235080	3868.180753	16464.078786
58.035500	0.173881	0.085404	0.174529	0.187145	6122.165865	35762.729007	3853.674762	15882.181587
58.535500	0.189544	0.094947	0.194260	0.239993	5855.959548	32643.220628	3780.439725	14391.346836
59.035500	0.200922	0.102823	0.205405	0.266352	5754.979295	31403.678081	3748.623567	13712.881404
59.536000	0.211082	0.109036	0.216864	0.306499	5563.032993	29260.779624	3691.577719	12755.502467
60.036000	0.217524	0.115670	0.231693	0.332155	5446.833108	28130.763370	3671.009502	12188.438773
60.537000	0.224179	0.120762	0.238788	0.364852	5297.318834	26576.484980	3624.364644	11512.654127
61.037000	0.234429	0.127678	0.248215	0.375923	5292.751763	26350.969895	3621.462575	11295.133856
61.537000	0.237808	0.127874	0.248372	0.380388	5286.722154	26121.541929	3613.909724	11208.966847
62.036500	0.240410	0.131589	0.256932	0.376739	5321.644196	26518.797554	3635.512591	11279.326608
62.535000	0.241903	0.135226	0.248804	0.377098	5328.033005	26697.765575	3620.430179	11272.364807
63.037500	0.248196	0.138779	0.261182	0.372843	5388.270703	27129.652607	3650.267649	11355.103168
63.538500	0.249872	0.139778	0.261217	0.370006	5414.484505	27344.589430	3655.535580	11410.696078
64.044000	0.250481	0.140897	0.263847	0.368464	5427.084846	27494.906714	3663.252289	11441.084100
64.536500	0.252271	0.142020	0.259955	0.368904	5435.018263	27533.629203	3655.242257	11432.402350
65.036500	0.252382	0.142885	0.263626	0.372363	5415.383591	27386.884130	3655.631667	11364.477375
65.537000	0.256534	0.145080	0.269050	0.373898	5430.723581	27424.172326	3662.822306	11334.518725
66.037000	0.257402	0.147243	0.266307	0.379271	5404.378550	27243.526680	3647.889860	11230.443059
66.540000	0.259062	0.147135	0.269690	0.381165	5403.017446	27131.553530	3650.608689	11194.064690
67.035000	0.254193	0.148164	0.266766	0.386824	5342.541056	26874.485027	3635.060971	11086.296480
67.535000	0.262219	0.150462	0.275385	0.388972	5376.122054	26882.765226	3646.754526	11045.767256
68.035500	0.262526	0.150930	0.273395	0.392772	5356.113360	26699.395500	3636.283682	10974.543970
68.536000	0.261559	0.151425	0.269983	0.395253	5336.517474	26590.822607	3625.770080	10928.380075
69.036000	0.260193	0.152683	0.274658	0.402627	5287.535466	26259.424194	3621.003742	10792.718248
69.536000	0.261350	0.153290	0.279299	0.402298	5295.786529	26309.786378	3629.804316	10798.705105
70.036500	0.265968	0.156222	0.280006	0.407702	5291.424455	26176.923473	3621.484591	10700.679168
70.537000	0.268900	0.157515	0.280801	0.410799	5290.504568	26080.386921	3617.437944	10645.032711
71.037500	0.272764	0.157786	0.281514	0.416372	5281.024470	25798.987188	3608.966445	10545.891955
71.535000	0.269701	0.156305	0.282507	0.413408	5280.476184	25877.359657	3615.856636	10598.459057
72.035000	0.275781	0.157643	0.289422	0.417472	5291.662406	25733.591406	3620.861435	10526.489169
72.535000	0.270628	0.158498	0.288238	0.418167	5259.370623	25741.955156	3617.558613	10514.233237
73.038500	0.274005	0.158375	0.284778	0.420760	5263.678398	25599.555903	3607.021944	10468.740109
73.535500	0.277598	0.160727	0.287954	0.420428	5285.337531	25740.287878	3613.110540	10474.550392
74.036000	0.275304	0.160923	0.291564	0.420836	5270.406198	25729.162822	3618.712348	10467.406785
74.536500	0.276804	0.159833	0.291192	0.420560	5280.207649	25686.395138	3618.542241	10472.231508
75.037000	0.279804	0.160413	0.296626	0.420509	5297.144768	25719.533804	3628.232320	10473.133145
75.537000	0.280506	0.160913	0.290097	0.420943	5298.636162	25722.966452	3615.952120	10465.530746
76.037500	0.280372	0.163892	0.295720	0.423612	5283.065138	25739.269383	3621.137097	10418.995143
76.534500	0.280414	0.161879	0.294880	0.422671	5288.513062	25682.954818	3621.315845	10435.370226
77.035500	0.281414	0.163169	0.295330	0.423742	5288.116509	25694.460479	3620.222960	10416.734794
77.535500	0.282663	0.163799	0.298644	0.423619	5295.745174	25734.045786	3626.293223	10418.876385
78.035500	0.282311	0.163123	0.296955	0.423482	5294.550182	25705.724696	3623.545475	10421.260457
78.536000	0.283495	0.163892	0.292835	0.423945	5298.565854	25721.789313	3615.491634	10413.217648
79.036500	0.286030	0.164935	0.304672	0.425253	5305.411296	25707.836723	3634.122786	10390.524189
79.538500	0.287538	0.166124	0.303194	0.425123	5314.588817	25777.278506	3631.714115	10392.785891
80.036500	0.288720	0.167122	0.303020	0.425338	5320.014359	25818.542462	3631.019591	10389.057879
80.540000	0.285764	0.164459	0.295954	0.422838	5317.454408	25809.959588	3622.915262	10432.461487
81.035000	0.284039	0.166001	0.303188	0.427459	5282.067136	25648.061623	3627.542822	10352.426413
81.535000	0.291084	0.167179	0.300039	0.424908	5335.779559	25844.262923	3626.481284	10396.510115
82.035500	0.293623	0.166844	0.304609	0.424846	5350.543397	25829.882173	3634.741587	10397.589137
82.538500	0.293672	0.167189	0.306110	0.424535	5352.593601	25864.523047	3637.996401	10402.981480
83.035500	0.288579	0.166232	0.294777	0.427091	5309.392481	25679.457405	3613.390556	10358.777096
83.536000	0.295632	0.169549	0.309757	0.426860	5350.514789	25866.390389	3640.380732	10362.765124
84.036500	0.295245	0.170620	0.303199	0.427036	5347.312924	25913.752570	3628.313690	10359.719252
84.537000	0.294170	0.168823	0.299959	0.425155	5351.898522	25918.210396	3625.901714	10392.229971
85.037000	0.289928	0.169929	0.305831	0.427528	5314.505761	25851.190163	3632.128089	10351.246170
85.537500	0.294875	0.170341	0.312764	0.427179	5344.397875	25891.431541	3645.249027	10357.262776
86.034500	0.293456	0.170148	0.313653	0.426470	5340.367331	25918.724248	3648.155227	10369.480444
86.535000	0.293451	0.170247	0.306468	0.425961	5343.229859	25951.022509	3636.076687	10378.290910
87.036000	0.292355	0.169449	0.309334	0.424992	5342.509336	25960.100870	3642.993162	10395.055176
87.536000	0.296746	0.171679	0.302535	0.427610	5352.588808	25939.539114	3626.116438	10349.837164
88.035500	0.293341	0.171927	0.308301	0.428564	5327.872032	25902.060725	3634.694249	10333.416538
88.536000	0.292941	0.171406	0.312846	0.428042	5328.563405	25902.091030	3643.830371	10342.391726
89.039000	0.295793	0.171180	0.299946	0.429178	5338.267472	25830.094504	3618.781771	10322.873368
89.537000	0.293962	0.172236	0.306317	0.431984	5312.139393	25737.848932	3625.067586	10274.880840
90.040500	0.295090	0.171442	0.310631	0.431087	5323.513960	25743.256881	3634.347959	10290.185234
90.537500	0.295594	0.171715	0.306902	0.431813	5322.259677	25719.435878	3626.407643	10277.791893
91.034500	0.292368	0.172881	0.315113	0.432950	5297.827098	25720.962385	3639.054342	10258.423729
91.535500	0.293625	0.170799	0.309320	0.435305	5291.717546	25488.881384	3624.503714	10218.466098
92.035500	0.293782	0.173028	0.304035	0.435337	5292.412327	25603.496032	3615.155949	10217.928676
92.535500	0.293856	0.172969	0.317073	0.435812	5290.185686	25575.595538	3637.431100	10209.892275
93.036000	0.291895	0.173230	0.309501	0.439408	5259.517465	25402.084978	3617.597154	10149.371648
93.539000	0.294168	0.173449	0.301153	0.439879	5269.421883	25389.055264	3602.293029	10141.487695
94.035500	0.294456	0.174299	0.308189	0.437975	5281.519888	25532.122655	3617.809331	10173.426103
94.537000	0.296145	0.173375	0.304458	0.438096	5290.215183	25477.752190	3611.085409	10171.404445
95.037000	0.294871	0.174432	0.308257	0.441857	5262.408106	25337.567651	3611.151011	10108.442137
95.537000	0.291841	0.173441	0.302347	0.442363	5243.075369	25260.334820	3600.079768	10100.023083
96.035000	0.297167	0.174589	0.310119	0.440829	5280.725944	25398.850781	3616.190445	10125.592699
