sample name	sample
index	194
start time	 02-18-2021  12:03:36 PM


Wavelength (nm)	Absorbance
494.344910	-0.297346
494.563924	-0.297346
494.782919	-0.297346
495.001897	0.375909
495.220856	-0.151258
495.439797	-0.117247
495.658719	-0.076570
495.877624	-0.032153
496.096510	-0.077938
496.315378	-0.055313
496.534227	-0.076862
496.753059	-0.108045
496.971872	-0.128824
497.190667	0.100486
497.409444	0.130450
497.628203	0.136821
497.846943	0.143139
498.065665	0.146385
498.284369	0.149216
498.503055	0.151815
498.721723	0.151884
498.940372	0.153451
499.159003	0.153981
499.377616	0.154017
499.596210	0.154515
499.814787	0.154439
500.033345	0.154219
500.251885	0.152996
500.470406	0.152698
500.688910	0.153045
500.907395	0.152835
501.125862	0.152392
501.344311	0.153421
501.562742	0.154242
501.781154	0.153836
501.999548	0.155816
502.217924	0.156109
502.436282	0.155282
502.654621	0.155027
502.872942	0.154624
503.091245	0.154274
503.309530	0.153770
503.527797	0.153771
503.746045	0.154573
503.964275	0.154040
504.182487	0.155094
504.400681	0.155208
504.618856	0.155379
504.837013	0.157215
505.055152	0.157242
505.273273	0.157737
505.491376	0.157479
505.709460	0.157086
505.927526	0.156689
506.145574	0.156968
506.363604	0.157394
506.581615	0.158318
506.799608	0.157470
507.017583	0.157777
507.235540	0.157547
507.453478	0.157678
507.671399	0.157745
507.889301	0.157987
508.107185	0.157802
508.325050	0.158025
508.542898	0.159281
508.760727	0.160004
508.978538	0.160871
509.196330	0.161102
509.414105	0.161872
509.631861	0.161978
509.849599	0.162480
510.067319	0.162333
510.285021	0.162454
510.502704	0.161913
510.720369	0.161130
510.938016	0.160944
511.155645	0.161517
511.373255	0.161138
511.590848	0.162047
511.808422	0.161254
512.025977	0.161736
512.243515	0.162795
512.461034	0.163347
512.678536	0.163058
512.896018	0.163392
513.113483	0.163690
513.330930	0.163647
513.548358	0.163104
513.765768	0.163017
513.983160	0.162979
514.200533	0.162291
514.417889	0.162350
514.635226	0.163117
514.852545	0.163260
515.069845	0.162885
515.287128	0.163246
515.504392	0.163554
515.721638	0.164735
515.938866	0.165295
516.156075	0.165608
516.373267	0.165204
516.590440	0.166061
516.807594	0.166218
517.024731	0.166967
517.241850	0.167550
517.458950	0.168381
517.676032	0.168643
517.893095	0.168422
518.110141	0.169094
518.327168	0.169976
518.544177	0.170168
518.761168	0.170691
518.978141	0.170205
519.195095	0.170372
519.412031	0.170374
519.628949	0.170142
519.845849	0.171239
520.062731	0.170840
520.279594	0.170471
520.496439	0.170994
520.713266	0.171706
520.930074	0.172897
521.146865	0.173131
521.363637	0.173210
521.580391	0.174233
521.797127	0.174385
522.013844	0.175210
522.230543	0.176044
522.447224	0.175430
522.663887	0.176062
522.880532	0.175763
523.097158	0.175404
523.313766	0.175480
523.530356	0.175153
523.746928	0.174912
523.963481	0.175419
524.180017	0.175897
524.396534	0.177380
524.613032	0.177000
524.829513	0.177323
525.045975	0.178632
525.262420	0.179514
525.478845	0.180139
525.695253	0.180617
525.911643	0.181031
526.128014	0.180941
526.344367	0.180039
526.560702	0.179950
526.777018	0.180163
526.993316	0.180352
527.209597	0.181116
527.425858	0.181059
527.642102	0.180771
527.858328	0.180744
528.074535	0.181123
528.290724	0.181375
528.506894	0.182047
528.723047	0.182029
528.939181	0.182280
529.155297	0.181822
529.371395	0.182323
529.587475	0.183186
529.803536	0.183073
530.019579	0.183822
530.235604	0.185002
530.451611	0.185443
530.667600	0.186055
530.883570	0.186680
531.099522	0.187155
531.315456	0.187959
531.531372	0.188585
531.747269	0.189437
531.963148	0.189097
532.179009	0.189192
532.394852	0.189930
532.610676	0.190505
532.826482	0.190034
533.042271	0.190091
533.258040	0.190050
533.473792	0.189461
533.689525	0.190148
533.905240	0.191428
534.120937	0.191098
534.336616	0.190862
534.552277	0.191095
534.767919	0.191565
534.983543	0.191968
535.199149	0.192144
535.414736	0.192881
535.630306	0.192511
535.845857	0.192036
536.061390	0.192850
536.276904	0.193434
536.492401	0.193763
536.707879	0.194148
536.923339	0.194855
537.138781	0.195353
537.354204	0.196115
537.569610	0.196160
537.784997	0.196089
538.000366	0.196597
538.215716	0.196618
538.431049	0.197209
538.646363	0.197416
538.861659	0.197022
539.076937	0.197315
539.292196	0.196995
539.507438	0.197697
539.722661	0.198950
539.937866	0.199754
540.153052	0.200098
540.368221	0.199863
540.583371	0.200368
540.798503	0.201159
541.013617	0.201527
541.228712	0.202466
541.443789	0.203250
541.658848	0.203383
541.873889	0.203052
542.088912	0.203152
542.303916	0.204126
542.518902	0.204108
542.733870	0.204169
542.948820	0.204400
543.163752	0.204664
543.378665	0.204836
543.593560	0.204624
543.808437	0.204886
544.023295	0.205122
544.238136	0.205237
544.452958	0.205879
544.667762	0.206177
544.882548	0.206829
545.097315	0.207110
545.312064	0.207244
545.526795	0.207541
545.741508	0.207871
545.956203	0.208209
546.170879	0.208336
546.385537	0.208899
546.600177	0.209154
546.814799	0.208861
547.029402	0.208750
547.243988	0.208939
547.458555	0.209516
547.673103	0.209755
547.887634	0.210082
548.102146	0.210944
548.316640	0.211110
548.531116	0.211550
548.745574	0.211823
548.960013	0.211976
549.174435	0.211737
549.388838	0.212050
549.603222	0.212464
549.817589	0.212781
550.031937	0.212516
550.246267	0.212734
550.460579	0.212923
550.674873	0.213101
550.889148	0.214067
551.103405	0.215135
551.317644	0.215507
551.531865	0.215820
551.746068	0.216401
551.960252	0.216674
552.174418	0.216898
552.388566	0.217446
552.602696	0.217948
552.816807	0.218336
553.030900	0.217942
553.244975	0.217909
553.459032	0.217999
553.673070	0.218448
553.887091	0.219116
554.101093	0.218996
554.315077	0.219100
554.529042	0.219240
554.742990	0.219167
554.956919	0.220099
555.170830	0.220302
555.384722	0.220634
555.598597	0.220682
555.812453	0.220513
556.026291	0.220818
556.240111	0.220952
556.453913	0.221757
556.667696	0.221740
556.881461	0.221787
557.095208	0.222184
557.308937	0.221750
557.522647	0.221840
557.736339	0.222173
557.950013	0.222333
558.163669	0.222368
558.377307	0.222311
558.590926	0.222286
558.804527	0.222738
559.018110	0.222968
559.231675	0.223702
559.445221	0.224043
559.658749	0.224491
559.872259	0.224996
560.085751	0.225847
560.299225	0.225966
560.512680	0.226306
560.726117	0.226117
560.939536	0.226582
561.152937	0.227438
561.366319	0.227603
561.579683	0.227646
561.793029	0.227981
562.006357	0.227781
562.219667	0.228057
562.432958	0.228496
562.646231	0.228735
562.859486	0.228477
563.072723	0.228143
563.285941	0.228436
563.499141	0.228568
563.712323	0.228794
563.925487	0.229284
564.138632	0.229146
564.351760	0.229508
564.564869	0.229615
564.777960	0.229965
564.991032	0.230130
565.204087	0.230242
565.417123	0.230057
565.630141	0.230362
565.843140	0.230870
566.056122	0.231510
566.269085	0.231697
566.482030	0.231689
566.694957	0.231860
566.907866	0.232470
567.120756	0.232254
567.333628	0.232614
567.546482	0.232886
567.759318	0.232498
567.972135	0.232417
568.184935	0.232204
568.397716	0.232619
568.610478	0.232885
568.823223	0.232911
569.035949	0.233230
569.248657	0.233780
569.461347	0.233558
569.674019	0.233811
569.886672	0.234215
570.099308	0.235041
570.311925	0.235156
570.524523	0.235568
570.737104	0.235668
570.949666	0.236067
571.162210	0.236105
571.374736	0.236275
571.587244	0.236904
571.799733	0.237029
572.012205	0.236880
572.224658	0.237141
572.437092	0.237293
572.649509	0.237319
572.861907	0.237481
573.074287	0.237534
573.286649	0.238141
573.498993	0.237558
573.711318	0.237920
573.923625	0.238096
574.135914	0.238425
574.348185	0.238580
574.560438	0.238683
574.772672	0.238588
574.984888	0.238725
575.197086	0.238668
575.409266	0.239088
575.621427	0.239169
575.833570	0.239336
576.045695	0.239263
576.257802	0.239486
576.469890	0.239628
576.681961	0.239829
576.894013	0.239909
577.106046	0.240111
577.318062	0.240542
577.530059	0.240338
577.742039	0.240428
577.954000	0.240770
578.165942	0.240161
578.377867	0.240713
578.589773	0.241092
578.801661	0.241710
579.013531	0.242217
579.225382	0.242517
579.437216	0.243156
579.649031	0.243556
579.860828	0.243827
580.072606	0.244830
580.284367	0.244800
580.496109	0.245000
580.707833	0.245018
580.919539	0.245104
581.131227	0.244885
581.342896	0.244870
581.554547	0.244611
581.766180	0.245272
581.977795	0.245738
582.189391	0.246165
582.400969	0.246286
582.612529	0.246476
582.824071	0.246361
583.035595	0.246980
583.247100	0.247324
583.458587	0.247834
583.670056	0.248015
583.881506	0.247568
584.092939	0.247916
584.304353	0.248702
584.515749	0.249090
584.727127	0.249925
584.938486	0.249931
585.149828	0.250253
585.361151	0.250553
585.572456	0.250015
585.783742	0.250347
585.995011	0.250311
586.206261	0.249895
586.417493	0.250277
586.628706	0.250262
586.839902	0.250386
587.051079	0.250869
587.262238	0.251418
587.473379	0.251805
587.684502	0.252080
587.895606	0.252242
588.106692	0.252650
588.317760	0.252359
588.528810	0.252624
588.739841	0.253046
588.950855	0.252883
589.161850	0.252541
589.372827	0.253100
589.583785	0.253470
589.794726	0.253942
590.005648	0.254197
590.216552	0.254590
590.427437	0.254571
590.638305	0.254994
590.849154	0.255046
591.059985	0.255746
591.270798	0.256034
591.481592	0.256204
591.692369	0.256034
591.903127	0.256567
592.113867	0.256597
592.324588	0.256822
592.535292	0.256862
592.745977	0.257116
592.956644	0.257058
593.167293	0.257059
593.377923	0.257432
593.588536	0.258144
593.799130	0.257895
594.009706	0.258153
594.220263	0.258288
594.430803	0.258741
594.641324	0.258946
594.851827	0.259087
595.062312	0.259310
595.272778	0.259314
595.483227	0.258975
595.693657	0.259260
595.904069	0.259644
596.114462	0.259683
596.324838	0.259698
596.535195	0.260213
596.745534	0.260263
596.955855	0.260391
597.166157	0.260310
597.376441	0.260774
597.586707	0.261070
597.796955	0.261428
598.007185	0.261883
598.217396	0.262186
598.427589	0.262409
598.637764	0.262797
598.847921	0.263360
599.058060	0.263917
599.268180	0.263919
599.478282	0.264058
599.688366	0.264017
599.898431	0.264228
600.108479	0.264326
600.318508	0.264390
600.528519	0.264703
600.738511	0.264775
600.948486	0.264825
601.158442	0.265389
601.368380	0.265787
601.578300	0.266164
601.788202	0.266454
601.998085	0.266586
602.207950	0.266988
602.417797	0.267097
602.627626	0.267037
602.837436	0.267533
603.047228	0.267513
603.257002	0.267689
603.466758	0.267636
603.676496	0.268195
603.886215	0.268673
604.095916	0.268635
604.305599	0.268831
604.515264	0.269392
604.724910	0.269582
604.934538	0.269959
605.144148	0.270058
605.353740	0.270056
605.563314	0.269875
605.772869	0.269636
605.982406	0.269949
606.191925	0.270183
606.401425	0.269956
606.610908	0.269670
606.820372	0.269881
607.029818	0.269702
607.239246	0.270166
607.448655	0.270139
607.658047	0.270282
607.867420	0.270290
608.076775	0.270462
608.286111	0.270658
608.495430	0.270842
608.704730	0.270599
608.914012	0.271043
609.123275	0.271171
609.332521	0.271524
609.541748	0.272013
609.750957	0.272062
609.960148	0.272415
610.169321	0.272532
610.378475	0.272627
610.587611	0.273189
610.796729	0.273376
611.005829	0.273361
611.214910	0.273561
611.423974	0.273376
611.633019	0.273763
611.842045	0.273722
612.051054	0.273923
612.260044	0.274178
612.469017	0.274088
612.677970	0.274228
612.886906	0.274653
613.095824	0.274449
613.304723	0.274903
613.513604	0.274864
613.722467	0.274967
613.931311	0.275466
614.140138	0.275733
614.348946	0.276001
614.557736	0.276458
614.766507	0.276770
614.975261	0.277062
615.183996	0.277271
615.392713	0.277712
615.601412	0.278045
615.810092	0.277788
616.018754	0.277929
616.227399	0.277980
616.436024	0.277593
616.644632	0.277694
616.853222	0.278061
617.061793	0.278082
617.270346	0.277967
617.478880	0.278003
617.687397	0.278298
617.895895	0.278595
618.104375	0.278804
618.312837	0.279110
618.521281	0.279180
618.729706	0.279287
618.938113	0.279476
619.146502	0.279568
619.354873	0.279739
619.563226	0.280089
619.771560	0.279977
619.979876	0.280175
620.188174	0.280288
620.396453	0.280460
620.604715	0.280553
620.812958	0.280532
621.021183	0.281284
621.229390	0.281369
621.437578	0.281458
621.645748	0.281795
621.853900	0.282122
622.062034	0.282562
622.270150	0.282791
622.478247	0.283150
622.686326	0.283407
622.894387	0.283314
623.102430	0.283476
623.310454	0.283785
623.518461	0.284084
623.726449	0.284360
623.934418	0.284215
624.142370	0.284461
624.350303	0.284481
624.558218	0.284608
624.766115	0.285058
624.973994	0.285247
625.181855	0.285319
625.389697	0.285619
625.597521	0.285905
625.805327	0.286491
626.013114	0.286575
626.220883	0.286990
626.428634	0.287321
626.636367	0.287330
626.844082	0.287930
627.051778	0.288105
627.259457	0.288263
627.467117	0.288352
627.674758	0.288178
627.882382	0.288427
628.089987	0.288503
628.297574	0.288725
628.505143	0.288478
628.712694	0.288463
628.920226	0.288768
629.127740	0.289068
629.335236	0.288868
629.542714	0.289586
629.750174	0.289473
629.957615	0.289526
630.165038	0.289676
630.372443	0.289965
630.579829	0.289800
630.787198	0.289923
630.994548	0.289802
631.201880	0.290038
631.409194	0.289895
631.616489	0.290592
631.823766	0.290651
632.031025	0.290897
632.238266	0.291299
632.445489	0.291431
632.652693	0.291494
632.859879	0.291647
633.067047	0.292320
633.274197	0.292628
633.481329	0.292358
633.688442	0.292790
633.895537	0.292604
634.102614	0.292844
634.309672	0.293325
634.516713	0.293450
634.723735	0.293844
634.930739	0.293661
635.137724	0.293716
635.344692	0.294232
635.551641	0.294277
635.758572	0.294873
635.965485	0.294827
636.172379	0.295053
636.379256	0.295518
636.586114	0.295739
636.792954	0.295968
636.999775	0.296383
637.206579	0.296573
637.413364	0.296853
637.620131	0.296650
637.826880	0.297029
638.033610	0.296946
638.240323	0.296922
638.447017	0.297089
638.653692	0.297150
638.860350	0.296839
639.066990	0.296625
639.273611	0.296835
639.480214	0.297402
639.686798	0.297463
639.893365	0.297782
640.099913	0.297863
640.306443	0.297944
640.512955	0.298080
640.719449	0.298757
640.925924	0.299002
641.132381	0.299064
641.338820	0.299016
641.545241	0.299392
641.751644	0.299540
641.958028	0.299698
642.164394	0.299845
642.370742	0.300126
642.577071	0.300318
642.783383	0.300914
642.989676	0.301285
643.195951	0.301630
643.402207	0.301712
643.608446	0.302227
643.814666	0.302592
644.020868	0.302806
644.227052	0.303184
644.433218	0.303249
644.639365	0.303224
644.845494	0.303532
645.051605	0.303667
645.257698	0.303909
645.463772	0.303939
645.669828	0.304168
645.875866	0.304251
646.081886	0.304369
646.287888	0.304519
646.493871	0.304804
646.699836	0.304892
646.905783	0.304878
647.111712	0.305232
647.317622	0.305621
647.523514	0.305711
647.729388	0.305810
647.935244	0.305932
648.141082	0.306401
648.346901	0.306838
648.552702	0.307124
648.758485	0.307662
648.964250	0.307655
649.169996	0.307899
649.375724	0.308384
649.581434	0.308927
649.787126	0.308917
649.992800	0.308997
650.198455	0.309179
650.404092	0.309409
650.609711	0.309551
650.815311	0.309773
651.020894	0.309710
651.226458	0.310026
651.432004	0.310162
651.637532	0.310580
651.843041	0.310536
652.048532	0.310470
652.254006	0.310474
652.459460	0.310745
652.664897	0.310677
652.870315	0.310872
653.075716	0.310575
653.281097	0.310741
653.486461	0.310926
653.691807	0.311064
653.897134	0.311184
654.102443	0.311284
654.307734	0.311511
654.513006	0.312004
654.718261	0.312566
654.923497	0.312954
655.128715	0.313358
655.333915	0.313810
655.539096	0.314523
655.744259	0.314698
655.949404	0.315144
656.154531	0.315228
656.359640	0.315308
656.564730	0.315169
656.769802	0.315407
656.974856	0.315480
657.179892	0.315818
657.384909	0.315650
657.589908	0.315950
657.794889	0.316146
657.999852	0.316474
658.204797	0.316791
658.409723	0.317406
658.614631	0.317758
658.819521	0.318028
659.024393	0.318166
659.229246	0.318417
659.434081	0.318722
659.638898	0.318635
659.843697	0.318875
660.048478	0.318936
660.253240	0.319028
660.457984	0.319251
660.662710	0.319508
660.867417	0.319579
661.072107	0.320018
661.276778	0.320372
661.481431	0.320961
661.686066	0.321081
661.890682	0.321645
662.095281	0.321736
662.299861	0.321881
662.504422	0.322186
662.708966	0.322354
662.913491	0.322408
663.117999	0.322526
663.322488	0.322681
663.526958	0.322990
663.731411	0.322936
663.935845	0.323300
664.140261	0.323610
664.344659	0.323564
664.549038	0.323873
664.753400	0.324314
664.957743	0.324652
665.162068	0.324965
665.366375	0.325330
665.570663	0.325792
665.774933	0.326120
665.979185	0.326274
666.183419	0.326739
666.387635	0.327138
666.591832	0.327418
666.796011	0.327461
667.000172	0.327627
667.204315	0.327698
667.408439	0.328097
667.612545	0.328171
667.816634	0.328656
668.020703	0.328909
668.224755	0.329009
668.428788	0.328894
668.632803	0.329456
668.836800	0.329854
669.040779	0.330071
669.244739	0.330182
669.448681	0.330392
669.652605	0.330376
669.856511	0.330645
670.060399	0.330909
670.264268	0.331145
670.468119	0.331295
670.671952	0.331315
670.875767	0.331870
671.079563	0.332326
671.283341	0.332634
671.487101	0.332820
671.690843	0.333015
671.894567	0.333229
672.098272	0.333745
672.301959	0.333804
672.505628	0.334260
672.709278	0.334360
672.912911	0.334117
673.116525	0.334267
673.320121	0.334642
673.523699	0.334946
673.727258	0.335143
673.930799	0.335403
674.134322	0.335838
674.337827	0.336128
674.541314	0.336450
674.744782	0.336775
674.948232	0.336966
675.151664	0.337460
675.355078	0.337549
675.558474	0.338165
675.761851	0.338248
675.965210	0.338410
676.168551	0.338579
676.371873	0.338717
676.575178	0.339248
676.778464	0.339653
676.981732	0.339740
677.184981	0.339990
677.388213	0.340052
677.591426	0.340557
677.794621	0.340768
677.997798	0.341123
678.200956	0.341362
678.404097	0.341511
678.607219	0.341734
678.810323	0.341732
679.013408	0.342030
679.216476	0.342250
679.419525	0.342523
679.622556	0.342696
679.825569	0.342907
680.028563	0.343215
680.231540	0.343371
680.434498	0.343591
680.637438	0.344302
680.840359	0.344648
681.043263	0.344787
681.246148	0.344656
681.449015	0.345057
681.651864	0.345287
681.854694	0.345468
682.057506	0.345928
682.260301	0.346075
682.463076	0.346015
682.665834	0.346127
682.868573	0.346408
683.071295	0.346641
683.273998	0.346852
683.476682	0.346995
683.679349	0.347155
683.881997	0.347234
684.084627	0.347421
684.287239	0.347619
684.489833	0.347822
684.692408	0.347981
684.894965	0.348375
685.097504	0.348655
685.300025	0.348754
685.502527	0.349135
685.705012	0.349193
685.907478	0.349609
686.109925	0.349693
686.312355	0.350009
686.514766	0.350419
686.717159	0.350610
686.919534	0.350647
687.121891	0.351079
687.324230	0.351352
687.526550	0.351659
687.728852	0.351993
687.931136	0.352544
688.133401	0.352826
688.335649	0.352845
688.537878	0.353126
688.740089	0.353241
688.942281	0.353224
689.144456	0.353159
689.346612	0.353379
689.548750	0.353480
689.750870	0.353715
689.952971	0.353782
690.155055	0.353969
690.357120	0.354061
690.559167	0.354401
690.761195	0.354813
690.963206	0.354938
691.165198	0.355213
691.367172	0.355457
691.569128	0.355426
691.771065	0.355735
691.972984	0.355957
692.174885	0.356181
692.376768	0.356437
692.578633	0.356490
692.780479	0.356718
692.982308	0.356892
693.184118	0.357015
693.385909	0.357147
