sample name	sample
index	1093
start time	 04-22-2021  11:50:59 AM


Wavelength (nm)	Absorbance
494.344910	0.025430
494.563924	0.025430
494.782919	0.025430
495.001897	-0.260445
495.220856	0.017042
495.439797	-0.030808
495.658719	-0.034630
495.877624	-0.016827
496.096510	0.045734
496.315378	0.010261
496.534227	0.012715
496.753059	-0.001926
496.971872	-0.059637
497.190667	0.037083
497.409444	0.056333
497.628203	0.055486
497.846943	0.054634
498.065665	0.052796
498.284369	0.054926
498.503055	0.057105
498.721723	0.056608
498.940372	0.058330
499.159003	0.057996
499.377616	0.057562
499.596210	0.058585
499.814787	0.058694
500.033345	0.059579
500.251885	0.058701
500.470406	0.058654
500.688910	0.060383
500.907395	0.059064
501.125862	0.060116
501.344311	0.060221
501.562742	0.059520
501.781154	0.059898
501.999548	0.059785
502.217924	0.060847
502.436282	0.060461
502.654621	0.059627
502.872942	0.060601
503.091245	0.059472
503.309530	0.059416
503.527797	0.059790
503.746045	0.060761
503.964275	0.061444
504.182487	0.061773
504.400681	0.061918
504.618856	0.061502
504.837013	0.061332
505.055152	0.061009
505.273273	0.062011
505.491376	0.062790
505.709460	0.061948
505.927526	0.061677
506.145574	0.061028
506.363604	0.061095
506.581615	0.062086
506.799608	0.062161
507.017583	0.062752
507.235540	0.061500
507.453478	0.060351
507.671399	0.060106
507.889301	0.060139
508.107185	0.059440
508.325050	0.058863
508.542898	0.058872
508.760727	0.059251
508.978538	0.059768
509.196330	0.060326
509.414105	0.060567
509.631861	0.061905
509.849599	0.061669
510.067319	0.062338
510.285021	0.062888
510.502704	0.062303
510.720369	0.061802
510.938016	0.061858
511.155645	0.061703
511.373255	0.061842
511.590848	0.061017
511.808422	0.061598
512.025977	0.061730
512.243515	0.062086
512.461034	0.062293
512.678536	0.062188
512.896018	0.062215
513.113483	0.063364
513.330930	0.063739
513.548358	0.063202
513.765768	0.063471
513.983160	0.064356
514.200533	0.064422
514.417889	0.064312
514.635226	0.064762
514.852545	0.064931
515.069845	0.063637
515.287128	0.063372
515.504392	0.064243
515.721638	0.064415
515.938866	0.063192
516.156075	0.062854
516.373267	0.063128
516.590440	0.064018
516.807594	0.063494
517.024731	0.064110
517.241850	0.064201
517.458950	0.063340
517.676032	0.062906
517.893095	0.063627
518.110141	0.063813
518.327168	0.063661
518.544177	0.063873
518.761168	0.064292
518.978141	0.065084
519.195095	0.065888
519.412031	0.066990
519.628949	0.067305
519.845849	0.066787
520.062731	0.066841
520.279594	0.066885
520.496439	0.066789
520.713266	0.066789
520.930074	0.066261
521.146865	0.066367
521.363637	0.066064
521.580391	0.066227
521.797127	0.066608
522.013844	0.066735
522.230543	0.066890
522.447224	0.066903
522.663887	0.067618
522.880532	0.067631
523.097158	0.067526
523.313766	0.067908
523.530356	0.067531
523.746928	0.068046
523.963481	0.068213
524.180017	0.069096
524.396534	0.069362
524.613032	0.068805
524.829513	0.069620
525.045975	0.070116
525.262420	0.070160
525.478845	0.070589
525.695253	0.070373
525.911643	0.070273
526.128014	0.069297
526.344367	0.069685
526.560702	0.070341
526.777018	0.070668
526.993316	0.069981
527.209597	0.070451
527.425858	0.070712
527.642102	0.070385
527.858328	0.070617
528.074535	0.071527
528.290724	0.071294
528.506894	0.071204
528.723047	0.070540
528.939181	0.071359
529.155297	0.071434
529.371395	0.071611
529.587475	0.072395
529.803536	0.072600
530.019579	0.073035
530.235604	0.073361
530.451611	0.073121
530.667600	0.073246
530.883570	0.073461
531.099522	0.074035
531.315456	0.074083
531.531372	0.074574
531.747269	0.074853
531.963148	0.074883
532.179009	0.074477
532.394852	0.075136
532.610676	0.075487
532.826482	0.075228
533.042271	0.074871
533.258040	0.075045
533.473792	0.074867
533.689525	0.075510
533.905240	0.075470
534.120937	0.076234
534.336616	0.076701
534.552277	0.076937
534.767919	0.077029
534.983543	0.077089
535.199149	0.077645
535.414736	0.077876
535.630306	0.077656
535.845857	0.078381
536.061390	0.078034
536.276904	0.078051
536.492401	0.077818
536.707879	0.078507
536.923339	0.078540
537.138781	0.078824
537.354204	0.079523
537.569610	0.079441
537.784997	0.079100
538.000366	0.079710
538.215716	0.079999
538.431049	0.080573
538.646363	0.080688
538.861659	0.080871
539.076937	0.080350
539.292196	0.079955
539.507438	0.080329
539.722661	0.080251
539.937866	0.080131
540.153052	0.079947
540.368221	0.080225
540.583371	0.080412
540.798503	0.080833
541.013617	0.080989
541.228712	0.081444
541.443789	0.081493
541.658848	0.081971
541.873889	0.082097
542.088912	0.082349
542.303916	0.081995
542.518902	0.081674
542.733870	0.081826
542.948820	0.082126
543.163752	0.081982
543.378665	0.082031
543.593560	0.081999
543.808437	0.082384
544.023295	0.082816
544.238136	0.082825
544.452958	0.083447
544.667762	0.083502
544.882548	0.083568
545.097315	0.083615
545.312064	0.083981
545.526795	0.084386
545.741508	0.084266
545.956203	0.083549
546.170879	0.083633
546.385537	0.083267
546.600177	0.083453
546.814799	0.084201
547.029402	0.084629
547.243988	0.084688
547.458555	0.084345
547.673103	0.084502
547.887634	0.085099
548.102146	0.085559
548.316640	0.086238
548.531116	0.086616
548.745574	0.086204
548.960013	0.086202
549.174435	0.086109
549.388838	0.086573
549.603222	0.086498
549.817589	0.086652
550.031937	0.086830
550.246267	0.086561
550.460579	0.086299
550.674873	0.086642
550.889148	0.086584
551.103405	0.087131
551.317644	0.087458
551.531865	0.087513
551.746068	0.087699
551.960252	0.087562
552.174418	0.087528
552.388566	0.087763
552.602696	0.087789
552.816807	0.088072
553.030900	0.087853
553.244975	0.087495
553.459032	0.087600
553.673070	0.087395
553.887091	0.087733
554.101093	0.088059
554.315077	0.087823
554.529042	0.088106
554.742990	0.087910
554.956919	0.087666
555.170830	0.088095
555.384722	0.088453
555.598597	0.088625
555.812453	0.088805
556.026291	0.089002
556.240111	0.089355
556.453913	0.089339
556.667696	0.089607
556.881461	0.090091
557.095208	0.089625
557.308937	0.089452
557.522647	0.089360
557.736339	0.088924
557.950013	0.088692
558.163669	0.088584
558.377307	0.088081
558.590926	0.088129
558.804527	0.088138
559.018110	0.088458
559.231675	0.088504
559.445221	0.088777
559.658749	0.089368
559.872259	0.089530
560.085751	0.089615
560.299225	0.090362
560.512680	0.090414
560.726117	0.089897
560.939536	0.089858
561.152937	0.090008
561.366319	0.090124
561.579683	0.089916
561.793029	0.089616
562.006357	0.089476
562.219667	0.089347
562.432958	0.089275
562.646231	0.090180
562.859486	0.090462
563.072723	0.090353
563.285941	0.090043
563.499141	0.090050
563.712323	0.090357
563.925487	0.090427
564.138632	0.090273
564.351760	0.090138
564.564869	0.089984
564.777960	0.089780
564.991032	0.089852
565.204087	0.090175
565.417123	0.090383
565.630141	0.090639
565.843140	0.090963
566.056122	0.090755
566.269085	0.091245
566.482030	0.091096
566.694957	0.091262
566.907866	0.091048
567.120756	0.091192
567.333628	0.091173
567.546482	0.090783
567.759318	0.090665
567.972135	0.091018
568.184935	0.091576
568.397716	0.091828
568.610478	0.091851
568.823223	0.092428
569.035949	0.092679
569.248657	0.093052
569.461347	0.093402
569.674019	0.093740
569.886672	0.093563
570.099308	0.092987
570.311925	0.092853
570.524523	0.093145
570.737104	0.093216
570.949666	0.093158
571.162210	0.092734
571.374736	0.092727
571.587244	0.092695
571.799733	0.092499
572.012205	0.092670
572.224658	0.092857
572.437092	0.092457
572.649509	0.092389
572.861907	0.092188
573.074287	0.092380
573.286649	0.092818
573.498993	0.092674
573.711318	0.093090
573.923625	0.093034
574.135914	0.092932
574.348185	0.093496
574.560438	0.093632
574.772672	0.093763
574.984888	0.093687
575.197086	0.093458
575.409266	0.093883
575.621427	0.093762
575.833570	0.093822
576.045695	0.093971
576.257802	0.093773
576.469890	0.093665
576.681961	0.093694
576.894013	0.093965
577.106046	0.094138
577.318062	0.093965
577.530059	0.094218
577.742039	0.094253
577.954000	0.093948
578.165942	0.094058
578.377867	0.093937
578.589773	0.093820
578.801661	0.093543
579.013531	0.093589
579.225382	0.093446
579.437216	0.093221
579.649031	0.093134
579.860828	0.093474
580.072606	0.093801
580.284367	0.093958
580.496109	0.094101
580.707833	0.094346
580.919539	0.093950
581.131227	0.094210
581.342896	0.094859
581.554547	0.094904
581.766180	0.095143
581.977795	0.095108
582.189391	0.095092
582.400969	0.095198
582.612529	0.095117
582.824071	0.095644
583.035595	0.095856
583.247100	0.095850
583.458587	0.096133
583.670056	0.096352
583.881506	0.096263
584.092939	0.096243
584.304353	0.095961
584.515749	0.096052
584.727127	0.095902
584.938486	0.095662
585.149828	0.095437
585.361151	0.095531
585.572456	0.095489
585.783742	0.095354
585.995011	0.095791
586.206261	0.096343
586.417493	0.096540
586.628706	0.096646
586.839902	0.097081
587.051079	0.097302
587.262238	0.097225
587.473379	0.096950
587.684502	0.097127
587.895606	0.097058
588.106692	0.096728
588.317760	0.096611
588.528810	0.096737
588.739841	0.096596
588.950855	0.096527
589.161850	0.096505
589.372827	0.096575
589.583785	0.096512
589.794726	0.096236
590.005648	0.096472
590.216552	0.096535
590.427437	0.096124
590.638305	0.096198
590.849154	0.096201
591.059985	0.096372
591.270798	0.096942
591.481592	0.096826
591.692369	0.097022
591.903127	0.097093
592.113867	0.097469
592.324588	0.097814
592.535292	0.097814
592.745977	0.097805
592.956644	0.097716
593.167293	0.097347
593.377923	0.097767
593.588536	0.098087
593.799130	0.098043
594.009706	0.097786
594.220263	0.097584
594.430803	0.097637
594.641324	0.097719
594.851827	0.098123
595.062312	0.098319
595.272778	0.098060
595.483227	0.098093
595.693657	0.098270
595.904069	0.098300
596.114462	0.098443
596.324838	0.098652
596.535195	0.098637
596.745534	0.098497
596.955855	0.098351
597.166157	0.098755
597.376441	0.098890
597.586707	0.098821
597.796955	0.098994
598.007185	0.099263
598.217396	0.099165
598.427589	0.099366
598.637764	0.099231
598.847921	0.099426
599.058060	0.099179
599.268180	0.099164
599.478282	0.099029
599.688366	0.099292
599.898431	0.099327
600.108479	0.099105
600.318508	0.099129
600.528519	0.099350
600.738511	0.099437
600.948486	0.099660
601.158442	0.099504
601.368380	0.099938
601.578300	0.099873
601.788202	0.099962
601.998085	0.100320
602.207950	0.100401
602.417797	0.100646
602.627626	0.100691
602.837436	0.100454
603.047228	0.100733
603.257002	0.100659
603.466758	0.100664
603.676496	0.100539
603.886215	0.100827
604.095916	0.100834
604.305599	0.100894
604.515264	0.100914
604.724910	0.101238
604.934538	0.101469
605.144148	0.101553
605.353740	0.101524
605.563314	0.101933
605.772869	0.101785
605.982406	0.101890
606.191925	0.101827
606.401425	0.102015
606.610908	0.102302
606.820372	0.102403
607.029818	0.102536
607.239246	0.102773
607.448655	0.102980
607.658047	0.103150
607.867420	0.103476
608.076775	0.103378
608.286111	0.103207
608.495430	0.102735
608.704730	0.102545
608.914012	0.102339
609.123275	0.102338
609.332521	0.101888
609.541748	0.101822
609.750957	0.101555
609.960148	0.101674
610.169321	0.101912
610.378475	0.102172
610.587611	0.102312
610.796729	0.102884
611.005829	0.103047
611.214910	0.103594
611.423974	0.103473
611.633019	0.103666
611.842045	0.103827
612.051054	0.104022
612.260044	0.104195
612.469017	0.104232
612.677970	0.104009
612.886906	0.103720
613.095824	0.103351
613.304723	0.103449
613.513604	0.103686
613.722467	0.103727
613.931311	0.103682
614.140138	0.103603
614.348946	0.103223
614.557736	0.103299
614.766507	0.103391
614.975261	0.103411
615.183996	0.103392
615.392713	0.103206
615.601412	0.103374
615.810092	0.103284
616.018754	0.103504
616.227399	0.103785
616.436024	0.104120
616.644632	0.104395
616.853222	0.104699
617.061793	0.104935
617.270346	0.104840
617.478880	0.104762
617.687397	0.104500
617.895895	0.104293
618.104375	0.104449
618.312837	0.104271
618.521281	0.104126
618.729706	0.104391
618.938113	0.104362
619.146502	0.104488
619.354873	0.104544
619.563226	0.104765
619.771560	0.104914
619.979876	0.104806
620.188174	0.105000
620.396453	0.105092
620.604715	0.104733
620.812958	0.104714
621.021183	0.104830
621.229390	0.104956
621.437578	0.105189
621.645748	0.105021
621.853900	0.105250
622.062034	0.105214
622.270150	0.105280
622.478247	0.105321
622.686326	0.105816
622.894387	0.105954
623.102430	0.105831
623.310454	0.105894
623.518461	0.106283
623.726449	0.106420
623.934418	0.106494
624.142370	0.106583
624.350303	0.106764
624.558218	0.106485
624.766115	0.106438
624.973994	0.106392
625.181855	0.106261
625.389697	0.106356
625.597521	0.106405
625.805327	0.106465
626.013114	0.106448
626.220883	0.106587
626.428634	0.106746
626.636367	0.106843
626.844082	0.106825
627.051778	0.107172
627.259457	0.107209
627.467117	0.107191
627.674758	0.107335
627.882382	0.107754
628.089987	0.107658
628.297574	0.107831
628.505143	0.108019
628.712694	0.108466
628.920226	0.108534
629.127740	0.108641
629.335236	0.108899
629.542714	0.109002
629.750174	0.108984
629.957615	0.109339
630.165038	0.109055
630.372443	0.109161
630.579829	0.109418
630.787198	0.109380
630.994548	0.109759
631.201880	0.109785
631.409194	0.110008
631.616489	0.110016
631.823766	0.110011
632.031025	0.110303
632.238266	0.110171
632.445489	0.110291
632.652693	0.110313
632.859879	0.110066
633.067047	0.110015
633.274197	0.109842
633.481329	0.109992
633.688442	0.110135
633.895537	0.110276
634.102614	0.110398
634.309672	0.110171
634.516713	0.110309
634.723735	0.110232
634.930739	0.110331
635.137724	0.110242
635.344692	0.110118
635.551641	0.110000
635.758572	0.110033
635.965485	0.110330
636.172379	0.110260
636.379256	0.110268
636.586114	0.110307
636.792954	0.110099
636.999775	0.110160
637.206579	0.110338
637.413364	0.110485
637.620131	0.110426
637.826880	0.110168
638.033610	0.110396
638.240323	0.110318
638.447017	0.110569
638.653692	0.110778
638.860350	0.110926
639.066990	0.110908
639.273611	0.110955
639.480214	0.111222
639.686798	0.111587
639.893365	0.111690
640.099913	0.112026
640.306443	0.112219
640.512955	0.112636
640.719449	0.112731
640.925924	0.112938
641.132381	0.113124
641.338820	0.113053
641.545241	0.113029
641.751644	0.113050
641.958028	0.113217
642.164394	0.113182
642.370742	0.113224
642.577071	0.113339
642.783383	0.113216
642.989676	0.113165
643.195951	0.113404
643.402207	0.113335
643.608446	0.113302
643.814666	0.113224
644.020868	0.113299
644.227052	0.113247
644.433218	0.113136
644.639365	0.113415
644.845494	0.113788
645.051605	0.113861
645.257698	0.113986
645.463772	0.114329
645.669828	0.114374
645.875866	0.114400
646.081886	0.114565
646.287888	0.114821
646.493871	0.114737
646.699836	0.114770
646.905783	0.114930
647.111712	0.115284
647.317622	0.115345
647.523514	0.115652
647.729388	0.115783
647.935244	0.115835
648.141082	0.116100
648.346901	0.116460
648.552702	0.116444
648.758485	0.116348
648.964250	0.116298
649.169996	0.116342
649.375724	0.116515
649.581434	0.116837
649.787126	0.117041
649.992800	0.116864
650.198455	0.116777
650.404092	0.116903
650.609711	0.116983
650.815311	0.117068
651.020894	0.117186
651.226458	0.117144
651.432004	0.117186
651.637532	0.117478
651.843041	0.117714
652.048532	0.117903
652.254006	0.118019
652.459460	0.118166
652.664897	0.118327
652.870315	0.118464
653.075716	0.118557
653.281097	0.118578
653.486461	0.118269
653.691807	0.118589
653.897134	0.118797
654.102443	0.118863
654.307734	0.119122
654.513006	0.119403
654.718261	0.119559
654.923497	0.119762
655.128715	0.119934
655.333915	0.120161
655.539096	0.119956
655.744259	0.120082
655.949404	0.120105
656.154531	0.120040
656.359640	0.119921
656.564730	0.119936
656.769802	0.119838
656.974856	0.119877
657.179892	0.120188
657.384909	0.120221
657.589908	0.120203
657.794889	0.120276
657.999852	0.120556
658.204797	0.120916
658.409723	0.121067
658.614631	0.121257
658.819521	0.121328
659.024393	0.121162
659.229246	0.121423
659.434081	0.121679
659.638898	0.121797
659.843697	0.121728
660.048478	0.121759
660.253240	0.121768
660.457984	0.122147
660.662710	0.122284
660.867417	0.122419
661.072107	0.122607
661.276778	0.122734
661.481431	0.122965
661.686066	0.123199
661.890682	0.123182
662.095281	0.123495
662.299861	0.123360
662.504422	0.123540
662.708966	0.123557
662.913491	0.123629
663.117999	0.123541
663.322488	0.123584
663.526958	0.123694
663.731411	0.123832
663.935845	0.123847
664.140261	0.123834
664.344659	0.123749
664.549038	0.124008
664.753400	0.124041
664.957743	0.124190
665.162068	0.124256
665.366375	0.124243
665.570663	0.124202
665.774933	0.124192
665.979185	0.124371
666.183419	0.124557
666.387635	0.124580
666.591832	0.124739
666.796011	0.124703
667.000172	0.124664
667.204315	0.124835
667.408439	0.125152
667.612545	0.125240
667.816634	0.125250
668.020703	0.125237
668.224755	0.125522
668.428788	0.125468
668.632803	0.125683
668.836800	0.126107
669.040779	0.126096
669.244739	0.126113
669.448681	0.126171
669.652605	0.126615
669.856511	0.127137
670.060399	0.127142
670.264268	0.127514
670.468119	0.127756
670.671952	0.127526
670.875767	0.127673
671.079563	0.127761
671.283341	0.127910
671.487101	0.127940
671.690843	0.127703
671.894567	0.127696
672.098272	0.127863
672.301959	0.127789
672.505628	0.128149
672.709278	0.128284
672.912911	0.128454
673.116525	0.128758
673.320121	0.128772
673.523699	0.129084
673.727258	0.129516
673.930799	0.129595
674.134322	0.129729
674.337827	0.129971
674.541314	0.130239
674.744782	0.130289
674.948232	0.130280
675.151664	0.130529
675.355078	0.130556
675.558474	0.130470
675.761851	0.130507
675.965210	0.130845
676.168551	0.130883
676.371873	0.131130
676.575178	0.131313
676.778464	0.131592
676.981732	0.131779
677.184981	0.131892
677.388213	0.132019
677.591426	0.131886
677.794621	0.131849
677.997798	0.131738
678.200956	0.131518
678.404097	0.131590
678.607219	0.131509
678.810323	0.131359
679.013408	0.131350
679.216476	0.131456
679.419525	0.131802
679.622556	0.131659
679.825569	0.131870
680.028563	0.132039
680.231540	0.131981
680.434498	0.132218
680.637438	0.132360
680.840359	0.132485
681.043263	0.132484
681.246148	0.132471
681.449015	0.132470
681.651864	0.132535
681.854694	0.132694
682.057506	0.132964
682.260301	0.132843
682.463076	0.132878
682.665834	0.133125
682.868573	0.133330
683.071295	0.133620
683.273998	0.134193
683.476682	0.134420
683.679349	0.134508
683.881997	0.134700
684.084627	0.134943
684.287239	0.135124
684.489833	0.135341
684.692408	0.135468
684.894965	0.135399
685.097504	0.135359
685.300025	0.135421
685.502527	0.135354
685.705012	0.135282
685.907478	0.135183
686.109925	0.135217
686.312355	0.135164
686.514766	0.135195
686.717159	0.135250
686.919534	0.135396
687.121891	0.135421
687.324230	0.135504
687.526550	0.135514
687.728852	0.135567
687.931136	0.135691
688.133401	0.135399
688.335649	0.135498
688.537878	0.135748
688.740089	0.135757
688.942281	0.135801
689.144456	0.136093
689.346612	0.136282
689.548750	0.136447
689.750870	0.136346
689.952971	0.136722
690.155055	0.136705
690.357120	0.136494
690.559167	0.136436
690.761195	0.136356
690.963206	0.136410
691.165198	0.136495
691.367172	0.136600
691.569128	0.136621
691.771065	0.136622
691.972984	0.136719
692.174885	0.136928
692.376768	0.137026
692.578633	0.137081
692.780479	0.136836
692.982308	0.136699
693.184118	0.136748
693.385909	0.136836
