sample name	sample
index	960
start time	 04-12-2021  04:09:01 PM


Wavelength (nm)	Absorbance
494.344910	0.470973
494.563924	0.470973
494.782919	0.470973
495.001897	-0.129037
495.220856	0.091682
495.439797	0.025822
495.658719	0.032667
495.877624	-0.015857
496.096510	0.024373
496.315378	0.020490
496.534227	0.002980
496.753059	-0.012700
496.971872	-0.041706
497.190667	0.131374
497.409444	0.164816
497.628203	0.174702
497.846943	0.179727
498.065665	0.179397
498.284369	0.180603
498.503055	0.182176
498.721723	0.181239
498.940372	0.182039
499.159003	0.180478
499.377616	0.180164
499.596210	0.178302
499.814787	0.178051
500.033345	0.178249
500.251885	0.178185
500.470406	0.177701
500.688910	0.177749
500.907395	0.177069
501.125862	0.178973
501.344311	0.179672
501.562742	0.180912
501.781154	0.181118
501.999548	0.181614
502.217924	0.180575
502.436282	0.181223
502.654621	0.182732
502.872942	0.183968
503.091245	0.184109
503.309530	0.183893
503.527797	0.182793
503.746045	0.182866
503.964275	0.184044
504.182487	0.185805
504.400681	0.185380
504.618856	0.185410
504.837013	0.185393
505.055152	0.185782
505.273273	0.186679
505.491376	0.187940
505.709460	0.187347
505.927526	0.186847
506.145574	0.186728
506.363604	0.187572
506.581615	0.188017
506.799608	0.188804
507.017583	0.188496
507.235540	0.188530
507.453478	0.188643
507.671399	0.189418
507.889301	0.189076
508.107185	0.189796
508.325050	0.189722
508.542898	0.189869
508.760727	0.190195
508.978538	0.190116
509.196330	0.190881
509.414105	0.190598
509.631861	0.191848
509.849599	0.191668
510.067319	0.190945
510.285021	0.192459
510.502704	0.192653
510.720369	0.191947
510.938016	0.192654
511.155645	0.192139
511.373255	0.193306
511.590848	0.192977
511.808422	0.193272
512.025977	0.194934
512.243515	0.194400
512.461034	0.194452
512.678536	0.195297
512.896018	0.195599
513.113483	0.196426
513.330930	0.195809
513.548358	0.196402
513.765768	0.197127
513.983160	0.196533
514.200533	0.196408
514.417889	0.196182
514.635226	0.196181
514.852545	0.196030
515.069845	0.195868
515.287128	0.196756
515.504392	0.196101
515.721638	0.196773
515.938866	0.197160
516.156075	0.198588
516.373267	0.199263
516.590440	0.199302
516.807594	0.200030
517.024731	0.200332
517.241850	0.200480
517.458950	0.201117
517.676032	0.200608
517.893095	0.200818
518.110141	0.200954
518.327168	0.200891
518.544177	0.201172
518.761168	0.201073
518.978141	0.201633
519.195095	0.202179
519.412031	0.202154
519.628949	0.202582
519.845849	0.203121
520.062731	0.202731
520.279594	0.204067
520.496439	0.203704
520.713266	0.204743
520.930074	0.204376
521.146865	0.204357
521.363637	0.204680
521.580391	0.205951
521.797127	0.205839
522.013844	0.205616
522.230543	0.205689
522.447224	0.206764
522.663887	0.206141
522.880532	0.207014
523.097158	0.206694
523.313766	0.208112
523.530356	0.208209
523.746928	0.208594
523.963481	0.210297
524.180017	0.210142
524.396534	0.210503
524.613032	0.211116
524.829513	0.211273
525.045975	0.211807
525.262420	0.212070
525.478845	0.212780
525.695253	0.213853
525.911643	0.213007
526.128014	0.213595
526.344367	0.213874
526.560702	0.214725
526.777018	0.214808
526.993316	0.215967
527.209597	0.215168
527.425858	0.215030
527.642102	0.215327
527.858328	0.216706
528.074535	0.217072
528.290724	0.217776
528.506894	0.217809
528.723047	0.218736
528.939181	0.219126
529.155297	0.219955
529.371395	0.220275
529.587475	0.220361
529.803536	0.219816
530.019579	0.219811
530.235604	0.220236
530.451611	0.220228
530.667600	0.221002
530.883570	0.221437
531.099522	0.222073
531.315456	0.222299
531.531372	0.222277
531.747269	0.223588
531.963148	0.224044
532.179009	0.224492
532.394852	0.225754
532.610676	0.225166
532.826482	0.225419
533.042271	0.225711
533.258040	0.226374
533.473792	0.227003
533.689525	0.227789
533.905240	0.228320
534.120937	0.228390
534.336616	0.228308
534.552277	0.228604
534.767919	0.228988
534.983543	0.229706
535.199149	0.229619
535.414736	0.229814
535.630306	0.229426
535.845857	0.229986
536.061390	0.230656
536.276904	0.230906
536.492401	0.231907
536.707879	0.232687
536.923339	0.232425
537.138781	0.232797
537.354204	0.233265
537.569610	0.233746
537.784997	0.233940
538.000366	0.234656
538.215716	0.235364
538.431049	0.235037
538.646363	0.235005
538.861659	0.236103
539.076937	0.236971
539.292196	0.237912
539.507438	0.237946
539.722661	0.238214
539.937866	0.238247
540.153052	0.238656
540.368221	0.239161
540.583371	0.239001
540.798503	0.238968
541.013617	0.238812
541.228712	0.239230
541.443789	0.239765
541.658848	0.240459
541.873889	0.240844
542.088912	0.241165
542.303916	0.241610
542.518902	0.242434
542.733870	0.243113
542.948820	0.244350
543.163752	0.244602
543.378665	0.245436
543.593560	0.245753
543.808437	0.245455
544.023295	0.245819
544.238136	0.246402
544.452958	0.246890
544.667762	0.246503
544.882548	0.245849
545.097315	0.245871
545.312064	0.245440
545.526795	0.245834
545.741508	0.246627
545.956203	0.247062
546.170879	0.247308
546.385537	0.246962
546.600177	0.247671
546.814799	0.248389
547.029402	0.248483
547.243988	0.248605
547.458555	0.249156
547.673103	0.249766
547.887634	0.249672
548.102146	0.249823
548.316640	0.250535
548.531116	0.250799
548.745574	0.251176
548.960013	0.251837
549.174435	0.252767
549.388838	0.252149
549.603222	0.252660
549.817589	0.253236
550.031937	0.253381
550.246267	0.253564
550.460579	0.253732
550.674873	0.253992
550.889148	0.254107
551.103405	0.253710
551.317644	0.254559
551.531865	0.254118
551.746068	0.253878
551.960252	0.254345
552.174418	0.254789
552.388566	0.255050
552.602696	0.255094
552.816807	0.254814
553.030900	0.255393
553.244975	0.255761
553.459032	0.255862
553.673070	0.256389
553.887091	0.256786
554.101093	0.256787
554.315077	0.257345
554.529042	0.257720
554.742990	0.258451
554.956919	0.258921
555.170830	0.259126
555.384722	0.259667
555.598597	0.259736
555.812453	0.259771
556.026291	0.259330
556.240111	0.259113
556.453913	0.259001
556.667696	0.259065
556.881461	0.259475
557.095208	0.259595
557.308937	0.259643
557.522647	0.260107
557.736339	0.260765
557.950013	0.261630
558.163669	0.261741
558.377307	0.262010
558.590926	0.262432
558.804527	0.261943
559.018110	0.261855
559.231675	0.262194
559.445221	0.262416
559.658749	0.262597
559.872259	0.262695
560.085751	0.263313
560.299225	0.263577
560.512680	0.263743
560.726117	0.263890
560.939536	0.264621
561.152937	0.264792
561.366319	0.265015
561.579683	0.264663
561.793029	0.264601
562.006357	0.264495
562.219667	0.264692
562.432958	0.264940
562.646231	0.265843
562.859486	0.266064
563.072723	0.266350
563.285941	0.266326
563.499141	0.266865
563.712323	0.267193
563.925487	0.267322
564.138632	0.267786
564.351760	0.267473
564.564869	0.267634
564.777960	0.267193
564.991032	0.267089
565.204087	0.266877
565.417123	0.266580
565.630141	0.267344
565.843140	0.267565
566.056122	0.267843
566.269085	0.268297
566.482030	0.268011
566.694957	0.268643
566.907866	0.268853
567.120756	0.269630
567.333628	0.269974
567.546482	0.269920
567.759318	0.269929
567.972135	0.269539
568.184935	0.269842
568.397716	0.270318
568.610478	0.270444
568.823223	0.270900
569.035949	0.270783
569.248657	0.270956
569.461347	0.271093
569.674019	0.271428
569.886672	0.271954
570.099308	0.272103
570.311925	0.272244
570.524523	0.271929
570.737104	0.271607
570.949666	0.272173
571.162210	0.272178
571.374736	0.272285
571.587244	0.272737
571.799733	0.272708
572.012205	0.272410
572.224658	0.272507
572.437092	0.273157
572.649509	0.273464
572.861907	0.273368
573.074287	0.273780
573.286649	0.273849
573.498993	0.274209
573.711318	0.274334
573.923625	0.274949
574.135914	0.274835
574.348185	0.274681
574.560438	0.275176
574.772672	0.275633
574.984888	0.275537
575.197086	0.275903
575.409266	0.275840
575.621427	0.276190
575.833570	0.276273
576.045695	0.276722
576.257802	0.276908
576.469890	0.276859
576.681961	0.276839
576.894013	0.277270
577.106046	0.277245
577.318062	0.277754
577.530059	0.277813
577.742039	0.277927
577.954000	0.277756
578.165942	0.278205
578.377867	0.279069
578.589773	0.278889
578.801661	0.279212
579.013531	0.279420
579.225382	0.279173
579.437216	0.279420
579.649031	0.279350
579.860828	0.279397
580.072606	0.279272
580.284367	0.278786
580.496109	0.279259
580.707833	0.279028
580.919539	0.279388
581.131227	0.279584
581.342896	0.279990
581.554547	0.279968
581.766180	0.280055
581.977795	0.279775
582.189391	0.280079
582.400969	0.280035
582.612529	0.280119
582.824071	0.279759
583.035595	0.279845
583.247100	0.279797
583.458587	0.280332
583.670056	0.280969
583.881506	0.281555
584.092939	0.281929
584.304353	0.282202
584.515749	0.282992
584.727127	0.283663
584.938486	0.283702
585.149828	0.284282
585.361151	0.284284
585.572456	0.284521
585.783742	0.285072
585.995011	0.285408
586.206261	0.285558
586.417493	0.285749
586.628706	0.286009
586.839902	0.286406
587.051079	0.286203
587.262238	0.287103
587.473379	0.287286
587.684502	0.287284
587.895606	0.287354
588.106692	0.287568
588.317760	0.287652
588.528810	0.287302
588.739841	0.287489
588.950855	0.287937
589.161850	0.287831
589.372827	0.288185
589.583785	0.288492
589.794726	0.288322
590.005648	0.288632
590.216552	0.288227
590.427437	0.288694
590.638305	0.288957
590.849154	0.288698
591.059985	0.288845
591.270798	0.288860
591.481592	0.288811
591.692369	0.289237
591.903127	0.289490
592.113867	0.290379
592.324588	0.290503
592.535292	0.290615
592.745977	0.291091
592.956644	0.291359
593.167293	0.291681
593.377923	0.292083
593.588536	0.291824
593.799130	0.291962
594.009706	0.291521
594.220263	0.291727
594.430803	0.291740
594.641324	0.291741
594.851827	0.292068
595.062312	0.291892
595.272778	0.291806
595.483227	0.292513
595.693657	0.292345
595.904069	0.292894
596.114462	0.293044
596.324838	0.293296
596.535195	0.293574
596.745534	0.293494
596.955855	0.293885
597.166157	0.294312
597.376441	0.294296
597.586707	0.294714
597.796955	0.294908
598.007185	0.295314
598.217396	0.295532
598.427589	0.295839
598.637764	0.296175
598.847921	0.296540
599.058060	0.296797
599.268180	0.296673
599.478282	0.296524
599.688366	0.297126
599.898431	0.297231
600.108479	0.297924
600.318508	0.297734
600.528519	0.297794
600.738511	0.297940
600.948486	0.297670
601.158442	0.298400
601.368380	0.298838
601.578300	0.298581
601.788202	0.298324
601.998085	0.297564
602.207950	0.298051
602.417797	0.297809
602.627626	0.297561
602.837436	0.297860
603.047228	0.297730
603.257002	0.297972
603.466758	0.298009
603.676496	0.298613
603.886215	0.299104
604.095916	0.299377
604.305599	0.299682
604.515264	0.299672
604.724910	0.300121
604.934538	0.299998
605.144148	0.300189
605.353740	0.300557
605.563314	0.300813
605.772869	0.300843
605.982406	0.300705
606.191925	0.301057
606.401425	0.301469
606.610908	0.301757
606.820372	0.302139
607.029818	0.302310
607.239246	0.302781
607.448655	0.302661
607.658047	0.303079
607.867420	0.303102
608.076775	0.303185
608.286111	0.303441
608.495430	0.303119
608.704730	0.303428
608.914012	0.303377
609.123275	0.303316
609.332521	0.303578
609.541748	0.303641
609.750957	0.303942
609.960148	0.304209
610.169321	0.304209
610.378475	0.304457
610.587611	0.304291
610.796729	0.304547
611.005829	0.304485
611.214910	0.304526
611.423974	0.304488
611.633019	0.304719
611.842045	0.304742
612.051054	0.305004
612.260044	0.305148
612.469017	0.305422
612.677970	0.305761
612.886906	0.306008
613.095824	0.306421
613.304723	0.306740
613.513604	0.306720
613.722467	0.306863
613.931311	0.307053
614.140138	0.307418
614.348946	0.307838
614.557736	0.307855
614.766507	0.307906
614.975261	0.307981
615.183996	0.308284
615.392713	0.308736
615.601412	0.309015
615.810092	0.309165
616.018754	0.309288
616.227399	0.309069
616.436024	0.309136
616.644632	0.309644
616.853222	0.309659
617.061793	0.309548
617.270346	0.309553
617.478880	0.309703
617.687397	0.309854
617.895895	0.309951
618.104375	0.310101
618.312837	0.310137
618.521281	0.310329
618.729706	0.310522
618.938113	0.310903
619.146502	0.311182
619.354873	0.311528
619.563226	0.311633
619.771560	0.311651
619.979876	0.312064
620.188174	0.312643
620.396453	0.312464
620.604715	0.312622
620.812958	0.312702
621.021183	0.312535
621.229390	0.312701
621.437578	0.312928
621.645748	0.313146
621.853900	0.313050
622.062034	0.313037
622.270150	0.313172
622.478247	0.313257
622.686326	0.313603
622.894387	0.313789
623.102430	0.313784
623.310454	0.313818
623.518461	0.313911
623.726449	0.314103
623.934418	0.314168
624.142370	0.314744
624.350303	0.315237
624.558218	0.315268
624.766115	0.315569
624.973994	0.315554
625.181855	0.315744
625.389697	0.316042
625.597521	0.316390
625.805327	0.316643
626.013114	0.316538
626.220883	0.316454
626.428634	0.316468
626.636367	0.316561
626.844082	0.316642
627.051778	0.317059
627.259457	0.317114
627.467117	0.317113
627.674758	0.317053
627.882382	0.317200
628.089987	0.317346
628.297574	0.317473
628.505143	0.317524
628.712694	0.317960
628.920226	0.317748
629.127740	0.318000
629.335236	0.318385
629.542714	0.318483
629.750174	0.318651
629.957615	0.318842
630.165038	0.319143
630.372443	0.319617
630.579829	0.319625
630.787198	0.320085
630.994548	0.319919
631.201880	0.320011
631.409194	0.320175
631.616489	0.320571
631.823766	0.320785
632.031025	0.321108
632.238266	0.320993
632.445489	0.321378
632.652693	0.321464
632.859879	0.321822
633.067047	0.321977
633.274197	0.322729
633.481329	0.322655
633.688442	0.322895
633.895537	0.323005
634.102614	0.323526
634.309672	0.323435
634.516713	0.323475
634.723735	0.323796
634.930739	0.324191
635.137724	0.323818
635.344692	0.323769
635.551641	0.324049
635.758572	0.323892
635.965485	0.324055
636.172379	0.324303
636.379256	0.324556
636.586114	0.324569
636.792954	0.324521
636.999775	0.325036
637.206579	0.325242
637.413364	0.325362
637.620131	0.325704
637.826880	0.325930
638.033610	0.326285
638.240323	0.326382
638.447017	0.326506
638.653692	0.326746
638.860350	0.326828
639.066990	0.326922
639.273611	0.326673
639.480214	0.326825
639.686798	0.326846
639.893365	0.327110
640.099913	0.327316
640.306443	0.327633
640.512955	0.327690
640.719449	0.327818
640.925924	0.328196
641.132381	0.328685
641.338820	0.328936
641.545241	0.328879
641.751644	0.328763
641.958028	0.329181
642.164394	0.329446
642.370742	0.329582
642.577071	0.329515
642.783383	0.329625
642.989676	0.329935
643.195951	0.330183
643.402207	0.330797
643.608446	0.331262
643.814666	0.331260
644.020868	0.331198
644.227052	0.331340
644.433218	0.331774
644.639365	0.332042
644.845494	0.332066
645.051605	0.331878
645.257698	0.331569
645.463772	0.331478
645.669828	0.331561
645.875866	0.331896
646.081886	0.332081
646.287888	0.332013
646.493871	0.331706
646.699836	0.332238
646.905783	0.332969
647.111712	0.333426
647.317622	0.333901
647.523514	0.334151
647.729388	0.334400
647.935244	0.334695
648.141082	0.335034
648.346901	0.335851
648.552702	0.335892
648.758485	0.336003
648.964250	0.336281
649.169996	0.336314
649.375724	0.336415
649.581434	0.336745
649.787126	0.336809
649.992800	0.337077
650.198455	0.337285
650.404092	0.337081
650.609711	0.337254
650.815311	0.337191
651.020894	0.337361
651.226458	0.338054
651.432004	0.338037
651.637532	0.338642
651.843041	0.338887
652.048532	0.338991
652.254006	0.339283
652.459460	0.339307
652.664897	0.339807
652.870315	0.340185
653.075716	0.339853
653.281097	0.340104
653.486461	0.340168
653.691807	0.340374
653.897134	0.340584
654.102443	0.340874
654.307734	0.341220
654.513006	0.341537
654.718261	0.341549
654.923497	0.342157
655.128715	0.342732
655.333915	0.343194
655.539096	0.343374
655.744259	0.343472
655.949404	0.343790
656.154531	0.344038
656.359640	0.344085
656.564730	0.344552
656.769802	0.344681
656.974856	0.344788
657.179892	0.344744
657.384909	0.345189
657.589908	0.345544
657.794889	0.345870
657.999852	0.346056
658.204797	0.346443
658.409723	0.346456
658.614631	0.346631
658.819521	0.346813
659.024393	0.346973
659.229246	0.347085
659.434081	0.347391
659.638898	0.347505
659.843697	0.347328
660.048478	0.347596
660.253240	0.347925
660.457984	0.348261
660.662710	0.348611
660.867417	0.348980
661.072107	0.348981
661.276778	0.348759
661.481431	0.349224
661.686066	0.350068
661.890682	0.350264
662.095281	0.350423
662.299861	0.350613
662.504422	0.350543
662.708966	0.350617
662.913491	0.351126
663.117999	0.351754
663.322488	0.351841
663.526958	0.351814
663.731411	0.352006
663.935845	0.352334
664.140261	0.352640
664.344659	0.353373
664.549038	0.353544
664.753400	0.353824
664.957743	0.354209
665.162068	0.354333
665.366375	0.354612
665.570663	0.354719
665.774933	0.354904
665.979185	0.355120
666.183419	0.354957
666.387635	0.355454
666.591832	0.355514
666.796011	0.355604
667.000172	0.355686
667.204315	0.355897
667.408439	0.356080
667.612545	0.356190
667.816634	0.356625
668.020703	0.357038
668.224755	0.357175
668.428788	0.357593
668.632803	0.358070
668.836800	0.358401
669.040779	0.358677
669.244739	0.358894
669.448681	0.359213
669.652605	0.359603
669.856511	0.359685
670.060399	0.359792
670.264268	0.359862
670.468119	0.359814
670.671952	0.360238
670.875767	0.360272
671.079563	0.360422
671.283341	0.360498
671.487101	0.360207
671.690843	0.360137
671.894567	0.360409
672.098272	0.360615
672.301959	0.360984
672.505628	0.360972
672.709278	0.361510
672.912911	0.361893
673.116525	0.362103
673.320121	0.362402
673.523699	0.362674
673.727258	0.362923
673.930799	0.363133
674.134322	0.363266
674.337827	0.363782
674.541314	0.363847
674.744782	0.364102
674.948232	0.364395
675.151664	0.364617
675.355078	0.365134
675.558474	0.365336
675.761851	0.365628
675.965210	0.365462
676.168551	0.365391
676.371873	0.365540
676.575178	0.365803
676.778464	0.365935
676.981732	0.366053
677.184981	0.366348
677.388213	0.366771
677.591426	0.366935
677.794621	0.367652
677.997798	0.367912
678.200956	0.368300
678.404097	0.368512
678.607219	0.369034
678.810323	0.369646
679.013408	0.369748
679.216476	0.369965
679.419525	0.370353
679.622556	0.370480
679.825569	0.370853
680.028563	0.371214
680.231540	0.371273
680.434498	0.371649
680.637438	0.371772
680.840359	0.371919
681.043263	0.372061
681.246148	0.372274
681.449015	0.372385
681.651864	0.372553
681.854694	0.372396
682.057506	0.372804
682.260301	0.372695
682.463076	0.372918
682.665834	0.373167
682.868573	0.373707
683.071295	0.373810
683.273998	0.374304
683.476682	0.374409
683.679349	0.374949
683.881997	0.375201
684.084627	0.375536
684.287239	0.375645
684.489833	0.375695
684.692408	0.375388
684.894965	0.375725
685.097504	0.375682
685.300025	0.376175
685.502527	0.376346
685.705012	0.376110
685.907478	0.376014
686.109925	0.376023
686.312355	0.376158
686.514766	0.376410
686.717159	0.376595
686.919534	0.376859
687.121891	0.376857
687.324230	0.376961
687.526550	0.377595
687.728852	0.378014
687.931136	0.378067
688.133401	0.378605
688.335649	0.378947
688.537878	0.379093
688.740089	0.379072
688.942281	0.379250
689.144456	0.379307
689.346612	0.379546
689.548750	0.379746
689.750870	0.380329
689.952971	0.380596
690.155055	0.380910
690.357120	0.380921
690.559167	0.381561
690.761195	0.381772
690.963206	0.382127
691.165198	0.382256
691.367172	0.382490
691.569128	0.382610
691.771065	0.382641
691.972984	0.382879
692.174885	0.383288
692.376768	0.383090
692.578633	0.383391
692.780479	0.383543
692.982308	0.383351
693.184118	0.383720
693.385909	0.383715
