sample name	sample
index	1154
start time	 04-22-2021  03:43:13 PM


Wavelength (nm)	Absorbance
494.344910	NaN
494.563924	NaN
494.782919	NaN
495.001897	-0.755580
495.220856	0.146269
495.439797	-0.062910
495.658719	-0.194499
495.877624	-0.179251
496.096510	-0.007139
496.315378	-0.030487
496.534227	0.024806
496.753059	-0.167681
496.971872	0.010197
497.190667	0.076556
497.409444	0.093924
497.628203	0.098536
497.846943	0.099081
498.065665	0.097651
498.284369	0.099702
498.503055	0.100007
498.721723	0.100860
498.940372	0.100768
499.159003	0.102340
499.377616	0.103243
499.596210	0.103154
499.814787	0.104251
500.033345	0.104792
500.251885	0.103785
500.470406	0.103868
500.688910	0.104307
500.907395	0.104850
501.125862	0.103978
501.344311	0.103213
501.562742	0.103217
501.781154	0.100876
501.999548	0.101570
502.217924	0.100267
502.436282	0.100892
502.654621	0.100313
502.872942	0.100310
503.091245	0.099908
503.309530	0.099144
503.527797	0.098717
503.746045	0.100113
503.964275	0.100521
504.182487	0.103073
504.400681	0.101119
504.618856	0.101595
504.837013	0.100853
505.055152	0.100648
505.273273	0.101131
505.491376	0.101106
505.709460	0.099796
505.927526	0.098991
506.145574	0.098236
506.363604	0.099316
506.581615	0.099009
506.799608	0.098978
507.017583	0.099297
507.235540	0.099221
507.453478	0.100498
507.671399	0.100449
507.889301	0.100900
508.107185	0.099896
508.325050	0.099832
508.542898	0.100423
508.760727	0.101002
508.978538	0.101217
509.196330	0.101428
509.414105	0.100549
509.631861	0.101184
509.849599	0.100180
510.067319	0.100876
510.285021	0.101270
510.502704	0.101665
510.720369	0.101776
510.938016	0.101946
511.155645	0.101600
511.373255	0.101658
511.590848	0.101845
511.808422	0.101965
512.025977	0.102005
512.243515	0.101473
512.461034	0.100552
512.678536	0.100978
512.896018	0.101983
513.113483	0.102887
513.330930	0.102774
513.548358	0.103982
513.765768	0.104678
513.983160	0.103885
514.200533	0.105057
514.417889	0.105744
514.635226	0.105007
514.852545	0.104207
515.069845	0.103511
515.287128	0.102902
515.504392	0.102310
515.721638	0.102635
515.938866	0.103746
516.156075	0.103381
516.373267	0.102727
516.590440	0.103608
516.807594	0.103142
517.024731	0.103751
517.241850	0.104689
517.458950	0.104646
517.676032	0.105033
517.893095	0.104849
518.110141	0.104257
518.327168	0.104088
518.544177	0.103677
518.761168	0.104399
518.978141	0.104025
519.195095	0.103463
519.412031	0.103530
519.628949	0.102674
519.845849	0.102962
520.062731	0.104131
520.279594	0.105106
520.496439	0.104920
520.713266	0.105549
520.930074	0.106443
521.146865	0.107573
521.363637	0.108116
521.580391	0.108957
521.797127	0.109845
522.013844	0.110026
522.230543	0.109824
522.447224	0.109810
522.663887	0.109180
522.880532	0.109193
523.097158	0.108293
523.313766	0.107904
523.530356	0.107604
523.746928	0.107010
523.963481	0.106701
524.180017	0.107348
524.396534	0.108202
524.613032	0.108465
524.829513	0.108343
525.045975	0.108671
525.262420	0.108613
525.478845	0.108868
525.695253	0.108550
525.911643	0.109365
526.128014	0.109358
526.344367	0.109012
526.560702	0.109356
526.777018	0.109455
526.993316	0.110311
527.209597	0.110917
527.425858	0.111068
527.642102	0.111814
527.858328	0.111142
528.074535	0.110788
528.290724	0.111201
528.506894	0.111196
528.723047	0.111091
528.939181	0.110084
529.155297	0.110134
529.371395	0.110117
529.587475	0.109546
529.803536	0.110013
530.019579	0.110978
530.235604	0.111472
530.451611	0.112673
530.667600	0.113116
530.883570	0.113791
531.099522	0.114238
531.315456	0.114964
531.531372	0.115927
531.747269	0.115497
531.963148	0.115374
532.179009	0.115190
532.394852	0.114382
532.610676	0.114665
532.826482	0.115227
533.042271	0.114493
533.258040	0.113819
533.473792	0.114083
533.689525	0.114658
533.905240	0.114001
534.120937	0.113839
534.336616	0.114068
534.552277	0.113745
534.767919	0.113960
534.983543	0.114368
535.199149	0.115165
535.414736	0.114619
535.630306	0.114395
535.845857	0.115385
536.061390	0.116020
536.276904	0.116245
536.492401	0.116453
536.707879	0.116644
536.923339	0.116918
537.138781	0.116724
537.354204	0.116985
537.569610	0.116946
537.784997	0.116981
538.000366	0.117121
538.215716	0.117232
538.431049	0.117423
538.646363	0.116796
538.861659	0.116815
539.076937	0.116691
539.292196	0.116696
539.507438	0.117286
539.722661	0.117359
539.937866	0.117310
540.153052	0.117124
540.368221	0.116929
540.583371	0.117032
540.798503	0.117463
541.013617	0.117669
541.228712	0.117977
541.443789	0.117924
541.658848	0.117939
541.873889	0.117528
542.088912	0.117783
542.303916	0.118430
542.518902	0.118972
542.733870	0.118881
542.948820	0.119128
543.163752	0.119569
543.378665	0.119868
543.593560	0.119696
543.808437	0.119732
544.023295	0.119626
544.238136	0.119614
544.452958	0.120035
544.667762	0.120057
544.882548	0.120078
545.097315	0.119860
545.312064	0.120058
545.526795	0.120248
545.741508	0.120644
545.956203	0.120428
546.170879	0.120002
546.385537	0.119861
546.600177	0.120022
546.814799	0.120276
547.029402	0.120108
547.243988	0.120201
547.458555	0.120358
547.673103	0.120544
547.887634	0.120975
548.102146	0.121706
548.316640	0.121386
548.531116	0.121379
548.745574	0.121204
548.960013	0.121035
549.174435	0.120886
549.388838	0.120754
549.603222	0.120446
549.817589	0.120071
550.031937	0.119575
550.246267	0.119942
550.460579	0.120104
550.674873	0.120078
550.889148	0.120280
551.103405	0.120090
551.317644	0.120592
551.531865	0.120712
551.746068	0.121390
551.960252	0.121675
552.174418	0.121560
552.388566	0.121283
552.602696	0.121690
552.816807	0.122123
553.030900	0.122446
553.244975	0.122402
553.459032	0.122730
553.673070	0.122581
553.887091	0.122576
554.101093	0.122867
554.315077	0.123413
554.529042	0.123520
554.742990	0.123560
554.956919	0.123929
555.170830	0.123959
555.384722	0.123694
555.598597	0.123669
555.812453	0.123910
556.026291	0.123675
556.240111	0.123971
556.453913	0.123780
556.667696	0.123675
556.881461	0.123093
557.095208	0.123006
557.308937	0.123285
557.522647	0.123195
557.736339	0.122811
557.950013	0.122789
558.163669	0.122132
558.377307	0.122170
558.590926	0.122004
558.804527	0.122328
559.018110	0.122324
559.231675	0.122761
559.445221	0.123359
559.658749	0.123705
559.872259	0.123664
560.085751	0.123906
560.299225	0.124058
560.512680	0.124292
560.726117	0.124382
560.939536	0.124338
561.152937	0.123921
561.366319	0.123746
561.579683	0.123722
561.793029	0.123779
562.006357	0.123773
562.219667	0.123426
562.432958	0.123408
562.646231	0.123632
562.859486	0.123503
563.072723	0.123788
563.285941	0.123718
563.499141	0.124052
563.712323	0.124367
563.925487	0.124430
564.138632	0.125000
564.351760	0.125253
564.564869	0.125203
564.777960	0.125475
564.991032	0.125331
565.204087	0.125639
565.417123	0.125455
565.630141	0.125211
565.843140	0.125275
566.056122	0.125295
566.269085	0.125060
566.482030	0.125154
566.694957	0.125338
566.907866	0.125800
567.120756	0.125659
567.333628	0.125953
567.546482	0.126310
567.759318	0.126430
567.972135	0.126480
568.184935	0.126491
568.397716	0.126316
568.610478	0.126175
568.823223	0.125763
569.035949	0.125668
569.248657	0.125789
569.461347	0.125698
569.674019	0.125811
569.886672	0.125481
570.099308	0.125610
570.311925	0.125554
570.524523	0.125638
570.737104	0.125594
570.949666	0.125714
571.162210	0.125591
571.374736	0.125682
571.587244	0.125568
571.799733	0.125647
572.012205	0.125800
572.224658	0.125745
572.437092	0.125621
572.649509	0.125928
572.861907	0.125900
573.074287	0.125553
573.286649	0.125780
573.498993	0.125824
573.711318	0.125936
573.923625	0.126375
574.135914	0.126631
574.348185	0.126954
574.560438	0.127126
574.772672	0.127252
574.984888	0.127364
575.197086	0.127563
575.409266	0.127609
575.621427	0.127922
575.833570	0.127500
576.045695	0.127578
576.257802	0.127316
576.469890	0.127059
576.681961	0.127224
576.894013	0.127599
577.106046	0.127289
577.318062	0.127373
577.530059	0.127023
577.742039	0.127176
577.954000	0.127253
578.165942	0.127266
578.377867	0.127301
578.589773	0.127365
578.801661	0.127398
579.013531	0.127161
579.225382	0.127270
579.437216	0.127002
579.649031	0.126945
579.860828	0.127182
580.072606	0.127331
580.284367	0.127827
580.496109	0.127589
580.707833	0.127436
580.919539	0.127716
581.131227	0.127729
581.342896	0.128279
581.554547	0.128539
581.766180	0.128457
581.977795	0.128173
582.189391	0.127658
582.400969	0.127778
582.612529	0.128058
582.824071	0.128220
583.035595	0.128252
583.247100	0.128286
583.458587	0.128071
583.670056	0.128143
583.881506	0.128644
584.092939	0.128684
584.304353	0.128852
584.515749	0.128766
584.727127	0.128844
584.938486	0.128987
585.149828	0.129447
585.361151	0.129747
585.572456	0.129353
585.783742	0.129456
585.995011	0.129875
586.206261	0.129957
586.417493	0.130160
586.628706	0.130285
586.839902	0.130326
587.051079	0.129700
587.262238	0.129470
587.473379	0.130003
587.684502	0.130101
587.895606	0.130221
588.106692	0.130160
588.317760	0.130096
588.528810	0.130149
588.739841	0.130291
588.950855	0.130937
589.161850	0.131443
589.372827	0.131594
589.583785	0.131249
589.794726	0.131216
590.005648	0.131140
590.216552	0.131116
590.427437	0.131112
590.638305	0.131336
590.849154	0.130922
591.059985	0.131011
591.270798	0.130749
591.481592	0.131476
591.692369	0.131374
591.903127	0.131333
592.113867	0.131488
592.324588	0.131462
592.535292	0.131434
592.745977	0.131931
592.956644	0.131661
593.167293	0.131994
593.377923	0.131880
593.588536	0.132154
593.799130	0.132292
594.009706	0.132613
594.220263	0.132762
594.430803	0.132959
594.641324	0.132834
594.851827	0.132938
595.062312	0.132795
595.272778	0.132928
595.483227	0.132720
595.693657	0.133059
595.904069	0.132877
596.114462	0.132890
596.324838	0.132617
596.535195	0.132159
596.745534	0.132163
596.955855	0.132027
597.166157	0.132087
597.376441	0.132119
597.586707	0.132154
597.796955	0.132169
598.007185	0.132419
598.217396	0.132595
598.427589	0.133108
598.637764	0.133123
598.847921	0.133626
599.058060	0.133359
599.268180	0.133523
599.478282	0.133876
599.688366	0.134106
599.898431	0.133961
600.108479	0.133834
600.318508	0.133829
600.528519	0.134345
600.738511	0.133996
600.948486	0.134148
601.158442	0.134194
601.368380	0.133808
601.578300	0.133291
601.788202	0.133375
601.998085	0.133358
602.207950	0.133282
602.417797	0.132739
602.627626	0.132924
602.837436	0.133039
603.047228	0.133199
603.257002	0.133329
603.466758	0.133726
603.676496	0.133613
603.886215	0.133865
604.095916	0.134193
604.305599	0.134524
604.515264	0.134198
604.724910	0.134137
604.934538	0.134057
605.144148	0.134037
605.353740	0.134141
605.563314	0.134494
605.772869	0.134312
605.982406	0.134095
606.191925	0.134085
606.401425	0.134190
606.610908	0.134547
606.820372	0.134757
607.029818	0.134697
607.239246	0.135053
607.448655	0.134996
607.658047	0.135154
607.867420	0.135365
608.076775	0.135211
608.286111	0.135376
608.495430	0.134971
608.704730	0.134955
608.914012	0.135254
609.123275	0.135128
609.332521	0.135089
609.541748	0.135293
609.750957	0.135275
609.960148	0.135346
610.169321	0.135772
610.378475	0.136482
610.587611	0.136490
610.796729	0.136298
611.005829	0.136057
611.214910	0.136098
611.423974	0.136041
611.633019	0.136095
611.842045	0.136195
612.051054	0.136226
612.260044	0.135929
612.469017	0.135840
612.677970	0.135861
612.886906	0.135998
613.095824	0.135954
613.304723	0.135916
613.513604	0.136081
613.722467	0.136424
613.931311	0.136441
614.140138	0.136463
614.348946	0.136621
614.557736	0.136791
614.766507	0.136923
614.975261	0.137260
615.183996	0.137562
615.392713	0.137388
615.601412	0.137370
615.810092	0.137564
616.018754	0.137494
616.227399	0.137683
616.436024	0.137540
616.644632	0.137765
616.853222	0.137753
617.061793	0.137679
617.270346	0.138118
617.478880	0.138041
617.687397	0.137781
617.895895	0.137877
618.104375	0.137861
618.312837	0.138201
618.521281	0.137970
618.729706	0.138067
618.938113	0.138354
619.146502	0.138239
619.354873	0.138313
619.563226	0.138335
619.771560	0.138383
619.979876	0.138204
620.188174	0.138349
620.396453	0.138685
620.604715	0.138513
620.812958	0.138365
621.021183	0.138326
621.229390	0.138584
621.437578	0.138844
621.645748	0.139083
621.853900	0.139232
622.062034	0.139190
622.270150	0.139003
622.478247	0.138885
622.686326	0.138708
622.894387	0.138919
623.102430	0.138883
623.310454	0.138890
623.518461	0.138914
623.726449	0.139005
623.934418	0.139022
624.142370	0.139186
624.350303	0.139403
624.558218	0.139583
624.766115	0.139559
624.973994	0.139633
625.181855	0.139507
625.389697	0.139343
625.597521	0.139210
625.805327	0.139168
626.013114	0.139172
626.220883	0.139376
626.428634	0.139240
626.636367	0.139338
626.844082	0.139432
627.051778	0.139617
627.259457	0.139593
627.467117	0.140025
627.674758	0.140180
627.882382	0.140355
628.089987	0.140522
628.297574	0.141055
628.505143	0.141087
628.712694	0.141044
628.920226	0.141056
629.127740	0.141278
629.335236	0.141396
629.542714	0.141510
629.750174	0.141448
629.957615	0.141357
630.165038	0.141122
630.372443	0.140805
630.579829	0.140721
630.787198	0.141114
630.994548	0.141051
631.201880	0.141195
631.409194	0.141140
631.616489	0.141182
631.823766	0.141223
632.031025	0.141297
632.238266	0.141548
632.445489	0.141652
632.652693	0.141603
632.859879	0.141743
633.067047	0.141650
633.274197	0.141864
633.481329	0.142178
633.688442	0.142268
633.895537	0.142289
634.102614	0.142623
634.309672	0.142930
634.516713	0.142806
634.723735	0.142956
634.930739	0.143046
635.137724	0.143071
635.344692	0.143016
635.551641	0.143148
635.758572	0.143216
635.965485	0.142953
636.172379	0.142694
636.379256	0.142635
636.586114	0.142659
636.792954	0.142740
636.999775	0.142536
637.206579	0.142566
637.413364	0.142660
637.620131	0.142780
637.826880	0.143172
638.033610	0.143715
638.240323	0.144192
638.447017	0.144541
638.653692	0.144493
638.860350	0.144997
639.066990	0.145249
639.273611	0.145464
639.480214	0.145454
639.686798	0.145397
639.893365	0.145188
640.099913	0.145108
640.306443	0.145126
640.512955	0.145430
640.719449	0.145432
640.925924	0.145280
641.132381	0.145126
641.338820	0.145713
641.545241	0.145838
641.751644	0.145943
641.958028	0.145953
642.164394	0.145919
642.370742	0.145806
642.577071	0.145820
642.783383	0.145700
642.989676	0.145950
643.195951	0.145810
643.402207	0.146127
643.608446	0.146389
643.814666	0.146353
644.020868	0.146495
644.227052	0.146695
644.433218	0.146857
644.639365	0.147346
644.845494	0.147153
645.051605	0.147108
645.257698	0.147127
645.463772	0.146977
645.669828	0.147243
645.875866	0.147340
646.081886	0.147342
646.287888	0.147335
646.493871	0.147462
646.699836	0.147677
646.905783	0.147697
647.111712	0.147495
647.317622	0.147590
647.523514	0.147722
647.729388	0.147839
647.935244	0.147871
648.141082	0.147954
648.346901	0.148139
648.552702	0.148264
648.758485	0.148577
648.964250	0.148855
649.169996	0.148982
649.375724	0.149039
649.581434	0.149141
649.787126	0.149135
649.992800	0.149463
650.198455	0.149306
650.404092	0.149408
650.609711	0.149454
650.815311	0.149542
651.020894	0.149603
651.226458	0.149988
651.432004	0.150020
651.637532	0.150346
651.843041	0.150385
652.048532	0.150513
652.254006	0.150777
652.459460	0.150894
652.664897	0.150904
652.870315	0.151116
653.075716	0.150843
653.281097	0.150852
653.486461	0.150747
653.691807	0.150724
653.897134	0.150609
654.102443	0.150673
654.307734	0.150630
654.513006	0.150688
654.718261	0.150594
654.923497	0.150730
655.128715	0.150975
655.333915	0.151103
655.539096	0.151111
655.744259	0.151340
655.949404	0.151219
656.154531	0.151444
656.359640	0.151610
656.564730	0.151817
656.769802	0.151849
656.974856	0.151766
657.179892	0.151936
657.384909	0.152065
657.589908	0.151981
657.794889	0.152068
657.999852	0.152039
658.204797	0.152126
658.409723	0.152237
658.614631	0.152328
658.819521	0.152396
659.024393	0.152418
659.229246	0.152642
659.434081	0.153099
659.638898	0.153305
659.843697	0.153511
660.048478	0.153731
660.253240	0.153956
660.457984	0.154128
660.662710	0.154429
660.867417	0.154565
661.072107	0.154516
661.276778	0.154201
661.481431	0.154281
661.686066	0.154317
661.890682	0.154261
662.095281	0.154107
662.299861	0.154050
662.504422	0.153943
662.708966	0.153780
662.913491	0.153744
663.117999	0.153967
663.322488	0.153689
663.526958	0.153639
663.731411	0.153652
663.935845	0.153728
664.140261	0.154002
664.344659	0.154235
664.549038	0.154607
664.753400	0.154718
664.957743	0.155003
665.162068	0.155414
665.366375	0.155483
665.570663	0.155686
665.774933	0.155834
665.979185	0.155978
666.183419	0.155896
666.387635	0.156173
666.591832	0.156386
666.796011	0.156332
667.000172	0.156365
667.204315	0.156815
667.408439	0.156933
667.612545	0.157207
667.816634	0.157231
668.020703	0.157191
668.224755	0.157161
668.428788	0.157053
668.632803	0.157108
668.836800	0.157311
669.040779	0.157052
669.244739	0.157058
669.448681	0.157077
669.652605	0.157250
669.856511	0.157688
670.060399	0.157643
670.264268	0.157888
670.468119	0.158027
670.671952	0.157880
670.875767	0.158101
671.079563	0.158381
671.283341	0.158390
671.487101	0.158473
671.690843	0.158481
671.894567	0.158774
672.098272	0.158729
672.301959	0.158831
672.505628	0.159107
672.709278	0.159215
672.912911	0.159052
673.116525	0.159121
673.320121	0.159002
673.523699	0.158988
673.727258	0.158773
673.930799	0.158937
674.134322	0.159098
674.337827	0.159165
674.541314	0.159039
674.744782	0.159437
674.948232	0.159677
675.151664	0.159798
675.355078	0.159793
675.558474	0.160284
675.761851	0.160475
675.965210	0.160525
676.168551	0.160556
676.371873	0.160728
676.575178	0.160842
676.778464	0.160883
676.981732	0.161133
677.184981	0.161590
677.388213	0.161601
677.591426	0.161892
677.794621	0.162173
677.997798	0.162254
678.200956	0.162387
678.404097	0.162427
678.607219	0.162614
678.810323	0.162546
679.013408	0.162353
679.216476	0.162358
679.419525	0.162333
679.622556	0.162176
679.825569	0.162434
680.028563	0.162481
680.231540	0.162411
680.434498	0.162414
680.637438	0.162508
680.840359	0.162606
681.043263	0.162559
681.246148	0.162721
681.449015	0.162815
681.651864	0.163022
681.854694	0.163113
682.057506	0.163374
682.260301	0.163412
682.463076	0.163614
682.665834	0.163706
682.868573	0.163973
683.071295	0.163840
683.273998	0.163954
683.476682	0.163914
683.679349	0.164015
683.881997	0.164116
684.084627	0.164147
684.287239	0.164254
684.489833	0.164355
684.692408	0.164228
684.894965	0.164524
685.097504	0.164626
685.300025	0.164497
685.502527	0.164751
685.705012	0.164568
685.907478	0.164751
686.109925	0.164680
686.312355	0.164898
686.514766	0.165113
686.717159	0.165104
686.919534	0.165151
687.121891	0.165478
687.324230	0.165530
687.526550	0.165751
687.728852	0.165912
687.931136	0.166086
688.133401	0.166185
688.335649	0.166259
688.537878	0.166306
688.740089	0.166386
688.942281	0.166317
689.144456	0.166534
689.346612	0.166613
689.548750	0.166843
689.750870	0.166945
689.952971	0.166943
690.155055	0.167002
690.357120	0.167164
690.559167	0.167275
690.761195	0.167480
690.963206	0.167573
691.165198	0.167484
691.367172	0.167416
691.569128	0.167364
691.771065	0.167509
691.972984	0.167519
692.174885	0.167456
692.376768	0.167257
692.578633	0.167264
692.780479	0.167114
692.982308	0.167119
693.184118	0.167082
693.385909	0.167206
