sample name	sample
index	1084
start time	 04-22-2021  11:25:52 AM


Wavelength (nm)	Absorbance
494.344910	0.218222
494.563924	0.218222
494.782919	0.218222
495.001897	1.326242
495.220856	0.130577
495.439797	0.126308
495.658719	0.157666
495.877624	0.144688
496.096510	0.096596
496.315378	0.040935
496.534227	0.140266
496.753059	0.182715
496.971872	0.209929
497.190667	0.106448
497.409444	0.104965
497.628203	0.099356
497.846943	0.100320
498.065665	0.099368
498.284369	0.099500
498.503055	0.096887
498.721723	0.096162
498.940372	0.096511
499.159003	0.096835
499.377616	0.095271
499.596210	0.095845
499.814787	0.095059
500.033345	0.096611
500.251885	0.096565
500.470406	0.097342
500.688910	0.098012
500.907395	0.098546
501.125862	0.098806
501.344311	0.098698
501.562742	0.098733
501.781154	0.098674
501.999548	0.095746
502.217924	0.095706
502.436282	0.095904
502.654621	0.096584
502.872942	0.096558
503.091245	0.097037
503.309530	0.098963
503.527797	0.099181
503.746045	0.099136
503.964275	0.100220
504.182487	0.100548
504.400681	0.101166
504.618856	0.099671
504.837013	0.099636
505.055152	0.098415
505.273273	0.097358
505.491376	0.096981
505.709460	0.097647
505.927526	0.097161
506.145574	0.096931
506.363604	0.095654
506.581615	0.096205
506.799608	0.096529
507.017583	0.096233
507.235540	0.096404
507.453478	0.096558
507.671399	0.095935
507.889301	0.095902
508.107185	0.095542
508.325050	0.096211
508.542898	0.096707
508.760727	0.096278
508.978538	0.096992
509.196330	0.097148
509.414105	0.097209
509.631861	0.098147
509.849599	0.099275
510.067319	0.099507
510.285021	0.100138
510.502704	0.100209
510.720369	0.099594
510.938016	0.099941
511.155645	0.099858
511.373255	0.099216
511.590848	0.098705
511.808422	0.098565
512.025977	0.099614
512.243515	0.099257
512.461034	0.099696
512.678536	0.101205
512.896018	0.101552
513.113483	0.100820
513.330930	0.101257
513.548358	0.102128
513.765768	0.102183
513.983160	0.101211
514.200533	0.100478
514.417889	0.099550
514.635226	0.099351
514.852545	0.098589
515.069845	0.099057
515.287128	0.098585
515.504392	0.098263
515.721638	0.098659
515.938866	0.099701
516.156075	0.100453
516.373267	0.101162
516.590440	0.101249
516.807594	0.101995
517.024731	0.102459
517.241850	0.103245
517.458950	0.103249
517.676032	0.102930
517.893095	0.101613
518.110141	0.101697
518.327168	0.101306
518.544177	0.101319
518.761168	0.100764
518.978141	0.100909
519.195095	0.100639
519.412031	0.100432
519.628949	0.100806
519.845849	0.101706
520.062731	0.101579
520.279594	0.102788
520.496439	0.102485
520.713266	0.102579
520.930074	0.102354
521.146865	0.102773
521.363637	0.103107
521.580391	0.103079
521.797127	0.103456
522.013844	0.103720
522.230543	0.103117
522.447224	0.103361
522.663887	0.103862
522.880532	0.103998
523.097158	0.104246
523.313766	0.104387
523.530356	0.104383
523.746928	0.104524
523.963481	0.104879
524.180017	0.104839
524.396534	0.104871
524.613032	0.105899
524.829513	0.105954
525.045975	0.105750
525.262420	0.105598
525.478845	0.105481
525.695253	0.105050
525.911643	0.105032
526.128014	0.105018
526.344367	0.105145
526.560702	0.104609
526.777018	0.105293
526.993316	0.105946
527.209597	0.106269
527.425858	0.106471
527.642102	0.106626
527.858328	0.106548
528.074535	0.106660
528.290724	0.106528
528.506894	0.106821
528.723047	0.106609
528.939181	0.107030
529.155297	0.107005
529.371395	0.107693
529.587475	0.108262
529.803536	0.108707
530.019579	0.109042
530.235604	0.109783
530.451611	0.109437
530.667600	0.109494
530.883570	0.109193
531.099522	0.109669
531.315456	0.109054
531.531372	0.109343
531.747269	0.109516
531.963148	0.109891
532.179009	0.109641
532.394852	0.109998
532.610676	0.109858
532.826482	0.110072
533.042271	0.109641
533.258040	0.110441
533.473792	0.110790
533.689525	0.110385
533.905240	0.109949
534.120937	0.110208
534.336616	0.110036
534.552277	0.110979
534.767919	0.110962
534.983543	0.111309
535.199149	0.111389
535.414736	0.111014
535.630306	0.111414
535.845857	0.111616
536.061390	0.111306
536.276904	0.111432
536.492401	0.111038
536.707879	0.110861
536.923339	0.111102
537.138781	0.110853
537.354204	0.110596
537.569610	0.110914
537.784997	0.111028
538.000366	0.111641
538.215716	0.112133
538.431049	0.112594
538.646363	0.113062
538.861659	0.112966
539.076937	0.113209
539.292196	0.113550
539.507438	0.113309
539.722661	0.113751
539.937866	0.113498
540.153052	0.113250
540.368221	0.112953
540.583371	0.113238
540.798503	0.113283
541.013617	0.113655
541.228712	0.113734
541.443789	0.114129
541.658848	0.114062
541.873889	0.114331
542.088912	0.114813
542.303916	0.115016
542.518902	0.114783
542.733870	0.114916
542.948820	0.114931
543.163752	0.115310
543.378665	0.115193
543.593560	0.115075
543.808437	0.115021
544.023295	0.114790
544.238136	0.115031
544.452958	0.115457
544.667762	0.115882
544.882548	0.115866
545.097315	0.116057
545.312064	0.116207
545.526795	0.116715
545.741508	0.116895
545.956203	0.117412
546.170879	0.117554
546.385537	0.117502
546.600177	0.117544
546.814799	0.117897
547.029402	0.117469
547.243988	0.117492
547.458555	0.117304
547.673103	0.117350
547.887634	0.116904
548.102146	0.116985
548.316640	0.117479
548.531116	0.117546
548.745574	0.117409
548.960013	0.117440
549.174435	0.117642
549.388838	0.117810
549.603222	0.118470
549.817589	0.119138
550.031937	0.119227
550.246267	0.118851
550.460579	0.118718
550.674873	0.118673
550.889148	0.119210
551.103405	0.119877
551.317644	0.120033
551.531865	0.119808
551.746068	0.119616
551.960252	0.119623
552.174418	0.119879
552.388566	0.120384
552.602696	0.120908
552.816807	0.120939
553.030900	0.120584
553.244975	0.120554
553.459032	0.120622
553.673070	0.120817
553.887091	0.120945
554.101093	0.121121
554.315077	0.121137
554.529042	0.121255
554.742990	0.121293
554.956919	0.121340
555.170830	0.121571
555.384722	0.121674
555.598597	0.121755
555.812453	0.121956
556.026291	0.121967
556.240111	0.122067
556.453913	0.122099
556.667696	0.122171
556.881461	0.122309
557.095208	0.122350
557.308937	0.122396
557.522647	0.122663
557.736339	0.122393
557.950013	0.122405
558.163669	0.122677
558.377307	0.122894
558.590926	0.122982
558.804527	0.123073
559.018110	0.123363
559.231675	0.123474
559.445221	0.123086
559.658749	0.123396
559.872259	0.123301
560.085751	0.123017
560.299225	0.122987
560.512680	0.123178
560.726117	0.123187
560.939536	0.122988
561.152937	0.122983
561.366319	0.123251
561.579683	0.123212
561.793029	0.123545
562.006357	0.123612
562.219667	0.123553
562.432958	0.123720
562.646231	0.123788
562.859486	0.124180
563.072723	0.124543
563.285941	0.124536
563.499141	0.124677
563.712323	0.124740
563.925487	0.124890
564.138632	0.125070
564.351760	0.124750
564.564869	0.125081
564.777960	0.124479
564.991032	0.124451
565.204087	0.124826
565.417123	0.124980
565.630141	0.124759
565.843140	0.125117
566.056122	0.125079
566.269085	0.125673
566.482030	0.125342
566.694957	0.125892
566.907866	0.125750
567.120756	0.125552
567.333628	0.125658
567.546482	0.125983
567.759318	0.125372
567.972135	0.124851
568.184935	0.124463
568.397716	0.124710
568.610478	0.124765
568.823223	0.125166
569.035949	0.125794
569.248657	0.126239
569.461347	0.126254
569.674019	0.126949
569.886672	0.127229
570.099308	0.127396
570.311925	0.127531
570.524523	0.127485
570.737104	0.127354
570.949666	0.127017
571.162210	0.126845
571.374736	0.127145
571.587244	0.126938
571.799733	0.127356
572.012205	0.127574
572.224658	0.127585
572.437092	0.127906
572.649509	0.127942
572.861907	0.128134
573.074287	0.127789
573.286649	0.127681
573.498993	0.127723
573.711318	0.127622
573.923625	0.127655
574.135914	0.127807
574.348185	0.128089
574.560438	0.127988
574.772672	0.127852
574.984888	0.127980
575.197086	0.128184
575.409266	0.128213
575.621427	0.128560
575.833570	0.128769
576.045695	0.128088
576.257802	0.127880
576.469890	0.127838
576.681961	0.127961
576.894013	0.128864
577.106046	0.128937
577.318062	0.129145
577.530059	0.128902
577.742039	0.128772
577.954000	0.129505
578.165942	0.129676
578.377867	0.130007
578.589773	0.129806
578.801661	0.129355
579.013531	0.129249
579.225382	0.129104
579.437216	0.129006
579.649031	0.129234
579.860828	0.129306
580.072606	0.129075
580.284367	0.129098
580.496109	0.129390
580.707833	0.129105
580.919539	0.128866
581.131227	0.129135
581.342896	0.129284
581.554547	0.129170
581.766180	0.129041
581.977795	0.129159
582.189391	0.128805
582.400969	0.128910
582.612529	0.129446
582.824071	0.129516
583.035595	0.129642
583.247100	0.129918
583.458587	0.129987
583.670056	0.130180
583.881506	0.130259
584.092939	0.130770
584.304353	0.130470
584.515749	0.130256
584.727127	0.130682
584.938486	0.130773
585.149828	0.130843
585.361151	0.131049
585.572456	0.131006
585.783742	0.131293
585.995011	0.131529
586.206261	0.131919
586.417493	0.131623
586.628706	0.131671
586.839902	0.131440
587.051079	0.131458
587.262238	0.131241
587.473379	0.131397
587.684502	0.131152
587.895606	0.130889
588.106692	0.130824
588.317760	0.131239
588.528810	0.131610
588.739841	0.131869
588.950855	0.132186
589.161850	0.132271
589.372827	0.132563
589.583785	0.132496
589.794726	0.132855
590.005648	0.132789
590.216552	0.132622
590.427437	0.132272
590.638305	0.132481
590.849154	0.132256
591.059985	0.132391
591.270798	0.132041
591.481592	0.132358
591.692369	0.132203
591.903127	0.132250
592.113867	0.132502
592.324588	0.132658
592.535292	0.132578
592.745977	0.132459
592.956644	0.132696
593.167293	0.133220
593.377923	0.133429
593.588536	0.133610
593.799130	0.134069
594.009706	0.134294
594.220263	0.134377
594.430803	0.134288
594.641324	0.134383
594.851827	0.134186
595.062312	0.134464
595.272778	0.134367
595.483227	0.134468
595.693657	0.134524
595.904069	0.134467
596.114462	0.134526
596.324838	0.134661
596.535195	0.134707
596.745534	0.135078
596.955855	0.134800
597.166157	0.134998
597.376441	0.135011
597.586707	0.135089
597.796955	0.135341
598.007185	0.135383
598.217396	0.135242
598.427589	0.135402
598.637764	0.135454
598.847921	0.135255
599.058060	0.135137
599.268180	0.135085
599.478282	0.134901
599.688366	0.134888
599.898431	0.134799
600.108479	0.135301
600.318508	0.135720
600.528519	0.135568
600.738511	0.135559
600.948486	0.135639
601.158442	0.135854
601.368380	0.136176
601.578300	0.135986
601.788202	0.135678
601.998085	0.135376
602.207950	0.135202
602.417797	0.135432
602.627626	0.135783
602.837436	0.135782
603.047228	0.135719
603.257002	0.135736
603.466758	0.135710
603.676496	0.136089
603.886215	0.136174
604.095916	0.136196
604.305599	0.136368
604.515264	0.135960
604.724910	0.135950
604.934538	0.136045
605.144148	0.136019
605.353740	0.136165
605.563314	0.136092
605.772869	0.136048
605.982406	0.135987
606.191925	0.135931
606.401425	0.136534
606.610908	0.136612
606.820372	0.136658
607.029818	0.136811
607.239246	0.137033
607.448655	0.137152
607.658047	0.137410
607.867420	0.137659
608.076775	0.137558
608.286111	0.137573
608.495430	0.137837
608.704730	0.137762
608.914012	0.137811
609.123275	0.137885
609.332521	0.137942
609.541748	0.137350
609.750957	0.137310
609.960148	0.137331
610.169321	0.137085
610.378475	0.137048
610.587611	0.137092
610.796729	0.136926
611.005829	0.137013
611.214910	0.137343
611.423974	0.137903
611.633019	0.137903
611.842045	0.138081
612.051054	0.138307
612.260044	0.138193
612.469017	0.138075
612.677970	0.138037
612.886906	0.137834
613.095824	0.137524
613.304723	0.137430
613.513604	0.137186
613.722467	0.137056
613.931311	0.137251
614.140138	0.137330
614.348946	0.137526
614.557736	0.137766
614.766507	0.137963
614.975261	0.138210
615.183996	0.138014
615.392713	0.138302
615.601412	0.138136
615.810092	0.137650
616.018754	0.137799
616.227399	0.138093
616.436024	0.138133
616.644632	0.137852
616.853222	0.137786
617.061793	0.138234
617.270346	0.138083
617.478880	0.138152
617.687397	0.138401
617.895895	0.138264
618.104375	0.138023
618.312837	0.138025
618.521281	0.138081
618.729706	0.138273
618.938113	0.138327
619.146502	0.138557
619.354873	0.139007
619.563226	0.138832
619.771560	0.139111
619.979876	0.139191
620.188174	0.139274
620.396453	0.139733
620.604715	0.139684
620.812958	0.139746
621.021183	0.140005
621.229390	0.140021
621.437578	0.140555
621.645748	0.140463
621.853900	0.140661
622.062034	0.140475
622.270150	0.140231
622.478247	0.140460
622.686326	0.140647
622.894387	0.140538
623.102430	0.140508
623.310454	0.140259
623.518461	0.140465
623.726449	0.140535
623.934418	0.140802
624.142370	0.140934
624.350303	0.140651
624.558218	0.140335
624.766115	0.140425
624.973994	0.140406
625.181855	0.140400
625.389697	0.140183
625.597521	0.140209
625.805327	0.140342
626.013114	0.140238
626.220883	0.140416
626.428634	0.140804
626.636367	0.140590
626.844082	0.140524
627.051778	0.140755
627.259457	0.140966
627.467117	0.140920
627.674758	0.140831
627.882382	0.141193
628.089987	0.141309
628.297574	0.141435
628.505143	0.141801
628.712694	0.142010
628.920226	0.142159
629.127740	0.142161
629.335236	0.142426
629.542714	0.142555
629.750174	0.142266
629.957615	0.142067
630.165038	0.142027
630.372443	0.141778
630.579829	0.141858
630.787198	0.141767
630.994548	0.141696
631.201880	0.141532
631.409194	0.141336
631.616489	0.141643
631.823766	0.141836
632.031025	0.141505
632.238266	0.141781
632.445489	0.141581
632.652693	0.141816
632.859879	0.142019
633.067047	0.142102
633.274197	0.142353
633.481329	0.142587
633.688442	0.142815
633.895537	0.143407
634.102614	0.143486
634.309672	0.143767
634.516713	0.143726
634.723735	0.143741
634.930739	0.143795
635.137724	0.143835
635.344692	0.143747
635.551641	0.143638
635.758572	0.143279
635.965485	0.143293
636.172379	0.143138
636.379256	0.143402
636.586114	0.143723
636.792954	0.143982
636.999775	0.144072
637.206579	0.143750
637.413364	0.143769
637.620131	0.143984
637.826880	0.144059
638.033610	0.144404
638.240323	0.144242
638.447017	0.144284
638.653692	0.144342
638.860350	0.144405
639.066990	0.144966
639.273611	0.145111
639.480214	0.145096
639.686798	0.145270
639.893365	0.145292
640.099913	0.145475
640.306443	0.145611
640.512955	0.145508
640.719449	0.145416
640.925924	0.145456
641.132381	0.145729
641.338820	0.145777
641.545241	0.145829
641.751644	0.146023
641.958028	0.145912
642.164394	0.145880
642.370742	0.146115
642.577071	0.146265
642.783383	0.146435
642.989676	0.146376
643.195951	0.146742
643.402207	0.146899
643.608446	0.146811
643.814666	0.147015
644.020868	0.147047
644.227052	0.147110
644.433218	0.147386
644.639365	0.147704
644.845494	0.147947
645.051605	0.148253
645.257698	0.148302
645.463772	0.148380
645.669828	0.148195
645.875866	0.148399
646.081886	0.148470
646.287888	0.148547
646.493871	0.148459
646.699836	0.148483
646.905783	0.148097
647.111712	0.148049
647.317622	0.148359
647.523514	0.148750
647.729388	0.148661
647.935244	0.148652
648.141082	0.148731
648.346901	0.148399
648.552702	0.148495
648.758485	0.148722
648.964250	0.148738
649.169996	0.148521
649.375724	0.148523
649.581434	0.148655
649.787126	0.148812
649.992800	0.148504
650.198455	0.148851
650.404092	0.148977
650.609711	0.148960
650.815311	0.149267
651.020894	0.149426
651.226458	0.149696
651.432004	0.149907
651.637532	0.150161
651.843041	0.150773
652.048532	0.151058
652.254006	0.151130
652.459460	0.151573
652.664897	0.151575
652.870315	0.151853
653.075716	0.152117
653.281097	0.152070
653.486461	0.152200
653.691807	0.152287
653.897134	0.152235
654.102443	0.152322
654.307734	0.152167
654.513006	0.152389
654.718261	0.152512
654.923497	0.152471
655.128715	0.152527
655.333915	0.152368
655.539096	0.152400
655.744259	0.152389
655.949404	0.152545
656.154531	0.152838
656.359640	0.152784
656.564730	0.152697
656.769802	0.152549
656.974856	0.152715
657.179892	0.152940
657.384909	0.152970
657.589908	0.153088
657.794889	0.153103
657.999852	0.153094
658.204797	0.153261
658.409723	0.153351
658.614631	0.153675
658.819521	0.153812
659.024393	0.153980
659.229246	0.153888
659.434081	0.153894
659.638898	0.153610
659.843697	0.153436
660.048478	0.153139
660.253240	0.153068
660.457984	0.152962
660.662710	0.152936
660.867417	0.152821
661.072107	0.152874
661.276778	0.152850
661.481431	0.153308
661.686066	0.153367
661.890682	0.153848
662.095281	0.154067
662.299861	0.154024
662.504422	0.154052
662.708966	0.154130
662.913491	0.154299
663.117999	0.154309
663.322488	0.154126
663.526958	0.154354
663.731411	0.154394
663.935845	0.154436
664.140261	0.154694
664.344659	0.154897
664.549038	0.155054
664.753400	0.155001
664.957743	0.155412
665.162068	0.155712
665.366375	0.155857
665.570663	0.155984
665.774933	0.156397
665.979185	0.156541
666.183419	0.156694
666.387635	0.157025
666.591832	0.157198
666.796011	0.157099
667.000172	0.157338
667.204315	0.157421
667.408439	0.157707
667.612545	0.157712
667.816634	0.157820
668.020703	0.157738
668.224755	0.157567
668.428788	0.157658
668.632803	0.157844
668.836800	0.157859
669.040779	0.157987
669.244739	0.157936
669.448681	0.157833
669.652605	0.157867
669.856511	0.158082
670.060399	0.158375
670.264268	0.158648
670.468119	0.158737
670.671952	0.158885
670.875767	0.158689
671.079563	0.158724
671.283341	0.158888
671.487101	0.158871
671.690843	0.159068
671.894567	0.159006
672.098272	0.159081
672.301959	0.159299
672.505628	0.159354
672.709278	0.159839
672.912911	0.159967
673.116525	0.160143
673.320121	0.160106
673.523699	0.160091
673.727258	0.160120
673.930799	0.160184
674.134322	0.160146
674.337827	0.159925
674.541314	0.160183
674.744782	0.160240
674.948232	0.160418
675.151664	0.160665
675.355078	0.160944
675.558474	0.161156
675.761851	0.161549
675.965210	0.161761
676.168551	0.162316
676.371873	0.162234
676.575178	0.162247
676.778464	0.162115
676.981732	0.162321
677.184981	0.162368
677.388213	0.162365
677.591426	0.162272
677.794621	0.162489
677.997798	0.162469
678.200956	0.162370
678.404097	0.162371
678.607219	0.162449
678.810323	0.162364
679.013408	0.162343
679.216476	0.162368
679.419525	0.162489
679.622556	0.162421
679.825569	0.162458
680.028563	0.162598
680.231540	0.162660
680.434498	0.162917
680.637438	0.163253
680.840359	0.163387
681.043263	0.163632
681.246148	0.163605
681.449015	0.163471
681.651864	0.163399
681.854694	0.163298
682.057506	0.163465
682.260301	0.163518
682.463076	0.163328
682.665834	0.163249
682.868573	0.163397
683.071295	0.163414
683.273998	0.163448
683.476682	0.163545
683.679349	0.163979
683.881997	0.164122
684.084627	0.163955
684.287239	0.164051
684.489833	0.164092
684.692408	0.163832
684.894965	0.163817
685.097504	0.164226
685.300025	0.164432
685.502527	0.164209
685.705012	0.164084
685.907478	0.164271
686.109925	0.164401
686.312355	0.164550
686.514766	0.164790
686.717159	0.165167
686.919534	0.165210
687.121891	0.165333
687.324230	0.165578
687.526550	0.165867
687.728852	0.166029
687.931136	0.166244
688.133401	0.166391
688.335649	0.166578
688.537878	0.166462
688.740089	0.166441
688.942281	0.166351
689.144456	0.166344
689.346612	0.166646
689.548750	0.166725
689.750870	0.167023
689.952971	0.167072
690.155055	0.167250
690.357120	0.167150
690.559167	0.167215
690.761195	0.167430
690.963206	0.167451
691.165198	0.167287
691.367172	0.167253
691.569128	0.167138
691.771065	0.167270
691.972984	0.167215
692.174885	0.167510
692.376768	0.167613
692.578633	0.167642
692.780479	0.168013
692.982308	0.168105
693.184118	0.168181
693.385909	0.168021
