sample name	sample
index	367
start time	 03-04-2021  11:43:03 AM


Wavelength (nm)	Absorbance
494.344910	-0.164183
494.563924	-0.164183
494.782919	-0.164183
495.001897	0.234083
495.220856	-0.053393
495.439797	-0.062729
495.658719	-0.093491
495.877624	-0.107857
496.096510	-0.141288
496.315378	-0.084798
496.534227	-0.076980
496.753059	-0.111978
496.971872	-0.123581
497.190667	0.070568
497.409444	0.095743
497.628203	0.102906
497.846943	0.107440
498.065665	0.109267
498.284369	0.110249
498.503055	0.111246
498.721723	0.111413
498.940372	0.111530
499.159003	0.111413
499.377616	0.111042
499.596210	0.111472
499.814787	0.111064
500.033345	0.111287
500.251885	0.110551
500.470406	0.109549
500.688910	0.109326
500.907395	0.109427
501.125862	0.108476
501.344311	0.109112
501.562742	0.108844
501.781154	0.108590
501.999548	0.108238
502.217924	0.108939
502.436282	0.109927
502.654621	0.110514
502.872942	0.110086
503.091245	0.110345
503.309530	0.110584
503.527797	0.110693
503.746045	0.110519
503.964275	0.111273
504.182487	0.111097
504.400681	0.109527
504.618856	0.109412
504.837013	0.110110
505.055152	0.110780
505.273273	0.109606
505.491376	0.109561
505.709460	0.110420
505.927526	0.109946
506.145574	0.110545
506.363604	0.111101
506.581615	0.110456
506.799608	0.110463
507.017583	0.110485
507.235540	0.111565
507.453478	0.112494
507.671399	0.112477
507.889301	0.112815
508.107185	0.113253
508.325050	0.113315
508.542898	0.113889
508.760727	0.113727
508.978538	0.113441
509.196330	0.113205
509.414105	0.112408
509.631861	0.112047
509.849599	0.111954
510.067319	0.110726
510.285021	0.111510
510.502704	0.112375
510.720369	0.111608
510.938016	0.110862
511.155645	0.111326
511.373255	0.112312
511.590848	0.112492
511.808422	0.112366
512.025977	0.113317
512.243515	0.114156
512.461034	0.114322
512.678536	0.115150
512.896018	0.116066
513.113483	0.116077
513.330930	0.115329
513.548358	0.115035
513.765768	0.115270
513.983160	0.114569
514.200533	0.113934
514.417889	0.113344
514.635226	0.113651
514.852545	0.113531
515.069845	0.113984
515.287128	0.114437
515.504392	0.115300
515.721638	0.115684
515.938866	0.116935
516.156075	0.117644
516.373267	0.118513
516.590440	0.118572
516.807594	0.119404
517.024731	0.120145
517.241850	0.120544
517.458950	0.120525
517.676032	0.119941
517.893095	0.119541
518.110141	0.119448
518.327168	0.119534
518.544177	0.120022
518.761168	0.120588
518.978141	0.120354
519.195095	0.120984
519.412031	0.120743
519.628949	0.121372
519.845849	0.121793
520.062731	0.122153
520.279594	0.121951
520.496439	0.121914
520.713266	0.121459
520.930074	0.120818
521.146865	0.120558
521.363637	0.120797
521.580391	0.121025
521.797127	0.120936
522.013844	0.120723
522.230543	0.121077
522.447224	0.121327
522.663887	0.121823
522.880532	0.122629
523.097158	0.123107
523.313766	0.124116
523.530356	0.123869
523.746928	0.123831
523.963481	0.123778
524.180017	0.123701
524.396534	0.123670
524.613032	0.123399
524.829513	0.123896
525.045975	0.123972
525.262420	0.123687
525.478845	0.124377
525.695253	0.125119
525.911643	0.125673
526.128014	0.126145
526.344367	0.126660
526.560702	0.127237
526.777018	0.127284
526.993316	0.127457
527.209597	0.127977
527.425858	0.128092
527.642102	0.128246
527.858328	0.128474
528.074535	0.128507
528.290724	0.128821
528.506894	0.129208
528.723047	0.129374
528.939181	0.129517
529.155297	0.129578
529.371395	0.129501
529.587475	0.129591
529.803536	0.129826
530.019579	0.130859
530.235604	0.130946
530.451611	0.131285
530.667600	0.131745
530.883570	0.132179
531.099522	0.132425
531.315456	0.132969
531.531372	0.133520
531.747269	0.133534
531.963148	0.132822
532.179009	0.133512
532.394852	0.133290
532.610676	0.133372
532.826482	0.133538
533.042271	0.133794
533.258040	0.134466
533.473792	0.134765
533.689525	0.135545
533.905240	0.136347
534.120937	0.136500
534.336616	0.137393
534.552277	0.137047
534.767919	0.137657
534.983543	0.137482
535.199149	0.137217
535.414736	0.136937
535.630306	0.137139
535.845857	0.137562
536.061390	0.137132
536.276904	0.137271
536.492401	0.137920
536.707879	0.137673
536.923339	0.137940
537.138781	0.138601
537.354204	0.139000
537.569610	0.138918
537.784997	0.139254
538.000366	0.140057
538.215716	0.140354
538.431049	0.140680
538.646363	0.141023
538.861659	0.141273
539.076937	0.141103
539.292196	0.141611
539.507438	0.141756
539.722661	0.142170
539.937866	0.142319
540.153052	0.142195
540.368221	0.142209
540.583371	0.142178
540.798503	0.143278
541.013617	0.143568
541.228712	0.143624
541.443789	0.144055
541.658848	0.143515
541.873889	0.143941
542.088912	0.143820
542.303916	0.143356
542.518902	0.143535
542.733870	0.143151
542.948820	0.143770
543.163752	0.144397
543.378665	0.144281
543.593560	0.144782
543.808437	0.144690
544.023295	0.144697
544.238136	0.145883
544.452958	0.146105
544.667762	0.146705
544.882548	0.146796
545.097315	0.146506
545.312064	0.146976
545.526795	0.147297
545.741508	0.147509
545.956203	0.148027
546.170879	0.147838
546.385537	0.148078
546.600177	0.148198
546.814799	0.148189
547.029402	0.148568
547.243988	0.148768
547.458555	0.149155
547.673103	0.148868
547.887634	0.149126
548.102146	0.149878
548.316640	0.150221
548.531116	0.150046
548.745574	0.149879
548.960013	0.149990
549.174435	0.150073
549.388838	0.149758
549.603222	0.150122
549.817589	0.150147
550.031937	0.150280
550.246267	0.150574
550.460579	0.150954
550.674873	0.151539
550.889148	0.151688
551.103405	0.151705
551.317644	0.151908
551.531865	0.152130
551.746068	0.152294
551.960252	0.152108
552.174418	0.151754
552.388566	0.151416
552.602696	0.151572
552.816807	0.151380
553.030900	0.151835
553.244975	0.151660
553.459032	0.151586
553.673070	0.151398
553.887091	0.151367
554.101093	0.151466
554.315077	0.152227
554.529042	0.152302
554.742990	0.152450
554.956919	0.152609
555.170830	0.152832
555.384722	0.153410
555.598597	0.154138
555.812453	0.154616
556.026291	0.154751
556.240111	0.154717
556.453913	0.154778
556.667696	0.155040
556.881461	0.155083
557.095208	0.154908
557.308937	0.154737
557.522647	0.154899
557.736339	0.154743
557.950013	0.155331
558.163669	0.155310
558.377307	0.155313
558.590926	0.155282
558.804527	0.156040
559.018110	0.156633
559.231675	0.157245
559.445221	0.157520
559.658749	0.157821
559.872259	0.158025
560.085751	0.158706
560.299225	0.158970
560.512680	0.159524
560.726117	0.159179
560.939536	0.159792
561.152937	0.159628
561.366319	0.159421
561.579683	0.159557
561.793029	0.159470
562.006357	0.159009
562.219667	0.159678
562.432958	0.159967
562.646231	0.160045
562.859486	0.159745
563.072723	0.160096
563.285941	0.160456
563.499141	0.160834
563.712323	0.161402
563.925487	0.161999
564.138632	0.161763
564.351760	0.161530
564.564869	0.161783
564.777960	0.161781
564.991032	0.161539
565.204087	0.161983
565.417123	0.161764
565.630141	0.161544
565.843140	0.161330
566.056122	0.161661
566.269085	0.161939
566.482030	0.162025
566.694957	0.162291
566.907866	0.163213
567.120756	0.162718
567.333628	0.162933
567.546482	0.163021
567.759318	0.163037
567.972135	0.162831
568.184935	0.163334
568.397716	0.163557
568.610478	0.163526
568.823223	0.163114
569.035949	0.163599
569.248657	0.163818
569.461347	0.163985
569.674019	0.164435
569.886672	0.164644
570.099308	0.164398
570.311925	0.164480
570.524523	0.164612
570.737104	0.164881
570.949666	0.165082
571.162210	0.165202
571.374736	0.165643
571.587244	0.165382
571.799733	0.165917
572.012205	0.166114
572.224658	0.166173
572.437092	0.166601
572.649509	0.166548
572.861907	0.166238
573.074287	0.166260
573.286649	0.166263
573.498993	0.166456
573.711318	0.166097
573.923625	0.166402
574.135914	0.166089
574.348185	0.166049
574.560438	0.166240
574.772672	0.167007
574.984888	0.167245
575.197086	0.166792
575.409266	0.166970
575.621427	0.167192
575.833570	0.167184
576.045695	0.167848
576.257802	0.168280
576.469890	0.168364
576.681961	0.168117
576.894013	0.167754
577.106046	0.168040
577.318062	0.168010
577.530059	0.168229
577.742039	0.168099
577.954000	0.167992
578.165942	0.168090
578.377867	0.167880
578.589773	0.167859
578.801661	0.168351
579.013531	0.168647
579.225382	0.169109
579.437216	0.168943
579.649031	0.169430
579.860828	0.169600
580.072606	0.169789
580.284367	0.170386
580.496109	0.170634
580.707833	0.171072
580.919539	0.171480
581.131227	0.171652
581.342896	0.171919
581.554547	0.171393
581.766180	0.171489
581.977795	0.171578
582.189391	0.171700
582.400969	0.172032
582.612529	0.171972
582.824071	0.171986
583.035595	0.171882
583.247100	0.171763
583.458587	0.172598
583.670056	0.172694
583.881506	0.172543
584.092939	0.172512
584.304353	0.172074
584.515749	0.172116
584.727127	0.172277
584.938486	0.172513
585.149828	0.173166
585.361151	0.173170
585.572456	0.173255
585.783742	0.173502
585.995011	0.173314
586.206261	0.173567
586.417493	0.173354
586.628706	0.173441
586.839902	0.173694
587.051079	0.173724
587.262238	0.173479
587.473379	0.173927
587.684502	0.173998
587.895606	0.174612
588.106692	0.175029
588.317760	0.175559
588.528810	0.175521
588.739841	0.175445
588.950855	0.175063
589.161850	0.175302
589.372827	0.175158
589.583785	0.175559
589.794726	0.175537
590.005648	0.175089
590.216552	0.175225
590.427437	0.175430
590.638305	0.175530
590.849154	0.175902
591.059985	0.176188
591.270798	0.176366
591.481592	0.176146
591.692369	0.176620
591.903127	0.177606
592.113867	0.178136
592.324588	0.178141
592.535292	0.178460
592.745977	0.178726
592.956644	0.178716
593.167293	0.178792
593.377923	0.179059
593.588536	0.179032
593.799130	0.178611
594.009706	0.178132
594.220263	0.178273
594.430803	0.178109
594.641324	0.178119
594.851827	0.178070
595.062312	0.178248
595.272778	0.178528
595.483227	0.178187
595.693657	0.178386
595.904069	0.178736
596.114462	0.179129
596.324838	0.179386
596.535195	0.179564
596.745534	0.179969
596.955855	0.179986
597.166157	0.179950
597.376441	0.180616
597.586707	0.180977
597.796955	0.180823
598.007185	0.180297
598.217396	0.180422
598.427589	0.180299
598.637764	0.180613
598.847921	0.180714
599.058060	0.180801
599.268180	0.180906
599.478282	0.180946
599.688366	0.181421
599.898431	0.181770
600.108479	0.181853
600.318508	0.182481
600.528519	0.182495
600.738511	0.182603
600.948486	0.182739
601.158442	0.182679
601.368380	0.182664
601.578300	0.182749
601.788202	0.182895
601.998085	0.183245
602.207950	0.183035
602.417797	0.183017
602.627626	0.183213
602.837436	0.183091
603.047228	0.182874
603.257002	0.183332
603.466758	0.183482
603.676496	0.183669
603.886215	0.183822
604.095916	0.183851
604.305599	0.183910
604.515264	0.183812
604.724910	0.184052
604.934538	0.184246
605.144148	0.184290
605.353740	0.184031
605.563314	0.184321
605.772869	0.184273
605.982406	0.184230
606.191925	0.184274
606.401425	0.184671
606.610908	0.184799
606.820372	0.184999
607.029818	0.184856
607.239246	0.184995
607.448655	0.184794
607.658047	0.184718
607.867420	0.184906
608.076775	0.184775
608.286111	0.184566
608.495430	0.184660
608.704730	0.184758
608.914012	0.184698
609.123275	0.184702
609.332521	0.185002
609.541748	0.185086
609.750957	0.185421
609.960148	0.185782
610.169321	0.185955
610.378475	0.185939
610.587611	0.185996
610.796729	0.186256
611.005829	0.186613
611.214910	0.186321
611.423974	0.186461
611.633019	0.186524
611.842045	0.186511
612.051054	0.186482
612.260044	0.186689
612.469017	0.186863
612.677970	0.186891
612.886906	0.186558
613.095824	0.187054
613.304723	0.187071
613.513604	0.187068
613.722467	0.187112
613.931311	0.187285
614.140138	0.187379
614.348946	0.187846
614.557736	0.187905
614.766507	0.188337
614.975261	0.188089
615.183996	0.188401
615.392713	0.188531
615.601412	0.188661
615.810092	0.188874
616.018754	0.188830
616.227399	0.188663
616.436024	0.188749
616.644632	0.188849
616.853222	0.188984
617.061793	0.189159
617.270346	0.189432
617.478880	0.189693
617.687397	0.190080
617.895895	0.190223
618.104375	0.190097
618.312837	0.190231
618.521281	0.190452
618.729706	0.190836
618.938113	0.190859
619.146502	0.190804
619.354873	0.190969
619.563226	0.190902
619.771560	0.191095
619.979876	0.191167
620.188174	0.190928
620.396453	0.190619
620.604715	0.190475
620.812958	0.190144
621.021183	0.190207
621.229390	0.190049
621.437578	0.189944
621.645748	0.190201
621.853900	0.190420
622.062034	0.190727
622.270150	0.190799
622.478247	0.191157
622.686326	0.191641
622.894387	0.191746
623.102430	0.191834
623.310454	0.192163
623.518461	0.191901
623.726449	0.192157
623.934418	0.192382
624.142370	0.192701
624.350303	0.192813
624.558218	0.192745
624.766115	0.192694
624.973994	0.192725
625.181855	0.192681
625.389697	0.193007
625.597521	0.192981
625.805327	0.193000
626.013114	0.193069
626.220883	0.193160
626.428634	0.193299
626.636367	0.193450
626.844082	0.193762
627.051778	0.193877
627.259457	0.194022
627.467117	0.194124
627.674758	0.194301
627.882382	0.194466
628.089987	0.194444
628.297574	0.194549
628.505143	0.194813
628.712694	0.195154
628.920226	0.195382
629.127740	0.195311
629.335236	0.195163
629.542714	0.195170
629.750174	0.195270
629.957615	0.195440
630.165038	0.195534
630.372443	0.195531
630.579829	0.195169
630.787198	0.195072
630.994548	0.195315
631.201880	0.195485
631.409194	0.195732
631.616489	0.196012
631.823766	0.196187
632.031025	0.196510
632.238266	0.196876
632.445489	0.196946
632.652693	0.197340
632.859879	0.197608
633.067047	0.197781
633.274197	0.197930
633.481329	0.197894
633.688442	0.198042
633.895537	0.197818
634.102614	0.197712
634.309672	0.197975
634.516713	0.197917
634.723735	0.197962
634.930739	0.198408
635.137724	0.198524
635.344692	0.198526
635.551641	0.198503
635.758572	0.198732
635.965485	0.198783
636.172379	0.199020
636.379256	0.199034
636.586114	0.199041
636.792954	0.198909
636.999775	0.198938
637.206579	0.199080
637.413364	0.199317
637.620131	0.199508
637.826880	0.199587
638.033610	0.199583
638.240323	0.199704
638.447017	0.199788
638.653692	0.199899
638.860350	0.200006
639.066990	0.200224
639.273611	0.200313
639.480214	0.200577
639.686798	0.200710
639.893365	0.200929
640.099913	0.200894
640.306443	0.201158
640.512955	0.201227
640.719449	0.201382
640.925924	0.201604
641.132381	0.201625
641.338820	0.201639
641.545241	0.201809
641.751644	0.201961
641.958028	0.202390
642.164394	0.202688
642.370742	0.203018
642.577071	0.203107
642.783383	0.203317
642.989676	0.203179
643.195951	0.203061
643.402207	0.203292
643.608446	0.203352
643.814666	0.203502
644.020868	0.203355
644.227052	0.203295
644.433218	0.203409
644.639365	0.203355
644.845494	0.203901
645.051605	0.204140
645.257698	0.204272
645.463772	0.204220
645.669828	0.204144
645.875866	0.204349
646.081886	0.204473
646.287888	0.204503
646.493871	0.204691
646.699836	0.204570
646.905783	0.204707
647.111712	0.204840
647.317622	0.205035
647.523514	0.205269
647.729388	0.205156
647.935244	0.205343
648.141082	0.205682
648.346901	0.205816
648.552702	0.206020
648.758485	0.206356
648.964250	0.206399
649.169996	0.206538
649.375724	0.206782
649.581434	0.207088
649.787126	0.207530
649.992800	0.207721
650.198455	0.207747
650.404092	0.207883
650.609711	0.207905
650.815311	0.208225
651.020894	0.208466
651.226458	0.208293
651.432004	0.208456
651.637532	0.208285
651.843041	0.208289
652.048532	0.208372
652.254006	0.208459
652.459460	0.208567
652.664897	0.208377
652.870315	0.208577
653.075716	0.208899
653.281097	0.209068
653.486461	0.209324
653.691807	0.209561
653.897134	0.209763
654.102443	0.209899
654.307734	0.210215
654.513006	0.210585
654.718261	0.210712
654.923497	0.211029
655.128715	0.211083
655.333915	0.211272
655.539096	0.211348
655.744259	0.211724
655.949404	0.211875
656.154531	0.212205
656.359640	0.212388
656.564730	0.212630
656.769802	0.212718
656.974856	0.213006
657.179892	0.213211
657.384909	0.213614
657.589908	0.213672
657.794889	0.213899
657.999852	0.213886
658.204797	0.214175
658.409723	0.214281
658.614631	0.214508
658.819521	0.214741
659.024393	0.214594
659.229246	0.214450
659.434081	0.214624
659.638898	0.214897
659.843697	0.215024
660.048478	0.214998
660.253240	0.215146
660.457984	0.215363
660.662710	0.215519
660.867417	0.215778
661.072107	0.215764
661.276778	0.215839
661.481431	0.216008
661.686066	0.216289
661.890682	0.216393
662.095281	0.216536
662.299861	0.216521
662.504422	0.216608
662.708966	0.216689
662.913491	0.217199
663.117999	0.217376
663.322488	0.217471
663.526958	0.217397
663.731411	0.217664
663.935845	0.217795
664.140261	0.218017
664.344659	0.218004
664.549038	0.218369
664.753400	0.218437
664.957743	0.218551
665.162068	0.218663
665.366375	0.218896
665.570663	0.218867
665.774933	0.219049
665.979185	0.219168
666.183419	0.219532
666.387635	0.219671
666.591832	0.219948
666.796011	0.220213
667.000172	0.220336
667.204315	0.220434
667.408439	0.220620
667.612545	0.220765
667.816634	0.221065
668.020703	0.221331
668.224755	0.221453
668.428788	0.221509
668.632803	0.221748
668.836800	0.222159
669.040779	0.222179
669.244739	0.222403
669.448681	0.222602
669.652605	0.222692
669.856511	0.222579
670.060399	0.222783
670.264268	0.223098
670.468119	0.223344
670.671952	0.223316
670.875767	0.223771
671.079563	0.223870
671.283341	0.223918
671.487101	0.224042
671.690843	0.224551
671.894567	0.224588
672.098272	0.224813
672.301959	0.224880
672.505628	0.225044
672.709278	0.225295
672.912911	0.225664
673.116525	0.226036
673.320121	0.226281
673.523699	0.226216
673.727258	0.226557
673.930799	0.226434
674.134322	0.226849
674.337827	0.226966
674.541314	0.227097
674.744782	0.227171
674.948232	0.227403
675.151664	0.227583
675.355078	0.227629
675.558474	0.227670
675.761851	0.228124
675.965210	0.227907
676.168551	0.228104
676.371873	0.227966
676.575178	0.228112
676.778464	0.228232
676.981732	0.228324
677.184981	0.228676
677.388213	0.228756
677.591426	0.228665
677.794621	0.228869
677.997798	0.229187
678.200956	0.229399
678.404097	0.229713
678.607219	0.229837
678.810323	0.230002
679.013408	0.230126
679.216476	0.230232
679.419525	0.230347
679.622556	0.230434
679.825569	0.230564
680.028563	0.230750
680.231540	0.230596
680.434498	0.230760
680.637438	0.230863
680.840359	0.230896
681.043263	0.231274
681.246148	0.231380
681.449015	0.231598
681.651864	0.231832
681.854694	0.232110
682.057506	0.232599
682.260301	0.232760
682.463076	0.232847
682.665834	0.232985
682.868573	0.233026
683.071295	0.233376
683.273998	0.233553
683.476682	0.233622
683.679349	0.233593
683.881997	0.233622
684.084627	0.233728
684.287239	0.233825
684.489833	0.233974
684.692408	0.234067
684.894965	0.234107
685.097504	0.234374
685.300025	0.234644
685.502527	0.234977
685.705012	0.234921
685.907478	0.235038
686.109925	0.235180
686.312355	0.235210
686.514766	0.235384
686.717159	0.235368
686.919534	0.235254
687.121891	0.235137
687.324230	0.235066
687.526550	0.235384
687.728852	0.235490
687.931136	0.235863
688.133401	0.236122
688.335649	0.236341
688.537878	0.236433
688.740089	0.236679
688.942281	0.237063
689.144456	0.237278
689.346612	0.237251
689.548750	0.237392
689.750870	0.237501
689.952971	0.237342
690.155055	0.237651
690.357120	0.237979
690.559167	0.238178
690.761195	0.237914
690.963206	0.237900
691.165198	0.238140
691.367172	0.238304
691.569128	0.238034
691.771065	0.238469
691.972984	0.238260
692.174885	0.238394
692.376768	0.238258
692.578633	0.238530
692.780479	0.238835
692.982308	0.238984
693.184118	0.238984
693.385909	0.239567
