sample name	sample
index	1512
start time	 05-18-2021  03:04:09 PM
880	0.476816
Peak Time (s)	92.036
Peak Height 	0.4768
calc peak height	90,93
Baseline Time (s)	10.036
Baseline Value 	-0.004873
subtract baseline	10,4
Abs	0.292907
Peak Time (s)	91.035
Peak Height 	0.2929
calc peak height	90,93
Baseline Time (s)	9.035
Baseline Value 	0.003916
subtract baseline	10,3
PK_550	0.167457
Peak Time (s)	92.036
Peak Height 	0.1675
calc peak height	90,93
Baseline Time (s)	10.036
Baseline Value 	5.4519E-4
subtract baseline	10,2
PK_880	0.283463
Peak Time (s)	92.036
Peak Height 	0.2835
calc peak height	90,93
Baseline Time (s)	10.539
Baseline Value 	0.001106
subtract baseline	10,1


Time (s)	A880-A510	A880-A775	A880-A975	A880	I510	I775	I975	I880	
0.035000	-0.002082	0.000041	-0.003063	0.002823	6576.228649	44008.908901	4002.831473	22798.680802
0.535500	-0.001472	-0.000905	0.000281	0.003667	6574.311058	43840.357074	4008.642240	22760.245610
1.036000	-0.000330	-0.000152	-0.002022	0.003965	6581.226956	43883.149496	4002.598571	22746.723319
1.538500	-0.001729	-0.000561	-0.003161	0.002524	6581.563181	43980.202445	4003.297897	22812.278604
2.036500	0.000385	-0.000398	-0.001399	0.000861	6612.664171	44152.652250	4011.270748	22888.223223
2.536500	-0.000155	-0.000584	-0.008546	0.000604	6610.329325	44159.460288	3995.294028	22899.989499
3.037000	0.000799	-0.000142	-0.002035	-0.000654	6628.653883	44320.641719	4013.328327	22957.665253
3.537500	-0.001315	0.000023	-0.000278	0.001231	6595.593007	44157.586172	4013.027946	22871.327085
4.035000	0.000881	-0.000358	-0.001898	0.000766	6617.554570	44165.490855	4010.327381	22892.579499
4.535500	-0.001184	-0.000409	-0.002517	0.000156	6605.521438	44218.424939	4010.305588	22920.492096
5.035000	0.000987	-0.000688	-0.006812	0.000917	6617.183216	44119.965125	3998.567709	22885.671123
5.535500	-0.000324	-0.000602	0.002067	0.000409	6610.540942	44176.232412	4020.471628	22908.932624
6.036000	-0.000605	-0.000402	-0.003916	0.000090	6610.856266	44225.422823	4007.198331	22923.554244
6.536000	0.003191	0.000221	-0.000544	0.000519	6638.791262	44243.726250	4014.071462	22903.862084
7.036500	-0.000984	-0.000510	-0.001408	0.000092	6607.710578	44214.911193	4013.049515	22923.436839
7.536500	0.000534	-0.000319	-0.003067	0.000587	6616.165007	44186.056310	4008.017052	22900.751682
8.037000	-0.000219	-0.001186	-0.002129	-0.000203	6616.465904	44178.839321	4012.051443	22936.955012
8.534500	-0.000587	0.000675	0.000227	0.001042	6603.139605	44237.143506	4014.654337	22879.938836
9.035000	0.002929	0.000534	0.000000	0.000627	6635.709656	44263.119107	4015.094235	22898.922958
9.535000	-0.001310	0.000284	-0.004966	-0.000170	6607.176819	44315.081956	4005.360210	22935.434466
10.035500	0.000051	0.000000	-0.002293	0.000000	6617.028667	44272.019415	4011.194336	22927.659617
10.538500	0.000000	-0.000122	0.002278	0.000137	6615.473536	44247.474995	4021.611764	22921.399386
11.038500	0.001878	-0.000360	-0.001955	-0.000119	6633.170754	44249.145698	4012.262794	22933.101712
11.535500	-0.001708	-0.000532	0.001160	-0.000115	6603.437686	44232.436087	4019.567182	22932.923396
12.036500	0.000006	-0.000518	-0.003700	0.000031	6616.399598	44219.995464	4007.838993	22926.248747
12.537000	0.000561	-0.000553	0.006698	-0.000670	6626.810848	44283.089356	4034.025922	22958.392905
13.037000	0.000713	0.000108	0.000589	-0.000359	6625.492730	44316.434401	4018.797451	22944.140221
13.536500	0.000564	0.000488	-0.006679	-0.000460	6625.096425	44362.085742	4002.060623	22948.771406
14.035000	-0.000538	-0.000370	-0.005924	0.001132	6602.802985	44129.719663	4000.122043	22875.834938
14.535000	-0.000953	0.000712	-0.000562	0.002747	6586.108808	44079.315217	4008.822020	22802.137700
15.037000	-0.000902	-0.000311	0.000085	0.000837	6602.231428	44163.208173	4014.800844	22889.304651
15.538500	0.002249	-0.000137	0.003837	0.000018	6635.124166	44257.356865	4025.578540	22926.840824
16.035500	0.000134	-0.000712	-0.001270	-0.000792	6624.279604	44279.602783	4015.445637	22963.999363
16.536500	-0.000255	-0.000875	-0.002368	-0.000962	6622.459001	44280.231792	4013.267545	22971.796713
17.037000	0.000254	0.000149	-0.003583	-0.002000	6635.318144	44476.481102	4012.856342	23019.577387
17.537500	0.000497	0.000348	-0.003684	0.000419	6617.250214	44265.303956	4006.972263	22908.466583
18.037500	-0.000678	-0.000778	-0.003880	0.000388	6607.789681	44161.490429	4006.588103	22909.889367
18.535000	-0.000775	0.000082	-0.005536	0.000613	6605.132841	44221.657011	4002.222226	22899.588073
19.035000	0.001696	-0.000122	0.001066	0.001330	6619.640743	44134.489851	4015.946696	22866.792280
19.535500	0.000622	0.000630	-0.001215	0.001536	6609.045694	44186.107049	4010.124001	22857.353068
20.035000	0.000883	-0.000099	-0.001855	0.000646	6618.570260	44201.373541	4010.708529	22898.083322
20.539000	0.000401	0.000064	-0.002942	0.001221	6609.827385	44162.325928	4006.833038	22871.770625
21.036000	0.001011	-0.000321	-0.001264	0.001089	6615.958430	44138.409819	4011.054216	22877.805248
21.536500	-0.000565	0.000202	-0.001768	0.001748	6597.510648	44125.534538	4008.338847	22847.690600
22.037000	0.000083	0.000016	-0.003471	0.000576	6612.527359	44218.918064	4007.102691	22901.266633
22.537500	-0.000679	-0.000221	-0.003808	0.000882	6603.709433	44167.538868	4005.607176	22887.279380
23.037000	0.001062	-0.000457	-0.002815	0.001229	6615.220614	44112.295569	4007.109904	22871.381259
23.535000	0.001824	0.000133	-0.008649	0.001337	6620.633606	44157.860594	3993.372438	22866.440185
24.035500	-0.001221	-0.000466	-0.004272	0.000749	6600.335823	44156.881339	4004.837893	22893.351458
24.535500	-0.001106	-0.000175	-0.004173	0.001034	6598.930795	44157.406819	4004.405586	22880.318274
25.036500	-0.003017	-0.000134	0.001472	0.001433	6579.950786	44123.502638	4016.658124	22862.053801
25.536000	0.001698	0.000066	0.004932	0.001348	6619.501362	44150.535956	4025.022862	22865.954111
26.037000	0.001033	-0.000055	-0.003479	0.000756	6618.901148	44195.157853	4006.665117	22893.035221
26.537000	0.001793	-0.000085	-0.001117	0.001270	6620.935986	44143.557775	4010.973517	22869.502424
27.037500	0.001977	-0.000165	0.003971	-0.000541	6637.512274	44307.718720	4027.223195	22952.472496
27.537000	-0.000211	0.000639	0.001941	-0.001509	6627.366595	44476.357963	4024.703168	22996.945289
28.034500	0.000239	-0.000105	-0.005415	-0.000183	6620.107159	44279.487646	4004.348712	22936.072506
28.535500	0.001890	-0.000732	-0.002819	-0.000305	6634.821194	44231.499496	4010.677871	22941.660252
29.035500	-0.004312	-0.000630	-0.005751	0.003722	6550.710765	43861.075533	3994.551564	22757.777738
29.536000	0.000699	0.000056	0.005232	-0.000045	6622.765235	44281.594033	4029.042157	22929.728712
30.039000	-0.000030	0.000287	-0.004098	-0.000395	6619.627156	44336.738490	4007.903304	22945.768335
30.536000	-0.001255	0.000119	-0.000903	0.001762	6591.721361	44116.420983	4010.325281	22847.065345
31.036500	-0.001788	-0.000263	0.000419	0.002030	6585.136845	44054.946543	4012.789019	22834.803486
31.537000	0.001524	0.000117	-0.000811	-0.000371	6632.324881	44318.381229	4015.533014	22944.678575
32.037500	0.001570	0.000612	-0.000418	0.000171	6628.199177	44313.878176	4015.184246	22919.803220
32.537500	-0.000658	-0.000376	-0.004374	-0.000487	6615.193439	44282.616574	4007.476850	22950.011780
33.035000	-0.002029	-0.000327	-0.000423	0.004477	6563.152060	43818.658773	4005.119717	22723.491690
33.535500	0.002626	0.000088	-0.005143	-0.000486	6642.457813	44326.543178	4005.685086	22949.962388
34.035500	0.001474	0.000366	0.006068	-0.001196	6638.771054	44420.491954	4033.777459	22982.553698
34.538500	0.000746	0.000156	0.004129	0.001328	6611.788950	44160.878999	4023.168733	22866.865135
35.036000	0.000545	0.000674	-0.003284	0.003481	6592.380420	44006.458841	4000.795531	22768.707625
35.536000	0.001034	0.000416	-0.004407	0.001451	6613.148028	44173.907688	4002.895938	22861.234880
36.036500	-0.002961	-0.000523	-0.002517	0.001053	6583.533145	44122.732418	4008.215028	22879.462813
36.537000	0.000966	0.000586	-0.001321	0.001438	6612.702216	44191.309150	4010.105892	22861.858423
37.037500	-0.001790	-0.000250	-0.003613	0.002677	6579.813776	43995.161024	4001.895251	22805.296167
37.535000	-0.000075	0.000147	-0.005691	0.000912	6608.448938	44199.476957	4001.171566	22885.912732
38.035000	0.000253	-0.000049	-0.002683	0.001104	6609.567002	44162.729183	4007.709236	22877.116372
38.535500	-0.002006	-0.000865	-0.001521	0.000544	6595.555111	44138.563007	4011.726120	22902.741788
39.035500	-0.002381	-0.000220	-0.000133	0.001231	6586.829727	44134.563826	4013.367247	22871.318753
39.536000	-0.000761	-0.000601	-0.004480	0.000554	6605.732066	44162.499861	4004.808148	22902.261099
40.036500	0.000917	0.000570	-0.003158	0.001661	6610.449141	44168.583584	4005.305522	22851.636935
40.536500	-0.001192	-0.000196	-0.000916	0.000687	6601.085350	44188.311142	4012.807730	22896.202647
41.037000	0.001047	0.000120	-0.008086	0.001322	6614.333337	44158.085925	3994.700927	22867.160765
41.534500	0.000941	0.000496	-0.004007	0.000931	6616.683302	44230.686263	4005.029482	22885.002372
42.035000	0.000142	-0.000574	-0.001910	0.000671	6612.226906	44153.985322	4010.520244	22896.918781
42.534500	0.000403	-0.000678	-0.001832	0.000442	6616.278548	44165.895631	4011.238592	22907.411926
43.035000	-0.001896	-0.000397	-0.005734	0.001033	6592.438426	44136.489377	4000.789834	22880.340141
43.535500	-0.001205	-0.000783	-0.001859	0.000651	6601.267025	44136.143342	4010.686443	22897.827064
44.038000	0.001183	0.000165	-0.001130	-0.000898	6633.876504	44373.084491	4016.022058	22968.873837
44.536500	0.001275	0.000290	-0.005955	-0.000666	6632.710465	44362.865539	4004.217594	22958.234684
45.036500	0.000272	0.000289	0.004923	0.001473	6606.668950	44159.723632	4024.703547	22860.231241
45.537000	0.001642	-0.000779	0.000885	-0.001098	6639.363313	44302.307860	4021.237004	22978.076916
46.037000	0.001737	0.000181	-0.003225	-0.000806	6637.715541	44365.755898	4010.898913	22964.637189
46.537500	-0.000018	-0.000310	-0.000766	-0.001150	6625.984986	44351.804754	4017.468651	22980.436349
47.035000	-0.001680	0.000161	-0.003329	0.005229	6559.868967	43793.816530	3996.658959	22689.397668
47.535000	0.000455	0.000376	0.005276	0.001446	6608.409115	44170.653569	4025.604688	22861.491862
48.035000	-0.000097	-0.000566	0.000192	0.001096	6606.739949	44114.559996	4014.446068	22877.472858
48.536000	0.001440	0.000602	-0.004602	0.000152	6627.280871	44314.721145	4005.457433	22920.677484
49.036500	-0.001761	-0.000231	0.000013	0.004436	6565.660824	43831.372537	4006.228146	22725.315114
49.536500	0.000955	-0.000202	-0.001527	-0.000337	6627.314913	44284.788715	4013.774766	22943.109721
50.039500	0.003228	-0.000132	0.000402	-0.003098	6669.360024	44554.509568	4024.824887	23070.201155
50.536500	0.001200	0.000120	0.004038	0.000997	6618.284531	44188.897176	4023.736443	22882.021259
51.037500	-0.007702	-0.005160	-0.004823	0.008089	6488.235161	43033.624197	3986.678502	22560.278290
51.537500	-0.003340	-0.020726	-0.013363	0.344062	4636.966275	20849.045287	3444.258108	12033.831685
52.035000	-0.011611	-0.024214	-0.022687	-0.027635	6751.727520	44597.926109	4028.258672	24235.706451
52.535000	-0.030167	-0.070307	-0.017578	-0.231884	8741.972944	62848.815127	4667.524733	36976.318705
53.035500	0.010887	-0.019939	-0.017656	-0.155838	8299.131461	59415.887132	4398.814277	31521.671163
53.538000	-0.005046	-0.064137	-0.001497	-0.230614	9064.915579	63527.313635	4725.507543	36877.146276
54.036000	0.003990	-0.075100	0.004941	-0.249253	9462.578418	64605.782235	4828.302133	38361.993628
54.536000	0.001876	-0.048162	0.003769	-0.208230	8853.547901	62641.571005	4658.675392	35176.294149
55.037000	0.003643	-0.033214	0.007751	-0.172964	8420.610095	59918.012224	4543.129598	32668.152690
55.537000	0.017292	-0.020465	0.020304	-0.145636	8253.195386	58040.758644	4491.388122	30859.895722
56.037000	0.027557	-0.011518	0.035074	-0.123810	8115.755005	56434.046198	4467.289946	29495.242624
56.535000	0.043770	-0.001800	0.054434	-0.097607	7999.919706	54445.886889	4444.295999	27945.020533
57.035000	0.060425	0.011326	0.065327	-0.040379	7555.872558	49483.255761	4297.753061	24867.545376
57.535000	0.077890	0.026294	0.085825	0.021479	7115.268438	44731.493682	4179.519853	21966.940858
58.036000	0.100155	0.039303	0.101289	0.081491	6774.483028	40456.416571	4064.159865	19521.421367
58.536000	0.120187	0.053013	0.123943	0.137583	6475.442324	36978.820592	3985.017993	17521.820897
59.036000	0.136695	0.062957	0.141226	0.192112	6185.915070	33668.852173	3903.750616	15810.461848
59.536500	0.154026	0.076316	0.161407	0.219822	6111.182514	32673.769780	3888.151515	15019.734400
60.037000	0.174826	0.088878	0.175109	0.241010	6108.419840	32091.241584	3872.909824	14448.255413
60.537000	0.188569	0.099350	0.191696	0.268735	6010.623072	30960.263287	3850.711308	13741.373415
61.034500	0.203142	0.108812	0.203666	0.297822	5912.378812	29727.354533	3817.688429	13046.715882
61.537000	0.216965	0.116458	0.222038	0.328467	5802.539772	28351.573818	3794.797713	12363.466666
62.035500	0.221360	0.121100	0.229060	0.378674	5524.110397	25831.911088	3719.208401	11343.197978
62.535500	0.228807	0.129184	0.228739	0.396176	5466.832167	25343.205380	3690.137512	11014.362962
63.038500	0.233744	0.136781	0.245006	0.390162	5529.281437	26052.867748	3726.668091	11125.873024
63.536000	0.238413	0.138523	0.241456	0.390523	5554.280582	26126.139300	3720.119388	11119.132913
64.041000	0.242126	0.142030	0.241646	0.393491	5558.629563	26154.795036	3715.504290	11063.965404
64.537000	0.245096	0.144689	0.244640	0.397523	5552.427617	26081.850494	3713.786167	10989.599805
65.037000	0.249320	0.147153	0.258123	0.404299	5537.603351	25854.350623	3724.954547	10866.204770
65.537500	0.251944	0.149473	0.260590	0.405299	5547.026433	25923.718065	3727.419800	10848.140358
66.037500	0.251973	0.149824	0.257308	0.406816	5538.393244	25862.427445	3719.385341	10820.849319
66.535000	0.255105	0.151851	0.264925	0.410431	5535.588178	25779.149839	3726.078072	10756.157499
67.034500	0.259340	0.155806	0.256034	0.414889	5534.298816	25752.841789	3703.986695	10677.134487
67.538500	0.261908	0.157020	0.258200	0.416881	5537.636801	25712.274883	3704.270240	10642.094047
68.036000	0.259311	0.158814	0.267480	0.420290	5503.080826	25628.150628	3713.907576	10582.485522
68.535500	0.264027	0.159785	0.260268	0.422900	5515.139107	25543.072624	3697.856854	10537.153656
69.036500	0.260446	0.158454	0.261999	0.429796	5455.702814	25121.068213	3689.562520	10418.702308
69.536500	0.265593	0.160411	0.266946	0.428727	5490.799367	25275.380393	3699.233508	10436.950811
70.037000	0.271376	0.162558	0.269482	0.432864	5500.175115	25173.815638	3696.647966	10366.621914
70.537000	0.268639	0.162601	0.277880	0.433890	5478.787629	25123.790938	3708.637856	10349.271193
71.034500	0.268065	0.162676	0.272115	0.440818	5436.705611	24778.296982	3688.118164	10233.255387
71.535000	0.270782	0.163335	0.267919	0.437948	5467.979629	24955.536421	3686.008823	10281.095619
72.035500	0.267414	0.163145	0.276461	0.438711	5444.810869	24907.479496	3698.474743	10268.338666
72.535000	0.273912	0.164315	0.272927	0.441034	5468.225634	24849.583951	3689.068898	10229.674078
73.036000	0.271921	0.165532	0.276887	0.448156	5417.416600	24555.246845	3684.042529	10112.371453
73.536500	0.273657	0.165789	0.282265	0.444250	5448.748526	24762.353746	3698.904346	10176.466713
74.036500	0.274116	0.167733	0.283678	0.445600	5443.772798	24792.031566	3699.006011	10154.250545
74.536500	0.277814	0.168832	0.278618	0.447082	5456.164685	24772.845912	3688.498038	10129.932042
75.036500	0.275242	0.168302	0.283490	0.447030	5442.079521	24748.968238	3696.392961	10130.787144
75.534000	0.276777	0.169473	0.281190	0.448204	5444.086789	24748.814080	3690.813479	10111.580393
76.035000	0.275591	0.169842	0.284768	0.448507	5435.800991	24752.138695	3696.072303	10106.642328
76.535000	0.277086	0.167826	0.285751	0.448523	5444.029672	24650.826206	3697.630855	10106.369978
77.038000	0.278727	0.171171	0.282228	0.452206	5432.670472	24634.027696	3686.088609	10046.514971
77.536000	0.277936	0.170816	0.285749	0.453739	5419.802930	24540.432737	3689.255151	10021.757533
78.036000	0.277740	0.170682	0.286191	0.454365	5415.268716	24502.850875	3688.960933	10011.669543
78.536500	0.277971	0.169760	0.272884	0.454535	5415.601482	24448.984942	3667.792851	10008.926579
79.037000	0.276014	0.169893	0.279550	0.458724	5381.959712	24250.110156	3671.635584	9941.826866
79.537000	0.278489	0.170564	0.285377	0.457843	5400.271275	24326.021724	3682.148360	9955.890343
80.037000	0.279112	0.170105	0.283284	0.458799	5398.446769	24256.824260	3677.349935	9940.629506
80.537500	0.280540	0.169408	0.269621	0.458854	5405.977210	24220.145518	3656.170303	9939.752897
81.035000	0.279216	0.170925	0.283039	0.466524	5357.099306	23922.373237	3664.963286	9818.583255
81.535500	0.280530	0.170250	0.284843	0.461674	5390.486622	24123.956704	3675.287778	9894.950960
82.035000	0.281514	0.169761	0.284166	0.462000	5394.077925	24084.446655	3673.722392	9889.796528
82.536000	0.279798	0.169350	0.285858	0.462826	5380.231898	24024.607889	3675.074551	9876.735246
83.036000	0.280217	0.169013	0.288571	0.469565	5346.155580	23685.710667	3668.810150	9771.136178
83.536500	0.279243	0.168228	0.289813	0.463781	5372.040767	23924.574620	3679.779281	9861.664579
84.036500	0.280953	0.168870	0.291321	0.465460	5372.209892	23874.800996	3679.511348	9835.262843
84.537000	0.283159	0.169260	0.293545	0.466424	5378.942288	23847.291966	3681.495080	9820.144830
85.037500	0.281369	0.168091	0.283521	0.468397	5358.605720	23697.429464	3662.824940	9789.325633
85.535000	0.283072	0.168968	0.287323	0.467961	5370.147683	23759.890301	3669.361852	9796.119192
86.035000	0.283323	0.169919	0.282051	0.469200	5364.808111	23746.175236	3659.344953	9776.814047
86.538000	0.283223	0.167500	0.287835	0.469187	5364.337891	23631.848579	3668.256573	9777.013572
87.036000	0.280297	0.168430	0.291680	0.472383	5331.544563	23524.773353	3669.261168	9727.460852
87.536000	0.278694	0.167405	0.290985	0.470287	5334.170128	23575.305003	3671.435956	9759.915801
88.036000	0.279349	0.166605	0.286566	0.471201	5332.786938	23494.468082	3663.194364	9745.741089
88.536500	0.279561	0.166733	0.286601	0.471843	5330.504465	23470.347993	3662.264373	9735.808738
89.037000	0.281021	0.167130	0.292682	0.474026	5326.660389	23386.536135	3668.268519	9702.118013
89.537500	0.283037	0.167536	0.288487	0.472957	5343.098778	23455.707836	3663.449593	9718.601084
90.037000	0.280494	0.167015	0.290881	0.473577	5326.245951	23402.194274	3666.178853	9709.036738
90.535000	0.282063	0.165602	0.291016	0.473628	5334.315883	23333.677473	3666.309816	9708.252987
91.035500	0.282910	0.167005	0.292907	0.475957	5326.436470	23290.501058	3665.632935	9672.466694
91.536000	0.279431	0.165494	0.283158	0.474765	5314.333079	23275.638903	3652.573021	9690.764894
92.036000	0.283463	0.167457	0.285089	0.476816	5324.815625	23271.542658	3652.392328	9659.323628
92.536000	0.282337	0.165762	0.288651	0.476603	5319.976068	23202.635107	3658.119005	9662.574502
93.039500	0.280520	0.166195	0.284828	0.478883	5298.395938	23117.133321	3648.883335	9627.783789
93.537000	0.280256	0.165450	0.287179	0.477222	5305.732846	23159.539809	3654.941274	9653.120251
94.037000	0.284622	0.166788	0.285492	0.479018	5319.292897	23138.372500	3649.679593	9625.739959
94.537500	0.279739	0.165816	0.292962	0.479213	5292.579525	23084.435760	3660.717320	9622.766369
95.038000	0.282960	0.166857	0.286302	0.480348	5303.512727	23080.099059	3648.897313	9605.535162
95.534500	0.281976	0.165734	0.289246	0.480608	5296.986463	23016.458538	3652.943874	9601.589759
96.038500	0.285777	0.165072	0.288855	0.481059	5314.606307	22965.343712	3651.672104	9594.758027
96.536000	0.282055	0.165445	0.292821	0.481215	5294.220677	22975.285476	3657.446721	9592.396968
