sample name	sample
index	1369
start time	 05-03-2021  02:21:23 PM


Wavelength (nm)	Absorbance
494.344910	-0.053557
494.563924	-0.053557
494.782919	-0.053557
495.001897	-0.105175
495.220856	-0.088413
495.439797	-0.075037
495.658719	-0.108643
495.877624	-0.082747
496.096510	-0.041261
496.315378	0.031371
496.534227	0.173176
496.753059	0.103310
496.971872	0.303399
497.190667	0.090247
497.409444	0.086788
497.628203	0.085526
497.846943	0.085346
498.065665	0.085287
498.284369	0.085463
498.503055	0.083326
498.721723	0.082562
498.940372	0.081518
499.159003	0.080689
499.377616	0.079263
499.596210	0.079612
499.814787	0.078677
500.033345	0.077834
500.251885	0.075818
500.470406	0.076670
500.688910	0.077126
500.907395	0.078058
501.125862	0.078334
501.344311	0.078853
501.562742	0.078933
501.781154	0.078547
501.999548	0.078423
502.217924	0.079237
502.436282	0.078762
502.654621	0.078969
502.872942	0.077224
503.091245	0.077265
503.309530	0.077576
503.527797	0.078262
503.746045	0.078460
503.964275	0.078300
504.182487	0.079134
504.400681	0.079441
504.618856	0.080217
504.837013	0.080590
505.055152	0.081355
505.273273	0.080614
505.491376	0.078856
505.709460	0.079379
505.927526	0.079691
506.145574	0.079033
506.363604	0.078654
506.581615	0.077004
506.799608	0.077300
507.017583	0.076724
507.235540	0.077611
507.453478	0.077640
507.671399	0.077902
507.889301	0.076795
508.107185	0.077510
508.325050	0.077754
508.542898	0.078487
508.760727	0.079389
508.978538	0.080240
509.196330	0.080169
509.414105	0.080924
509.631861	0.081095
509.849599	0.081865
510.067319	0.081319
510.285021	0.080870
510.502704	0.080900
510.720369	0.080156
510.938016	0.078216
511.155645	0.077162
511.373255	0.077243
511.590848	0.077181
511.808422	0.077465
512.025977	0.076571
512.243515	0.077352
512.461034	0.077366
512.678536	0.076775
512.896018	0.078211
513.113483	0.079348
513.330930	0.079394
513.548358	0.078928
513.765768	0.078777
513.983160	0.080331
514.200533	0.079632
514.417889	0.079956
514.635226	0.081218
514.852545	0.081760
515.069845	0.081304
515.287128	0.081582
515.504392	0.082082
515.721638	0.082256
515.938866	0.082690
516.156075	0.083237
516.373267	0.082702
516.590440	0.081600
516.807594	0.080832
517.024731	0.081685
517.241850	0.081090
517.458950	0.080932
517.676032	0.080387
517.893095	0.080042
518.110141	0.080456
518.327168	0.081458
518.544177	0.081750
518.761168	0.081741
518.978141	0.080867
519.195095	0.080989
519.412031	0.080822
519.628949	0.080808
519.845849	0.079989
520.062731	0.079832
520.279594	0.078783
520.496439	0.077908
520.713266	0.078336
520.930074	0.078805
521.146865	0.079376
521.363637	0.079702
521.580391	0.080768
521.797127	0.081490
522.013844	0.080264
522.230543	0.080869
522.447224	0.081922
522.663887	0.081523
522.880532	0.081784
523.097158	0.080990
523.313766	0.081349
523.530356	0.081032
523.746928	0.080912
523.963481	0.082429
524.180017	0.082437
524.396534	0.082008
524.613032	0.082912
524.829513	0.082386
525.045975	0.082821
525.262420	0.082127
525.478845	0.082069
525.695253	0.082150
525.911643	0.082249
526.128014	0.083403
526.344367	0.084549
526.560702	0.084325
526.777018	0.084607
526.993316	0.085234
527.209597	0.085958
527.425858	0.086554
527.642102	0.087122
527.858328	0.087086
528.074535	0.086752
528.290724	0.086879
528.506894	0.087255
528.723047	0.087747
528.939181	0.087775
529.155297	0.088258
529.371395	0.088453
529.587475	0.088961
529.803536	0.089241
530.019579	0.088930
530.235604	0.088143
530.451611	0.087598
530.667600	0.087992
530.883570	0.087668
531.099522	0.087596
531.315456	0.087538
531.531372	0.087045
531.747269	0.086832
531.963148	0.087153
532.179009	0.087539
532.394852	0.088919
532.610676	0.088935
532.826482	0.089856
533.042271	0.090236
533.258040	0.090567
533.473792	0.090711
533.689525	0.091062
533.905240	0.091585
534.120937	0.091898
534.336616	0.091172
534.552277	0.091031
534.767919	0.090765
534.983543	0.090424
535.199149	0.090662
535.414736	0.090394
535.630306	0.090475
535.845857	0.090024
536.061390	0.090330
536.276904	0.090706
536.492401	0.090933
536.707879	0.090770
536.923339	0.091638
537.138781	0.092241
537.354204	0.092661
537.569610	0.092916
537.784997	0.093510
538.000366	0.093665
538.215716	0.094093
538.431049	0.094665
538.646363	0.095489
538.861659	0.095051
539.076937	0.094877
539.292196	0.095137
539.507438	0.095410
539.722661	0.095265
539.937866	0.094919
540.153052	0.094362
540.368221	0.094253
540.583371	0.093684
540.798503	0.093888
541.013617	0.093807
541.228712	0.094082
541.443789	0.094066
541.658848	0.094221
541.873889	0.094680
542.088912	0.095282
542.303916	0.095609
542.518902	0.096222
542.733870	0.095908
542.948820	0.095909
543.163752	0.095964
543.378665	0.096134
543.593560	0.096404
543.808437	0.096331
544.023295	0.096302
544.238136	0.096044
544.452958	0.095558
544.667762	0.096220
544.882548	0.096573
545.097315	0.095938
545.312064	0.095487
545.526795	0.095396
545.741508	0.095322
545.956203	0.095532
546.170879	0.096102
546.385537	0.096640
546.600177	0.096431
546.814799	0.096454
547.029402	0.096894
547.243988	0.097347
547.458555	0.097323
547.673103	0.097739
547.887634	0.097626
548.102146	0.097264
548.316640	0.096847
548.531116	0.096920
548.745574	0.096305
548.960013	0.096246
549.174435	0.096127
549.388838	0.096510
549.603222	0.096717
549.817589	0.096824
550.031937	0.096682
550.246267	0.097186
550.460579	0.097254
550.674873	0.097825
550.889148	0.097815
551.103405	0.098143
551.317644	0.097886
551.531865	0.097921
551.746068	0.097947
551.960252	0.098118
552.174418	0.098335
552.388566	0.098639
552.602696	0.098719
552.816807	0.099046
553.030900	0.099385
553.244975	0.099661
553.459032	0.099596
553.673070	0.099380
553.887091	0.099221
554.101093	0.099102
554.315077	0.098506
554.529042	0.098015
554.742990	0.098228
554.956919	0.098297
555.170830	0.098229
555.384722	0.098322
555.598597	0.098419
555.812453	0.098648
556.026291	0.098963
556.240111	0.099622
556.453913	0.100333
556.667696	0.100340
556.881461	0.100466
557.095208	0.100879
557.308937	0.101297
557.522647	0.101498
557.736339	0.101865
557.950013	0.101877
558.163669	0.102187
558.377307	0.102029
558.590926	0.102313
558.804527	0.102025
559.018110	0.101661
559.231675	0.101774
559.445221	0.102026
559.658749	0.101845
559.872259	0.101660
560.085751	0.101689
560.299225	0.101672
560.512680	0.101535
560.726117	0.101497
560.939536	0.101600
561.152937	0.101170
561.366319	0.101304
561.579683	0.101298
561.793029	0.101482
562.006357	0.101016
562.219667	0.100752
562.432958	0.100720
562.646231	0.101034
562.859486	0.101493
563.072723	0.101432
563.285941	0.101453
563.499141	0.101886
563.712323	0.101598
563.925487	0.101726
564.138632	0.102266
564.351760	0.102498
564.564869	0.102294
564.777960	0.102157
564.991032	0.102360
565.204087	0.102255
565.417123	0.102030
565.630141	0.102305
565.843140	0.102292
566.056122	0.102378
566.269085	0.101744
566.482030	0.102089
566.694957	0.102247
566.907866	0.102437
567.120756	0.102834
567.333628	0.102896
567.546482	0.103231
567.759318	0.103264
567.972135	0.103221
568.184935	0.103621
568.397716	0.103436
568.610478	0.103171
568.823223	0.103190
569.035949	0.103145
569.248657	0.102944
569.461347	0.102810
569.674019	0.103134
569.886672	0.103099
570.099308	0.103330
570.311925	0.103435
570.524523	0.103424
570.737104	0.103591
570.949666	0.103334
571.162210	0.103860
571.374736	0.104160
571.587244	0.104056
571.799733	0.104134
572.012205	0.104147
572.224658	0.104465
572.437092	0.104419
572.649509	0.104061
572.861907	0.103976
573.074287	0.103845
573.286649	0.103115
573.498993	0.103226
573.711318	0.102806
573.923625	0.102892
574.135914	0.102615
574.348185	0.102590
574.560438	0.102760
574.772672	0.102800
574.984888	0.102829
575.197086	0.103289
575.409266	0.102692
575.621427	0.103118
575.833570	0.102866
576.045695	0.102617
576.257802	0.102693
576.469890	0.102738
576.681961	0.102991
576.894013	0.102756
577.106046	0.102618
577.318062	0.102927
577.530059	0.102828
577.742039	0.103075
577.954000	0.103194
578.165942	0.103608
578.377867	0.103896
578.589773	0.103909
578.801661	0.104273
579.013531	0.104571
579.225382	0.104813
579.437216	0.105114
579.649031	0.105193
579.860828	0.105374
580.072606	0.105323
580.284367	0.105356
580.496109	0.105437
580.707833	0.105504
580.919539	0.105593
581.131227	0.105780
581.342896	0.105944
581.554547	0.106106
581.766180	0.106210
581.977795	0.106360
582.189391	0.106282
582.400969	0.106194
582.612529	0.106084
582.824071	0.106141
583.035595	0.106256
583.247100	0.106070
583.458587	0.106008
583.670056	0.106035
583.881506	0.106201
584.092939	0.106044
584.304353	0.106102
584.515749	0.106340
584.727127	0.106389
584.938486	0.106864
585.149828	0.106863
585.361151	0.107218
585.572456	0.107191
585.783742	0.107280
585.995011	0.107706
586.206261	0.107443
586.417493	0.107596
586.628706	0.107479
586.839902	0.107052
587.051079	0.107375
587.262238	0.107494
587.473379	0.107638
587.684502	0.107575
587.895606	0.107356
588.106692	0.107985
588.317760	0.107816
588.528810	0.108073
588.739841	0.108018
588.950855	0.108200
589.161850	0.108019
589.372827	0.108002
589.583785	0.108078
589.794726	0.108111
590.005648	0.108121
590.216552	0.107937
590.427437	0.107674
590.638305	0.107943
590.849154	0.107855
591.059985	0.107759
591.270798	0.108000
591.481592	0.108174
591.692369	0.108207
591.903127	0.108274
592.113867	0.108399
592.324588	0.108719
592.535292	0.108875
592.745977	0.109137
592.956644	0.109531
593.167293	0.109635
593.377923	0.109313
593.588536	0.109757
593.799130	0.109746
594.009706	0.110194
594.220263	0.110423
594.430803	0.110358
594.641324	0.110110
594.851827	0.109941
595.062312	0.109995
595.272778	0.110215
595.483227	0.109987
595.693657	0.109779
595.904069	0.109770
596.114462	0.109778
596.324838	0.110066
596.535195	0.109920
596.745534	0.110210
596.955855	0.110253
597.166157	0.110180
597.376441	0.110236
597.586707	0.110451
597.796955	0.110204
598.007185	0.110234
598.217396	0.110046
598.427589	0.110529
598.637764	0.110734
598.847921	0.110670
599.058060	0.110889
599.268180	0.111047
599.478282	0.111225
599.688366	0.111556
599.898431	0.111741
600.108479	0.111796
600.318508	0.111834
600.528519	0.111495
600.738511	0.111655
600.948486	0.111730
601.158442	0.111911
601.368380	0.112155
601.578300	0.112051
601.788202	0.112400
601.998085	0.112680
602.207950	0.112996
602.417797	0.113144
602.627626	0.113122
602.837436	0.113205
603.047228	0.113264
603.257002	0.113161
603.466758	0.113444
603.676496	0.113359
603.886215	0.113458
604.095916	0.113395
604.305599	0.113579
604.515264	0.113734
604.724910	0.113853
604.934538	0.113759
605.144148	0.113620
605.353740	0.113773
605.563314	0.113793
605.772869	0.113664
605.982406	0.113768
606.191925	0.113739
606.401425	0.113840
606.610908	0.113791
606.820372	0.114071
607.029818	0.114125
607.239246	0.114037
607.448655	0.113885
607.658047	0.113845
607.867420	0.113784
608.076775	0.113681
608.286111	0.113717
608.495430	0.113931
608.704730	0.113698
608.914012	0.113940
609.123275	0.113818
609.332521	0.113666
609.541748	0.114037
609.750957	0.114056
609.960148	0.114587
610.169321	0.114518
610.378475	0.114496
610.587611	0.114698
610.796729	0.114680
611.005829	0.115128
611.214910	0.115295
611.423974	0.115198
611.633019	0.115123
611.842045	0.115043
612.051054	0.115257
612.260044	0.115418
612.469017	0.115509
612.677970	0.115677
612.886906	0.115585
613.095824	0.115554
613.304723	0.115862
613.513604	0.116104
613.722467	0.115978
613.931311	0.115998
614.140138	0.115872
614.348946	0.115997
614.557736	0.115906
614.766507	0.116003
614.975261	0.116087
615.183996	0.115926
615.392713	0.115842
615.601412	0.115943
615.810092	0.116068
616.018754	0.116148
616.227399	0.116066
616.436024	0.116299
616.644632	0.116251
616.853222	0.116452
617.061793	0.116568
617.270346	0.116619
617.478880	0.116808
617.687397	0.116810
617.895895	0.116649
618.104375	0.116800
618.312837	0.116781
618.521281	0.116742
618.729706	0.117053
618.938113	0.117237
619.146502	0.117275
619.354873	0.117280
619.563226	0.117291
619.771560	0.117696
619.979876	0.117642
620.188174	0.117799
620.396453	0.118239
620.604715	0.118082
620.812958	0.118112
621.021183	0.118279
621.229390	0.118442
621.437578	0.118549
621.645748	0.118483
621.853900	0.118862
622.062034	0.118882
622.270150	0.118757
622.478247	0.119065
622.686326	0.118940
622.894387	0.118815
623.102430	0.118771
623.310454	0.118840
623.518461	0.119083
623.726449	0.119233
623.934418	0.119315
624.142370	0.119217
624.350303	0.119033
624.558218	0.119008
624.766115	0.119155
624.973994	0.119402
625.181855	0.119473
625.389697	0.119589
625.597521	0.119349
625.805327	0.119482
626.013114	0.119610
626.220883	0.119521
626.428634	0.119758
626.636367	0.119759
626.844082	0.119698
627.051778	0.119754
627.259457	0.119692
627.467117	0.119848
627.674758	0.119914
627.882382	0.120014
628.089987	0.120263
628.297574	0.120259
628.505143	0.120691
628.712694	0.120479
628.920226	0.120666
629.127740	0.120837
629.335236	0.121202
629.542714	0.121193
629.750174	0.121261
629.957615	0.121593
630.165038	0.121610
630.372443	0.121532
630.579829	0.121824
630.787198	0.121856
630.994548	0.122057
631.201880	0.121728
631.409194	0.121782
631.616489	0.121886
631.823766	0.121700
632.031025	0.121774
632.238266	0.121867
632.445489	0.122038
632.652693	0.122042
632.859879	0.121669
633.067047	0.121819
633.274197	0.121809
633.481329	0.121660
633.688442	0.121714
633.895537	0.121915
634.102614	0.121810
634.309672	0.121633
634.516713	0.121669
634.723735	0.121981
634.930739	0.122095
635.137724	0.122389
635.344692	0.122539
635.551641	0.122652
635.758572	0.122623
635.965485	0.122816
636.172379	0.123052
636.379256	0.123071
636.586114	0.122825
636.792954	0.122867
636.999775	0.122826
637.206579	0.122919
637.413364	0.122690
637.620131	0.122591
637.826880	0.122633
638.033610	0.122445
638.240323	0.122481
638.447017	0.122742
638.653692	0.122777
638.860350	0.122737
639.066990	0.122630
639.273611	0.122790
639.480214	0.122833
639.686798	0.122647
639.893365	0.122844
640.099913	0.122969
640.306443	0.122987
640.512955	0.123054
640.719449	0.123125
640.925924	0.123257
641.132381	0.123256
641.338820	0.123521
641.545241	0.123666
641.751644	0.123891
641.958028	0.124195
642.164394	0.124284
642.370742	0.124565
642.577071	0.124604
642.783383	0.124958
642.989676	0.125307
643.195951	0.125567
643.402207	0.125863
643.608446	0.125917
643.814666	0.125833
644.020868	0.125990
644.227052	0.125886
644.433218	0.126255
644.639365	0.126157
644.845494	0.126124
645.051605	0.126177
645.257698	0.126294
645.463772	0.126360
645.669828	0.126327
645.875866	0.126178
646.081886	0.126218
646.287888	0.126069
646.493871	0.126208
646.699836	0.126287
646.905783	0.126204
647.111712	0.126085
647.317622	0.126077
647.523514	0.126265
647.729388	0.126564
647.935244	0.126420
648.141082	0.126501
648.346901	0.126671
648.552702	0.126760
648.758485	0.126901
648.964250	0.127041
649.169996	0.127143
649.375724	0.127288
649.581434	0.127273
649.787126	0.127676
649.992800	0.127667
650.198455	0.127729
650.404092	0.127716
650.609711	0.127725
650.815311	0.127888
651.020894	0.127977
651.226458	0.127909
651.432004	0.128080
651.637532	0.127947
651.843041	0.128081
652.048532	0.128195
652.254006	0.128451
652.459460	0.128681
652.664897	0.128788
652.870315	0.128829
653.075716	0.129121
653.281097	0.129247
653.486461	0.129708
653.691807	0.129629
653.897134	0.129461
654.102443	0.129523
654.307734	0.129421
654.513006	0.129331
654.718261	0.129460
654.923497	0.129386
655.128715	0.129611
655.333915	0.129349
655.539096	0.129546
655.744259	0.129894
655.949404	0.129816
656.154531	0.129897
656.359640	0.130116
656.564730	0.130219
656.769802	0.130442
656.974856	0.130253
657.179892	0.130265
657.384909	0.130430
657.589908	0.130157
657.794889	0.130074
657.999852	0.130178
658.204797	0.129959
658.409723	0.130070
658.614631	0.130053
658.819521	0.130022
659.024393	0.130135
659.229246	0.130091
659.434081	0.130267
659.638898	0.130564
659.843697	0.130390
660.048478	0.130717
660.253240	0.130490
660.457984	0.130468
660.662710	0.130587
660.867417	0.130401
661.072107	0.130434
661.276778	0.130418
661.481431	0.130296
661.686066	0.130414
661.890682	0.130346
662.095281	0.130542
662.299861	0.130609
662.504422	0.130671
662.708966	0.130912
662.913491	0.130940
663.117999	0.131122
663.322488	0.131262
663.526958	0.131464
663.731411	0.131561
663.935845	0.131626
664.140261	0.131776
664.344659	0.131800
664.549038	0.131833
664.753400	0.132096
664.957743	0.132059
665.162068	0.132365
665.366375	0.132382
665.570663	0.132381
665.774933	0.132511
665.979185	0.132688
666.183419	0.132947
666.387635	0.133159
666.591832	0.133221
666.796011	0.133440
667.000172	0.133328
667.204315	0.133622
667.408439	0.133951
667.612545	0.134212
667.816634	0.134035
668.020703	0.133946
668.224755	0.134139
668.428788	0.134304
668.632803	0.134410
668.836800	0.134667
669.040779	0.134621
669.244739	0.134664
669.448681	0.134776
669.652605	0.134966
669.856511	0.135059
670.060399	0.134899
670.264268	0.135151
670.468119	0.135387
670.671952	0.135498
670.875767	0.135738
671.079563	0.135753
671.283341	0.135564
671.487101	0.135439
671.690843	0.135569
671.894567	0.135892
672.098272	0.135800
672.301959	0.135886
672.505628	0.136027
672.709278	0.136004
672.912911	0.136031
673.116525	0.136278
673.320121	0.136578
673.523699	0.136952
673.727258	0.137064
673.930799	0.137145
674.134322	0.137168
674.337827	0.137198
674.541314	0.137200
674.744782	0.137524
674.948232	0.137669
675.151664	0.137763
675.355078	0.137744
675.558474	0.137594
675.761851	0.137458
675.965210	0.137471
676.168551	0.137481
676.371873	0.137600
676.575178	0.137699
676.778464	0.137595
676.981732	0.137617
677.184981	0.137536
677.388213	0.137592
677.591426	0.137640
677.794621	0.137673
677.997798	0.137629
678.200956	0.137815
678.404097	0.137890
678.607219	0.138016
678.810323	0.138111
679.013408	0.138346
679.216476	0.138674
679.419525	0.139047
679.622556	0.139259
679.825569	0.139419
680.028563	0.139389
680.231540	0.139339
680.434498	0.139556
680.637438	0.139816
680.840359	0.139938
681.043263	0.139937
681.246148	0.139999
681.449015	0.139939
681.651864	0.139945
681.854694	0.140185
682.057506	0.140202
682.260301	0.140181
682.463076	0.140137
682.665834	0.140143
682.868573	0.140391
683.071295	0.140457
683.273998	0.140772
683.476682	0.141190
683.679349	0.141290
683.881997	0.141620
684.084627	0.141833
684.287239	0.141888
684.489833	0.142100
684.692408	0.142015
684.894965	0.142027
685.097504	0.142106
685.300025	0.142130
685.502527	0.142107
685.705012	0.142042
685.907478	0.141984
686.109925	0.142052
686.312355	0.141950
686.514766	0.142068
686.717159	0.142312
686.919534	0.142251
687.121891	0.142306
687.324230	0.142419
687.526550	0.142548
687.728852	0.142551
687.931136	0.142595
688.133401	0.142648
688.335649	0.142805
688.537878	0.142674
688.740089	0.142676
688.942281	0.142598
689.144456	0.142624
689.346612	0.142501
689.548750	0.142607
689.750870	0.142556
689.952971	0.142375
690.155055	0.142509
690.357120	0.142833
690.559167	0.142986
690.761195	0.142967
690.963206	0.142934
691.165198	0.143174
691.367172	0.143325
691.569128	0.143588
691.771065	0.144007
691.972984	0.144117
692.174885	0.144281
692.376768	0.144334
692.578633	0.144771
692.780479	0.145039
692.982308	0.145126
693.184118	0.145033
693.385909	0.145193
