sample name	sample
index	1198
start time	 04-26-2021  12:36:32 PM


Wavelength (nm)	Absorbance
494.344910	-0.169609
494.563924	-0.169609
494.782919	-0.169609
495.001897	NaN
495.220856	0.057559
495.439797	-0.031330
495.658719	-0.007277
495.877624	-0.025520
496.096510	-0.128631
496.315378	-0.199629
496.534227	-0.165682
496.753059	-0.162966
496.971872	-0.132142
497.190667	0.125743
497.409444	0.157220
497.628203	0.162077
497.846943	0.171936
498.065665	0.174012
498.284369	0.175578
498.503055	0.175548
498.721723	0.175159
498.940372	0.175265
499.159003	0.174663
499.377616	0.176766
499.596210	0.177682
499.814787	0.176376
500.033345	0.176308
500.251885	0.176704
500.470406	0.176416
500.688910	0.177972
500.907395	0.178291
501.125862	0.178250
501.344311	0.177219
501.562742	0.177420
501.781154	0.177034
501.999548	0.178253
502.217924	0.178662
502.436282	0.178995
502.654621	0.177085
502.872942	0.176463
503.091245	0.177042
503.309530	0.177403
503.527797	0.176786
503.746045	0.177254
503.964275	0.177266
504.182487	0.177833
504.400681	0.177584
504.618856	0.178913
504.837013	0.179964
505.055152	0.179676
505.273273	0.179139
505.491376	0.179816
505.709460	0.180189
505.927526	0.180143
506.145574	0.178970
506.363604	0.179458
506.581615	0.179595
506.799608	0.180330
507.017583	0.180641
507.235540	0.180328
507.453478	0.180012
507.671399	0.180614
507.889301	0.181518
508.107185	0.181966
508.325050	0.181733
508.542898	0.181539
508.760727	0.180931
508.978538	0.181157
509.196330	0.181875
509.414105	0.182804
509.631861	0.181470
509.849599	0.180379
510.067319	0.180681
510.285021	0.180681
510.502704	0.179955
510.720369	0.179506
510.938016	0.179951
511.155645	0.180616
511.373255	0.180818
511.590848	0.181427
511.808422	0.181912
512.025977	0.182197
512.243515	0.182184
512.461034	0.182641
512.678536	0.183488
512.896018	0.183963
513.113483	0.183683
513.330930	0.183481
513.548358	0.184038
513.765768	0.184207
513.983160	0.184364
514.200533	0.184641
514.417889	0.185281
514.635226	0.185591
514.852545	0.185345
515.069845	0.185952
515.287128	0.185838
515.504392	0.185555
515.721638	0.185346
515.938866	0.185313
516.156075	0.186096
516.373267	0.186129
516.590440	0.186088
516.807594	0.186413
517.024731	0.186634
517.241850	0.187884
517.458950	0.188637
517.676032	0.188510
517.893095	0.188686
518.110141	0.188561
518.327168	0.190129
518.544177	0.190069
518.761168	0.189811
518.978141	0.189606
519.195095	0.189416
519.412031	0.189129
519.628949	0.189853
519.845849	0.190682
520.062731	0.190691
520.279594	0.188768
520.496439	0.189778
520.713266	0.190586
520.930074	0.191336
521.146865	0.190942
521.363637	0.190778
521.580391	0.191379
521.797127	0.191417
522.013844	0.191285
522.230543	0.192134
522.447224	0.191723
522.663887	0.191753
522.880532	0.191073
523.097158	0.191245
523.313766	0.191629
523.530356	0.191041
523.746928	0.191433
523.963481	0.192655
524.180017	0.193211
524.396534	0.193195
524.613032	0.193445
524.829513	0.195027
525.045975	0.195368
525.262420	0.196084
525.478845	0.196841
525.695253	0.196083
525.911643	0.196473
526.128014	0.196711
526.344367	0.197769
526.560702	0.198005
526.777018	0.197026
526.993316	0.198147
527.209597	0.198385
527.425858	0.198441
527.642102	0.199960
527.858328	0.200119
528.074535	0.201048
528.290724	0.200771
528.506894	0.201141
528.723047	0.201789
528.939181	0.201602
529.155297	0.201386
529.371395	0.201066
529.587475	0.200887
529.803536	0.201146
530.019579	0.200920
530.235604	0.201591
530.451611	0.201130
530.667600	0.202156
530.883570	0.202401
531.099522	0.203418
531.315456	0.204218
531.531372	0.203496
531.747269	0.203894
531.963148	0.204132
532.179009	0.204268
532.394852	0.205094
532.610676	0.204815
532.826482	0.204997
533.042271	0.204908
533.258040	0.204987
533.473792	0.206172
533.689525	0.206155
533.905240	0.207018
534.120937	0.206890
534.336616	0.207774
534.552277	0.208599
534.767919	0.209573
534.983543	0.210171
535.199149	0.211254
535.414736	0.211767
535.630306	0.212229
535.845857	0.212052
536.061390	0.213331
536.276904	0.213560
536.492401	0.213536
536.707879	0.213456
536.923339	0.213982
537.138781	0.213845
537.354204	0.213909
537.569610	0.214621
537.784997	0.214943
538.000366	0.215047
538.215716	0.214626
538.431049	0.214888
538.646363	0.214919
538.861659	0.215471
539.076937	0.215979
539.292196	0.215930
539.507438	0.216259
539.722661	0.215847
539.937866	0.215753
540.153052	0.216541
540.368221	0.217033
540.583371	0.216880
540.798503	0.216265
541.013617	0.216468
541.228712	0.217269
541.443789	0.217246
541.658848	0.217424
541.873889	0.217455
542.088912	0.217053
542.303916	0.217283
542.518902	0.217659
542.733870	0.217480
542.948820	0.217230
543.163752	0.217827
543.378665	0.218218
543.593560	0.219740
543.808437	0.219720
544.023295	0.220859
544.238136	0.220997
544.452958	0.221270
544.667762	0.222929
544.882548	0.223500
545.097315	0.223140
545.312064	0.223333
545.526795	0.222845
545.741508	0.223155
545.956203	0.222388
546.170879	0.222582
546.385537	0.222869
546.600177	0.222411
546.814799	0.223105
547.029402	0.223456
547.243988	0.223277
547.458555	0.223756
547.673103	0.224376
547.887634	0.224869
548.102146	0.224704
548.316640	0.225086
548.531116	0.224728
548.745574	0.224065
548.960013	0.223762
549.174435	0.223740
549.388838	0.223782
549.603222	0.223962
549.817589	0.224037
550.031937	0.224700
550.246267	0.225308
550.460579	0.225946
550.674873	0.226419
550.889148	0.227198
551.103405	0.227253
551.317644	0.227298
551.531865	0.227101
551.746068	0.227274
551.960252	0.226992
552.174418	0.226595
552.388566	0.227069
552.602696	0.227189
552.816807	0.227323
553.030900	0.227621
553.244975	0.227388
553.459032	0.228009
553.673070	0.228157
553.887091	0.228328
554.101093	0.228358
554.315077	0.227639
554.529042	0.227860
554.742990	0.227758
554.956919	0.228037
555.170830	0.228444
555.384722	0.228357
555.598597	0.228653
555.812453	0.228668
556.026291	0.228924
556.240111	0.229352
556.453913	0.229286
556.667696	0.229516
556.881461	0.229621
557.095208	0.230070
557.308937	0.230666
557.522647	0.230946
557.736339	0.231175
557.950013	0.231327
558.163669	0.231639
558.377307	0.231956
558.590926	0.231966
558.804527	0.231767
559.018110	0.231388
559.231675	0.230926
559.445221	0.231136
559.658749	0.231284
559.872259	0.231421
560.085751	0.231576
560.299225	0.231617
560.512680	0.231777
560.726117	0.232115
560.939536	0.232858
561.152937	0.232947
561.366319	0.232736
561.579683	0.232772
561.793029	0.232499
562.006357	0.232852
562.219667	0.233001
562.432958	0.233119
562.646231	0.233387
562.859486	0.233147
563.072723	0.233510
563.285941	0.233785
563.499141	0.233933
563.712323	0.234351
563.925487	0.234200
564.138632	0.234478
564.351760	0.234534
564.564869	0.234569
564.777960	0.234581
564.991032	0.234642
565.204087	0.234812
565.417123	0.235065
565.630141	0.234993
565.843140	0.234913
566.056122	0.234542
566.269085	0.234686
566.482030	0.234777
566.694957	0.234983
566.907866	0.235034
567.120756	0.234549
567.333628	0.234447
567.546482	0.234729
567.759318	0.234947
567.972135	0.235281
568.184935	0.235070
568.397716	0.235395
568.610478	0.235199
568.823223	0.235453
569.035949	0.236133
569.248657	0.235935
569.461347	0.236253
569.674019	0.236488
569.886672	0.236712
570.099308	0.237094
570.311925	0.237073
570.524523	0.237459
570.737104	0.237920
570.949666	0.237967
571.162210	0.238671
571.374736	0.238307
571.587244	0.238439
571.799733	0.238765
572.012205	0.238598
572.224658	0.238662
572.437092	0.238845
572.649509	0.237925
572.861907	0.237924
573.074287	0.237596
573.286649	0.238410
573.498993	0.238786
573.711318	0.238710
573.923625	0.239135
574.135914	0.239129
574.348185	0.239268
574.560438	0.239990
574.772672	0.240062
574.984888	0.240656
575.197086	0.240735
575.409266	0.240143
575.621427	0.240344
575.833570	0.240824
576.045695	0.241060
576.257802	0.241177
576.469890	0.241487
576.681961	0.241887
576.894013	0.241843
577.106046	0.241855
577.318062	0.242046
577.530059	0.241822
577.742039	0.241225
577.954000	0.241521
578.165942	0.241419
578.377867	0.241177
578.589773	0.241340
578.801661	0.241643
579.013531	0.241550
579.225382	0.242104
579.437216	0.242096
579.649031	0.242180
579.860828	0.242045
580.072606	0.242406
580.284367	0.242548
580.496109	0.242367
580.707833	0.242026
580.919539	0.242169
581.131227	0.242243
581.342896	0.242802
581.554547	0.243032
581.766180	0.243434
581.977795	0.243353
582.189391	0.243401
582.400969	0.243497
582.612529	0.243679
582.824071	0.243566
583.035595	0.243884
583.247100	0.244057
583.458587	0.244269
583.670056	0.244261
583.881506	0.244655
584.092939	0.245395
584.304353	0.245794
584.515749	0.246110
584.727127	0.246501
584.938486	0.246474
585.149828	0.246213
585.361151	0.246440
585.572456	0.246428
585.783742	0.246448
585.995011	0.246213
586.206261	0.246302
586.417493	0.246263
586.628706	0.246670
586.839902	0.246637
587.051079	0.247133
587.262238	0.247454
587.473379	0.247635
587.684502	0.247920
587.895606	0.247931
588.106692	0.248077
588.317760	0.248098
588.528810	0.248094
588.739841	0.248412
588.950855	0.248337
589.161850	0.248611
589.372827	0.248961
589.583785	0.249135
589.794726	0.249289
590.005648	0.249345
590.216552	0.250282
590.427437	0.250440
590.638305	0.250777
590.849154	0.250894
591.059985	0.251067
591.270798	0.251346
591.481592	0.251224
591.692369	0.251658
591.903127	0.251869
592.113867	0.251583
592.324588	0.251299
592.535292	0.251271
592.745977	0.251421
592.956644	0.251470
593.167293	0.251312
593.377923	0.251584
593.588536	0.251503
593.799130	0.251764
594.009706	0.251771
594.220263	0.252260
594.430803	0.252269
594.641324	0.252794
594.851827	0.252826
595.062312	0.253035
595.272778	0.253224
595.483227	0.253526
595.693657	0.253314
595.904069	0.253324
596.114462	0.253142
596.324838	0.253361
596.535195	0.253089
596.745534	0.253224
596.955855	0.253538
597.166157	0.253801
597.376441	0.253706
597.586707	0.253902
597.796955	0.254151
598.007185	0.254532
598.217396	0.254594
598.427589	0.254694
598.637764	0.254816
598.847921	0.254718
599.058060	0.254747
599.268180	0.254653
599.478282	0.254856
599.688366	0.254935
599.898431	0.255048
600.108479	0.255229
600.318508	0.255514
600.528519	0.255719
600.738511	0.256091
600.948486	0.256181
601.158442	0.256326
601.368380	0.256455
601.578300	0.256752
601.788202	0.257086
601.998085	0.257738
602.207950	0.257772
602.417797	0.257928
602.627626	0.257446
602.837436	0.257334
603.047228	0.257865
603.257002	0.258219
603.466758	0.258310
603.676496	0.258066
603.886215	0.258033
604.095916	0.258534
604.305599	0.258358
604.515264	0.258847
604.724910	0.259196
604.934538	0.259287
605.144148	0.259247
605.353740	0.259495
605.563314	0.259912
605.772869	0.259551
605.982406	0.259519
606.191925	0.259705
606.401425	0.259756
606.610908	0.259855
606.820372	0.260219
607.029818	0.260246
607.239246	0.260605
607.448655	0.260614
607.658047	0.260798
607.867420	0.260805
608.076775	0.260945
608.286111	0.261207
608.495430	0.261347
608.704730	0.261444
608.914012	0.262099
609.123275	0.261774
609.332521	0.261829
609.541748	0.262308
609.750957	0.262897
609.960148	0.263244
610.169321	0.263499
610.378475	0.263769
610.587611	0.263665
610.796729	0.263455
611.005829	0.263943
611.214910	0.264027
611.423974	0.263675
611.633019	0.263669
611.842045	0.263824
612.051054	0.263501
612.260044	0.263960
612.469017	0.264337
612.677970	0.264774
612.886906	0.264868
613.095824	0.265072
613.304723	0.265493
613.513604	0.265593
613.722467	0.265749
613.931311	0.266212
614.140138	0.265929
614.348946	0.265985
614.557736	0.266084
614.766507	0.266248
614.975261	0.266604
615.183996	0.266731
615.392713	0.266661
615.601412	0.266861
615.810092	0.267242
616.018754	0.267537
616.227399	0.267509
616.436024	0.267425
616.644632	0.267264
616.853222	0.267072
617.061793	0.267290
617.270346	0.267305
617.478880	0.267166
617.687397	0.267294
617.895895	0.267179
618.104375	0.267163
618.312837	0.267390
618.521281	0.267925
618.729706	0.268381
618.938113	0.268320
619.146502	0.268927
619.354873	0.269286
619.563226	0.269409
619.771560	0.269824
619.979876	0.270066
620.188174	0.270206
620.396453	0.270187
620.604715	0.270276
620.812958	0.270312
621.021183	0.270261
621.229390	0.270462
621.437578	0.270242
621.645748	0.270110
621.853900	0.270335
622.062034	0.270316
622.270150	0.270318
622.478247	0.270311
622.686326	0.270728
622.894387	0.270963
623.102430	0.270971
623.310454	0.271409
623.518461	0.271757
623.726449	0.271938
623.934418	0.272064
624.142370	0.272426
624.350303	0.272972
624.558218	0.273072
624.766115	0.272959
624.973994	0.272941
625.181855	0.272923
625.389697	0.272925
625.597521	0.273207
625.805327	0.273612
626.013114	0.273558
626.220883	0.273339
626.428634	0.273464
626.636367	0.273458
626.844082	0.273952
627.051778	0.273824
627.259457	0.274191
627.467117	0.274205
627.674758	0.274185
627.882382	0.274228
628.089987	0.274555
628.297574	0.274688
628.505143	0.275101
628.712694	0.275038
628.920226	0.275270
629.127740	0.275170
629.335236	0.275271
629.542714	0.275516
629.750174	0.275694
629.957615	0.276004
630.165038	0.275896
630.372443	0.275847
630.579829	0.276040
630.787198	0.276495
630.994548	0.276529
631.201880	0.277012
631.409194	0.276877
631.616489	0.277151
631.823766	0.277179
632.031025	0.277600
632.238266	0.278088
632.445489	0.278130
632.652693	0.277935
632.859879	0.278321
633.067047	0.278056
633.274197	0.278501
633.481329	0.278534
633.688442	0.278390
633.895537	0.278708
634.102614	0.278534
634.309672	0.278717
634.516713	0.279281
634.723735	0.279054
634.930739	0.279021
635.137724	0.279020
635.344692	0.279064
635.551641	0.279190
635.758572	0.279010
635.965485	0.279228
636.172379	0.279649
636.379256	0.279218
636.586114	0.279760
636.792954	0.280069
636.999775	0.280100
637.206579	0.280608
637.413364	0.280807
637.620131	0.280724
637.826880	0.280888
638.033610	0.280977
638.240323	0.281209
638.447017	0.281367
638.653692	0.281610
638.860350	0.281805
639.066990	0.281657
639.273611	0.281955
639.480214	0.282229
639.686798	0.282437
639.893365	0.282482
640.099913	0.282792
640.306443	0.282778
640.512955	0.282777
640.719449	0.282856
640.925924	0.283185
641.132381	0.283218
641.338820	0.283492
641.545241	0.283888
641.751644	0.283989
641.958028	0.284282
642.164394	0.284442
642.370742	0.284447
642.577071	0.284760
642.783383	0.284840
642.989676	0.284845
643.195951	0.285155
643.402207	0.284641
643.608446	0.284914
643.814666	0.285209
644.020868	0.285397
644.227052	0.285651
644.433218	0.285681
644.639365	0.285760
644.845494	0.285958
645.051605	0.285896
645.257698	0.286125
645.463772	0.285974
645.669828	0.285877
645.875866	0.286017
646.081886	0.286302
646.287888	0.286320
646.493871	0.286382
646.699836	0.286543
646.905783	0.286759
647.111712	0.287199
647.317622	0.287452
647.523514	0.287612
647.729388	0.287479
647.935244	0.287757
648.141082	0.287812
648.346901	0.287950
648.552702	0.288181
648.758485	0.288197
648.964250	0.288343
649.169996	0.288588
649.375724	0.288924
649.581434	0.289276
649.787126	0.289106
649.992800	0.289507
650.198455	0.289759
650.404092	0.289884
650.609711	0.290232
650.815311	0.290306
651.020894	0.290525
651.226458	0.290678
651.432004	0.291145
651.637532	0.291306
651.843041	0.291432
652.048532	0.291483
652.254006	0.291676
652.459460	0.291757
652.664897	0.291946
652.870315	0.291895
653.075716	0.291895
653.281097	0.291704
653.486461	0.291917
653.691807	0.292091
653.897134	0.292283
654.102443	0.292375
654.307734	0.292508
654.513006	0.292671
654.718261	0.292916
654.923497	0.293126
655.128715	0.293290
655.333915	0.293578
655.539096	0.293832
655.744259	0.293868
655.949404	0.293764
656.154531	0.294073
656.359640	0.294037
656.564730	0.294149
656.769802	0.294509
656.974856	0.294738
657.179892	0.295070
657.384909	0.295095
657.589908	0.295662
657.794889	0.296407
657.999852	0.296409
658.204797	0.296875
658.409723	0.296942
658.614631	0.296867
658.819521	0.297187
659.024393	0.297364
659.229246	0.297581
659.434081	0.297435
659.638898	0.297417
659.843697	0.297740
660.048478	0.297765
660.253240	0.297875
660.457984	0.298138
660.662710	0.298238
660.867417	0.298262
661.072107	0.298514
661.276778	0.298890
661.481431	0.299214
661.686066	0.299440
661.890682	0.299594
662.095281	0.299886
662.299861	0.299941
662.504422	0.300244
662.708966	0.300620
662.913491	0.300784
663.117999	0.300997
663.322488	0.301048
663.526958	0.301148
663.731411	0.301452
663.935845	0.301795
664.140261	0.302405
664.344659	0.302353
664.549038	0.302555
664.753400	0.302497
664.957743	0.302722
665.162068	0.302789
665.366375	0.303003
665.570663	0.303087
665.774933	0.303024
665.979185	0.302889
666.183419	0.303236
666.387635	0.303164
666.591832	0.303236
666.796011	0.303349
667.000172	0.303448
667.204315	0.303643
667.408439	0.303669
667.612545	0.304013
667.816634	0.304026
668.020703	0.304066
668.224755	0.304322
668.428788	0.304770
668.632803	0.304883
668.836800	0.305241
669.040779	0.305262
669.244739	0.305627
669.448681	0.305598
669.652605	0.305930
669.856511	0.305989
670.060399	0.306172
670.264268	0.306503
670.468119	0.306464
670.671952	0.306591
670.875767	0.306758
671.079563	0.307266
671.283341	0.307755
671.487101	0.308061
671.690843	0.308629
671.894567	0.308699
672.098272	0.308764
672.301959	0.308883
672.505628	0.309108
672.709278	0.309364
672.912911	0.309353
673.116525	0.309588
673.320121	0.309631
673.523699	0.309505
673.727258	0.309870
673.930799	0.310182
674.134322	0.310796
674.337827	0.310974
674.541314	0.311191
674.744782	0.311175
674.948232	0.311250
675.151664	0.311461
675.355078	0.311844
675.558474	0.311916
675.761851	0.312068
675.965210	0.312336
676.168551	0.312428
676.371873	0.312636
676.575178	0.312978
676.778464	0.313287
676.981732	0.313735
677.184981	0.313836
677.388213	0.314248
677.591426	0.314381
677.794621	0.314162
677.997798	0.314476
678.200956	0.314509
678.404097	0.314568
678.607219	0.314408
678.810323	0.314217
679.013408	0.314293
679.216476	0.314116
679.419525	0.314364
679.622556	0.314587
679.825569	0.314660
680.028563	0.315065
680.231540	0.315308
680.434498	0.315487
680.637438	0.315809
680.840359	0.315959
681.043263	0.316347
681.246148	0.316375
681.449015	0.316802
681.651864	0.316689
681.854694	0.316739
682.057506	0.316892
682.260301	0.317052
682.463076	0.317121
682.665834	0.317212
682.868573	0.317325
683.071295	0.317319
683.273998	0.317369
683.476682	0.318031
683.679349	0.318111
683.881997	0.318482
684.084627	0.318755
684.287239	0.318617
684.489833	0.318688
684.692408	0.318756
684.894965	0.318806
685.097504	0.318706
685.300025	0.318625
685.502527	0.318685
685.705012	0.318907
685.907478	0.319189
686.109925	0.319593
686.312355	0.319989
686.514766	0.319964
686.717159	0.320417
686.919534	0.321045
687.121891	0.321246
687.324230	0.321743
687.526550	0.321785
687.728852	0.321972
687.931136	0.322562
688.133401	0.322973
688.335649	0.323166
688.537878	0.323367
688.740089	0.323336
688.942281	0.323340
689.144456	0.323368
689.346612	0.323285
689.548750	0.323541
689.750870	0.323465
689.952971	0.323387
690.155055	0.323950
690.357120	0.324146
690.559167	0.324327
690.761195	0.324806
690.963206	0.325214
691.165198	0.325666
691.367172	0.325739
691.569128	0.325698
691.771065	0.326073
691.972984	0.325975
692.174885	0.326170
692.376768	0.326221
692.578633	0.326208
692.780479	0.325967
692.982308	0.326152
693.184118	0.326286
693.385909	0.326203
