sample name	sample
index	1411
start time	 05-10-2021  11:40:12 AM


Wavelength (nm)	Absorbance
494.344910	0.065726
494.563924	0.065726
494.782919	0.065726
495.001897	-0.031415
495.220856	0.029382
495.439797	0.030695
495.658719	0.024131
495.877624	0.021024
496.096510	0.025751
496.315378	0.029289
496.534227	0.024406
496.753059	0.019427
496.971872	0.024462
497.190667	0.095112
497.409444	0.125624
497.628203	0.135478
497.846943	0.141385
498.065665	0.143510
498.284369	0.145832
498.503055	0.147723
498.721723	0.147831
498.940372	0.150169
499.159003	0.151055
499.377616	0.150331
499.596210	0.149584
499.814787	0.150106
500.033345	0.150830
500.251885	0.150835
500.470406	0.151504
500.688910	0.152891
500.907395	0.152126
501.125862	0.151442
501.344311	0.151381
501.562742	0.153825
501.781154	0.153288
501.999548	0.153817
502.217924	0.154164
502.436282	0.154211
502.654621	0.154906
502.872942	0.155104
503.091245	0.154347
503.309530	0.155647
503.527797	0.154550
503.746045	0.154437
503.964275	0.153901
504.182487	0.154469
504.400681	0.154462
504.618856	0.154198
504.837013	0.154105
505.055152	0.153941
505.273273	0.153349
505.491376	0.153152
505.709460	0.153529
505.927526	0.153568
506.145574	0.152907
506.363604	0.152451
506.581615	0.151588
506.799608	0.151885
507.017583	0.153842
507.235540	0.154707
507.453478	0.154912
507.671399	0.154544
507.889301	0.154779
508.107185	0.154339
508.325050	0.155083
508.542898	0.156880
508.760727	0.157243
508.978538	0.157019
509.196330	0.155717
509.414105	0.155422
509.631861	0.155687
509.849599	0.156896
510.067319	0.157744
510.285021	0.157537
510.502704	0.156535
510.720369	0.156200
510.938016	0.155772
511.155645	0.156860
511.373255	0.157135
511.590848	0.157550
511.808422	0.156344
512.025977	0.156985
512.243515	0.158048
512.461034	0.158164
512.678536	0.159087
512.896018	0.159123
513.113483	0.158868
513.330930	0.159464
513.548358	0.158719
513.765768	0.158663
513.983160	0.157962
514.200533	0.157625
514.417889	0.157551
514.635226	0.157600
514.852545	0.157559
515.069845	0.157659
515.287128	0.157859
515.504392	0.158655
515.721638	0.159528
515.938866	0.159572
516.156075	0.158906
516.373267	0.160148
516.590440	0.159719
516.807594	0.160128
517.024731	0.159966
517.241850	0.159987
517.458950	0.159942
517.676032	0.160040
517.893095	0.160324
518.110141	0.160693
518.327168	0.159683
518.544177	0.159185
518.761168	0.159653
518.978141	0.160006
519.195095	0.160095
519.412031	0.160347
519.628949	0.160504
519.845849	0.162029
520.062731	0.162138
520.279594	0.162615
520.496439	0.163774
520.713266	0.163789
520.930074	0.163726
521.146865	0.163149
521.363637	0.163263
521.580391	0.162501
521.797127	0.161992
522.013844	0.162055
522.230543	0.162777
522.447224	0.162783
522.663887	0.163126
522.880532	0.163908
523.097158	0.164630
523.313766	0.164993
523.530356	0.165576
523.746928	0.165123
523.963481	0.165888
524.180017	0.165493
524.396534	0.165408
524.613032	0.165481
524.829513	0.165744
525.045975	0.165906
525.262420	0.166010
525.478845	0.167185
525.695253	0.167842
525.911643	0.167576
526.128014	0.167692
526.344367	0.168039
526.560702	0.167438
526.777018	0.166942
526.993316	0.166808
527.209597	0.167580
527.425858	0.167655
527.642102	0.167272
527.858328	0.167633
528.074535	0.167759
528.290724	0.167813
528.506894	0.168333
528.723047	0.168932
528.939181	0.169207
529.155297	0.168576
529.371395	0.168572
529.587475	0.168994
529.803536	0.169071
530.019579	0.169180
530.235604	0.169088
530.451611	0.169538
530.667600	0.169770
530.883570	0.170390
531.099522	0.171233
531.315456	0.171507
531.531372	0.172314
531.747269	0.172644
531.963148	0.173787
532.179009	0.174040
532.394852	0.174102
532.610676	0.174487
532.826482	0.174971
533.042271	0.174864
533.258040	0.175108
533.473792	0.175322
533.689525	0.175542
533.905240	0.175061
534.120937	0.175457
534.336616	0.175428
534.552277	0.175474
534.767919	0.175807
534.983543	0.175893
535.199149	0.175694
535.414736	0.175319
535.630306	0.175229
535.845857	0.175812
536.061390	0.176240
536.276904	0.177409
536.492401	0.177283
536.707879	0.177293
536.923339	0.178061
537.138781	0.178302
537.354204	0.178162
537.569610	0.178787
537.784997	0.178673
538.000366	0.178791
538.215716	0.178068
538.431049	0.178172
538.646363	0.177998
538.861659	0.177783
539.076937	0.178228
539.292196	0.178696
539.507438	0.178538
539.722661	0.178406
539.937866	0.178025
540.153052	0.178299
540.368221	0.178223
540.583371	0.178517
540.798503	0.178909
541.013617	0.178921
541.228712	0.179322
541.443789	0.179116
541.658848	0.179878
541.873889	0.180328
542.088912	0.180913
542.303916	0.181314
542.518902	0.181729
542.733870	0.181644
542.948820	0.181806
543.163752	0.181535
543.378665	0.182149
543.593560	0.181840
543.808437	0.182012
544.023295	0.181950
544.238136	0.182034
544.452958	0.181692
544.667762	0.181863
544.882548	0.181665
545.097315	0.181864
545.312064	0.181844
545.526795	0.182274
545.741508	0.182112
545.956203	0.182036
546.170879	0.182233
546.385537	0.182149
546.600177	0.182025
546.814799	0.182361
547.029402	0.183150
547.243988	0.183671
547.458555	0.183899
547.673103	0.184213
547.887634	0.184121
548.102146	0.184631
548.316640	0.185185
548.531116	0.185619
548.745574	0.185766
548.960013	0.185588
549.174435	0.185514
549.388838	0.185328
549.603222	0.185765
549.817589	0.186175
550.031937	0.186140
550.246267	0.186375
550.460579	0.186022
550.674873	0.186119
550.889148	0.185601
551.103405	0.186021
551.317644	0.186075
551.531865	0.186039
551.746068	0.186013
551.960252	0.185831
552.174418	0.185733
552.388566	0.186025
552.602696	0.185848
552.816807	0.186610
553.030900	0.186292
553.244975	0.186454
553.459032	0.186940
553.673070	0.187426
553.887091	0.187687
554.101093	0.187984
554.315077	0.188305
554.529042	0.188625
554.742990	0.188235
554.956919	0.188212
555.170830	0.188522
555.384722	0.188215
555.598597	0.187881
555.812453	0.188211
556.026291	0.188300
556.240111	0.188557
556.453913	0.188600
556.667696	0.189073
556.881461	0.189550
557.095208	0.189713
557.308937	0.189869
557.522647	0.190463
557.736339	0.190447
557.950013	0.190319
558.163669	0.190181
558.377307	0.190491
558.590926	0.190335
558.804527	0.190415
559.018110	0.190221
559.231675	0.190423
559.445221	0.190808
559.658749	0.191537
559.872259	0.191865
560.085751	0.192436
560.299225	0.192814
560.512680	0.193283
560.726117	0.193323
560.939536	0.194095
561.152937	0.194047
561.366319	0.193999
561.579683	0.193918
561.793029	0.194241
562.006357	0.193685
562.219667	0.193625
562.432958	0.193254
562.646231	0.193262
562.859486	0.192833
563.072723	0.193294
563.285941	0.193253
563.499141	0.192988
563.712323	0.192950
563.925487	0.193456
564.138632	0.193306
564.351760	0.193830
564.564869	0.193918
564.777960	0.194374
564.991032	0.194162
565.204087	0.194162
565.417123	0.193762
565.630141	0.193854
565.843140	0.194001
566.056122	0.194165
566.269085	0.194582
566.482030	0.194702
566.694957	0.194710
566.907866	0.195020
567.120756	0.195241
567.333628	0.195726
567.546482	0.196271
567.759318	0.196181
567.972135	0.196307
568.184935	0.196265
568.397716	0.196655
568.610478	0.197170
568.823223	0.197129
569.035949	0.197254
569.248657	0.197536
569.461347	0.197047
569.674019	0.197057
569.886672	0.197453
570.099308	0.197406
570.311925	0.197231
570.524523	0.196387
570.737104	0.196357
570.949666	0.196194
571.162210	0.196200
571.374736	0.196386
571.587244	0.196465
571.799733	0.196384
572.012205	0.196695
572.224658	0.197098
572.437092	0.197755
572.649509	0.197895
572.861907	0.198368
573.074287	0.198359
573.286649	0.198442
573.498993	0.198741
573.711318	0.198841
573.923625	0.198620
574.135914	0.198631
574.348185	0.198826
574.560438	0.199313
574.772672	0.199561
574.984888	0.199702
575.197086	0.199897
575.409266	0.200280
575.621427	0.200626
575.833570	0.201283
576.045695	0.201382
576.257802	0.201378
576.469890	0.201309
576.681961	0.201585
576.894013	0.201926
577.106046	0.201835
577.318062	0.201532
577.530059	0.201429
577.742039	0.200927
577.954000	0.200905
578.165942	0.200904
578.377867	0.200882
578.589773	0.200475
578.801661	0.200250
579.013531	0.200649
579.225382	0.200496
579.437216	0.200645
579.649031	0.201173
579.860828	0.201145
580.072606	0.201583
580.284367	0.201985
580.496109	0.202306
580.707833	0.202331
580.919539	0.202046
581.131227	0.202637
581.342896	0.202611
581.554547	0.202603
581.766180	0.203175
581.977795	0.203286
582.189391	0.202982
582.400969	0.202910
582.612529	0.203649
582.824071	0.204008
583.035595	0.204101
583.247100	0.204203
583.458587	0.204304
583.670056	0.203989
583.881506	0.203892
584.092939	0.204380
584.304353	0.204500
584.515749	0.204343
584.727127	0.204681
584.938486	0.204871
585.149828	0.205192
585.361151	0.205141
585.572456	0.205497
585.783742	0.205263
585.995011	0.205093
586.206261	0.205050
586.417493	0.205240
586.628706	0.205043
586.839902	0.204943
587.051079	0.205083
587.262238	0.205338
587.473379	0.205491
587.684502	0.205948
587.895606	0.206447
588.106692	0.206563
588.317760	0.206722
588.528810	0.207257
588.739841	0.207527
588.950855	0.207618
589.161850	0.207610
589.372827	0.207851
589.583785	0.207731
589.794726	0.207795
590.005648	0.207870
590.216552	0.207831
590.427437	0.207497
590.638305	0.207390
590.849154	0.207776
591.059985	0.208164
591.270798	0.208195
591.481592	0.208318
591.692369	0.207984
591.903127	0.208132
592.113867	0.208583
592.324588	0.208906
592.535292	0.209209
592.745977	0.208689
592.956644	0.208483
593.167293	0.208595
593.377923	0.208641
593.588536	0.209137
593.799130	0.209609
594.009706	0.209701
594.220263	0.209753
594.430803	0.209600
594.641324	0.209953
594.851827	0.210169
595.062312	0.209843
595.272778	0.209821
595.483227	0.209744
595.693657	0.209807
595.904069	0.209605
596.114462	0.209435
596.324838	0.209550
596.535195	0.209560
596.745534	0.209571
596.955855	0.209808
597.166157	0.210099
597.376441	0.210498
597.586707	0.210475
597.796955	0.210739
598.007185	0.211106
598.217396	0.211647
598.427589	0.211952
598.637764	0.212176
598.847921	0.212324
599.058060	0.212860
599.268180	0.212933
599.478282	0.213322
599.688366	0.213278
599.898431	0.213347
600.108479	0.212972
600.318508	0.213058
600.528519	0.213601
600.738511	0.213770
600.948486	0.213772
601.158442	0.213501
601.368380	0.213529
601.578300	0.213918
601.788202	0.213997
601.998085	0.214680
602.207950	0.214872
602.417797	0.214188
602.627626	0.214268
602.837436	0.214153
603.047228	0.214260
603.257002	0.214345
603.466758	0.214408
603.676496	0.214433
603.886215	0.214316
604.095916	0.214484
604.305599	0.214802
604.515264	0.215185
604.724910	0.215117
604.934538	0.215588
605.144148	0.215551
605.353740	0.215394
605.563314	0.215759
605.772869	0.215806
605.982406	0.215900
606.191925	0.216198
606.401425	0.216310
606.610908	0.216714
606.820372	0.216800
607.029818	0.217295
607.239246	0.217191
607.448655	0.217514
607.658047	0.217642
607.867420	0.217369
608.076775	0.217294
608.286111	0.217127
608.495430	0.217470
608.704730	0.217216
608.914012	0.217048
609.123275	0.217506
609.332521	0.217180
609.541748	0.217114
609.750957	0.217548
609.960148	0.217969
610.169321	0.218095
610.378475	0.217851
610.587611	0.218239
610.796729	0.218552
611.005829	0.218511
611.214910	0.218970
611.423974	0.219266
611.633019	0.219312
611.842045	0.219175
612.051054	0.219412
612.260044	0.219533
612.469017	0.219525
612.677970	0.219364
612.886906	0.219747
613.095824	0.219773
613.304723	0.219720
613.513604	0.219714
613.722467	0.219854
613.931311	0.219912
614.140138	0.219875
614.348946	0.219917
614.557736	0.220002
614.766507	0.219803
614.975261	0.219805
615.183996	0.219838
615.392713	0.219950
615.601412	0.220025
615.810092	0.220154
616.018754	0.220405
616.227399	0.220913
616.436024	0.220804
616.644632	0.221046
616.853222	0.221045
617.061793	0.221462
617.270346	0.221507
617.478880	0.221721
617.687397	0.221845
617.895895	0.221848
618.104375	0.221879
618.312837	0.222174
618.521281	0.222295
618.729706	0.222629
618.938113	0.222696
619.146502	0.222927
619.354873	0.223250
619.563226	0.223537
619.771560	0.223731
619.979876	0.223497
620.188174	0.223423
620.396453	0.223468
620.604715	0.223490
620.812958	0.223304
621.021183	0.223558
621.229390	0.223556
621.437578	0.223606
621.645748	0.223693
621.853900	0.224127
622.062034	0.224327
622.270150	0.224475
622.478247	0.224367
622.686326	0.224619
622.894387	0.224381
623.102430	0.224689
623.310454	0.224716
623.518461	0.224933
623.726449	0.224736
623.934418	0.224866
624.142370	0.224893
624.350303	0.225243
624.558218	0.225531
624.766115	0.226045
624.973994	0.225896
625.181855	0.225814
625.389697	0.225854
625.597521	0.226181
625.805327	0.226117
626.013114	0.226409
626.220883	0.226388
626.428634	0.226486
626.636367	0.226220
626.844082	0.226170
627.051778	0.226367
627.259457	0.226388
627.467117	0.226268
627.674758	0.226451
627.882382	0.226481
628.089987	0.226337
628.297574	0.226123
628.505143	0.226200
628.712694	0.226361
628.920226	0.226414
629.127740	0.226595
629.335236	0.226678
629.542714	0.226945
629.750174	0.226848
629.957615	0.227232
630.165038	0.227502
630.372443	0.227746
630.579829	0.227873
630.787198	0.227913
630.994548	0.228085
631.201880	0.228132
631.409194	0.228324
631.616489	0.228653
631.823766	0.228826
632.031025	0.228822
632.238266	0.228937
632.445489	0.229120
632.652693	0.229150
632.859879	0.229300
633.067047	0.229581
633.274197	0.229605
633.481329	0.229678
633.688442	0.229875
633.895537	0.230164
634.102614	0.230323
634.309672	0.230265
634.516713	0.230692
634.723735	0.230581
634.930739	0.230349
635.137724	0.230279
635.344692	0.230254
635.551641	0.229998
635.758572	0.230166
635.965485	0.230173
636.172379	0.230469
636.379256	0.230414
636.586114	0.230571
636.792954	0.230758
636.999775	0.231012
637.206579	0.231327
637.413364	0.231571
637.620131	0.231370
637.826880	0.231453
638.033610	0.231228
638.240323	0.231316
638.447017	0.231566
638.653692	0.231823
638.860350	0.231956
639.066990	0.231910
639.273611	0.231961
639.480214	0.232277
639.686798	0.232420
639.893365	0.232827
640.099913	0.232984
640.306443	0.232959
640.512955	0.233323
640.719449	0.233137
640.925924	0.233294
641.132381	0.233550
641.338820	0.233678
641.545241	0.233733
641.751644	0.233734
641.958028	0.233877
642.164394	0.234018
642.370742	0.233863
642.577071	0.234086
642.783383	0.234219
642.989676	0.234179
643.195951	0.234233
643.402207	0.234502
643.608446	0.234817
643.814666	0.234817
644.020868	0.234985
644.227052	0.235142
644.433218	0.235199
644.639365	0.235115
644.845494	0.235303
645.051605	0.235448
645.257698	0.235691
645.463772	0.235501
645.669828	0.235469
645.875866	0.235418
646.081886	0.235693
646.287888	0.235903
646.493871	0.235980
646.699836	0.235862
646.905783	0.235856
647.111712	0.235723
647.317622	0.235837
647.523514	0.236170
647.729388	0.236295
647.935244	0.236169
648.141082	0.236155
648.346901	0.236362
648.552702	0.236816
648.758485	0.236960
648.964250	0.236965
649.169996	0.237002
649.375724	0.236847
649.581434	0.236953
649.787126	0.237030
649.992800	0.237216
650.198455	0.237367
650.404092	0.237431
650.609711	0.237612
650.815311	0.237738
651.020894	0.237939
651.226458	0.238450
651.432004	0.238576
651.637532	0.238984
651.843041	0.239153
652.048532	0.239270
652.254006	0.239334
652.459460	0.239301
652.664897	0.239638
652.870315	0.240180
653.075716	0.240069
653.281097	0.240113
653.486461	0.239825
653.691807	0.239935
653.897134	0.240102
654.102443	0.240259
654.307734	0.240683
654.513006	0.240594
654.718261	0.240153
654.923497	0.240409
655.128715	0.240577
655.333915	0.240828
655.539096	0.240848
655.744259	0.240671
655.949404	0.240656
656.154531	0.240495
656.359640	0.240555
656.564730	0.240841
656.769802	0.240758
656.974856	0.240576
657.179892	0.240817
657.384909	0.240961
657.589908	0.240976
657.794889	0.240847
657.999852	0.240810
658.204797	0.240942
658.409723	0.240963
658.614631	0.240945
658.819521	0.241506
659.024393	0.241422
659.229246	0.241675
659.434081	0.242029
659.638898	0.242448
659.843697	0.242659
660.048478	0.242767
660.253240	0.242749
660.457984	0.242992
660.662710	0.242734
660.867417	0.242926
661.072107	0.242943
661.276778	0.242943
661.481431	0.242994
661.686066	0.243124
661.890682	0.243296
662.095281	0.243760
662.299861	0.244094
662.504422	0.244582
662.708966	0.244702
662.913491	0.244796
663.117999	0.245171
663.322488	0.245274
663.526958	0.245544
663.731411	0.245810
663.935845	0.245998
664.140261	0.246191
664.344659	0.246332
664.549038	0.246557
664.753400	0.246852
664.957743	0.246855
665.162068	0.247230
665.366375	0.247437
665.570663	0.247362
665.774933	0.247449
665.979185	0.247480
666.183419	0.247489
666.387635	0.247635
666.591832	0.247535
666.796011	0.247812
667.000172	0.248010
667.204315	0.248084
667.408439	0.248396
667.612545	0.248407
667.816634	0.248458
668.020703	0.248880
668.224755	0.248981
668.428788	0.249082
668.632803	0.249025
668.836800	0.248718
669.040779	0.248894
669.244739	0.248887
669.448681	0.248759
669.652605	0.248888
669.856511	0.248798
670.060399	0.248707
670.264268	0.248766
670.468119	0.248868
670.671952	0.249161
670.875767	0.248842
671.079563	0.248819
671.283341	0.249251
671.487101	0.249217
671.690843	0.249323
671.894567	0.249542
672.098272	0.249604
672.301959	0.249794
672.505628	0.249702
672.709278	0.250249
672.912911	0.250767
673.116525	0.250652
673.320121	0.250746
673.523699	0.250847
673.727258	0.251057
673.930799	0.251446
674.134322	0.251723
674.337827	0.252128
674.541314	0.252063
674.744782	0.251905
674.948232	0.251994
675.151664	0.252198
675.355078	0.252455
675.558474	0.252926
675.761851	0.253275
675.965210	0.253217
676.168551	0.253446
676.371873	0.253786
676.575178	0.254018
676.778464	0.254320
676.981732	0.254573
677.184981	0.254540
677.388213	0.254459
677.591426	0.254503
677.794621	0.254905
677.997798	0.255070
678.200956	0.254985
678.404097	0.255239
678.607219	0.255369
678.810323	0.255715
679.013408	0.255887
679.216476	0.256166
679.419525	0.256429
679.622556	0.256398
679.825569	0.256627
680.028563	0.256867
680.231540	0.256931
680.434498	0.257266
680.637438	0.257224
680.840359	0.257315
681.043263	0.257399
681.246148	0.257309
681.449015	0.257344
681.651864	0.257392
681.854694	0.257463
682.057506	0.257455
682.260301	0.257410
682.463076	0.257345
682.665834	0.257434
682.868573	0.257327
683.071295	0.257526
683.273998	0.257726
683.476682	0.257722
683.679349	0.257829
683.881997	0.258205
684.084627	0.258195
684.287239	0.258386
684.489833	0.258625
684.692408	0.258598
684.894965	0.258391
685.097504	0.258658
685.300025	0.258947
685.502527	0.258993
685.705012	0.258724
685.907478	0.258879
686.109925	0.258919
686.312355	0.258810
686.514766	0.258983
686.717159	0.259242
686.919534	0.258992
687.121891	0.258761
687.324230	0.258848
687.526550	0.259153
687.728852	0.259321
687.931136	0.259536
688.133401	0.259767
688.335649	0.260005
688.537878	0.260275
688.740089	0.260571
688.942281	0.260677
689.144456	0.260954
689.346612	0.261002
689.548750	0.261079
689.750870	0.261379
689.952971	0.261413
690.155055	0.261574
690.357120	0.261422
690.559167	0.261553
690.761195	0.261826
690.963206	0.261971
691.165198	0.262218
691.367172	0.262397
691.569128	0.262500
691.771065	0.262617
691.972984	0.262739
692.174885	0.263164
692.376768	0.263311
692.578633	0.263382
692.780479	0.263522
692.982308	0.263524
693.184118	0.263718
693.385909	0.263701
