sample name	sample
index	838
start time	 04-05-2021  10:55:02 AM


Wavelength (nm)	Absorbance
494.344910	-0.026666
494.563924	-0.026666
494.782919	-0.026666
495.001897	-0.051715
495.220856	-0.006632
495.439797	-0.002542
495.658719	-0.003704
495.877624	-0.001184
496.096510	0.001065
496.315378	-0.009675
496.534227	-0.005061
496.753059	-0.012773
496.971872	-0.017511
497.190667	0.055834
497.409444	0.082670
497.628203	0.095464
497.846943	0.099340
498.065665	0.101760
498.284369	0.103373
498.503055	0.104346
498.721723	0.105240
498.940372	0.106117
499.159003	0.106456
499.377616	0.106417
499.596210	0.105635
499.814787	0.106396
500.033345	0.106573
500.251885	0.107392
500.470406	0.107623
500.688910	0.107231
500.907395	0.107451
501.125862	0.106942
501.344311	0.105634
501.562742	0.107323
501.781154	0.106648
501.999548	0.107551
502.217924	0.106148
502.436282	0.106939
502.654621	0.107465
502.872942	0.107360
503.091245	0.107418
503.309530	0.109456
503.527797	0.108803
503.746045	0.109156
503.964275	0.108937
504.182487	0.109825
504.400681	0.109238
504.618856	0.108593
504.837013	0.109036
505.055152	0.109042
505.273273	0.107834
505.491376	0.106001
505.709460	0.106971
505.927526	0.107076
506.145574	0.107992
506.363604	0.109037
506.581615	0.110139
506.799608	0.110085
507.017583	0.111085
507.235540	0.112197
507.453478	0.112849
507.671399	0.111916
507.889301	0.111606
508.107185	0.111221
508.325050	0.111012
508.542898	0.111349
508.760727	0.112014
508.978538	0.112430
509.196330	0.112470
509.414105	0.113299
509.631861	0.113677
509.849599	0.113958
510.067319	0.113487
510.285021	0.113573
510.502704	0.113064
510.720369	0.112554
510.938016	0.112125
511.155645	0.112394
511.373255	0.112702
511.590848	0.113127
511.808422	0.113231
512.025977	0.114207
512.243515	0.114362
512.461034	0.114307
512.678536	0.114543
512.896018	0.115024
513.113483	0.114830
513.330930	0.114736
513.548358	0.114905
513.765768	0.115284
513.983160	0.115298
514.200533	0.115694
514.417889	0.116314
514.635226	0.116202
514.852545	0.115990
515.069845	0.116312
515.287128	0.117175
515.504392	0.116829
515.721638	0.117229
515.938866	0.116959
516.156075	0.117609
516.373267	0.118339
516.590440	0.119017
516.807594	0.119270
517.024731	0.119440
517.241850	0.119310
517.458950	0.119586
517.676032	0.120054
517.893095	0.120425
518.110141	0.119883
518.327168	0.119436
518.544177	0.119738
518.761168	0.119694
518.978141	0.120370
519.195095	0.120387
519.412031	0.120583
519.628949	0.121254
519.845849	0.121330
520.062731	0.121885
520.279594	0.122616
520.496439	0.122294
520.713266	0.122424
520.930074	0.122157
521.146865	0.122841
521.363637	0.123363
521.580391	0.122716
521.797127	0.123062
522.013844	0.123106
522.230543	0.122751
522.447224	0.123045
522.663887	0.123141
522.880532	0.123733
523.097158	0.123339
523.313766	0.123648
523.530356	0.124355
523.746928	0.124864
523.963481	0.124590
524.180017	0.124796
524.396534	0.125378
524.613032	0.126215
524.829513	0.126402
525.045975	0.126818
525.262420	0.126539
525.478845	0.126680
525.695253	0.126610
525.911643	0.127598
526.128014	0.128204
526.344367	0.128973
526.560702	0.129387
526.777018	0.129636
526.993316	0.129681
527.209597	0.130225
527.425858	0.129880
527.642102	0.130666
527.858328	0.130097
528.074535	0.129590
528.290724	0.129084
528.506894	0.129206
528.723047	0.129050
528.939181	0.129638
529.155297	0.130608
529.371395	0.130748
529.587475	0.130264
529.803536	0.131052
530.019579	0.132317
530.235604	0.133324
530.451611	0.134128
530.667600	0.134988
530.883570	0.135428
531.099522	0.135406
531.315456	0.136324
531.531372	0.137182
531.747269	0.137612
531.963148	0.137270
532.179009	0.137193
532.394852	0.137289
532.610676	0.137498
532.826482	0.137257
533.042271	0.137321
533.258040	0.137734
533.473792	0.138117
533.689525	0.138173
533.905240	0.139015
534.120937	0.139383
534.336616	0.138907
534.552277	0.138964
534.767919	0.139698
534.983543	0.139963
535.199149	0.140519
535.414736	0.140752
535.630306	0.141138
535.845857	0.140907
536.061390	0.141539
536.276904	0.142360
536.492401	0.142577
536.707879	0.142963
536.923339	0.143165
537.138781	0.142437
537.354204	0.143069
537.569610	0.143800
537.784997	0.144100
538.000366	0.143880
538.215716	0.143926
538.431049	0.143770
538.646363	0.143551
538.861659	0.144034
539.076937	0.144570
539.292196	0.144460
539.507438	0.144464
539.722661	0.144946
539.937866	0.145310
540.153052	0.146308
540.368221	0.147580
540.583371	0.147978
540.798503	0.147868
541.013617	0.148113
541.228712	0.148752
541.443789	0.149224
541.658848	0.149643
541.873889	0.150237
542.088912	0.150339
542.303916	0.150334
542.518902	0.150195
542.733870	0.150876
542.948820	0.151355
543.163752	0.151186
543.378665	0.150910
543.593560	0.151057
543.808437	0.151369
544.023295	0.151206
544.238136	0.151088
544.452958	0.151838
544.667762	0.152272
544.882548	0.152472
545.097315	0.152778
545.312064	0.153007
545.526795	0.153143
545.741508	0.153156
545.956203	0.153545
546.170879	0.154292
546.385537	0.154877
546.600177	0.154204
546.814799	0.153856
547.029402	0.154210
547.243988	0.154847
547.458555	0.155181
547.673103	0.155383
547.887634	0.155917
548.102146	0.155546
548.316640	0.155755
548.531116	0.156622
548.745574	0.157114
548.960013	0.157095
549.174435	0.156948
549.388838	0.157403
549.603222	0.157551
549.817589	0.157454
550.031937	0.157907
550.246267	0.157854
550.460579	0.157816
550.674873	0.158551
550.889148	0.158813
551.103405	0.159136
551.317644	0.159226
551.531865	0.159084
551.746068	0.159292
551.960252	0.159607
552.174418	0.159523
552.388566	0.159819
552.602696	0.160145
552.816807	0.160327
553.030900	0.161004
553.244975	0.161495
553.459032	0.161837
553.673070	0.161840
553.887091	0.161887
554.101093	0.162265
554.315077	0.162662
554.529042	0.162780
554.742990	0.162946
554.956919	0.162779
555.170830	0.162701
555.384722	0.163249
555.598597	0.163577
555.812453	0.163666
556.026291	0.164406
556.240111	0.164280
556.453913	0.164528
556.667696	0.164650
556.881461	0.165102
557.095208	0.165020
557.308937	0.164878
557.522647	0.164761
557.736339	0.164853
557.950013	0.164656
558.163669	0.165243
558.377307	0.165144
558.590926	0.165328
558.804527	0.165328
559.018110	0.165624
559.231675	0.166044
559.445221	0.166438
559.658749	0.166745
559.872259	0.166687
560.085751	0.166621
560.299225	0.166878
560.512680	0.167491
560.726117	0.167944
560.939536	0.167942
561.152937	0.167916
561.366319	0.168271
561.579683	0.168928
561.793029	0.169166
562.006357	0.169022
562.219667	0.169048
562.432958	0.168932
562.646231	0.168851
562.859486	0.169314
563.072723	0.169399
563.285941	0.169118
563.499141	0.169222
563.712323	0.169607
563.925487	0.170256
564.138632	0.170276
564.351760	0.170239
564.564869	0.170374
564.777960	0.170138
564.991032	0.170607
565.204087	0.171493
565.417123	0.171389
565.630141	0.171231
565.843140	0.171273
566.056122	0.171771
566.269085	0.172132
566.482030	0.172104
566.694957	0.172427
566.907866	0.172570
567.120756	0.172227
567.333628	0.172558
567.546482	0.172772
567.759318	0.172980
567.972135	0.172750
568.184935	0.173118
568.397716	0.173359
568.610478	0.173440
568.823223	0.173431
569.035949	0.173537
569.248657	0.173601
569.461347	0.173934
569.674019	0.174095
569.886672	0.174352
570.099308	0.174381
570.311925	0.174419
570.524523	0.174555
570.737104	0.174826
570.949666	0.175330
571.162210	0.175441
571.374736	0.175535
571.587244	0.175896
571.799733	0.176121
572.012205	0.175962
572.224658	0.175990
572.437092	0.176442
572.649509	0.176734
572.861907	0.176417
573.074287	0.176618
573.286649	0.176781
573.498993	0.176537
573.711318	0.176833
573.923625	0.177342
574.135914	0.177873
574.348185	0.178072
574.560438	0.177994
574.772672	0.178323
574.984888	0.178393
575.197086	0.178169
575.409266	0.178217
575.621427	0.178029
575.833570	0.178192
576.045695	0.178118
576.257802	0.178143
576.469890	0.178190
576.681961	0.178159
576.894013	0.178171
577.106046	0.178881
577.318062	0.179099
577.530059	0.179534
577.742039	0.179477
577.954000	0.179737
578.165942	0.179846
578.377867	0.180438
578.589773	0.180947
578.801661	0.181014
579.013531	0.180663
579.225382	0.181034
579.437216	0.181242
579.649031	0.181305
579.860828	0.181070
580.072606	0.181252
580.284367	0.181153
580.496109	0.181259
580.707833	0.181553
580.919539	0.181863
581.131227	0.182120
581.342896	0.182117
581.554547	0.182229
581.766180	0.182791
581.977795	0.182848
582.189391	0.182952
582.400969	0.182993
582.612529	0.183200
582.824071	0.183323
583.035595	0.182982
583.247100	0.182981
583.458587	0.183030
583.670056	0.183029
583.881506	0.183257
584.092939	0.182746
584.304353	0.182676
584.515749	0.182613
584.727127	0.182701
584.938486	0.183416
585.149828	0.183327
585.361151	0.183789
585.572456	0.184005
585.783742	0.183911
585.995011	0.184490
586.206261	0.184555
586.417493	0.184866
586.628706	0.184750
586.839902	0.184540
587.051079	0.184707
587.262238	0.184768
587.473379	0.184710
587.684502	0.185162
587.895606	0.185385
588.106692	0.185739
588.317760	0.185946
588.528810	0.186594
588.739841	0.186772
588.950855	0.187027
589.161850	0.187504
589.372827	0.187720
589.583785	0.187738
589.794726	0.188130
590.005648	0.188343
590.216552	0.188739
590.427437	0.188491
590.638305	0.188652
590.849154	0.189092
591.059985	0.188890
591.270798	0.188882
591.481592	0.189147
591.692369	0.188951
591.903127	0.189115
592.113867	0.189113
592.324588	0.189369
592.535292	0.189537
592.745977	0.189748
592.956644	0.189931
593.167293	0.190191
593.377923	0.190198
593.588536	0.190351
593.799130	0.190138
594.009706	0.190173
594.220263	0.190540
594.430803	0.190620
594.641324	0.190398
594.851827	0.190096
595.062312	0.189946
595.272778	0.190022
595.483227	0.190111
595.693657	0.190044
595.904069	0.190130
596.114462	0.190327
596.324838	0.190679
596.535195	0.190961
596.745534	0.191481
596.955855	0.191859
597.166157	0.192072
597.376441	0.192165
597.586707	0.192629
597.796955	0.192430
598.007185	0.192602
598.217396	0.192634
598.427589	0.192647
598.637764	0.192641
598.847921	0.192888
599.058060	0.192899
599.268180	0.192847
599.478282	0.192719
599.688366	0.193178
599.898431	0.193041
600.108479	0.193193
600.318508	0.193621
600.528519	0.193703
600.738511	0.194023
600.948486	0.194242
601.158442	0.194384
601.368380	0.194809
601.578300	0.195220
601.788202	0.195532
601.998085	0.195622
602.207950	0.195560
602.417797	0.195798
602.627626	0.195639
602.837436	0.195611
603.047228	0.195941
603.257002	0.196292
603.466758	0.195950
603.676496	0.196053
603.886215	0.195820
604.095916	0.196205
604.305599	0.196152
604.515264	0.196469
604.724910	0.196870
604.934538	0.197046
605.144148	0.197309
605.353740	0.197472
605.563314	0.197299
605.772869	0.197657
605.982406	0.197389
606.191925	0.197713
606.401425	0.197684
606.610908	0.197573
606.820372	0.197501
607.029818	0.197317
607.239246	0.197663
607.448655	0.197809
607.658047	0.197952
607.867420	0.198205
608.076775	0.198363
608.286111	0.198589
608.495430	0.198709
608.704730	0.198997
608.914012	0.199051
609.123275	0.198935
609.332521	0.199013
609.541748	0.199049
609.750957	0.199292
609.960148	0.199516
610.169321	0.199508
610.378475	0.199525
610.587611	0.199345
610.796729	0.199524
611.005829	0.199702
611.214910	0.200215
611.423974	0.200306
611.633019	0.200530
611.842045	0.200731
612.051054	0.200887
612.260044	0.201317
612.469017	0.202000
612.677970	0.202298
612.886906	0.202375
613.095824	0.202333
613.304723	0.202369
613.513604	0.202287
613.722467	0.202125
613.931311	0.201982
614.140138	0.202159
614.348946	0.202066
614.557736	0.202257
614.766507	0.202508
614.975261	0.202591
615.183996	0.203035
615.392713	0.203211
615.601412	0.203416
615.810092	0.203822
616.018754	0.203674
616.227399	0.204002
616.436024	0.203853
616.644632	0.204045
616.853222	0.204125
617.061793	0.203947
617.270346	0.204174
617.478880	0.204277
617.687397	0.204254
617.895895	0.204757
618.104375	0.204776
618.312837	0.204864
618.521281	0.204841
618.729706	0.205128
618.938113	0.205346
619.146502	0.205467
619.354873	0.205521
619.563226	0.205906
619.771560	0.205648
619.979876	0.205747
620.188174	0.205984
620.396453	0.206282
620.604715	0.206240
620.812958	0.206252
621.021183	0.205964
621.229390	0.206206
621.437578	0.206008
621.645748	0.206237
621.853900	0.206208
622.062034	0.206447
622.270150	0.206144
622.478247	0.206512
622.686326	0.207064
622.894387	0.207687
623.102430	0.207610
623.310454	0.207854
623.518461	0.207866
623.726449	0.207925
623.934418	0.208091
624.142370	0.208840
624.350303	0.208912
624.558218	0.208568
624.766115	0.208374
624.973994	0.208594
625.181855	0.208870
625.389697	0.209096
625.597521	0.209275
625.805327	0.209222
626.013114	0.209115
626.220883	0.209164
626.428634	0.209650
626.636367	0.209875
626.844082	0.210000
627.051778	0.210087
627.259457	0.210321
627.467117	0.210453
627.674758	0.210789
627.882382	0.210837
628.089987	0.211112
628.297574	0.210903
628.505143	0.210959
628.712694	0.210927
628.920226	0.211144
629.127740	0.211305
629.335236	0.211384
629.542714	0.211645
629.750174	0.211951
629.957615	0.211895
630.165038	0.212431
630.372443	0.212676
630.579829	0.213107
630.787198	0.213015
630.994548	0.212950
631.201880	0.213222
631.409194	0.213262
631.616489	0.213072
631.823766	0.213341
632.031025	0.213548
632.238266	0.213682
632.445489	0.213653
632.652693	0.213829
632.859879	0.214137
633.067047	0.214332
633.274197	0.214351
633.481329	0.214589
633.688442	0.214707
633.895537	0.214625
634.102614	0.215044
634.309672	0.215313
634.516713	0.215659
634.723735	0.215871
634.930739	0.216174
635.137724	0.216250
635.344692	0.216471
635.551641	0.216498
635.758572	0.216850
635.965485	0.216662
636.172379	0.216815
636.379256	0.216802
636.586114	0.216752
636.792954	0.216814
636.999775	0.216810
637.206579	0.217023
637.413364	0.217144
637.620131	0.216916
637.826880	0.216853
638.033610	0.216926
638.240323	0.217201
638.447017	0.217392
638.653692	0.217623
638.860350	0.217842
639.066990	0.217946
639.273611	0.218047
639.480214	0.218458
639.686798	0.218736
639.893365	0.218927
640.099913	0.219070
640.306443	0.219093
640.512955	0.218971
640.719449	0.219074
640.925924	0.219180
641.132381	0.219627
641.338820	0.219544
641.545241	0.219816
641.751644	0.219963
641.958028	0.220077
642.164394	0.220491
642.370742	0.220752
642.577071	0.220837
642.783383	0.221173
642.989676	0.221066
643.195951	0.221183
643.402207	0.221382
643.608446	0.221475
643.814666	0.221418
644.020868	0.221526
644.227052	0.221902
644.433218	0.222465
644.639365	0.222495
644.845494	0.222580
645.051605	0.223050
645.257698	0.223408
645.463772	0.223732
645.669828	0.223971
645.875866	0.224281
646.081886	0.224203
646.287888	0.224340
646.493871	0.224515
646.699836	0.224939
646.905783	0.224850
647.111712	0.224884
647.317622	0.224734
647.523514	0.224854
647.729388	0.225257
647.935244	0.225459
648.141082	0.225452
648.346901	0.225751
648.552702	0.225735
648.758485	0.226073
648.964250	0.226155
649.169996	0.226557
649.375724	0.226932
649.581434	0.226537
649.787126	0.226900
649.992800	0.226939
650.198455	0.226965
650.404092	0.227234
650.609711	0.227179
650.815311	0.227412
651.020894	0.227676
651.226458	0.227869
651.432004	0.228088
651.637532	0.228305
651.843041	0.228748
652.048532	0.228933
652.254006	0.229001
652.459460	0.229189
652.664897	0.229530
652.870315	0.229521
653.075716	0.229922
653.281097	0.230164
653.486461	0.230312
653.691807	0.230470
653.897134	0.230648
654.102443	0.231053
654.307734	0.231477
654.513006	0.231298
654.718261	0.231562
654.923497	0.231392
655.128715	0.231584
655.333915	0.231522
655.539096	0.231666
655.744259	0.231865
655.949404	0.231926
656.154531	0.231755
656.359640	0.231954
656.564730	0.232095
656.769802	0.232349
656.974856	0.232592
657.179892	0.232943
657.384909	0.233045
657.589908	0.233258
657.794889	0.233468
657.999852	0.233971
658.204797	0.234199
658.409723	0.234541
658.614631	0.234650
658.819521	0.234542
659.024393	0.234666
659.229246	0.234884
659.434081	0.235151
659.638898	0.235275
659.843697	0.235448
660.048478	0.235753
660.253240	0.235833
660.457984	0.236061
660.662710	0.236585
660.867417	0.236902
661.072107	0.237029
661.276778	0.237131
661.481431	0.237402
661.686066	0.237584
661.890682	0.237794
662.095281	0.238241
662.299861	0.238546
662.504422	0.238577
662.708966	0.238440
662.913491	0.238666
663.117999	0.239023
663.322488	0.239239
663.526958	0.239249
663.731411	0.239494
663.935845	0.239482
664.140261	0.239314
664.344659	0.239464
664.549038	0.239893
664.753400	0.240384
664.957743	0.240437
665.162068	0.240571
665.366375	0.240832
665.570663	0.240972
665.774933	0.241175
665.979185	0.241957
666.183419	0.242284
666.387635	0.242444
666.591832	0.242677
666.796011	0.242869
667.000172	0.243042
667.204315	0.243319
667.408439	0.243489
667.612545	0.243807
667.816634	0.243764
668.020703	0.243931
668.224755	0.244068
668.428788	0.243901
668.632803	0.244184
668.836800	0.244337
669.040779	0.244819
669.244739	0.245020
669.448681	0.245226
669.652605	0.245571
669.856511	0.245893
670.060399	0.246230
670.264268	0.246571
670.468119	0.246715
670.671952	0.247263
670.875767	0.247252
671.079563	0.247449
671.283341	0.247626
671.487101	0.247674
671.690843	0.248058
671.894567	0.248427
672.098272	0.248626
672.301959	0.248888
672.505628	0.249050
672.709278	0.249216
672.912911	0.249440
673.116525	0.249731
673.320121	0.249846
673.523699	0.249723
673.727258	0.249839
673.930799	0.249926
674.134322	0.250198
674.337827	0.250211
674.541314	0.250250
674.744782	0.250474
674.948232	0.250436
675.151664	0.250820
675.355078	0.250960
675.558474	0.251126
675.761851	0.251271
675.965210	0.251228
676.168551	0.251232
676.371873	0.251844
676.575178	0.251914
676.778464	0.252066
676.981732	0.252389
677.184981	0.252649
677.388213	0.252825
677.591426	0.253180
677.794621	0.253515
677.997798	0.254074
678.200956	0.253963
678.404097	0.254273
678.607219	0.254693
678.810323	0.254699
679.013408	0.255051
679.216476	0.255298
679.419525	0.255299
679.622556	0.255465
679.825569	0.255439
680.028563	0.255918
680.231540	0.256052
680.434498	0.256167
680.637438	0.256563
680.840359	0.256812
681.043263	0.257042
681.246148	0.257442
681.449015	0.257379
681.651864	0.257708
681.854694	0.257933
682.057506	0.258228
682.260301	0.258505
682.463076	0.258474
682.665834	0.258695
682.868573	0.259002
683.071295	0.259275
683.273998	0.259736
683.476682	0.259836
683.679349	0.259756
683.881997	0.260016
684.084627	0.260287
684.287239	0.260337
684.489833	0.260222
684.692408	0.260303
684.894965	0.260226
685.097504	0.260238
685.300025	0.260569
685.502527	0.260796
685.705012	0.260732
685.907478	0.260769
686.109925	0.261069
686.312355	0.261455
686.514766	0.261583
686.717159	0.261818
686.919534	0.261999
687.121891	0.262069
687.324230	0.262466
687.526550	0.262874
687.728852	0.262957
687.931136	0.263197
688.133401	0.263238
688.335649	0.263422
688.537878	0.263648
688.740089	0.264196
688.942281	0.264330
689.144456	0.264084
689.346612	0.264182
689.548750	0.264476
689.750870	0.264509
689.952971	0.264926
690.155055	0.265006
690.357120	0.265178
690.559167	0.265029
690.761195	0.265377
690.963206	0.265685
691.165198	0.265846
691.367172	0.265960
691.569128	0.266332
691.771065	0.266326
691.972984	0.266586
692.174885	0.266939
692.376768	0.267135
692.578633	0.267325
692.780479	0.267623
692.982308	0.267963
693.184118	0.268303
693.385909	0.268503
