sample name	sample
index	210
start time	 02-22-2021  09:50:37 AM


Wavelength (nm)	Absorbance
494.344910	0.006262
494.563924	0.006262
494.782919	0.006262
495.001897	-0.043727
495.220856	-0.006608
495.439797	-0.012113
495.658719	-0.008816
495.877624	-0.007304
496.096510	0.001638
496.315378	-0.020651
496.534227	-0.008138
496.753059	-0.005864
496.971872	0.013791
497.190667	0.049482
497.409444	0.052778
497.628203	0.052309
497.846943	0.053816
498.065665	0.055788
498.284369	0.056794
498.503055	0.058256
498.721723	0.058193
498.940372	0.057942
499.159003	0.056923
499.377616	0.058319
499.596210	0.059096
499.814787	0.059196
500.033345	0.059108
500.251885	0.059836
500.470406	0.059177
500.688910	0.059321
500.907395	0.058753
501.125862	0.059716
501.344311	0.058721
501.562742	0.058841
501.781154	0.059853
501.999548	0.059956
502.217924	0.059452
502.436282	0.059968
502.654621	0.060060
502.872942	0.060696
503.091245	0.060592
503.309530	0.061381
503.527797	0.061783
503.746045	0.060505
503.964275	0.060564
504.182487	0.060094
504.400681	0.059098
504.618856	0.059117
504.837013	0.059217
505.055152	0.059271
505.273273	0.059152
505.491376	0.059185
505.709460	0.059501
505.927526	0.058626
506.145574	0.058652
506.363604	0.059094
506.581615	0.058287
506.799608	0.058633
507.017583	0.058836
507.235540	0.058714
507.453478	0.057887
507.671399	0.057842
507.889301	0.058252
508.107185	0.059603
508.325050	0.060504
508.542898	0.061277
508.760727	0.061051
508.978538	0.060660
509.196330	0.060339
509.414105	0.060750
509.631861	0.061527
509.849599	0.061971
510.067319	0.061141
510.285021	0.060165
510.502704	0.060205
510.720369	0.060400
510.938016	0.060564
511.155645	0.061393
511.373255	0.061558
511.590848	0.061605
511.808422	0.061714
512.025977	0.061974
512.243515	0.062188
512.461034	0.062142
512.678536	0.062265
512.896018	0.062354
513.113483	0.062081
513.330930	0.062164
513.548358	0.061113
513.765768	0.060625
513.983160	0.060522
514.200533	0.060520
514.417889	0.061268
514.635226	0.061653
514.852545	0.061532
515.069845	0.061624
515.287128	0.062466
515.504392	0.063006
515.721638	0.063768
515.938866	0.063602
516.156075	0.063996
516.373267	0.063327
516.590440	0.063228
516.807594	0.063798
517.024731	0.063603
517.241850	0.063639
517.458950	0.064122
517.676032	0.063734
517.893095	0.064143
518.110141	0.064330
518.327168	0.064642
518.544177	0.064786
518.761168	0.064445
518.978141	0.064303
519.195095	0.063689
519.412031	0.063889
519.628949	0.064616
519.845849	0.064607
520.062731	0.064410
520.279594	0.064324
520.496439	0.064247
520.713266	0.064976
520.930074	0.065298
521.146865	0.064968
521.363637	0.064671
521.580391	0.064260
521.797127	0.064645
522.013844	0.065178
522.230543	0.065943
522.447224	0.065952
522.663887	0.064913
522.880532	0.065396
523.097158	0.065411
523.313766	0.065445
523.530356	0.065437
523.746928	0.065957
523.963481	0.065314
524.180017	0.065364
524.396534	0.065717
524.613032	0.066035
524.829513	0.065909
525.045975	0.066872
525.262420	0.067941
525.478845	0.068491
525.695253	0.068120
525.911643	0.068578
526.128014	0.069007
526.344367	0.069422
526.560702	0.070131
526.777018	0.070727
526.993316	0.070699
527.209597	0.070415
527.425858	0.070334
527.642102	0.070914
527.858328	0.071188
528.074535	0.070981
528.290724	0.070452
528.506894	0.070273
528.723047	0.069890
528.939181	0.069915
529.155297	0.069714
529.371395	0.070302
529.587475	0.070437
529.803536	0.070309
530.019579	0.070532
530.235604	0.070989
530.451611	0.071172
530.667600	0.071075
530.883570	0.071286
531.099522	0.071306
531.315456	0.070835
531.531372	0.070612
531.747269	0.070914
531.963148	0.070738
532.179009	0.071104
532.394852	0.071067
532.610676	0.071506
532.826482	0.071556
533.042271	0.071676
533.258040	0.072019
533.473792	0.071997
533.689525	0.072256
533.905240	0.072666
534.120937	0.072349
534.336616	0.073016
534.552277	0.073385
534.767919	0.073473
534.983543	0.073884
535.199149	0.074060
535.414736	0.074423
535.630306	0.074627
535.845857	0.074827
536.061390	0.074995
536.276904	0.075235
536.492401	0.075123
536.707879	0.075391
536.923339	0.075924
537.138781	0.076325
537.354204	0.076548
537.569610	0.076708
537.784997	0.076340
538.000366	0.076908
538.215716	0.076784
538.431049	0.076944
538.646363	0.077178
538.861659	0.076803
539.076937	0.076798
539.292196	0.076829
539.507438	0.077085
539.722661	0.077486
539.937866	0.077700
540.153052	0.077705
540.368221	0.077816
540.583371	0.077718
540.798503	0.078206
541.013617	0.078221
541.228712	0.078382
541.443789	0.078329
541.658848	0.078738
541.873889	0.078440
542.088912	0.079041
542.303916	0.079271
542.518902	0.079341
542.733870	0.078902
542.948820	0.079364
543.163752	0.079278
543.378665	0.079127
543.593560	0.078966
543.808437	0.078906
544.023295	0.078622
544.238136	0.078678
544.452958	0.079040
544.667762	0.079268
544.882548	0.079153
545.097315	0.079506
545.312064	0.079973
545.526795	0.080269
545.741508	0.080975
545.956203	0.080660
546.170879	0.080664
546.385537	0.080224
546.600177	0.080649
546.814799	0.080837
547.029402	0.080863
547.243988	0.081302
547.458555	0.081282
547.673103	0.080811
547.887634	0.081594
548.102146	0.081869
548.316640	0.082542
548.531116	0.082712
548.745574	0.082403
548.960013	0.082309
549.174435	0.082311
549.388838	0.082148
549.603222	0.082930
549.817589	0.082834
550.031937	0.083063
550.246267	0.083135
550.460579	0.082645
550.674873	0.083310
550.889148	0.083798
551.103405	0.083692
551.317644	0.084414
551.531865	0.084348
551.746068	0.084398
551.960252	0.084136
552.174418	0.084122
552.388566	0.084782
552.602696	0.084486
552.816807	0.084780
553.030900	0.084981
553.244975	0.084573
553.459032	0.084519
553.673070	0.084478
553.887091	0.084752
554.101093	0.085028
554.315077	0.085031
554.529042	0.085151
554.742990	0.084906
554.956919	0.085119
555.170830	0.085376
555.384722	0.085358
555.598597	0.085889
555.812453	0.086267
556.026291	0.086370
556.240111	0.086705
556.453913	0.086655
556.667696	0.086738
556.881461	0.086797
557.095208	0.086889
557.308937	0.087081
557.522647	0.086897
557.736339	0.086771
557.950013	0.086933
558.163669	0.086569
558.377307	0.087050
558.590926	0.087168
558.804527	0.087073
559.018110	0.087369
559.231675	0.087618
559.445221	0.087901
559.658749	0.088057
559.872259	0.087904
560.085751	0.088099
560.299225	0.088255
560.512680	0.088385
560.726117	0.088180
560.939536	0.088034
561.152937	0.088134
561.366319	0.088096
561.579683	0.088141
561.793029	0.088611
562.006357	0.088872
562.219667	0.088451
562.432958	0.088939
562.646231	0.089282
562.859486	0.089442
563.072723	0.088976
563.285941	0.088882
563.499141	0.089304
563.712323	0.089233
563.925487	0.089259
564.138632	0.089523
564.351760	0.089285
564.564869	0.089414
564.777960	0.089565
564.991032	0.090111
565.204087	0.090294
565.417123	0.089890
565.630141	0.089966
565.843140	0.090120
566.056122	0.090259
566.269085	0.090506
566.482030	0.090440
566.694957	0.090713
566.907866	0.090810
567.120756	0.090924
567.333628	0.091367
567.546482	0.091315
567.759318	0.091450
567.972135	0.091834
568.184935	0.091901
568.397716	0.091925
568.610478	0.092107
568.823223	0.092323
569.035949	0.092537
569.248657	0.092552
569.461347	0.093103
569.674019	0.092824
569.886672	0.092881
570.099308	0.093009
570.311925	0.093183
570.524523	0.093017
570.737104	0.092857
570.949666	0.092951
571.162210	0.093014
571.374736	0.092939
571.587244	0.093585
571.799733	0.093626
572.012205	0.093454
572.224658	0.093751
572.437092	0.093979
572.649509	0.094116
572.861907	0.094184
573.074287	0.094067
573.286649	0.093853
573.498993	0.093524
573.711318	0.093451
573.923625	0.093690
574.135914	0.093631
574.348185	0.093760
574.560438	0.093853
574.772672	0.093776
574.984888	0.093576
575.197086	0.093699
575.409266	0.094200
575.621427	0.094244
575.833570	0.093952
576.045695	0.094338
576.257802	0.094386
576.469890	0.094277
576.681961	0.094330
576.894013	0.094996
577.106046	0.094998
577.318062	0.094802
577.530059	0.095005
577.742039	0.095067
577.954000	0.094989
578.165942	0.095021
578.377867	0.095693
578.589773	0.095989
578.801661	0.096175
579.013531	0.096534
579.225382	0.097012
579.437216	0.097376
579.649031	0.097670
579.860828	0.097678
580.072606	0.097677
580.284367	0.097513
580.496109	0.097735
580.707833	0.097796
580.919539	0.098090
581.131227	0.097822
581.342896	0.097723
581.554547	0.098069
581.766180	0.098282
581.977795	0.098448
582.189391	0.098368
582.400969	0.098196
582.612529	0.098385
582.824071	0.097966
583.035595	0.098221
583.247100	0.098550
583.458587	0.098171
583.670056	0.098230
583.881506	0.098248
584.092939	0.098661
584.304353	0.098760
584.515749	0.098799
584.727127	0.099093
584.938486	0.099081
585.149828	0.098924
585.361151	0.099599
585.572456	0.099534
585.783742	0.099846
585.995011	0.099990
586.206261	0.100203
586.417493	0.100106
586.628706	0.100224
586.839902	0.100380
587.051079	0.100418
587.262238	0.100388
587.473379	0.100672
587.684502	0.100588
587.895606	0.100427
588.106692	0.100668
588.317760	0.100692
588.528810	0.100953
588.739841	0.100915
588.950855	0.100783
589.161850	0.100798
589.372827	0.100782
589.583785	0.100513
589.794726	0.100670
590.005648	0.100807
590.216552	0.101021
590.427437	0.100921
590.638305	0.101193
590.849154	0.101551
591.059985	0.101690
591.270798	0.101670
591.481592	0.102282
591.692369	0.102328
591.903127	0.102236
592.113867	0.102307
592.324588	0.102301
592.535292	0.102386
592.745977	0.102422
592.956644	0.102470
593.167293	0.102603
593.377923	0.102641
593.588536	0.102928
593.799130	0.103130
594.009706	0.103051
594.220263	0.103258
594.430803	0.103354
594.641324	0.103610
594.851827	0.103574
595.062312	0.103789
595.272778	0.103574
595.483227	0.103227
595.693657	0.103524
595.904069	0.103940
596.114462	0.103919
596.324838	0.103454
596.535195	0.103465
596.745534	0.103797
596.955855	0.103869
597.166157	0.104139
597.376441	0.104589
597.586707	0.104423
597.796955	0.104302
598.007185	0.104527
598.217396	0.104938
598.427589	0.104769
598.637764	0.104742
598.847921	0.104830
599.058060	0.104594
599.268180	0.104605
599.478282	0.104444
599.688366	0.104512
599.898431	0.104583
600.108479	0.104798
600.318508	0.105254
600.528519	0.105378
600.738511	0.105351
600.948486	0.105778
601.158442	0.105919
601.368380	0.106345
601.578300	0.106604
601.788202	0.106735
601.998085	0.106691
602.207950	0.106762
602.417797	0.106691
602.627626	0.106821
602.837436	0.106916
603.047228	0.106595
603.257002	0.106576
603.466758	0.106526
603.676496	0.106637
603.886215	0.106903
604.095916	0.106502
604.305599	0.106971
604.515264	0.106899
604.724910	0.106818
604.934538	0.107418
605.144148	0.107377
605.353740	0.107104
605.563314	0.107015
605.772869	0.107068
605.982406	0.107691
606.191925	0.107382
606.401425	0.107742
606.610908	0.107784
606.820372	0.107471
607.029818	0.107606
607.239246	0.107871
607.448655	0.107835
607.658047	0.107909
607.867420	0.107808
608.076775	0.108090
608.286111	0.108013
608.495430	0.108047
608.704730	0.108111
608.914012	0.108062
609.123275	0.108071
609.332521	0.108277
609.541748	0.108350
609.750957	0.108160
609.960148	0.108146
610.169321	0.108204
610.378475	0.108322
610.587611	0.108362
610.796729	0.108461
611.005829	0.108649
611.214910	0.108734
611.423974	0.108973
611.633019	0.109229
611.842045	0.109426
612.051054	0.109628
612.260044	0.110010
612.469017	0.110116
612.677970	0.110269
612.886906	0.110271
613.095824	0.110317
613.304723	0.109944
613.513604	0.110045
613.722467	0.110239
613.931311	0.110187
614.140138	0.110111
614.348946	0.110353
614.557736	0.110702
614.766507	0.110768
614.975261	0.110762
615.183996	0.110982
615.392713	0.110943
615.601412	0.110772
615.810092	0.111040
616.018754	0.111087
616.227399	0.110986
616.436024	0.110680
616.644632	0.110889
616.853222	0.111051
617.061793	0.111303
617.270346	0.111388
617.478880	0.111586
617.687397	0.111567
617.895895	0.111523
618.104375	0.111940
618.312837	0.112262
618.521281	0.112305
618.729706	0.112268
618.938113	0.111984
619.146502	0.112094
619.354873	0.112025
619.563226	0.112084
619.771560	0.112290
619.979876	0.111914
620.188174	0.111974
620.396453	0.112077
620.604715	0.112107
620.812958	0.112162
621.021183	0.111964
621.229390	0.112093
621.437578	0.112157
621.645748	0.112027
621.853900	0.112486
622.062034	0.112383
622.270150	0.112531
622.478247	0.112768
622.686326	0.113033
622.894387	0.113251
623.102430	0.113119
623.310454	0.113023
623.518461	0.112976
623.726449	0.112711
623.934418	0.112723
624.142370	0.112904
624.350303	0.112748
624.558218	0.112790
624.766115	0.113053
624.973994	0.113056
625.181855	0.113317
625.389697	0.113838
625.597521	0.114020
625.805327	0.114168
626.013114	0.113897
626.220883	0.114030
626.428634	0.114241
626.636367	0.114211
626.844082	0.114540
627.051778	0.114473
627.259457	0.114309
627.467117	0.114334
627.674758	0.114534
627.882382	0.114710
628.089987	0.114888
628.297574	0.114751
628.505143	0.114818
628.712694	0.114759
628.920226	0.114802
629.127740	0.115075
629.335236	0.115141
629.542714	0.115063
629.750174	0.115083
629.957615	0.114901
630.165038	0.114976
630.372443	0.114963
630.579829	0.115284
630.787198	0.115452
630.994548	0.115383
631.201880	0.115442
631.409194	0.115374
631.616489	0.115391
631.823766	0.115564
632.031025	0.115860
632.238266	0.115862
632.445489	0.115586
632.652693	0.115715
632.859879	0.115742
633.067047	0.115907
633.274197	0.115955
633.481329	0.116189
633.688442	0.116200
633.895537	0.115907
634.102614	0.115983
634.309672	0.116014
634.516713	0.115931
634.723735	0.115858
634.930739	0.115767
635.137724	0.116016
635.344692	0.115965
635.551641	0.116361
635.758572	0.116651
635.965485	0.116826
636.172379	0.116904
636.379256	0.116936
636.586114	0.117214
636.792954	0.117435
636.999775	0.117497
637.206579	0.117723
637.413364	0.117820
637.620131	0.117822
637.826880	0.117875
638.033610	0.117991
638.240323	0.118302
638.447017	0.118289
638.653692	0.118231
638.860350	0.118274
639.066990	0.118371
639.273611	0.118170
639.480214	0.118172
639.686798	0.118383
639.893365	0.118543
640.099913	0.118505
640.306443	0.118716
640.512955	0.118918
640.719449	0.119135
640.925924	0.119155
641.132381	0.119297
641.338820	0.119590
641.545241	0.119451
641.751644	0.119469
641.958028	0.119599
642.164394	0.119568
642.370742	0.119776
642.577071	0.119621
642.783383	0.119625
642.989676	0.119703
643.195951	0.119789
643.402207	0.119954
643.608446	0.119998
643.814666	0.120049
644.020868	0.120051
644.227052	0.119892
644.433218	0.120126
644.639365	0.120205
644.845494	0.120244
645.051605	0.120267
645.257698	0.120471
645.463772	0.120646
645.669828	0.120787
645.875866	0.120900
646.081886	0.121098
646.287888	0.121197
646.493871	0.121202
646.699836	0.121486
646.905783	0.121583
647.111712	0.121661
647.317622	0.121707
647.523514	0.121652
647.729388	0.121721
647.935244	0.121940
648.141082	0.122051
648.346901	0.122310
648.552702	0.122437
648.758485	0.122556
648.964250	0.122631
649.169996	0.122633
649.375724	0.122771
649.581434	0.122834
649.787126	0.122916
649.992800	0.123103
650.198455	0.123106
650.404092	0.122971
650.609711	0.123094
650.815311	0.123131
651.020894	0.123357
651.226458	0.123421
651.432004	0.123611
651.637532	0.123471
651.843041	0.123265
652.048532	0.123274
652.254006	0.123199
652.459460	0.122930
652.664897	0.123090
652.870315	0.123079
653.075716	0.123183
653.281097	0.123190
653.486461	0.123618
653.691807	0.123713
653.897134	0.123923
654.102443	0.124175
654.307734	0.124660
654.513006	0.124670
654.718261	0.124768
654.923497	0.124808
655.128715	0.125034
655.333915	0.124890
655.539096	0.125124
655.744259	0.125248
655.949404	0.125467
656.154531	0.125374
656.359640	0.125437
656.564730	0.125627
656.769802	0.125797
656.974856	0.125789
657.179892	0.125804
657.384909	0.125910
657.589908	0.126052
657.794889	0.125990
657.999852	0.126141
658.204797	0.126176
658.409723	0.125991
658.614631	0.126058
658.819521	0.126136
659.024393	0.126322
659.229246	0.126533
659.434081	0.126588
659.638898	0.126757
659.843697	0.126722
660.048478	0.126713
660.253240	0.127027
660.457984	0.127095
660.662710	0.127087
660.867417	0.127252
661.072107	0.127200
661.276778	0.127201
661.481431	0.127333
661.686066	0.127406
661.890682	0.127545
662.095281	0.127515
662.299861	0.127626
662.504422	0.128029
662.708966	0.127921
662.913491	0.127871
663.117999	0.127847
663.322488	0.127970
663.526958	0.128344
663.731411	0.128644
663.935845	0.128824
664.140261	0.128676
664.344659	0.128513
664.549038	0.128646
664.753400	0.128889
664.957743	0.129347
665.162068	0.129474
665.366375	0.129470
665.570663	0.129458
665.774933	0.129515
665.979185	0.129771
666.183419	0.129703
666.387635	0.129759
666.591832	0.129848
666.796011	0.129696
667.000172	0.129536
667.204315	0.129557
667.408439	0.129705
667.612545	0.129735
667.816634	0.129680
668.020703	0.129961
668.224755	0.130119
668.428788	0.130065
668.632803	0.130157
668.836800	0.130415
669.040779	0.130380
669.244739	0.130488
669.448681	0.130650
669.652605	0.130948
669.856511	0.130885
670.060399	0.131080
670.264268	0.131063
670.468119	0.131199
670.671952	0.131259
670.875767	0.131393
671.079563	0.131599
671.283341	0.131630
671.487101	0.131714
671.690843	0.132035
671.894567	0.131988
672.098272	0.132245
672.301959	0.132352
672.505628	0.132349
672.709278	0.132631
672.912911	0.132614
673.116525	0.132720
673.320121	0.132802
673.523699	0.132977
673.727258	0.133174
673.930799	0.133256
674.134322	0.133074
674.337827	0.133404
674.541314	0.133492
674.744782	0.133480
674.948232	0.133544
675.151664	0.133575
675.355078	0.133577
675.558474	0.133583
675.761851	0.133543
675.965210	0.133960
676.168551	0.133791
676.371873	0.133785
676.575178	0.133964
676.778464	0.134149
676.981732	0.134401
677.184981	0.134420
677.388213	0.134619
677.591426	0.135043
677.794621	0.135168
677.997798	0.135124
678.200956	0.135117
678.404097	0.135069
678.607219	0.135068
678.810323	0.135134
679.013408	0.135338
679.216476	0.135363
679.419525	0.135077
679.622556	0.135048
679.825569	0.135509
680.028563	0.135729
680.231540	0.135998
680.434498	0.136330
680.637438	0.136450
680.840359	0.136421
681.043263	0.136505
681.246148	0.136864
681.449015	0.137088
681.651864	0.136888
681.854694	0.137161
682.057506	0.137286
682.260301	0.137322
682.463076	0.137347
682.665834	0.137287
682.868573	0.137326
683.071295	0.137290
683.273998	0.137213
683.476682	0.137397
683.679349	0.137242
683.881997	0.137290
684.084627	0.137417
684.287239	0.137534
684.489833	0.137740
684.692408	0.137884
684.894965	0.137896
685.097504	0.138014
685.300025	0.138167
685.502527	0.138290
685.705012	0.138223
685.907478	0.138233
686.109925	0.138275
686.312355	0.138416
686.514766	0.138520
686.717159	0.138615
686.919534	0.138614
687.121891	0.138436
687.324230	0.138595
687.526550	0.138696
687.728852	0.138605
687.931136	0.138740
688.133401	0.138876
688.335649	0.138729
688.537878	0.138878
688.740089	0.139010
688.942281	0.139443
689.144456	0.139609
689.346612	0.139718
689.548750	0.139893
689.750870	0.140142
689.952971	0.140097
690.155055	0.140475
690.357120	0.140498
690.559167	0.140669
690.761195	0.140904
690.963206	0.140685
691.165198	0.140808
691.367172	0.140832
691.569128	0.140441
691.771065	0.140416
691.972984	0.140347
692.174885	0.140432
692.376768	0.140433
692.578633	0.140233
692.780479	0.140422
692.982308	0.140342
693.184118	0.140512
693.385909	0.140682
