sample name	sample
index	1210
start time	 04-26-2021  01:14:47 PM


Wavelength (nm)	Absorbance
494.344910	0.654360
494.563924	0.654360
494.782919	0.654360
495.001897	NaN
495.220856	NaN
495.439797	0.368931
495.658719	0.338810
495.877624	-0.587063
496.096510	-0.457955
496.315378	-0.293456
496.534227	-0.274780
496.753059	-0.189735
496.971872	-0.056190
497.190667	0.132340
497.409444	0.155182
497.628203	0.156446
497.846943	0.158444
498.065665	0.156731
498.284369	0.159325
498.503055	0.158424
498.721723	0.157322
498.940372	0.156337
499.159003	0.157278
499.377616	0.157393
499.596210	0.156458
499.814787	0.156838
500.033345	0.156550
500.251885	0.154644
500.470406	0.154904
500.688910	0.154541
500.907395	0.155244
501.125862	0.154624
501.344311	0.155135
501.562742	0.154653
501.781154	0.155415
501.999548	0.155311
502.217924	0.155035
502.436282	0.155805
502.654621	0.156161
502.872942	0.156385
503.091245	0.155552
503.309530	0.154982
503.527797	0.156312
503.746045	0.155640
503.964275	0.156398
504.182487	0.156538
504.400681	0.155449
504.618856	0.155113
504.837013	0.154481
505.055152	0.155935
505.273273	0.156111
505.491376	0.156547
505.709460	0.155701
505.927526	0.155688
506.145574	0.157007
506.363604	0.157963
506.581615	0.159201
506.799608	0.159633
507.017583	0.158611
507.235540	0.157915
507.453478	0.157547
507.671399	0.158056
507.889301	0.158909
508.107185	0.158353
508.325050	0.157626
508.542898	0.157122
508.760727	0.158142
508.978538	0.158879
509.196330	0.158766
509.414105	0.157767
509.631861	0.159039
509.849599	0.158626
510.067319	0.158819
510.285021	0.158942
510.502704	0.159733
510.720369	0.158774
510.938016	0.159094
511.155645	0.159684
511.373255	0.160885
511.590848	0.160248
511.808422	0.161401
512.025977	0.161303
512.243515	0.162699
512.461034	0.162641
512.678536	0.163327
512.896018	0.162984
513.113483	0.163449
513.330930	0.163584
513.548358	0.164071
513.765768	0.163766
513.983160	0.164452
514.200533	0.164098
514.417889	0.164383
514.635226	0.164236
514.852545	0.165105
515.069845	0.165172
515.287128	0.165357
515.504392	0.165003
515.721638	0.165702
515.938866	0.164689
516.156075	0.164976
516.373267	0.164789
516.590440	0.165750
516.807594	0.165626
517.024731	0.166051
517.241850	0.165849
517.458950	0.166340
517.676032	0.166286
517.893095	0.167193
518.110141	0.167612
518.327168	0.167793
518.544177	0.167633
518.761168	0.167648
518.978141	0.167331
519.195095	0.168650
519.412031	0.169462
519.628949	0.169973
519.845849	0.171416
520.062731	0.171046
520.279594	0.171903
520.496439	0.172124
520.713266	0.172610
520.930074	0.173204
521.146865	0.173235
521.363637	0.172851
521.580391	0.172592
521.797127	0.171847
522.013844	0.172679
522.230543	0.172289
522.447224	0.171784
522.663887	0.171979
522.880532	0.172244
523.097158	0.173044
523.313766	0.173417
523.530356	0.173867
523.746928	0.174605
523.963481	0.174257
524.180017	0.175464
524.396534	0.176790
524.613032	0.177018
524.829513	0.177851
525.045975	0.177190
525.262420	0.177153
525.478845	0.177412
525.695253	0.177004
525.911643	0.177370
526.128014	0.177215
526.344367	0.177652
526.560702	0.177671
526.777018	0.177359
526.993316	0.177089
527.209597	0.177313
527.425858	0.177712
527.642102	0.177888
527.858328	0.177865
528.074535	0.178116
528.290724	0.178197
528.506894	0.178713
528.723047	0.179483
528.939181	0.180383
529.155297	0.181045
529.371395	0.180671
529.587475	0.181387
529.803536	0.182390
530.019579	0.182081
530.235604	0.181334
530.451611	0.181910
530.667600	0.181409
530.883570	0.181494
531.099522	0.181995
531.315456	0.182219
531.531372	0.182586
531.747269	0.182977
531.963148	0.183288
532.179009	0.184526
532.394852	0.184717
532.610676	0.184487
532.826482	0.184859
533.042271	0.185283
533.258040	0.186317
533.473792	0.186345
533.689525	0.186160
533.905240	0.187370
534.120937	0.187194
534.336616	0.187380
534.552277	0.188243
534.767919	0.188253
534.983543	0.188234
535.199149	0.188421
535.414736	0.188827
535.630306	0.189391
535.845857	0.189227
536.061390	0.189680
536.276904	0.189745
536.492401	0.190461
536.707879	0.191025
536.923339	0.191765
537.138781	0.192273
537.354204	0.192632
537.569610	0.192706
537.784997	0.192668
538.000366	0.193513
538.215716	0.194107
538.431049	0.194358
538.646363	0.194607
538.861659	0.194558
539.076937	0.195037
539.292196	0.195945
539.507438	0.196473
539.722661	0.197141
539.937866	0.197310
540.153052	0.197739
540.368221	0.198171
540.583371	0.199283
540.798503	0.199332
541.013617	0.199612
541.228712	0.199750
541.443789	0.200207
541.658848	0.200260
541.873889	0.200066
542.088912	0.200359
542.303916	0.199981
542.518902	0.200126
542.733870	0.200814
542.948820	0.200619
543.163752	0.200332
543.378665	0.200490
543.593560	0.201190
543.808437	0.201728
544.023295	0.201907
544.238136	0.202688
544.452958	0.202246
544.667762	0.202786
544.882548	0.203822
545.097315	0.204859
545.312064	0.205102
545.526795	0.205818
545.741508	0.206286
545.956203	0.206446
546.170879	0.206744
546.385537	0.207580
546.600177	0.207595
546.814799	0.207059
547.029402	0.206610
547.243988	0.206711
547.458555	0.206807
547.673103	0.207096
547.887634	0.207668
548.102146	0.207956
548.316640	0.208084
548.531116	0.208751
548.745574	0.209021
548.960013	0.209761
549.174435	0.210516
549.388838	0.209830
549.603222	0.209675
549.817589	0.209423
550.031937	0.209637
550.246267	0.210111
550.460579	0.209212
550.674873	0.209499
550.889148	0.208891
551.103405	0.208780
551.317644	0.209684
551.531865	0.209742
551.746068	0.210174
551.960252	0.210225
552.174418	0.210532
552.388566	0.211265
552.602696	0.211010
552.816807	0.211347
553.030900	0.211611
553.244975	0.211300
553.459032	0.211563
553.673070	0.212059
553.887091	0.212496
554.101093	0.212403
554.315077	0.212683
554.529042	0.213403
554.742990	0.213845
554.956919	0.214023
555.170830	0.214484
555.384722	0.214955
555.598597	0.215089
555.812453	0.214749
556.026291	0.214768
556.240111	0.214977
556.453913	0.215414
556.667696	0.215093
556.881461	0.214345
557.095208	0.214593
557.308937	0.214274
557.522647	0.214061
557.736339	0.214541
557.950013	0.214658
558.163669	0.214847
558.377307	0.214596
558.590926	0.214940
558.804527	0.215920
559.018110	0.215950
559.231675	0.216692
559.445221	0.217267
559.658749	0.217196
559.872259	0.217622
560.085751	0.217532
560.299225	0.218104
560.512680	0.218518
560.726117	0.219081
560.939536	0.219045
561.152937	0.218981
561.366319	0.218851
561.579683	0.219348
561.793029	0.219013
562.006357	0.219477
562.219667	0.219658
562.432958	0.219961
562.646231	0.219591
562.859486	0.220369
563.072723	0.220530
563.285941	0.220917
563.499141	0.220588
563.712323	0.221050
563.925487	0.220984
564.138632	0.220948
564.351760	0.221012
564.564869	0.221219
564.777960	0.220786
564.991032	0.221103
565.204087	0.221089
565.417123	0.221433
565.630141	0.221742
565.843140	0.221906
566.056122	0.221812
566.269085	0.221636
566.482030	0.221768
566.694957	0.222179
566.907866	0.222469
567.120756	0.222555
567.333628	0.222666
567.546482	0.222427
567.759318	0.222634
567.972135	0.222738
568.184935	0.223097
568.397716	0.223196
568.610478	0.223085
568.823223	0.222874
569.035949	0.223009
569.248657	0.223468
569.461347	0.223897
569.674019	0.224095
569.886672	0.224501
570.099308	0.224688
570.311925	0.224785
570.524523	0.225031
570.737104	0.225117
570.949666	0.225636
571.162210	0.225966
571.374736	0.226405
571.587244	0.226281
571.799733	0.226443
572.012205	0.226471
572.224658	0.226915
572.437092	0.227584
572.649509	0.228014
572.861907	0.227820
573.074287	0.227775
573.286649	0.227603
573.498993	0.228115
573.711318	0.228446
573.923625	0.228992
574.135914	0.229022
574.348185	0.228491
574.560438	0.228521
574.772672	0.228981
574.984888	0.229050
575.197086	0.229261
575.409266	0.229315
575.621427	0.229317
575.833570	0.229171
576.045695	0.229380
576.257802	0.229760
576.469890	0.229897
576.681961	0.229706
576.894013	0.230001
577.106046	0.230032
577.318062	0.229517
577.530059	0.229617
577.742039	0.230150
577.954000	0.230130
578.165942	0.230696
578.377867	0.230942
578.589773	0.230764
578.801661	0.230757
579.013531	0.230854
579.225382	0.231464
579.437216	0.231841
579.649031	0.232155
579.860828	0.232271
580.072606	0.231894
580.284367	0.231854
580.496109	0.232342
580.707833	0.232824
580.919539	0.233095
581.131227	0.233151
581.342896	0.232878
581.554547	0.232964
581.766180	0.233480
581.977795	0.234113
582.189391	0.234604
582.400969	0.234737
582.612529	0.234456
582.824071	0.234195
583.035595	0.234929
583.247100	0.235193
583.458587	0.235015
583.670056	0.235301
583.881506	0.235221
584.092939	0.235340
584.304353	0.235870
584.515749	0.236145
584.727127	0.237157
584.938486	0.237415
585.149828	0.237951
585.361151	0.238249
585.572456	0.238176
585.783742	0.238407
585.995011	0.238647
586.206261	0.238938
586.417493	0.239308
586.628706	0.239145
586.839902	0.239405
587.051079	0.239728
587.262238	0.239819
587.473379	0.240122
587.684502	0.240679
587.895606	0.240877
588.106692	0.241264
588.317760	0.241507
588.528810	0.242035
588.739841	0.242129
588.950855	0.242178
589.161850	0.242660
589.372827	0.243028
589.583785	0.242609
589.794726	0.242663
590.005648	0.242497
590.216552	0.242880
590.427437	0.242999
590.638305	0.243185
590.849154	0.243157
591.059985	0.243503
591.270798	0.243690
591.481592	0.243918
591.692369	0.244229
591.903127	0.244208
592.113867	0.244504
592.324588	0.244773
592.535292	0.244955
592.745977	0.245730
592.956644	0.245238
593.167293	0.245198
593.377923	0.245712
593.588536	0.245964
593.799130	0.246483
594.009706	0.246813
594.220263	0.246938
594.430803	0.247308
594.641324	0.247019
594.851827	0.247743
595.062312	0.248266
595.272778	0.248501
595.483227	0.248763
595.693657	0.249033
595.904069	0.248947
596.114462	0.249115
596.324838	0.249013
596.535195	0.249202
596.745534	0.249484
596.955855	0.249830
597.166157	0.249927
597.376441	0.250304
597.586707	0.250327
597.796955	0.250314
598.007185	0.250678
598.217396	0.250938
598.427589	0.251343
598.637764	0.251497
598.847921	0.251724
599.058060	0.252061
599.268180	0.252135
599.478282	0.252207
599.688366	0.252645
599.898431	0.252672
600.108479	0.252629
600.318508	0.252410
600.528519	0.252694
600.738511	0.252646
600.948486	0.252815
601.158442	0.253007
601.368380	0.253514
601.578300	0.253767
601.788202	0.254027
601.998085	0.254809
602.207950	0.255438
602.417797	0.255240
602.627626	0.255458
602.837436	0.255571
603.047228	0.255696
603.257002	0.255766
603.466758	0.255879
603.676496	0.256039
603.886215	0.255685
604.095916	0.255678
604.305599	0.256058
604.515264	0.256214
604.724910	0.256425
604.934538	0.256574
605.144148	0.256831
605.353740	0.257016
605.563314	0.257098
605.772869	0.257279
605.982406	0.257606
606.191925	0.257505
606.401425	0.257644
606.610908	0.257897
606.820372	0.257912
607.029818	0.258337
607.239246	0.258501
607.448655	0.258510
607.658047	0.258669
607.867420	0.258709
608.076775	0.259310
608.286111	0.259496
608.495430	0.259522
608.704730	0.259588
608.914012	0.259540
609.123275	0.259955
609.332521	0.260206
609.541748	0.260325
609.750957	0.260997
609.960148	0.261077
610.169321	0.261194
610.378475	0.261413
610.587611	0.261531
610.796729	0.261659
611.005829	0.261611
611.214910	0.262017
611.423974	0.262432
611.633019	0.262344
611.842045	0.262433
612.051054	0.262643
612.260044	0.263090
612.469017	0.263472
612.677970	0.263822
612.886906	0.264044
613.095824	0.264371
613.304723	0.264568
613.513604	0.264722
613.722467	0.265010
613.931311	0.264972
614.140138	0.264973
614.348946	0.265332
614.557736	0.265410
614.766507	0.265417
614.975261	0.265429
615.183996	0.265662
615.392713	0.265663
615.601412	0.265636
615.810092	0.266120
616.018754	0.266074
616.227399	0.266094
616.436024	0.266570
616.644632	0.266804
616.853222	0.267186
617.061793	0.267195
617.270346	0.267688
617.478880	0.268134
617.687397	0.268062
617.895895	0.268405
618.104375	0.268592
618.312837	0.268434
618.521281	0.268720
618.729706	0.268667
618.938113	0.268966
619.146502	0.268856
619.354873	0.269105
619.563226	0.269259
619.771560	0.269378
619.979876	0.269565
620.188174	0.269568
620.396453	0.269730
620.604715	0.269890
620.812958	0.270115
621.021183	0.270629
621.229390	0.270521
621.437578	0.270847
621.645748	0.271317
621.853900	0.271633
622.062034	0.271975
622.270150	0.272151
622.478247	0.272388
622.686326	0.272598
622.894387	0.272569
623.102430	0.272944
623.310454	0.273276
623.518461	0.273161
623.726449	0.273298
623.934418	0.273615
624.142370	0.273893
624.350303	0.274267
624.558218	0.274607
624.766115	0.275164
624.973994	0.275323
625.181855	0.275618
625.389697	0.275914
625.597521	0.276205
625.805327	0.276271
626.013114	0.276214
626.220883	0.276219
626.428634	0.276139
626.636367	0.276071
626.844082	0.276317
627.051778	0.276738
627.259457	0.276982
627.467117	0.277100
627.674758	0.277168
627.882382	0.277682
628.089987	0.277838
628.297574	0.277969
628.505143	0.278006
628.712694	0.277955
628.920226	0.277875
629.127740	0.278076
629.335236	0.278210
629.542714	0.278422
629.750174	0.278080
629.957615	0.278620
630.165038	0.278850
630.372443	0.279017
630.579829	0.279504
630.787198	0.279304
630.994548	0.279248
631.201880	0.279476
631.409194	0.279763
631.616489	0.279988
631.823766	0.279710
632.031025	0.280273
632.238266	0.280450
632.445489	0.280450
632.652693	0.280910
632.859879	0.281166
633.067047	0.281207
633.274197	0.281049
633.481329	0.281408
633.688442	0.281486
633.895537	0.281336
634.102614	0.281536
634.309672	0.281650
634.516713	0.281858
634.723735	0.281613
634.930739	0.281722
635.137724	0.282000
635.344692	0.282171
635.551641	0.282335
635.758572	0.282201
635.965485	0.282352
636.172379	0.282392
636.379256	0.282478
636.586114	0.283017
636.792954	0.283215
636.999775	0.283622
637.206579	0.284024
637.413364	0.284435
637.620131	0.284886
637.826880	0.284748
638.033610	0.285180
638.240323	0.285353
638.447017	0.285454
638.653692	0.285679
638.860350	0.285529
639.066990	0.285615
639.273611	0.285851
639.480214	0.285936
639.686798	0.286541
639.893365	0.286910
640.099913	0.286922
640.306443	0.287378
640.512955	0.287745
640.719449	0.288159
640.925924	0.288152
641.132381	0.288421
641.338820	0.288760
641.545241	0.288838
641.751644	0.288720
641.958028	0.289273
642.164394	0.289436
642.370742	0.289675
642.577071	0.290018
642.783383	0.290426
642.989676	0.290367
643.195951	0.290335
643.402207	0.290526
643.608446	0.290849
643.814666	0.291012
644.020868	0.291174
644.227052	0.291326
644.433218	0.291623
644.639365	0.291801
644.845494	0.292227
645.051605	0.292734
645.257698	0.292898
645.463772	0.293203
645.669828	0.293309
645.875866	0.293364
646.081886	0.293465
646.287888	0.293121
646.493871	0.293323
646.699836	0.293067
646.905783	0.293100
647.111712	0.293366
647.317622	0.293392
647.523514	0.293640
647.729388	0.293939
647.935244	0.294363
648.141082	0.294834
648.346901	0.294969
648.552702	0.295717
648.758485	0.296118
648.964250	0.296345
649.169996	0.296631
649.375724	0.296785
649.581434	0.297162
649.787126	0.297117
649.992800	0.297524
650.198455	0.297659
650.404092	0.297414
650.609711	0.297143
650.815311	0.297127
651.020894	0.297205
651.226458	0.296988
651.432004	0.297025
651.637532	0.296947
651.843041	0.296942
652.048532	0.297279
652.254006	0.297627
652.459460	0.297768
652.664897	0.298005
652.870315	0.298484
653.075716	0.298899
653.281097	0.298924
653.486461	0.299291
653.691807	0.299325
653.897134	0.299501
654.102443	0.299768
654.307734	0.300262
654.513006	0.300615
654.718261	0.300543
654.923497	0.300887
655.128715	0.301122
655.333915	0.301149
655.539096	0.301629
655.744259	0.301879
655.949404	0.302006
656.154531	0.302303
656.359640	0.302434
656.564730	0.302730
656.769802	0.302928
656.974856	0.303278
657.179892	0.303734
657.384909	0.303680
657.589908	0.303698
657.794889	0.304020
657.999852	0.304539
658.204797	0.304678
658.409723	0.304769
658.614631	0.304964
658.819521	0.305263
659.024393	0.305467
659.229246	0.306082
659.434081	0.306263
659.638898	0.306587
659.843697	0.306675
660.048478	0.307256
660.253240	0.307611
660.457984	0.307867
660.662710	0.308240
660.867417	0.308578
661.072107	0.308608
661.276778	0.309127
661.481431	0.309399
661.686066	0.309132
661.890682	0.309109
662.095281	0.309298
662.299861	0.309328
662.504422	0.309311
662.708966	0.309427
662.913491	0.309649
663.117999	0.309433
663.322488	0.309369
663.526958	0.309881
663.731411	0.310014
663.935845	0.310236
664.140261	0.310542
664.344659	0.310851
664.549038	0.311173
664.753400	0.311592
664.957743	0.312072
665.162068	0.312433
665.366375	0.312510
665.570663	0.312835
665.774933	0.313017
665.979185	0.313364
666.183419	0.313674
666.387635	0.314047
666.591832	0.313987
666.796011	0.314170
667.000172	0.314320
667.204315	0.314693
667.408439	0.314931
667.612545	0.315200
667.816634	0.315359
668.020703	0.315335
668.224755	0.315427
668.428788	0.315783
668.632803	0.316265
668.836800	0.316547
669.040779	0.316915
669.244739	0.317132
669.448681	0.317253
669.652605	0.317481
669.856511	0.318092
670.060399	0.318491
670.264268	0.319018
670.468119	0.319083
670.671952	0.319468
670.875767	0.319776
671.079563	0.320239
671.283341	0.320462
671.487101	0.320714
671.690843	0.320789
671.894567	0.321078
672.098272	0.321320
672.301959	0.321904
672.505628	0.322172
672.709278	0.322312
672.912911	0.322688
673.116525	0.323156
673.320121	0.323674
673.523699	0.324005
673.727258	0.324081
673.930799	0.324143
674.134322	0.324260
674.337827	0.324464
674.541314	0.324758
674.744782	0.324612
674.948232	0.325010
675.151664	0.325216
675.355078	0.325271
675.558474	0.325545
675.761851	0.325677
675.965210	0.325889
676.168551	0.325973
676.371873	0.326291
676.575178	0.326701
676.778464	0.326802
676.981732	0.326750
677.184981	0.327047
677.388213	0.327217
677.591426	0.327212
677.794621	0.327269
677.997798	0.327651
678.200956	0.327558
678.404097	0.327787
678.607219	0.327860
678.810323	0.328089
679.013408	0.327988
679.216476	0.328096
679.419525	0.328444
679.622556	0.328554
679.825569	0.328622
680.028563	0.329191
680.231540	0.329301
680.434498	0.329525
680.637438	0.329739
680.840359	0.330167
681.043263	0.330560
681.246148	0.330771
681.449015	0.331046
681.651864	0.330799
681.854694	0.330832
682.057506	0.330893
682.260301	0.330975
682.463076	0.331325
682.665834	0.331747
682.868573	0.332065
683.071295	0.332508
683.273998	0.332781
683.476682	0.333519
683.679349	0.333700
683.881997	0.334111
684.084627	0.334774
684.287239	0.334956
684.489833	0.335187
684.692408	0.335187
684.894965	0.335217
685.097504	0.335485
685.300025	0.335817
685.502527	0.336185
685.705012	0.336330
685.907478	0.336334
686.109925	0.336740
686.312355	0.336896
686.514766	0.337313
686.717159	0.337613
686.919534	0.337736
687.121891	0.337820
687.324230	0.337865
687.526550	0.338349
687.728852	0.338639
687.931136	0.338753
688.133401	0.338722
688.335649	0.338545
688.537878	0.338804
688.740089	0.339222
688.942281	0.339563
689.144456	0.339803
689.346612	0.339869
689.548750	0.339998
689.750870	0.340300
689.952971	0.340671
690.155055	0.341410
690.357120	0.341852
690.559167	0.342085
690.761195	0.342530
690.963206	0.343094
691.165198	0.343429
691.367172	0.343851
691.569128	0.344217
691.771065	0.344592
691.972984	0.344538
692.174885	0.344813
692.376768	0.344991
692.578633	0.344907
692.780479	0.344799
692.982308	0.344820
693.184118	0.344856
693.385909	0.344606
