sample name	sample
index	82
start time	 02-11-2021  04:27:42 PM


Wavelength (nm)	Absorbance
494.344910	-0.753608
494.563924	-0.753608
494.782919	-0.753608
495.001897	-0.675235
495.220856	-0.567621
495.439797	-0.191070
495.658719	NaN
495.877624	NaN
496.096510	NaN
496.315378	NaN
496.534227	NaN
496.753059	NaN
496.971872	1.262158
497.190667	0.115174
497.409444	0.069089
497.628203	0.063120
497.846943	0.065007
498.065665	0.065460
498.284369	0.068060
498.503055	0.069031
498.721723	0.069335
498.940372	0.070061
499.159003	0.070079
499.377616	0.072764
499.596210	0.073628
499.814787	0.073259
500.033345	0.073995
500.251885	0.072847
500.470406	0.073096
500.688910	0.075324
500.907395	0.076235
501.125862	0.075404
501.344311	0.075196
501.562742	0.076429
501.781154	0.077257
501.999548	0.076500
502.217924	0.076924
502.436282	0.076406
502.654621	0.075230
502.872942	0.074270
503.091245	0.075506
503.309530	0.075539
503.527797	0.075465
503.746045	0.073677
503.964275	0.073717
504.182487	0.074738
504.400681	0.075443
504.618856	0.074189
504.837013	0.073844
505.055152	0.074257
505.273273	0.074077
505.491376	0.073396
505.709460	0.073120
505.927526	0.071652
506.145574	0.071387
506.363604	0.072177
506.581615	0.073973
506.799608	0.075442
507.017583	0.073851
507.235540	0.073913
507.453478	0.074661
507.671399	0.074968
507.889301	0.074843
508.107185	0.074392
508.325050	0.072661
508.542898	0.071270
508.760727	0.071073
508.978538	0.073209
509.196330	0.073898
509.414105	0.072088
509.631861	0.073486
509.849599	0.075308
510.067319	0.078561
510.285021	0.079227
510.502704	0.082088
510.720369	0.081787
510.938016	0.080842
511.155645	0.080740
511.373255	0.083842
511.590848	0.083158
511.808422	0.082390
512.025977	0.079903
512.243515	0.080639
512.461034	0.080032
512.678536	0.079922
512.896018	0.081860
513.113483	0.080592
513.330930	0.078788
513.548358	0.080080
513.765768	0.081177
513.983160	0.081780
514.200533	0.081121
514.417889	0.080965
514.635226	0.080120
514.852545	0.077958
515.069845	0.079173
515.287128	0.080215
515.504392	0.080928
515.721638	0.079949
515.938866	0.080068
516.156075	0.080195
516.373267	0.080607
516.590440	0.082067
516.807594	0.084027
517.024731	0.083786
517.241850	0.083585
517.458950	0.082789
517.676032	0.083846
517.893095	0.082702
518.110141	0.082613
518.327168	0.082761
518.544177	0.082621
518.761168	0.081243
518.978141	0.082359
519.195095	0.083393
519.412031	0.083516
519.628949	0.083889
519.845849	0.085549
520.062731	0.086147
520.279594	0.086370
520.496439	0.087553
520.713266	0.088513
520.930074	0.088786
521.146865	0.088362
521.363637	0.088370
521.580391	0.087872
521.797127	0.088102
522.013844	0.087682
522.230543	0.086970
522.447224	0.086853
522.663887	0.087375
522.880532	0.086105
523.097158	0.086735
523.313766	0.086240
523.530356	0.086917
523.746928	0.086172
523.963481	0.087598
524.180017	0.088659
524.396534	0.088235
524.613032	0.088237
524.829513	0.089124
525.045975	0.088741
525.262420	0.090820
525.478845	0.091759
525.695253	0.093330
525.911643	0.094084
526.128014	0.094295
526.344367	0.095544
526.560702	0.096015
526.777018	0.096364
526.993316	0.096969
527.209597	0.096453
527.425858	0.096596
527.642102	0.095998
527.858328	0.095763
528.074535	0.095873
528.290724	0.095843
528.506894	0.096619
528.723047	0.097518
528.939181	0.095926
529.155297	0.095508
529.371395	0.096167
529.587475	0.097498
529.803536	0.096653
530.019579	0.097334
530.235604	0.097315
530.451611	0.096988
530.667600	0.097249
530.883570	0.099474
531.099522	0.100890
531.315456	0.101061
531.531372	0.100799
531.747269	0.102225
531.963148	0.102260
532.179009	0.101923
532.394852	0.102237
532.610676	0.101870
532.826482	0.101888
533.042271	0.102419
533.258040	0.102407
533.473792	0.102231
533.689525	0.102760
533.905240	0.102502
534.120937	0.103675
534.336616	0.103410
534.552277	0.103817
534.767919	0.103750
534.983543	0.103000
535.199149	0.103553
535.414736	0.104620
535.630306	0.104276
535.845857	0.104741
536.061390	0.105117
536.276904	0.105945
536.492401	0.106229
536.707879	0.107195
536.923339	0.107907
537.138781	0.106987
537.354204	0.107727
537.569610	0.108208
537.784997	0.108875
538.000366	0.110336
538.215716	0.110822
538.431049	0.111245
538.646363	0.110376
538.861659	0.109955
539.076937	0.110590
539.292196	0.110102
539.507438	0.110209
539.722661	0.111528
539.937866	0.109955
540.153052	0.109972
540.368221	0.109546
540.583371	0.110480
540.798503	0.111231
541.013617	0.111301
541.228712	0.111289
541.443789	0.111058
541.658848	0.110495
541.873889	0.111339
542.088912	0.111913
542.303916	0.113000
542.518902	0.113172
542.733870	0.113617
542.948820	0.114454
543.163752	0.115326
543.378665	0.115239
543.593560	0.115262
543.808437	0.114896
544.023295	0.114659
544.238136	0.114618
544.452958	0.114719
544.667762	0.114565
544.882548	0.114147
545.097315	0.113383
545.312064	0.115583
545.526795	0.115634
545.741508	0.116647
545.956203	0.117293
546.170879	0.118304
546.385537	0.118588
546.600177	0.118124
546.814799	0.119133
547.029402	0.120076
547.243988	0.119231
547.458555	0.119408
547.673103	0.119302
547.887634	0.118908
548.102146	0.118299
548.316640	0.118903
548.531116	0.119556
548.745574	0.119681
548.960013	0.119760
549.174435	0.120500
549.388838	0.120724
549.603222	0.120506
549.817589	0.121102
550.031937	0.121514
550.246267	0.121476
550.460579	0.121486
550.674873	0.121613
550.889148	0.121666
551.103405	0.120981
551.317644	0.120295
551.531865	0.120734
551.746068	0.120931
551.960252	0.121012
552.174418	0.121323
552.388566	0.122263
552.602696	0.122017
552.816807	0.121886
553.030900	0.122386
553.244975	0.123538
553.459032	0.123590
553.673070	0.123750
553.887091	0.124084
554.101093	0.124260
554.315077	0.124075
554.529042	0.124241
554.742990	0.125013
554.956919	0.124659
555.170830	0.124404
555.384722	0.124792
555.598597	0.124827
555.812453	0.125148
556.026291	0.125382
556.240111	0.125686
556.453913	0.126068
556.667696	0.126016
556.881461	0.126954
557.095208	0.128268
557.308937	0.128300
557.522647	0.127896
557.736339	0.127503
557.950013	0.128096
558.163669	0.128867
558.377307	0.129671
558.590926	0.129882
558.804527	0.130098
559.018110	0.130127
559.231675	0.130612
559.445221	0.131199
559.658749	0.132014
559.872259	0.131236
560.085751	0.131037
560.299225	0.130899
560.512680	0.131653
560.726117	0.131424
560.939536	0.131310
561.152937	0.131541
561.366319	0.132493
561.579683	0.132390
561.793029	0.133350
562.006357	0.133644
562.219667	0.133731
562.432958	0.133451
562.646231	0.133776
562.859486	0.133330
563.072723	0.132953
563.285941	0.133035
563.499141	0.133010
563.712323	0.132773
563.925487	0.133179
564.138632	0.133918
564.351760	0.133690
564.564869	0.134068
564.777960	0.134596
564.991032	0.135189
565.204087	0.135583
565.417123	0.136011
565.630141	0.136534
565.843140	0.136672
566.056122	0.136395
566.269085	0.136956
566.482030	0.137201
566.694957	0.137320
566.907866	0.137656
567.120756	0.137863
567.333628	0.138509
567.546482	0.138367
567.759318	0.138189
567.972135	0.138400
568.184935	0.138831
568.397716	0.139070
568.610478	0.139696
568.823223	0.140156
569.035949	0.140201
569.248657	0.139385
569.461347	0.139186
569.674019	0.139359
569.886672	0.139470
570.099308	0.138881
570.311925	0.139285
570.524523	0.138738
570.737104	0.138987
570.949666	0.138544
571.162210	0.139654
571.374736	0.140399
571.587244	0.141113
571.799733	0.141210
572.012205	0.141692
572.224658	0.141883
572.437092	0.142713
572.649509	0.142359
572.861907	0.142073
573.074287	0.141361
573.286649	0.141783
573.498993	0.141915
573.711318	0.142322
573.923625	0.142562
574.135914	0.142458
574.348185	0.142050
574.560438	0.141970
574.772672	0.142728
574.984888	0.143133
575.197086	0.142807
575.409266	0.142357
575.621427	0.142124
575.833570	0.142686
576.045695	0.142312
576.257802	0.142627
576.469890	0.143005
576.681961	0.143172
576.894013	0.143290
577.106046	0.143771
577.318062	0.144052
577.530059	0.143808
577.742039	0.143694
577.954000	0.143962
578.165942	0.144007
578.377867	0.144531
578.589773	0.144809
578.801661	0.145573
579.013531	0.146035
579.225382	0.146403
579.437216	0.146734
579.649031	0.147120
579.860828	0.148046
580.072606	0.148787
580.284367	0.148406
580.496109	0.148915
580.707833	0.148896
580.919539	0.149156
581.131227	0.149203
581.342896	0.148894
581.554547	0.149438
581.766180	0.149049
581.977795	0.148783
582.189391	0.149367
582.400969	0.149256
582.612529	0.149481
582.824071	0.149131
583.035595	0.149231
583.247100	0.150679
583.458587	0.150431
583.670056	0.150336
583.881506	0.151232
584.092939	0.151743
584.304353	0.151378
584.515749	0.151509
584.727127	0.151461
584.938486	0.151407
585.149828	0.150553
585.361151	0.151093
585.572456	0.151594
585.783742	0.151163
585.995011	0.150908
586.206261	0.151489
586.417493	0.151726
586.628706	0.152477
586.839902	0.153028
587.051079	0.153893
587.262238	0.153604
587.473379	0.154119
587.684502	0.154321
587.895606	0.154350
588.106692	0.154962
588.317760	0.155209
588.528810	0.154855
588.739841	0.154960
588.950855	0.155170
589.161850	0.155622
589.372827	0.155265
589.583785	0.155734
589.794726	0.156099
590.005648	0.156019
590.216552	0.156794
590.427437	0.157440
590.638305	0.157455
590.849154	0.157452
591.059985	0.157659
591.270798	0.157804
591.481592	0.157904
591.692369	0.157951
591.903127	0.157982
592.113867	0.157720
592.324588	0.157623
592.535292	0.158042
592.745977	0.158012
592.956644	0.157761
593.167293	0.158490
593.377923	0.158444
593.588536	0.158624
593.799130	0.158992
594.009706	0.159056
594.220263	0.159768
594.430803	0.159818
594.641324	0.160102
594.851827	0.160404
595.062312	0.160422
595.272778	0.160622
595.483227	0.161193
595.693657	0.161026
595.904069	0.161041
596.114462	0.160764
596.324838	0.161074
596.535195	0.161726
596.745534	0.162380
596.955855	0.162648
597.166157	0.162901
597.376441	0.162854
597.586707	0.163683
597.796955	0.164023
598.007185	0.164118
598.217396	0.164167
598.427589	0.164344
598.637764	0.164270
598.847921	0.164441
599.058060	0.164702
599.268180	0.164925
599.478282	0.164864
599.688366	0.165042
599.898431	0.165394
600.108479	0.165962
600.318508	0.166094
600.528519	0.166097
600.738511	0.166577
600.948486	0.166589
601.158442	0.166517
601.368380	0.166684
601.578300	0.166668
601.788202	0.166606
601.998085	0.166652
602.207950	0.166608
602.417797	0.166662
602.627626	0.165869
602.837436	0.166069
603.047228	0.166156
603.257002	0.165933
603.466758	0.166239
603.676496	0.165977
603.886215	0.166253
604.095916	0.166675
604.305599	0.166908
604.515264	0.167798
604.724910	0.167744
604.934538	0.168201
605.144148	0.168526
605.353740	0.168532
605.563314	0.169337
605.772869	0.169358
605.982406	0.169213
606.191925	0.169481
606.401425	0.169682
606.610908	0.170368
606.820372	0.170524
607.029818	0.170133
607.239246	0.170708
607.448655	0.170370
607.658047	0.170551
607.867420	0.170335
608.076775	0.170272
608.286111	0.170284
608.495430	0.170014
608.704730	0.170421
608.914012	0.171082
609.123275	0.171020
609.332521	0.171175
609.541748	0.170774
609.750957	0.171208
609.960148	0.171735
610.169321	0.171643
610.378475	0.172158
610.587611	0.171790
610.796729	0.171819
611.005829	0.172011
611.214910	0.172458
611.423974	0.173430
611.633019	0.173593
611.842045	0.173396
612.051054	0.174183
612.260044	0.174347
612.469017	0.174716
612.677970	0.175120
612.886906	0.175403
613.095824	0.175493
613.304723	0.175251
613.513604	0.175432
613.722467	0.176282
613.931311	0.175885
614.140138	0.175962
614.348946	0.175925
614.557736	0.175745
614.766507	0.175433
614.975261	0.175881
615.183996	0.175780
615.392713	0.176225
615.601412	0.176046
615.810092	0.176131
616.018754	0.176153
616.227399	0.176478
616.436024	0.176533
616.644632	0.176661
616.853222	0.176771
617.061793	0.177133
617.270346	0.177339
617.478880	0.177407
617.687397	0.177833
617.895895	0.177437
618.104375	0.177693
618.312837	0.178321
618.521281	0.178670
618.729706	0.178577
618.938113	0.178999
619.146502	0.179294
619.354873	0.179631
619.563226	0.179787
619.771560	0.180494
619.979876	0.180575
620.188174	0.180585
620.396453	0.180758
620.604715	0.181697
620.812958	0.181452
621.021183	0.181343
621.229390	0.180900
621.437578	0.181096
621.645748	0.181209
621.853900	0.181470
622.062034	0.181455
622.270150	0.181519
622.478247	0.181145
622.686326	0.181704
622.894387	0.181950
623.102430	0.182518
623.310454	0.182908
623.518461	0.183078
623.726449	0.183288
623.934418	0.183744
624.142370	0.184555
624.350303	0.184756
624.558218	0.184713
624.766115	0.184057
624.973994	0.184026
625.181855	0.183910
625.389697	0.184035
625.597521	0.184296
625.805327	0.184330
626.013114	0.184053
626.220883	0.183889
626.428634	0.183793
626.636367	0.184770
626.844082	0.184865
627.051778	0.185026
627.259457	0.185554
627.467117	0.185424
627.674758	0.185532
627.882382	0.185975
628.089987	0.186490
628.297574	0.187084
628.505143	0.187152
628.712694	0.187328
628.920226	0.187484
629.127740	0.187797
629.335236	0.188000
629.542714	0.188157
629.750174	0.188370
629.957615	0.188300
630.165038	0.188312
630.372443	0.188257
630.579829	0.188703
630.787198	0.188840
630.994548	0.189053
631.201880	0.189519
631.409194	0.190181
631.616489	0.189753
631.823766	0.190238
632.031025	0.190550
632.238266	0.190927
632.445489	0.191081
632.652693	0.191140
632.859879	0.191121
633.067047	0.191101
633.274197	0.191203
633.481329	0.191695
633.688442	0.191384
633.895537	0.191486
634.102614	0.192018
634.309672	0.192119
634.516713	0.192256
634.723735	0.192356
634.930739	0.192391
635.137724	0.191967
635.344692	0.192123
635.551641	0.193112
635.758572	0.193313
635.965485	0.193350
636.172379	0.193692
636.379256	0.193923
636.586114	0.193734
636.792954	0.194060
636.999775	0.194725
637.206579	0.195085
637.413364	0.194912
637.620131	0.195147
637.826880	0.195153
638.033610	0.195083
638.240323	0.195345
638.447017	0.195862
638.653692	0.196163
638.860350	0.196311
639.066990	0.196294
639.273611	0.196182
639.480214	0.196495
639.686798	0.196896
639.893365	0.197353
640.099913	0.197484
640.306443	0.197384
640.512955	0.197469
640.719449	0.197645
640.925924	0.197942
641.132381	0.198056
641.338820	0.198178
641.545241	0.197890
641.751644	0.197820
641.958028	0.197734
642.164394	0.197972
642.370742	0.198134
642.577071	0.198553
642.783383	0.198854
642.989676	0.199167
643.195951	0.199585
643.402207	0.200191
643.608446	0.200435
643.814666	0.201208
644.020868	0.201484
644.227052	0.201745
644.433218	0.201442
644.639365	0.201468
644.845494	0.201824
645.051605	0.201657
645.257698	0.201846
645.463772	0.202218
645.669828	0.202010
645.875866	0.202004
646.081886	0.202196
646.287888	0.202586
646.493871	0.202659
646.699836	0.202488
646.905783	0.202739
647.111712	0.203034
647.317622	0.203193
647.523514	0.203736
647.729388	0.204222
647.935244	0.204316
648.141082	0.204682
648.346901	0.204948
648.552702	0.205543
648.758485	0.205922
648.964250	0.206550
649.169996	0.206686
649.375724	0.206882
649.581434	0.206915
649.787126	0.207364
649.992800	0.207507
650.198455	0.207852
650.404092	0.208251
650.609711	0.208516
650.815311	0.207852
651.020894	0.208080
651.226458	0.208610
651.432004	0.209306
651.637532	0.209360
651.843041	0.209734
652.048532	0.210113
652.254006	0.210439
652.459460	0.210608
652.664897	0.211105
652.870315	0.211621
653.075716	0.211468
653.281097	0.211486
653.486461	0.211515
653.691807	0.211757
653.897134	0.211714
654.102443	0.212030
654.307734	0.212248
654.513006	0.212850
654.718261	0.212961
654.923497	0.213668
655.128715	0.213628
655.333915	0.214199
655.539096	0.214443
655.744259	0.214862
655.949404	0.214878
656.154531	0.215235
656.359640	0.215173
656.564730	0.215108
656.769802	0.215109
656.974856	0.215832
657.179892	0.215788
657.384909	0.215827
657.589908	0.215990
657.794889	0.215962
657.999852	0.216074
658.204797	0.216142
658.409723	0.216512
658.614631	0.216450
658.819521	0.216788
659.024393	0.217093
659.229246	0.217314
659.434081	0.217539
659.638898	0.218022
659.843697	0.217591
660.048478	0.217718
660.253240	0.218033
660.457984	0.218467
660.662710	0.218703
660.867417	0.218818
661.072107	0.219084
661.276778	0.219214
661.481431	0.219159
661.686066	0.220069
661.890682	0.220849
662.095281	0.220860
662.299861	0.220856
662.504422	0.221171
662.708966	0.222060
662.913491	0.222435
663.117999	0.222711
663.322488	0.223090
663.526958	0.223155
663.731411	0.222868
663.935845	0.223393
664.140261	0.224012
664.344659	0.224032
664.549038	0.224045
664.753400	0.224115
664.957743	0.224526
665.162068	0.225240
665.366375	0.225987
665.570663	0.226660
665.774933	0.227001
665.979185	0.226738
666.183419	0.226865
666.387635	0.227346
666.591832	0.228183
666.796011	0.228586
667.000172	0.228831
667.204315	0.228751
667.408439	0.228635
667.612545	0.228824
667.816634	0.229038
668.020703	0.229334
668.224755	0.229149
668.428788	0.228785
668.632803	0.228750
668.836800	0.228420
669.040779	0.228411
669.244739	0.228861
669.448681	0.228976
669.652605	0.229561
669.856511	0.229802
670.060399	0.230163
670.264268	0.230545
670.468119	0.231008
670.671952	0.231553
670.875767	0.231811
671.079563	0.232179
671.283341	0.232296
671.487101	0.232562
671.690843	0.232620
671.894567	0.233090
672.098272	0.233476
672.301959	0.233562
672.505628	0.233591
672.709278	0.233807
672.912911	0.233847
673.116525	0.234416
673.320121	0.234717
673.523699	0.234807
673.727258	0.234855
673.930799	0.235041
674.134322	0.235425
674.337827	0.235847
674.541314	0.236041
674.744782	0.236372
674.948232	0.236787
675.151664	0.236764
675.355078	0.236912
675.558474	0.237193
675.761851	0.237106
675.965210	0.237258
676.168551	0.237489
676.371873	0.237638
676.575178	0.237820
676.778464	0.237638
676.981732	0.238060
677.184981	0.238546
677.388213	0.238434
677.591426	0.238404
677.794621	0.238642
677.997798	0.238583
678.200956	0.239058
678.404097	0.239342
678.607219	0.239779
678.810323	0.239951
679.013408	0.240188
679.216476	0.240480
679.419525	0.241202
679.622556	0.241243
679.825569	0.241714
680.028563	0.241864
680.231540	0.242008
680.434498	0.241840
680.637438	0.242376
680.840359	0.242862
681.043263	0.242883
681.246148	0.243128
681.449015	0.243575
681.651864	0.243945
681.854694	0.244515
682.057506	0.245018
682.260301	0.245791
682.463076	0.245721
682.665834	0.246044
682.868573	0.246924
683.071295	0.246924
683.273998	0.247012
683.476682	0.247167
683.679349	0.247423
683.881997	0.247453
684.084627	0.247143
684.287239	0.247500
684.489833	0.247671
684.692408	0.247729
684.894965	0.248425
685.097504	0.248861
685.300025	0.249415
685.502527	0.249487
685.705012	0.249709
685.907478	0.250251
686.109925	0.250449
686.312355	0.250563
686.514766	0.250628
686.717159	0.250534
686.919534	0.250509
687.121891	0.250377
687.324230	0.250395
687.526550	0.250565
687.728852	0.250559
687.931136	0.250475
688.133401	0.250859
688.335649	0.251498
688.537878	0.251715
688.740089	0.252077
688.942281	0.252332
689.144456	0.252708
689.346612	0.252997
689.548750	0.253324
689.750870	0.253677
689.952971	0.253813
690.155055	0.253727
690.357120	0.254276
690.559167	0.254168
690.761195	0.254144
690.963206	0.254217
691.165198	0.254513
691.367172	0.254825
691.569128	0.255232
691.771065	0.255491
691.972984	0.255566
692.174885	0.255578
692.376768	0.255861
692.578633	0.256135
692.780479	0.256585
692.982308	0.256864
693.184118	0.257224
693.385909	0.257464
693.587683	0.257512
