sample name	sample
index	335
start time	 03-01-2021  10:34:24 AM


Wavelength (nm)	Absorbance
494.344910	0.117146
494.563924	0.117146
494.782919	0.117146
495.001897	-0.178371
495.220856	-0.003574
495.439797	-0.016803
495.658719	-0.037017
495.877624	-0.055688
496.096510	-0.044874
496.315378	-0.050027
496.534227	-0.083287
496.753059	-0.071662
496.971872	-0.051296
497.190667	0.112058
497.409444	0.149131
497.628203	0.158284
497.846943	0.162707
498.065665	0.165302
498.284369	0.166891
498.503055	0.168505
498.721723	0.169016
498.940372	0.171430
499.159003	0.170881
499.377616	0.170872
499.596210	0.170601
499.814787	0.170676
500.033345	0.171402
500.251885	0.171502
500.470406	0.171979
500.688910	0.171776
500.907395	0.170487
501.125862	0.170885
501.344311	0.170719
501.562742	0.170665
501.781154	0.170143
501.999548	0.170158
502.217924	0.169280
502.436282	0.168939
502.654621	0.169517
502.872942	0.169213
503.091245	0.168280
503.309530	0.168000
503.527797	0.168499
503.746045	0.168882
503.964275	0.168083
504.182487	0.167912
504.400681	0.168198
504.618856	0.168502
504.837013	0.169165
505.055152	0.169149
505.273273	0.169263
505.491376	0.168848
505.709460	0.168762
505.927526	0.169073
506.145574	0.169996
506.363604	0.169959
506.581615	0.169268
506.799608	0.169115
507.017583	0.169724
507.235540	0.170075
507.453478	0.170360
507.671399	0.170407
507.889301	0.170848
508.107185	0.171182
508.325050	0.170794
508.542898	0.170209
508.760727	0.170288
508.978538	0.169871
509.196330	0.169945
509.414105	0.169957
509.631861	0.169788
509.849599	0.169017
510.067319	0.168066
510.285021	0.167531
510.502704	0.168443
510.720369	0.167927
510.938016	0.169145
511.155645	0.169073
511.373255	0.169169
511.590848	0.169154
511.808422	0.169930
512.025977	0.170205
512.243515	0.170702
512.461034	0.171473
512.678536	0.171663
512.896018	0.170398
513.113483	0.169695
513.330930	0.170550
513.548358	0.170888
513.765768	0.170068
513.983160	0.170096
514.200533	0.170479
514.417889	0.170316
514.635226	0.171340
514.852545	0.172089
515.069845	0.172307
515.287128	0.171790
515.504392	0.172439
515.721638	0.173141
515.938866	0.172689
516.156075	0.172741
516.373267	0.172561
516.590440	0.171481
516.807594	0.170720
517.024731	0.170680
517.241850	0.171454
517.458950	0.171029
517.676032	0.171343
517.893095	0.173076
518.110141	0.172611
518.327168	0.172568
518.544177	0.173580
518.761168	0.173965
518.978141	0.174225
519.195095	0.173455
519.412031	0.173395
519.628949	0.173106
519.845849	0.172760
520.062731	0.173700
520.279594	0.174004
520.496439	0.172432
520.713266	0.172453
520.930074	0.173150
521.146865	0.173052
521.363637	0.172887
521.580391	0.173044
521.797127	0.172834
522.013844	0.172298
522.230543	0.172457
522.447224	0.173959
522.663887	0.174334
522.880532	0.173909
523.097158	0.174262
523.313766	0.174984
523.530356	0.174593
523.746928	0.174663
523.963481	0.174681
524.180017	0.174769
524.396534	0.175331
524.613032	0.175945
524.829513	0.176030
525.045975	0.175666
525.262420	0.175895
525.478845	0.177032
525.695253	0.177671
525.911643	0.177754
526.128014	0.177454
526.344367	0.176814
526.560702	0.176473
526.777018	0.176560
526.993316	0.177354
527.209597	0.177314
527.425858	0.177338
527.642102	0.176764
527.858328	0.177631
528.074535	0.178393
528.290724	0.179066
528.506894	0.179556
528.723047	0.180489
528.939181	0.180605
529.155297	0.180653
529.371395	0.180909
529.587475	0.181952
529.803536	0.181811
530.019579	0.181842
530.235604	0.181868
530.451611	0.182001
530.667600	0.181895
530.883570	0.182805
531.099522	0.183519
531.315456	0.183845
531.531372	0.183484
531.747269	0.184265
531.963148	0.184251
532.179009	0.184556
532.394852	0.184615
532.610676	0.184999
532.826482	0.183751
533.042271	0.183511
533.258040	0.183763
533.473792	0.184391
533.689525	0.184224
533.905240	0.184768
534.120937	0.184935
534.336616	0.184890
534.552277	0.184669
534.767919	0.185531
534.983543	0.185796
535.199149	0.185879
535.414736	0.186373
535.630306	0.186587
535.845857	0.186650
536.061390	0.186867
536.276904	0.187547
536.492401	0.188830
536.707879	0.189076
536.923339	0.189784
537.138781	0.189858
537.354204	0.189965
537.569610	0.190323
537.784997	0.190071
538.000366	0.190584
538.215716	0.191101
538.431049	0.191108
538.646363	0.191566
538.861659	0.191581
539.076937	0.191858
539.292196	0.191892
539.507438	0.191790
539.722661	0.192490
539.937866	0.192745
540.153052	0.192467
540.368221	0.192320
540.583371	0.192913
540.798503	0.192975
541.013617	0.193130
541.228712	0.193316
541.443789	0.193404
541.658848	0.193881
541.873889	0.193593
542.088912	0.194161
542.303916	0.194556
542.518902	0.194563
542.733870	0.194976
542.948820	0.195041
543.163752	0.195449
543.378665	0.196188
543.593560	0.196372
543.808437	0.197078
544.023295	0.197484
544.238136	0.197573
544.452958	0.197603
544.667762	0.198136
544.882548	0.198869
545.097315	0.199331
545.312064	0.199245
545.526795	0.199099
545.741508	0.199043
545.956203	0.199252
546.170879	0.199272
546.385537	0.199726
546.600177	0.198907
546.814799	0.198963
547.029402	0.198934
547.243988	0.199220
547.458555	0.199800
547.673103	0.200217
547.887634	0.200736
548.102146	0.201085
548.316640	0.201333
548.531116	0.202490
548.745574	0.202403
548.960013	0.202134
549.174435	0.202113
549.388838	0.202273
549.603222	0.202134
549.817589	0.201526
550.031937	0.201629
550.246267	0.201705
550.460579	0.202009
550.674873	0.201985
550.889148	0.202672
551.103405	0.203393
551.317644	0.203509
551.531865	0.203635
551.746068	0.204081
551.960252	0.204102
552.174418	0.204203
552.388566	0.203981
552.602696	0.204327
552.816807	0.204146
553.030900	0.204093
553.244975	0.203880
553.459032	0.203885
553.673070	0.203822
553.887091	0.204028
554.101093	0.204181
554.315077	0.204797
554.529042	0.205447
554.742990	0.205941
554.956919	0.205943
555.170830	0.205961
555.384722	0.206940
555.598597	0.207474
555.812453	0.207889
556.026291	0.208314
556.240111	0.208313
556.453913	0.208308
556.667696	0.208513
556.881461	0.209015
557.095208	0.209999
557.308937	0.209603
557.522647	0.209795
557.736339	0.209952
557.950013	0.209841
558.163669	0.209929
558.377307	0.209942
558.590926	0.209947
558.804527	0.210042
559.018110	0.209838
559.231675	0.210195
559.445221	0.210518
559.658749	0.210886
559.872259	0.210863
560.085751	0.210848
560.299225	0.211536
560.512680	0.211947
560.726117	0.212303
560.939536	0.212922
561.152937	0.213168
561.366319	0.212814
561.579683	0.212885
561.793029	0.213769
562.006357	0.213975
562.219667	0.213899
562.432958	0.213648
562.646231	0.213193
562.859486	0.213156
563.072723	0.213269
563.285941	0.213871
563.499141	0.213830
563.712323	0.213510
563.925487	0.213618
564.138632	0.213969
564.351760	0.214908
564.564869	0.215480
564.777960	0.215227
564.991032	0.215616
565.204087	0.215730
565.417123	0.216013
565.630141	0.216257
565.843140	0.216717
566.056122	0.216690
566.269085	0.216400
566.482030	0.216503
566.694957	0.216688
566.907866	0.216683
567.120756	0.216707
567.333628	0.217100
567.546482	0.217223
567.759318	0.217470
567.972135	0.217653
568.184935	0.218071
568.397716	0.218421
568.610478	0.218818
568.823223	0.219064
569.035949	0.219406
569.248657	0.219328
569.461347	0.219717
569.674019	0.219642
569.886672	0.219482
570.099308	0.219538
570.311925	0.219640
570.524523	0.220103
570.737104	0.220073
570.949666	0.220149
571.162210	0.219970
571.374736	0.220120
571.587244	0.220734
571.799733	0.220815
572.012205	0.221112
572.224658	0.221635
572.437092	0.221420
572.649509	0.221763
572.861907	0.221843
573.074287	0.222492
573.286649	0.222717
573.498993	0.222275
573.711318	0.222951
573.923625	0.222597
574.135914	0.222338
574.348185	0.222711
574.560438	0.223006
574.772672	0.223165
574.984888	0.222954
575.197086	0.222757
575.409266	0.223290
575.621427	0.223436
575.833570	0.223641
576.045695	0.223927
576.257802	0.224026
576.469890	0.223772
576.681961	0.223967
576.894013	0.224546
577.106046	0.224705
577.318062	0.224666
577.530059	0.224593
577.742039	0.224544
577.954000	0.224656
578.165942	0.225091
578.377867	0.225309
578.589773	0.225372
578.801661	0.225376
579.013531	0.225751
579.225382	0.225947
579.437216	0.226085
579.649031	0.226275
579.860828	0.226077
580.072606	0.226078
580.284367	0.226624
580.496109	0.227095
580.707833	0.226786
580.919539	0.226997
581.131227	0.226929
581.342896	0.227152
581.554547	0.227224
581.766180	0.227579
581.977795	0.228089
582.189391	0.228347
582.400969	0.228298
582.612529	0.228996
582.824071	0.229255
583.035595	0.229596
583.247100	0.229626
583.458587	0.230104
583.670056	0.230412
583.881506	0.230276
584.092939	0.230185
584.304353	0.230088
584.515749	0.230297
584.727127	0.230414
584.938486	0.230348
585.149828	0.231054
585.361151	0.231211
585.572456	0.231279
585.783742	0.231131
585.995011	0.231013
586.206261	0.231106
586.417493	0.231332
586.628706	0.231688
586.839902	0.231818
587.051079	0.231584
587.262238	0.231821
587.473379	0.231957
587.684502	0.232149
587.895606	0.232484
588.106692	0.233184
588.317760	0.233191
588.528810	0.233079
588.739841	0.233514
588.950855	0.233567
589.161850	0.233816
589.372827	0.234099
589.583785	0.234354
589.794726	0.234401
590.005648	0.234637
590.216552	0.235031
590.427437	0.235140
590.638305	0.235402
590.849154	0.235397
591.059985	0.235254
591.270798	0.235448
591.481592	0.235865
591.692369	0.236175
591.903127	0.236444
592.113867	0.236201
592.324588	0.236375
592.535292	0.236520
592.745977	0.236758
592.956644	0.237168
593.167293	0.237225
593.377923	0.237224
593.588536	0.237669
593.799130	0.237553
594.009706	0.237740
594.220263	0.237838
594.430803	0.237991
594.641324	0.238278
594.851827	0.238276
595.062312	0.238543
595.272778	0.238710
595.483227	0.238519
595.693657	0.238404
595.904069	0.238440
596.114462	0.238702
596.324838	0.238738
596.535195	0.238896
596.745534	0.239227
596.955855	0.239287
597.166157	0.239478
597.376441	0.239844
597.586707	0.240359
597.796955	0.241075
598.007185	0.241098
598.217396	0.241304
598.427589	0.241782
598.637764	0.242217
598.847921	0.242225
599.058060	0.242145
599.268180	0.242304
599.478282	0.242281
599.688366	0.241893
599.898431	0.242014
600.108479	0.242212
600.318508	0.242174
600.528519	0.242148
600.738511	0.242268
600.948486	0.242206
601.158442	0.242390
601.368380	0.242458
601.578300	0.242760
601.788202	0.243120
601.998085	0.243325
602.207950	0.243312
602.417797	0.243544
602.627626	0.244176
602.837436	0.244611
603.047228	0.244554
603.257002	0.244543
603.466758	0.244439
603.676496	0.244241
603.886215	0.243984
604.095916	0.244256
604.305599	0.244258
604.515264	0.244232
604.724910	0.244480
604.934538	0.244516
605.144148	0.244994
605.353740	0.245305
605.563314	0.245660
605.772869	0.245977
605.982406	0.246003
606.191925	0.246199
606.401425	0.246273
606.610908	0.246238
606.820372	0.246405
607.029818	0.246396
607.239246	0.246710
607.448655	0.246791
607.658047	0.247143
607.867420	0.247396
608.076775	0.247291
608.286111	0.247113
608.495430	0.247586
608.704730	0.247573
608.914012	0.247860
609.123275	0.247838
609.332521	0.248009
609.541748	0.247980
609.750957	0.248448
609.960148	0.248722
610.169321	0.249256
610.378475	0.249211
610.587611	0.249442
610.796729	0.249569
611.005829	0.249792
611.214910	0.249864
611.423974	0.249984
611.633019	0.249950
611.842045	0.250034
612.051054	0.250442
612.260044	0.250286
612.469017	0.250258
612.677970	0.250251
612.886906	0.250279
613.095824	0.250750
613.304723	0.250901
613.513604	0.250650
613.722467	0.250758
613.931311	0.250762
614.140138	0.251310
614.348946	0.251785
614.557736	0.251973
614.766507	0.252121
614.975261	0.252048
615.183996	0.252376
615.392713	0.252728
615.601412	0.252662
615.810092	0.252629
616.018754	0.252693
616.227399	0.253282
616.436024	0.253574
616.644632	0.253942
616.853222	0.254174
617.061793	0.254222
617.270346	0.254358
617.478880	0.254839
617.687397	0.255071
617.895895	0.255253
618.104375	0.254772
618.312837	0.254672
618.521281	0.254321
618.729706	0.254470
618.938113	0.254281
619.146502	0.254401
619.354873	0.254465
619.563226	0.254442
619.771560	0.254221
619.979876	0.254425
620.188174	0.254709
620.396453	0.255316
620.604715	0.255127
620.812958	0.255577
621.021183	0.255771
621.229390	0.256158
621.437578	0.256208
621.645748	0.256867
621.853900	0.257138
622.062034	0.257026
622.270150	0.257117
622.478247	0.257818
622.686326	0.257730
622.894387	0.257548
623.102430	0.257471
623.310454	0.257479
623.518461	0.257168
623.726449	0.257394
623.934418	0.257820
624.142370	0.257713
624.350303	0.257611
624.558218	0.258052
624.766115	0.258266
624.973994	0.258583
625.181855	0.259044
625.389697	0.259371
625.597521	0.259184
625.805327	0.259093
626.013114	0.259369
626.220883	0.259346
626.428634	0.259413
626.636367	0.259654
626.844082	0.259861
627.051778	0.259955
627.259457	0.259918
627.467117	0.260082
627.674758	0.260163
627.882382	0.260238
628.089987	0.260556
628.297574	0.260646
628.505143	0.260807
628.712694	0.260635
628.920226	0.260360
629.127740	0.260422
629.335236	0.260715
629.542714	0.260967
629.750174	0.261195
629.957615	0.261138
630.165038	0.261414
630.372443	0.261647
630.579829	0.261943
630.787198	0.262364
630.994548	0.262855
631.201880	0.262992
631.409194	0.263145
631.616489	0.263445
631.823766	0.263541
632.031025	0.263644
632.238266	0.263914
632.445489	0.264246
632.652693	0.264506
632.859879	0.264678
633.067047	0.264778
633.274197	0.265057
633.481329	0.265098
633.688442	0.265504
633.895537	0.265644
634.102614	0.265791
634.309672	0.265814
634.516713	0.265913
634.723735	0.265760
634.930739	0.266173
635.137724	0.266397
635.344692	0.266491
635.551641	0.266503
635.758572	0.266696
635.965485	0.266899
636.172379	0.267024
636.379256	0.267602
636.586114	0.268137
636.792954	0.268184
636.999775	0.268087
637.206579	0.268307
637.413364	0.268651
637.620131	0.268935
637.826880	0.269196
638.033610	0.269424
638.240323	0.269212
638.447017	0.269260
638.653692	0.269561
638.860350	0.269810
639.066990	0.270158
639.273611	0.270198
639.480214	0.270292
639.686798	0.270252
639.893365	0.270277
640.099913	0.270358
640.306443	0.270335
640.512955	0.270357
640.719449	0.270779
640.925924	0.270661
641.132381	0.270643
641.338820	0.270836
641.545241	0.271110
641.751644	0.271242
641.958028	0.271582
642.164394	0.271858
642.370742	0.271987
642.577071	0.271886
642.783383	0.272114
642.989676	0.272575
643.195951	0.272515
643.402207	0.272589
643.608446	0.272745
643.814666	0.272852
644.020868	0.272981
644.227052	0.273067
644.433218	0.273278
644.639365	0.273449
644.845494	0.273543
645.051605	0.273849
645.257698	0.273861
645.463772	0.273898
645.669828	0.274090
645.875866	0.274390
646.081886	0.274746
646.287888	0.274913
646.493871	0.275143
646.699836	0.275189
646.905783	0.275185
647.111712	0.275334
647.317622	0.275668
647.523514	0.275735
647.729388	0.275767
647.935244	0.275880
648.141082	0.276103
648.346901	0.276283
648.552702	0.276614
648.758485	0.276912
648.964250	0.277329
649.169996	0.277365
649.375724	0.277519
649.581434	0.277733
649.787126	0.277873
649.992800	0.278038
650.198455	0.278194
650.404092	0.278533
650.609711	0.278837
650.815311	0.278719
651.020894	0.279112
651.226458	0.279458
651.432004	0.279610
651.637532	0.279699
651.843041	0.279790
652.048532	0.279829
652.254006	0.279518
652.459460	0.279352
652.664897	0.279777
652.870315	0.279751
653.075716	0.279848
653.281097	0.280056
653.486461	0.280111
653.691807	0.280450
653.897134	0.280798
654.102443	0.281141
654.307734	0.281377
654.513006	0.281500
654.718261	0.281767
654.923497	0.282029
655.128715	0.282135
655.333915	0.282666
655.539096	0.282606
655.744259	0.282727
655.949404	0.283046
656.154531	0.283288
656.359640	0.283435
656.564730	0.284012
656.769802	0.284312
656.974856	0.284690
657.179892	0.284704
657.384909	0.284980
657.589908	0.284829
657.794889	0.285174
657.999852	0.285427
658.204797	0.285781
658.409723	0.285561
658.614631	0.285572
658.819521	0.285833
659.024393	0.286222
659.229246	0.286427
659.434081	0.286973
659.638898	0.286992
659.843697	0.287164
660.048478	0.287179
660.253240	0.287559
660.457984	0.287694
660.662710	0.287721
660.867417	0.287825
661.072107	0.288086
661.276778	0.288274
661.481431	0.288314
661.686066	0.288421
661.890682	0.288632
662.095281	0.288817
662.299861	0.289152
662.504422	0.289310
662.708966	0.289194
662.913491	0.289595
663.117999	0.289743
663.322488	0.289865
663.526958	0.290057
663.731411	0.290188
663.935845	0.290244
664.140261	0.290230
664.344659	0.290721
664.549038	0.291078
664.753400	0.290965
664.957743	0.291344
665.162068	0.291696
665.366375	0.292097
665.570663	0.292434
665.774933	0.292648
665.979185	0.293069
666.183419	0.293175
666.387635	0.293443
666.591832	0.293667
666.796011	0.293854
667.000172	0.294096
667.204315	0.294212
667.408439	0.294450
667.612545	0.294532
667.816634	0.294785
668.020703	0.294885
668.224755	0.295222
668.428788	0.295536
668.632803	0.295735
668.836800	0.296095
669.040779	0.296496
669.244739	0.296698
669.448681	0.297095
669.652605	0.297086
669.856511	0.297231
670.060399	0.297371
670.264268	0.297606
670.468119	0.297766
670.671952	0.297908
670.875767	0.298067
671.079563	0.298113
671.283341	0.298237
671.487101	0.298444
671.690843	0.298733
671.894567	0.298791
672.098272	0.298915
672.301959	0.299015
672.505628	0.299020
672.709278	0.299030
672.912911	0.299203
673.116525	0.299157
673.320121	0.299213
673.523699	0.299283
673.727258	0.299539
673.930799	0.299798
674.134322	0.300107
674.337827	0.300250
674.541314	0.300630
674.744782	0.300881
674.948232	0.301305
675.151664	0.301690
675.355078	0.301658
675.558474	0.301698
675.761851	0.301801
675.965210	0.301965
676.168551	0.302014
676.371873	0.302168
676.575178	0.302382
676.778464	0.302521
676.981732	0.302727
677.184981	0.303123
677.388213	0.303398
677.591426	0.303652
677.794621	0.303963
677.997798	0.304608
678.200956	0.304891
678.404097	0.305116
678.607219	0.305408
678.810323	0.305705
679.013408	0.305862
679.216476	0.306142
679.419525	0.306264
679.622556	0.306071
679.825569	0.306188
680.028563	0.306001
680.231540	0.306208
680.434498	0.306273
680.637438	0.306164
680.840359	0.306449
681.043263	0.306596
681.246148	0.306815
681.449015	0.307273
681.651864	0.307487
681.854694	0.308050
682.057506	0.308203
682.260301	0.308432
682.463076	0.308609
682.665834	0.308684
682.868573	0.308963
683.071295	0.309049
683.273998	0.309188
683.476682	0.309145
683.679349	0.309088
683.881997	0.309068
684.084627	0.309192
684.287239	0.309387
684.489833	0.309323
684.692408	0.309416
684.894965	0.309407
685.097504	0.309758
685.300025	0.310057
685.502527	0.310239
685.705012	0.310420
685.907478	0.310584
686.109925	0.310666
686.312355	0.310943
686.514766	0.311015
686.717159	0.311462
686.919534	0.311391
687.121891	0.311328
687.324230	0.311544
687.526550	0.311653
687.728852	0.311839
687.931136	0.312080
688.133401	0.312504
688.335649	0.312905
688.537878	0.313056
688.740089	0.313303
688.942281	0.313593
689.144456	0.313730
689.346612	0.314044
689.548750	0.314187
689.750870	0.314510
689.952971	0.314563
690.155055	0.314751
690.357120	0.314887
690.559167	0.315204
690.761195	0.315387
690.963206	0.315566
691.165198	0.315595
691.367172	0.315799
691.569128	0.315678
691.771065	0.316130
691.972984	0.316060
692.174885	0.316367
692.376768	0.316189
692.578633	0.316231
692.780479	0.316351
692.982308	0.316606
693.184118	0.316779
693.385909	0.317095
