sample name	sample
index	1504
start time	 05-18-2021  02:37:31 PM
880	0.377441
Peak Time (s)	92.037
Peak Height 	0.3774
calc peak height	90,93
Baseline Time (s)	9.039
Baseline Value 	-0.002968
subtract baseline	10,4
Abs	0.249267
Peak Time (s)	91.036
Peak Height 	0.2493
calc peak height	90,93
Baseline Time (s)	10.537
Baseline Value 	0.002679
subtract baseline	10,3
PK_550	0.148940
Peak Time (s)	91.036
Peak Height 	0.1489
calc peak height	90,93
Baseline Time (s)	8.535
Baseline Value 	1.4395E-4
subtract baseline	10,2
PK_880	0.250156
Peak Time (s)	92.537
Peak Height 	0.2502
calc peak height	90,93
Baseline Time (s)	10.036
Baseline Value 	2.6824E-4
subtract baseline	10,1


Time (s)	A880-A510	A880-A775	A880-A975	A880	I510	I775	I975	I880	
0.035500	0.000559	0.000388	0.000045	0.002566	6593.479116	44090.365419	3990.978863	22820.781191
0.536000	-0.003015	-0.000552	-0.006083	0.006548	6531.067496	43627.325954	3967.014800	22639.602049
1.038500	-0.002259	-0.000700	-0.001305	0.003145	6565.290507	43932.891497	3986.361286	22794.325701
1.537000	0.000325	-0.000031	-0.004526	0.001002	6604.581195	44198.786168	3983.792355	22892.384037
2.037000	0.001885	0.000008	0.003705	0.000911	6618.408348	44211.169040	4003.802639	22896.586781
2.537000	-0.004714	-0.000055	-0.005213	0.006382	6518.542354	43689.391463	3969.444592	22647.131111
3.037000	0.002650	0.001028	0.005059	-0.001001	6640.924719	44490.195104	4011.758810	22984.468927
3.538000	-0.001536	0.000234	-0.003127	0.000572	6592.645447	44264.817936	3988.157182	22912.143339
4.035000	-0.000520	-0.000836	0.001552	-0.000094	6606.680017	44226.383547	4001.016574	22942.719393
4.535500	0.000908	-0.000322	-0.003526	0.000435	6614.203590	44224.952714	3987.529447	22918.405525
5.036000	0.001064	0.000104	0.002476	0.000329	6616.403353	44275.592525	4002.234104	22923.308152
5.536000	0.000742	0.000308	0.000447	0.000460	6612.603399	44282.459487	3997.009983	22917.279845
6.036500	0.000916	0.000105	-0.001143	0.000625	6612.679290	44247.462452	3992.784071	22909.681746
6.537000	0.000637	-0.000663	-0.004513	0.000012	6615.480650	44232.824731	3986.184054	22937.864081
7.037000	0.000196	0.000729	-0.002451	0.000474	6607.911424	44321.150482	3990.009504	22916.615242
7.534500	0.000157	-0.000073	-0.000662	0.000021	6611.378909	44287.916289	3995.394557	22937.428514
8.037500	0.000123	0.000180	0.002828	0.000159	6609.941617	44298.853550	4003.497749	22931.100179
8.535000	0.001113	0.000000	-0.003391	0.000147	6618.338831	44282.934466	3988.542839	22931.658115
9.038500	0.001057	0.000140	0.000364	0.000000	6619.103179	44310.226111	3997.919007	22938.415518
9.536000	-0.000746	-0.000173	0.000436	-0.000360	6607.015797	44314.677419	3998.963952	22954.974271
10.036000	0.000000	-0.000061	-0.001443	-0.000035	6610.535902	44294.465854	3993.651249	22940.021613
10.536500	0.000558	-0.000617	0.000000	-0.000531	6619.371072	44288.678911	3998.322171	22962.834731
11.036500	-0.000828	0.001402	-0.004545	0.000783	6596.777871	44355.789305	3984.268471	22902.428920
11.536500	-0.001124	0.000279	0.003382	0.000036	6600.546550	44320.058048	4005.142404	22936.778468
12.037500	0.000433	0.000396	-0.001191	-0.000048	6614.265400	44339.068945	3994.287849	22940.605631
12.538000	0.000923	0.000278	-0.000031	0.000085	6617.265580	44315.308185	3996.762724	22934.529071
13.035000	0.000086	-0.000023	0.001524	-0.000621	6616.164513	44353.760793	4002.226891	22966.965765
13.535000	-0.000375	0.000195	-0.005552	0.000390	6603.843922	44278.398032	3982.807297	22920.486803
14.038000	-0.000701	-0.000509	-0.000631	0.001045	6595.663266	44149.444457	3993.007523	22890.440977
14.536000	-0.000446	0.000342	-0.005273	0.002342	6586.975185	44107.189417	3978.834204	22831.010860
15.036000	0.000774	0.000266	-0.000337	0.000181	6615.216760	44305.018554	3995.794192	22930.107248
15.536500	0.000682	0.001233	-0.000542	0.000717	6609.953475	44346.048445	3994.010466	22905.494948
16.036000	-0.000096	0.000050	-0.003345	-0.000327	6612.180116	44332.773093	3989.786431	22953.450930
16.539500	-0.000662	0.000124	-0.002848	0.000427	6601.145035	44268.148282	3989.172450	22918.811099
17.037500	0.003942	0.000106	0.000483	-0.003393	6672.162224	44630.890018	4006.430855	23095.009070
17.537500	0.002280	0.001141	0.005181	0.001716	6614.964382	44242.296186	4005.432870	22859.673457
18.035000	0.000120	-0.000450	0.000499	0.000751	6604.969743	44182.884498	3996.434165	22903.923987
18.535500	0.000285	0.000616	-0.001082	0.001678	6598.599660	44196.049290	3990.404698	22861.395032
19.036000	0.001438	0.000422	-0.002064	0.001454	6610.109260	44198.924469	3988.589798	22871.678065
19.536000	0.000488	-0.000101	0.000851	0.000633	6609.034280	44227.155617	3997.567158	22909.336096
20.036500	-0.000691	0.000719	-0.002414	0.001345	6593.242400	44237.475936	3988.015341	22876.680562
20.537000	-0.000197	0.000037	-0.000796	0.001261	6598.052511	44180.676596	3992.090373	22880.504655
21.037000	-0.000967	0.000221	0.004711	0.001051	6593.392701	44218.112430	4005.906283	22890.158699
21.537500	-0.002134	0.000121	-0.001153	0.000933	6584.658472	44219.780057	3992.022758	22895.558504
22.037500	-0.000316	0.001183	-0.004570	0.001427	6595.686982	44273.742212	3982.677316	22872.920005
22.535000	-0.000525	0.000035	-0.000212	0.000753	6599.564558	44228.711494	3994.717160	22903.841867
23.035500	-0.000831	0.000124	-0.001370	0.001005	6594.901931	44213.220660	3991.328681	22892.252433
23.536000	-0.000143	0.000379	-0.002332	0.000761	6602.687715	44260.607487	3989.608217	22903.474070
24.036000	-0.001104	0.000088	-0.002260	0.001386	6589.460924	44173.681606	3988.285132	22874.809609
24.536500	-0.001276	0.000620	-0.000378	0.001146	6590.024872	44246.939060	3993.373109	22885.801941
25.036500	0.001822	0.000793	0.002887	0.001415	6613.654712	44237.841655	4000.598158	22873.471893
25.537000	-0.000292	0.000120	-0.005539	0.001042	6599.100513	44209.355916	3981.289095	22890.586024
26.037000	0.000862	0.000441	0.002689	0.000779	6610.937296	44264.764523	4001.657373	22902.615057
26.537000	0.000283	0.000907	0.001243	0.001659	6598.737312	44225.385304	3996.037164	22862.264064
27.035000	0.001265	0.000422	-0.003151	-0.000979	6629.070050	44430.317226	3991.814712	22983.464594
27.535000	0.003574	0.001463	0.005550	-0.000307	6642.872943	44465.519726	4011.263535	22952.546527
28.035500	0.001284	0.000638	0.002273	-0.000227	6622.912818	44379.218733	4003.087907	22948.860354
28.536000	0.000460	0.000172	-0.002846	0.000011	6614.006352	44312.249661	3990.173896	22937.925205
29.036000	-0.000503	0.000611	-0.002686	-0.000036	6606.339494	44358.508276	3990.670668	22940.085807
29.536500	0.001112	0.000440	-0.000084	0.000083	6618.862214	44330.881325	3996.637253	22934.590103
30.039500	-0.000500	0.000675	0.001677	0.000153	6604.778977	44346.541313	4000.722356	22931.385223
30.537000	-0.001596	0.000525	-0.000546	0.003515	6567.706877	44013.590264	3987.290159	22777.441173
31.037000	-0.000875	-0.000362	-0.000683	0.001920	6586.927358	44080.490251	3990.782093	22850.338116
31.537000	0.000813	0.000745	-0.001950	0.000245	6615.003365	44344.458694	3991.760472	22927.164820
32.038000	0.000492	-0.000280	-0.001906	-0.000293	6616.821695	44298.193194	3993.159211	22951.908426
32.535500	0.001753	0.000673	0.002736	0.001658	6611.032506	44203.303541	3999.642330	22862.308883
33.035500	-0.000115	0.000186	0.000213	-0.000010	6609.372234	44315.616573	3997.580464	22938.896085
33.538000	0.002030	0.000771	0.003613	-0.001205	6637.426254	44485.252466	4008.727362	22993.896651
34.038500	-0.000033	0.001494	-0.000513	0.002767	6586.884027	44176.113978	3989.160951	22811.613008
34.536000	-0.001508	0.000493	0.001545	0.001968	6581.268756	44156.900345	3996.021912	22848.152517
35.036500	-0.000226	0.000053	0.003208	0.001328	6597.265879	44175.937372	4001.586384	22877.472889
35.536500	0.000720	0.001036	0.000194	0.002002	6599.533282	44205.147078	3992.690910	22846.593981
36.037000	0.001413	0.000687	-0.002835	0.001911	6606.077926	44180.676230	3985.657829	22850.753710
36.538000	-0.001633	-0.000314	-0.006091	0.000941	6588.762635	44177.838624	3980.217778	22895.220340
37.038000	-0.002378	-0.000012	0.001158	0.001202	6580.401341	44181.642521	3996.934328	22883.230441
37.535500	-0.000071	0.000343	0.001795	0.001315	6598.661371	44204.554124	3998.197750	22878.034523
38.035500	-0.000487	0.000965	0.003060	0.001270	6595.561633	44267.833302	4001.366616	22880.089511
38.536000	0.000011	0.000566	-0.002812	0.001336	6599.172946	44223.745345	3987.084145	22877.095736
39.036000	-0.000105	0.000088	-0.002874	0.000997	6601.025911	44210.496855	3987.745756	22892.613402
39.536500	-0.000300	0.000999	-0.001184	0.001911	6591.790978	44210.368606	3989.603862	22850.765472
40.039500	0.001623	0.000450	0.000919	0.001252	6613.356779	44220.742522	3996.238755	22880.951800
40.537000	-0.000325	0.001161	0.000823	0.002154	6589.545116	44202.533248	3993.835402	22839.606786
41.042500	0.000697	0.000763	-0.003312	0.001597	6602.715927	44217.648804	3985.267438	22865.116728
41.535000	0.000132	0.000901	0.002992	0.001645	6597.605265	44226.202876	4000.294181	22862.927011
42.038000	-0.000090	0.000148	-0.003211	0.001184	6599.599835	44198.533500	3986.495175	22884.058651
42.535500	0.000436	0.000493	-0.005670	0.001342	6602.664246	44216.231320	3980.264359	22876.796944
43.035000	0.001781	0.000320	-0.003211	0.001265	6614.567977	44207.186192	3986.300281	22880.346975
43.536000	0.000854	0.000992	-0.000473	0.001251	6606.922464	44272.304256	3992.891812	22880.992172
44.039000	0.002586	0.000945	0.002211	0.000112	6631.003353	44376.160209	4002.114416	22933.245651
44.537000	0.001385	0.000423	0.000418	0.000543	6617.295966	44285.507245	3996.739658	22913.470737
45.040000	0.001637	0.000376	0.000558	0.000378	6620.794332	44296.688770	3997.474823	22921.046000
45.534500	-0.000301	0.001046	0.002416	0.000659	6602.219817	44333.732829	4001.286967	22908.133949
46.040500	0.000628	-0.000133	-0.001352	-0.000447	6619.251948	44326.698288	3994.859535	22958.960167
46.535000	-0.000970	0.000821	0.001061	0.000704	6596.258490	44308.034561	3997.902327	22906.061997
47.035500	-0.000052	-0.000215	-0.001234	0.000010	6609.727184	44275.559071	3994.046753	22937.968640
47.535500	0.000179	0.000988	-0.000983	0.002560	6590.370979	44147.800121	3988.530824	22821.082029
48.039000	0.000459	0.000544	0.002172	0.000553	6609.455191	44296.011898	4000.953313	22912.996814
48.536500	0.000749	0.000216	-0.002340	0.000700	6610.653692	44250.882301	3989.733395	22906.244169
49.036000	0.001217	0.001021	0.000231	0.000499	6616.261551	44346.564733	3996.395244	22915.487370
49.536500	0.002360	0.001121	0.004311	-0.002279	6649.283048	44621.436013	4013.057915	23043.490760
50.037000	0.003847	0.001120	0.000210	-0.000671	6648.256587	44467.524397	3999.166661	22969.282664
50.540500	0.001703	-0.000223	0.003924	0.003176	6597.937439	43974.958816	3998.847949	22792.924456
51.040000	-0.000855	-0.004742	0.019809	0.192098	5306.205043	29248.849045	3654.019322	15800.887603
51.535000	-0.003960	-0.017676	-0.011785	0.110291	5769.362738	33758.854119	3740.366258	18460.261195
52.035000	-0.018617	-0.031761	-0.026255	-0.137846	7758.684322	55721.728342	4303.930463	30397.355809
52.535500	-0.023679	-0.115750	-0.022865	-0.295975	9780.017692	65535.000000	4914.081446	42443.778642
53.039000	-0.012873	-0.084586	-0.010146	-0.260589	9405.573417	64930.016375	4814.177065	39355.098245
53.536500	-0.005854	-0.062547	-0.009919	-0.232245	9097.435481	64037.580405	4697.283760	37056.322977
54.038500	-0.002676	-0.033099	-0.006297	-0.176524	8399.767584	60454.834549	4499.709809	32952.008415
54.537000	-0.000607	-0.023827	0.003536	-0.153692	8146.521006	58688.709008	4453.998540	31416.522493
55.039500	0.009029	-0.022082	0.004454	-0.162576	8371.811788	60068.340019	4488.340149	32004.394428
55.534500	0.022054	-0.015740	0.019201	-0.140207	8256.948007	58000.933889	4461.570327	30546.865976
56.040500	0.026720	0.000135	0.032476	-0.068269	7498.998093	51340.709620	4270.526076	26337.346730
56.535000	0.045595	0.008866	0.045425	-0.037755	7379.370300	48976.211286	4218.165799	24751.975333
57.038000	0.066951	0.022533	0.062505	0.018724	7037.189545	44660.662869	4108.144438	22095.850904
57.536000	0.088334	0.034373	0.082160	0.074947	6724.039172	40613.991898	4014.583572	19773.520345
58.036000	0.107190	0.049973	0.106742	0.108911	6595.861542	39056.833586	3991.821546	18509.531971
58.536500	0.129171	0.062219	0.126688	0.131389	6591.724375	38217.371763	3985.763831	17725.753416
59.039500	0.145674	0.073829	0.147163	0.187428	6277.017635	34793.291891	3904.289768	15939.594134
59.537000	0.162579	0.084106	0.161234	0.234878	6052.755438	32185.621833	3833.661241	14597.327485
60.040000	0.174508	0.094710	0.180228	0.258230	5972.859847	31341.574779	3824.834364	13988.691312
60.535000	0.186192	0.103610	0.193042	0.279062	5910.373224	30573.624028	3808.821806	13472.675739
61.034500	0.194519	0.109031	0.199052	0.297781	5840.966306	29742.284438	3784.041655	13029.635258
61.534500	0.198723	0.113904	0.201522	0.310710	5783.971038	29250.903961	3764.185313	12734.615499
62.035500	0.210540	0.125152	0.210028	0.307672	5881.708664	30128.603351	3786.128686	12803.142961
62.536000	0.214617	0.129703	0.200762	0.309368	5897.691261	30307.551780	3765.278646	12764.833325
63.036000	0.218001	0.132521	0.212377	0.310220	5914.777889	30431.358352	3785.746265	12745.625490
63.536500	0.221071	0.135162	0.221155	0.312525	5919.962664	30452.585335	3798.301593	12693.892195
64.039500	0.225340	0.137101	0.220126	0.317157	5917.506916	30282.960869	3787.311651	12590.748458
64.540000	0.224619	0.138492	0.221815	0.322058	5879.652235	30063.354622	3781.137709	12482.789177
65.037000	0.228667	0.140361	0.216820	0.325629	5882.849999	29957.519633	3764.895175	12404.896054
65.535000	0.228338	0.141391	0.223348	0.329316	5856.086034	29793.145863	3770.248296	12325.152157
66.035000	0.231726	0.142558	0.225553	0.332673	5856.290930	29658.431895	3768.073198	12253.128729
66.535500	0.231843	0.143018	0.227819	0.334769	5843.187216	29558.210593	3768.393942	12208.430931
67.038500	0.235315	0.145245	0.233735	0.338835	5839.267396	29445.956723	3771.889112	12122.343843
67.536500	0.238042	0.145154	0.237457	0.340742	5844.682415	29324.583640	3775.333036	12082.246909
68.036000	0.235658	0.145765	0.232708	0.343402	5811.543622	29200.745794	3761.365818	12026.618591
68.536500	0.235739	0.146850	0.231473	0.344920	5802.175236	29174.660658	3756.234858	11995.026954
69.037000	0.237404	0.147234	0.232506	0.346985	5799.572547	29073.504249	3754.320635	11952.208594
69.537500	0.237110	0.145600	0.225175	0.346543	5800.536161	29002.092566	3741.655759	11961.364175
70.040000	0.237295	0.146359	0.236065	0.348610	5788.313547	28923.891248	3757.912495	11918.665955
70.534500	0.237737	0.147325	0.237747	0.348727	5790.420817	28974.616972	3760.830573	11916.255297
71.040000	0.241152	0.147376	0.236184	0.350060	5803.950630	28898.070884	3755.438687	11888.849946
71.535500	0.241000	0.147997	0.237832	0.350975	5797.010521	28880.536560	3756.799108	11870.078403
72.038500	0.243573	0.149838	0.233465	0.353136	5799.689843	28861.466995	3744.756338	11825.900850
72.536500	0.242792	0.150070	0.230999	0.353268	5793.754603	28867.457609	3740.014719	11823.216093
73.036500	0.243086	0.151377	0.236868	0.354595	5787.063810	28866.263441	3748.324305	11796.216865
73.537000	0.243769	0.150162	0.239474	0.354132	5794.489702	28821.528330	3753.989081	11805.618927
74.037000	0.244234	0.151154	0.240426	0.355069	5791.426181	28824.826797	3754.016503	11786.583756
74.537500	0.246127	0.152048	0.246870	0.355362	5801.824832	28860.586673	3765.491270	11780.641717
75.037500	0.243231	0.150762	0.242591	0.354214	5790.467459	28852.314989	3759.629655	11803.947286
75.535500	0.244781	0.150806	0.245234	0.354178	5800.770851	28857.119162	3764.643475	11804.698188
76.040500	0.246885	0.151352	0.241085	0.353459	5819.193780	28932.493421	3758.230760	11819.319602
76.536000	0.247279	0.152966	0.245381	0.355064	5811.278991	28933.033037	3763.257353	11786.682961
77.038500	0.248810	0.153476	0.244096	0.354972	5821.892173	28968.984553	3761.024865	11788.546636
77.537000	0.247958	0.153219	0.242697	0.354323	5820.565408	28992.447728	3759.623337	11801.731846
78.039500	0.249129	0.153709	0.241987	0.354698	5825.786350	28999.319725	3757.602733	11794.112995
78.537500	0.251495	0.155210	0.239864	0.355524	5835.911723	29039.763949	3752.135554	11777.352762
79.037500	0.250966	0.155283	0.250821	0.355351	5833.566304	29054.508806	3772.969225	11780.859443
79.535000	0.249759	0.154047	0.244633	0.354769	5829.464315	29015.353727	3762.409713	11792.683444
80.040500	0.248534	0.154060	0.244519	0.354082	5825.925781	29057.286151	3763.481029	11806.639651
80.535500	0.247556	0.153188	0.242159	0.354428	5817.244073	28984.342799	3758.426257	11799.602291
81.038000	0.247332	0.153065	0.243423	0.355287	5810.168635	28925.628638	3759.179755	11782.155739
81.536000	0.248535	0.153926	0.247170	0.356547	5809.794514	28901.826294	3763.829195	11756.625435
82.036500	0.248856	0.152028	0.240941	0.355857	5816.403635	28829.934250	3753.511158	11770.603393
82.536500	0.247424	0.152322	0.239063	0.357197	5798.326664	28767.794088	3747.575764	11743.492443
83.039500	0.247496	0.152232	0.244421	0.357362	5797.714444	28752.616110	3757.175385	11740.152804
83.540000	0.247581	0.151527	0.243611	0.357769	5795.629555	28686.860505	3754.915612	11731.953424
84.034500	0.244107	0.151527	0.244585	0.362638	5741.960810	28400.512677	3747.726247	11634.277444
84.537500	0.246868	0.150846	0.247363	0.359425	5780.279090	28548.996733	3758.811691	11698.596174
85.035500	0.245698	0.149670	0.247489	0.358456	5778.983848	28536.838754	3760.855671	11718.099493
85.535000	0.248308	0.150936	0.244614	0.360352	5783.602649	28499.870392	3751.992129	11680.003817
86.036000	0.246973	0.149379	0.243705	0.364640	5747.468469	28158.975346	3742.445630	11594.426327
86.536000	0.248721	0.150110	0.245530	0.362079	5775.111312	28350.387323	3750.494135	11645.423430
87.039000	0.247479	0.149890	0.242072	0.362974	5761.370624	28285.383884	3742.506120	11627.566876
87.536500	0.248108	0.148961	0.247001	0.362979	5765.374043	28231.091074	3751.546516	11627.470229
88.039000	0.244825	0.148270	0.250255	0.368102	5711.889393	27895.683702	3748.105070	11525.965015
88.537500	0.246989	0.148831	0.242070	0.365485	5742.177911	28078.435882	3737.929942	11577.661251
89.040500	0.248820	0.150335	0.246890	0.367345	5741.997669	28057.906023	3743.323102	11540.881096
89.535000	0.248148	0.148494	0.243136	0.366727	5741.655021	27987.491686	3737.612882	11553.094884
90.035500	0.247021	0.147851	0.241717	0.371072	5707.011297	27702.151349	3727.220688	11467.650503
90.536500	0.249689	0.148083	0.241872	0.368793	5738.310464	27845.400987	3731.593330	11512.364508
91.036000	0.249391	0.148940	0.249267	0.370748	5724.012350	27782.645787	3741.450279	11473.995496
91.536000	0.246136	0.147697	0.246826	0.370097	5707.579741	27748.897229	3738.192676	11486.756360
92.036500	0.246795	0.147706	0.245080	0.377441	5665.840271	27334.532930	3721.858099	11343.964972
92.536500	0.250156	0.148263	0.245504	0.371997	5720.949174	27673.022172	3732.363371	11449.577246
93.037000	0.250174	0.146912	0.248701	0.372105	5720.381817	27590.258822	3737.949927	11447.461011
93.578500	0.248394	0.148094	0.248394	0.373612	5699.682986	27571.901890	3734.664301	11418.101931
94.040500	0.251509	0.149079	0.246208	0.375155	5709.560328	27540.353305	3727.951430	11388.140180
94.535500	0.247368	0.147434	0.251643	0.374094	5690.239499	27507.377916	3739.684060	11408.744357
95.035500	0.249573	0.148887	0.250266	0.376251	5690.537580	27467.663410	3733.279384	11366.924282
95.536000	0.249562	0.147149	0.243628	0.375845	5693.009436	27392.773687	3722.114154	11374.780892
96.036000	0.250484	0.149300	0.246047	0.378208	5684.008599	27380.885076	3722.213856	11329.193853
