sample name	sample
index	1446
start time	 05-10-2021  01:14:56 PM
880	0.256420
Peak Time (s)	91.536
Peak Height 	0.2564
calc peak height	90,93
Baseline Time (s)	11.037
Baseline Value 	-0.004728
subtract baseline	10,4
Abs	0.173739
Peak Time (s)	90.535
Peak Height 	0.1737
calc peak height	90,93
Baseline Time (s)	8.535
Baseline Value 	0.00186
subtract baseline	10,3
PK_550	0.106142
Peak Time (s)	90.035
Peak Height 	0.1061
calc peak height	90,93
Baseline Time (s)	10.536
Baseline Value 	7.0379E-4
subtract baseline	10,2
PK_880	0.167197
Peak Time (s)	92.037
Peak Height 	0.1672
calc peak height	90,93
Baseline Time (s)	8.535
Baseline Value 	0.001006
subtract baseline	10,1


Time (s)	A880-A510	A880-A775	A880-A975	A880	I510	I775	I975	I880	
0.035000	-0.000237	-0.000278	-0.003632	0.002834	6465.928529	43885.046775	3930.372503	22569.843179
0.536000	-0.002823	-0.000891	-0.002439	0.003894	6435.703946	43727.630166	3930.714574	22521.778576
1.041500	-0.000940	-0.001730	-0.005182	0.002764	6460.663861	43754.974673	3926.580481	22573.022221
1.536500	-0.002221	-0.000472	-0.001124	0.005379	6428.417287	43627.571280	3930.275193	22454.641621
2.036500	0.002018	-0.000407	0.004098	0.001420	6496.600456	44006.280660	3954.099428	22634.096423
2.536500	0.000442	0.000047	-0.001020	0.001125	6485.855650	44077.190923	3941.521724	22647.526191
3.034500	0.001944	-0.000463	0.001643	-0.002036	6525.110269	44329.157833	3956.726973	22792.107703
3.534500	-0.002471	-0.000148	0.003188	0.004998	6429.496515	43693.685903	3942.390846	22471.840102
4.035000	0.002367	-0.000382	0.000280	-0.000008	6511.554566	44144.011239	3947.849453	22699.249617
4.535500	0.001441	-0.000351	0.003618	-0.000269	6505.947745	44171.694183	3957.274698	22711.169188
5.036000	0.001047	-0.000240	0.001179	-0.000162	6501.735921	44172.092203	3950.597804	22706.269503
5.539000	0.000328	-0.000974	0.000962	-0.001190	6504.336486	44199.987148	3952.722327	22753.321952
6.036000	-0.000757	-0.001506	-0.004589	-0.001018	6493.770982	44133.193181	3937.829628	22745.432170
6.536000	-0.001664	-0.000808	0.000310	-0.000384	6480.871819	44139.257915	3948.908462	22716.426889
7.036500	0.002015	0.000290	0.002809	0.000260	6506.330364	44182.351565	3953.760817	22687.006349
7.537500	0.000058	-0.000232	0.001315	0.003127	6465.944834	43861.785512	3942.385062	22556.532260
8.035000	0.000530	-0.000160	-0.001257	-0.000812	6502.855467	44241.426905	3945.938914	22736.013260
8.535000	0.000000	-0.000687	0.000000	-0.000822	6498.485685	44192.330922	3949.243769	22736.481103
9.035000	0.000732	-0.000278	0.002758	-0.000325	6500.450808	44183.913192	3955.161742	22713.713558
9.535500	0.001307	-0.000462	0.001982	-0.000672	6508.212282	44199.404465	3954.035428	22729.585841
10.038500	-0.000202	0.000256	-0.000893	0.000082	6489.197390	44195.994980	3944.559403	22695.105171
10.536000	-0.000694	0.000000	0.002622	0.000453	6481.979062	44136.467954	3952.764329	22678.185509
11.036500	0.001696	0.000091	-0.002193	0.000000	6505.833710	44188.136916	3941.397973	22698.870996
11.536500	-0.002627	0.000336	-0.000524	0.004250	6434.376539	43809.452604	3934.724247	22505.642787
12.034500	0.000377	-0.000599	-0.002609	-0.000790	6501.382750	44197.632395	3942.368090	22735.003152
12.537500	0.001382	0.000001	0.002689	-0.000205	6504.910167	44198.993171	3954.664505	22708.235093
13.037000	-0.000673	-0.000316	0.006680	-0.000209	6487.695571	44169.287226	3965.196595	22708.427278
13.535000	0.000699	-0.000084	0.000778	0.000351	6494.501882	44138.157736	3948.212870	22682.845962
14.035500	0.000471	-0.000367	0.002517	0.002180	6477.282838	43938.321785	3947.977868	22599.524155
14.535500	-0.000733	-0.000210	0.001009	0.001857	6469.927797	43983.662944	3944.889081	22614.202179
15.038000	-0.000475	0.000019	0.002603	0.000504	6483.383992	44133.491535	3952.582207	22675.872575
15.536000	-0.000519	-0.000363	-0.000656	0.004719	6447.937182	43699.760214	3933.178020	22484.469453
16.036500	0.001397	-0.000181	0.001397	0.000223	6501.436951	44141.107550	3950.159782	22688.664547
16.537000	-0.001145	-0.000441	-0.000618	-0.000554	6486.631857	44190.139299	3946.930066	22724.179177
17.037500	0.002747	-0.000214	0.002610	-0.003907	6547.799224	44531.626127	3964.209283	22878.150149
17.537500	0.001637	0.000111	0.001904	0.000842	6498.258604	44110.102463	3949.868491	22660.439953
18.035000	-0.001408	-0.000409	0.001086	0.000873	6472.512205	44057.948048	3947.654490	22659.037385
18.535500	0.000898	-0.000487	0.003000	0.000435	6495.466878	44092.049544	3953.803042	22679.007280
19.035500	0.002161	0.000493	0.001159	0.001363	6498.278516	44096.957941	3946.567544	22636.711510
19.536000	-0.000854	0.000567	-0.000176	0.002271	6465.476887	44017.961975	3940.738462	22595.373751
20.036000	0.000744	-0.000133	-0.002486	0.001089	6488.697624	44063.601744	3937.819937	22649.192386
20.536500	-0.002036	-0.000925	-0.000730	0.000394	6471.262616	44054.343627	3944.171267	22680.858261
21.036500	-0.000165	-0.000257	0.003707	0.000969	6482.086773	44063.205263	3954.257141	22654.642607
21.536500	0.001845	0.000785	-0.002146	0.002013	6490.177358	44063.042939	3936.312251	22607.133681
22.037000	0.000940	0.000551	-0.000654	0.000899	6491.923600	44146.391536	3943.058104	22657.832022
22.534500	0.000004	0.000213	0.002596	0.000937	6483.769032	44110.751192	3951.428179	22656.098776
23.035000	-0.000817	-0.000064	0.002288	0.000615	6479.592684	44115.025655	3951.466944	22670.784530
23.535000	-0.000996	-0.000590	-0.000159	0.000908	6475.651668	44037.465082	3944.320630	22657.431290
24.035500	-0.001184	0.000124	0.003386	0.001031	6473.062912	44093.395086	3953.251788	22651.829225
24.535500	-0.001089	-0.001013	0.002369	-0.000375	6485.600159	44118.907903	3954.272840	22716.010034
25.036000	0.000666	0.000257	-0.002531	0.001149	6487.537069	44094.866971	3937.548941	22646.469846
25.536500	-0.000647	0.000443	0.002481	0.001435	6474.163782	44085.394967	3949.827178	22633.409861
26.036500	0.000503	-0.000721	0.001042	0.000693	6489.988123	44045.462747	3948.007390	22667.242654
26.537000	-0.000249	-0.000870	0.000485	0.000307	6486.931963	44067.854033	3947.564032	22684.872493
27.037000	0.002613	0.000035	-0.002037	-0.001619	6527.232066	44336.793459	3946.008406	22772.950497
27.537500	0.000759	-0.000159	-0.003336	0.001303	6487.030039	44040.928583	3935.072189	22639.440818
28.035000	0.000954	0.000686	-0.000823	0.000072	6498.985995	44237.745213	3944.768275	22695.566637
28.535500	0.001406	0.000302	0.003676	0.000088	6502.648100	44199.766962	3956.487306	22694.840641
29.035500	0.000604	0.000141	0.001271	-0.000252	6498.764942	44216.803180	3951.075435	22710.387423
29.536000	-0.002983	0.000109	0.004411	0.000837	6459.691453	44110.406017	3956.449659	22660.656174
30.036500	0.002323	-0.000432	0.001643	-0.000511	6515.416825	44186.950366	3952.725787	22722.208507
30.536500	-0.001085	-0.000022	-0.001651	0.002268	6463.575699	43962.605370	3936.930363	22595.522081
31.037000	0.001034	-0.000589	-0.000778	0.001390	6488.592730	43991.902566	3941.461234	22635.454172
31.539000	0.000333	-0.000243	-0.000642	0.002309	6475.054863	43937.856456	3939.432884	22593.657201
32.037500	-0.000490	0.000008	0.005207	-0.000380	6490.657114	44216.340781	3961.752895	22716.235038
32.535000	0.002146	-0.000824	0.000858	-0.000344	6512.517290	44133.892996	3950.234542	22714.586470
33.038500	0.000463	0.000050	0.000788	-0.000394	6498.778233	44221.655840	3950.182625	22716.872896
33.535500	0.000713	0.000489	0.001248	0.001710	6483.231666	44063.661126	3945.892781	22620.888980
34.036000	0.001784	-0.000473	0.001692	-0.000433	6510.220193	44175.593845	3952.649754	22718.648347
34.536000	-0.000115	-0.000198	0.000454	0.001474	6478.286719	44021.029417	3944.444002	22631.665548
35.036500	0.000206	0.000205	-0.001857	0.001693	6479.142276	44038.468067	3937.884781	22621.689518
35.537000	0.000110	0.000162	-0.001130	0.001853	6477.000469	44019.253263	3939.351670	22614.403507
36.037000	-0.001275	-0.000476	-0.000388	0.001690	6466.811409	43974.343834	3941.695720	22621.821572
36.540000	-0.000869	-0.001094	0.009082	0.001144	6474.741564	43967.479051	3967.975965	22646.678818
37.034500	0.000245	-0.000667	0.000437	0.001214	6483.467393	44001.171431	3945.075712	22643.478421
37.534500	-0.002180	-0.000304	-0.001999	0.001998	6456.728824	43961.460990	3936.730959	22607.820212
38.035000	-0.000969	-0.000431	0.002194	0.001597	6470.128939	43987.313891	3948.653905	22626.028258
38.536000	0.000654	-0.000031	0.004011	0.001851	6481.557361	44001.090901	3952.742244	22614.479311
39.036500	-0.000198	0.000021	0.001654	0.001887	6474.142437	44002.648224	3946.490616	22612.848730
39.536000	-0.001369	-0.000129	-0.001966	0.002636	6458.164337	43917.749811	3935.168362	22578.833527
40.036500	-0.001129	-0.001001	0.003043	0.001130	6472.687457	43977.588504	3952.092871	22647.292251
40.537000	-0.000032	-0.000266	-0.002265	0.001371	6479.837601	44024.342240	3937.661484	22636.331622
41.037000	-0.001694	-0.000634	-0.001422	0.001602	6464.048883	43967.715734	3939.243997	22625.812189
41.535000	-0.001628	-0.000231	-0.002659	0.001625	6464.411788	44003.664558	3935.989028	22624.783278
42.035000	-0.002060	-0.001139	0.002014	0.000692	6468.588038	44005.952166	3950.547918	22667.289495
42.535500	-0.001346	-0.001198	0.003412	0.000869	6473.066371	43983.736974	3953.746460	22659.233481
43.035500	-0.001119	-0.000603	-0.001862	0.001301	6471.354121	43999.054442	3938.884711	22639.535059
43.536000	-0.000299	0.000430	-0.004497	0.002674	6466.747524	43966.916876	3928.564282	22577.100312
44.036500	0.003933	0.000466	0.004199	-0.001773	6539.736061	44392.603345	3962.768765	22780.014902
44.536500	0.000574	-0.001120	0.001111	-0.000709	6502.354071	44140.434267	3951.851397	22731.277966
45.036500	0.001008	-0.000793	0.001690	-0.000523	6504.445925	44153.884449	3952.881159	22722.800614
45.537000	-0.002985	-0.000746	0.001651	0.004883	6426.210162	43648.380304	3938.708150	22477.055360
46.037000	0.001787	-0.000244	0.002217	0.000336	6503.767745	44124.444265	3952.010228	22683.524909
46.537500	0.000333	-0.000115	0.003094	-0.000216	6496.193133	44189.066219	3955.758664	22708.762945
47.035000	-0.000638	-0.000320	0.002090	-0.000522	6490.612695	44198.600865	3953.925811	22722.731097
47.535500	-0.002279	-0.000675	0.001181	0.004001	6439.317038	43737.897109	3939.774285	22516.946574
48.036000	-0.000231	-0.000469	-0.000867	0.002189	6471.354961	43927.845111	3939.162783	22599.136957
48.539000	0.003067	0.000421	0.001732	0.000692	6511.555110	44153.808294	3949.811771	22667.294155
49.036500	0.000807	-0.000194	0.008606	-0.000116	6499.326666	44172.060928	3970.059107	22704.156880
49.537000	-0.001892	-0.000641	0.001108	0.004190	6440.945887	43723.195704	3939.093583	22508.353023
50.037000	0.002255	-0.000393	0.003144	-0.002797	6534.183835	44408.319162	3962.686191	22827.058568
50.534500	0.001041	-0.000066	0.003944	-0.001445	6512.489770	44310.682047	3961.232075	22765.016938
51.037500	0.002508	0.000507	0.002931	0.001679	6498.532277	44068.258442	3950.365728	22622.292242
51.535000	-0.004486	-0.013517	0.008321	0.009351	6377.403702	42064.143868	3944.417630	22276.249694
52.035000	0.005494	-0.022759	0.025879	0.163747	5379.633265	29781.520413	3639.240974	16466.720078
52.535500	-0.012766	-0.055247	-0.030661	-0.209781	8581.766730	61803.580060	4524.895448	35019.684773
53.035500	-0.018041	-0.124100	-0.035158	-0.305327	9905.916308	65535.000000	4923.654316	42933.963651
53.536000	-0.010073	-0.080338	-0.020237	-0.253581	9229.364348	64394.793982	4752.246707	38432.426725
54.039500	0.004559	-0.026661	0.001235	-0.143354	7969.054641	56891.754656	4394.224414	30458.210781
54.537000	-0.002043	-0.021268	-0.004021	-0.096994	7381.398072	52035.225101	4217.289532	27663.825049
55.037000	-0.011522	-0.021880	-0.007911	-0.124341	7571.700852	55152.402182	4295.097802	29275.995485
55.534500	-0.007762	-0.031611	-0.004740	-0.166040	8092.687434	59140.685820	4456.165444	31938.274708
56.034500	0.008494	-0.024044	0.015360	-0.146804	8056.841553	57650.711566	4459.432515	30678.348338
56.535000	0.020758	-0.011623	0.031323	-0.063179	7267.929981	49377.538198	4222.233258	25805.666519
57.035500	0.026738	-0.000744	0.040983	0.010859	6627.179337	43092.295511	4028.392785	22208.943085
57.535500	0.038508	0.007149	0.050649	0.050460	6392.741222	40265.177338	3947.591901	20522.521027
58.036000	0.048210	0.014500	0.069919	0.085289	6193.613352	37976.776187	3907.743763	19161.232169
58.539000	0.061124	0.025013	0.072437	0.107539	6122.503966	37042.593920	3859.216683	18347.016146
59.036500	0.074306	0.034179	0.087865	0.118617	6138.402223	36892.754416	3869.726601	17956.936457
59.536500	0.088647	0.044459	0.097246	0.128300	6173.851601	36939.473709	3868.992039	17624.011741
60.034500	0.097009	0.050886	0.107930	0.166495	5953.215738	34541.241154	3804.311901	16380.874836
60.535000	0.100080	0.051305	0.116774	0.168571	5960.329468	34420.870197	3819.845487	16316.385581
61.034500	0.109821	0.056442	0.120221	0.178150	5961.497830	34100.538391	3805.763762	16022.809212
61.535500	0.111749	0.060342	0.125938	0.185995	5919.396097	33818.804013	3800.921615	15787.140667
62.035500	0.115633	0.061164	0.133791	0.210508	5777.031028	32179.511633	3763.827611	15077.622823
62.536000	0.120757	0.068954	0.137279	0.230133	5680.921411	31393.412236	3729.229431	14537.742003
63.038500	0.125879	0.076228	0.141619	0.228076	5728.096304	32011.305548	3742.789217	14593.177441
63.536500	0.126992	0.077278	0.138600	0.224036	5762.441157	32354.075461	3744.972939	14702.844403
64.036500	0.131853	0.079114	0.139086	0.222525	5805.484318	32581.608876	3749.258806	14744.137345
64.537000	0.130368	0.081316	0.140256	0.221570	5801.880070	32797.925701	3753.839338	14770.303368
65.037000	0.132401	0.082910	0.146248	0.222125	5811.946598	32869.411285	3765.662048	14755.091504
65.534500	0.136664	0.084484	0.142672	0.222618	5837.764293	32943.990898	3756.799487	14741.597665
66.035000	0.140984	0.085136	0.140417	0.222362	5869.407244	33006.759135	3752.475836	14748.591681
66.535500	0.136789	0.084847	0.147008	0.221827	5844.071578	33023.836864	3767.980037	14763.245853
67.035500	0.140352	0.086825	0.146107	0.223551	5856.778444	33041.421048	3762.239985	14716.088539
67.536000	0.138472	0.087731	0.141194	0.229326	5804.246834	32705.828482	3739.218996	14559.460938
68.036000	0.142505	0.089657	0.147961	0.227250	5846.092730	32981.449254	3758.226405	14615.530147
68.536500	0.143335	0.090401	0.151049	0.228430	5843.679226	32951.264888	3762.378160	14583.629729
69.036500	0.143598	0.092887	0.151603	0.231824	5822.179928	32888.598697	3756.204510	14492.356261
69.534500	0.144680	0.093296	0.147589	0.238282	5785.613177	32474.345343	3733.787052	14320.618407
70.037500	0.146414	0.094122	0.151110	0.234376	5823.981014	32797.912590	3749.630038	14424.181016
70.534500	0.147205	0.095710	0.153003	0.237187	5810.188645	32713.939673	3747.656600	14349.572846
71.035000	0.148215	0.096199	0.158036	0.239118	5803.916588	32615.277746	3754.341447	14298.592378
71.535000	0.147342	0.095105	0.151225	0.243632	5767.504387	32234.522313	3730.169716	14180.289750
72.035500	0.152833	0.098189	0.161614	0.242698	5810.981206	32506.784632	3754.337092	14204.672325
72.536000	0.151510	0.098263	0.160853	0.243490	5796.604582	32457.982372	3750.984297	14184.004588
73.036500	0.151989	0.098557	0.153976	0.245748	5784.553514	32324.759222	3731.505953	14125.252279
73.536500	0.152724	0.098396	0.158725	0.250490	5757.607676	31994.909635	3731.522788	14002.910306
74.036500	0.156689	0.100032	0.165430	0.248212	5799.699478	32257.906148	3750.672952	14061.522831
74.537000	0.156285	0.099325	0.160358	0.248871	5792.494688	32165.888891	3738.409208	14044.537081
75.034500	0.155448	0.100185	0.166123	0.252093	5765.124530	32007.340737	3743.831149	13961.850519
75.538000	0.154414	0.098751	0.160982	0.253350	5749.785429	31827.787817	3730.250260	13929.760084
76.035500	0.158888	0.100303	0.164436	0.253212	5780.741949	31940.456242	3737.850449	13933.288120
76.536000	0.158680	0.099551	0.172285	0.253035	5780.532951	31902.048788	3755.058366	13937.800785
77.036000	0.160624	0.100638	0.163499	0.255561	5776.606511	31806.264805	3730.896327	13873.536144
77.536000	0.158711	0.100071	0.168987	0.258278	5745.581214	31588.792649	3736.757271	13804.848743
78.036000	0.160956	0.101737	0.167389	0.255424	5779.770183	31888.505386	3739.425457	13877.007777
78.536500	0.162281	0.100671	0.169880	0.254258	5796.622418	31895.176772	3747.241042	13906.643034
79.037000	0.161930	0.102918	0.170255	0.258018	5768.867220	31794.514257	3740.005028	13811.405810
79.534500	0.161997	0.101613	0.169690	0.253956	5796.744605	31978.223938	3747.481175	13914.323277
80.035000	0.166770	0.103268	0.164988	0.254240	5827.353833	32070.052870	3736.839467	13907.096977
80.537500	0.164569	0.103923	0.170890	0.253670	5816.199727	32152.381323	3750.676033	13921.614129
81.035500	0.163208	0.103413	0.172150	0.252926	5811.981035	32168.073575	3755.001492	13940.567211
81.536000	0.163622	0.105291	0.167791	0.253939	5807.905036	32226.340149	3743.449933	13914.758094
82.036000	0.166289	0.105108	0.169799	0.252964	5832.811886	32279.831427	3749.847396	13939.603006
82.536000	0.166128	0.105564	0.171402	0.252264	5836.508280	32358.011798	3754.816289	13957.468794
83.036500	0.163230	0.105652	0.168180	0.255985	5791.344360	32112.913846	3739.914191	13862.783581
83.537000	0.165692	0.104513	0.168037	0.251445	5839.154449	32342.347965	3749.324545	13978.444168
84.037000	0.169606	0.107261	0.173024	0.252470	5859.099307	32459.186445	3757.884626	13952.227485
84.534500	0.165213	0.106079	0.174439	0.251551	5835.127907	32441.348548	3762.963669	13975.722292
85.037500	0.168188	0.106632	0.169133	0.251257	5857.676689	32498.922741	3752.090178	13983.241785
85.535000	0.168388	0.106210	0.168516	0.250328	5865.505804	32533.462192	3752.764941	14007.078728
86.035500	0.166236	0.106006	0.168880	0.250313	5850.704267	32520.511067	3753.580805	14007.442584
86.535500	0.165414	0.106018	0.172498	0.250059	5846.779804	32538.672770	3761.984154	14013.977510
87.036000	0.163829	0.104946	0.171910	0.253120	5814.895739	32258.309990	3754.063978	13935.626709
87.536500	0.166620	0.105028	0.171294	0.249329	5860.166974	32520.938421	3760.951913	14032.743791
88.036000	0.167151	0.105918	0.169116	0.249365	5863.602838	32579.171139	3756.142523	14031.813818
88.534000	0.168425	0.106170	0.172912	0.249944	5868.427969	32556.864850	3763.140523	14016.938528
89.037000	0.163878	0.105777	0.170600	0.254263	5807.439658	32237.285705	3748.775857	13906.501172
89.534500	0.165956	0.104797	0.168187	0.254228	5821.861441	32173.614679	3743.679014	13907.405728
90.035000	0.164559	0.106142	0.171549	0.251154	5833.360320	32472.565197	3757.538939	13985.887285
90.535500	0.166932	0.105153	0.173739	0.250313	5855.517491	32462.505256	3764.139938	14007.456539
91.035000	0.163568	0.105474	0.172718	0.255924	5794.048534	32105.086086	3749.758280	13864.332852
91.536000	0.162325	0.105069	0.167451	0.256420	5782.284431	32044.585261	3737.439178	13851.761226
92.036500	0.167197	0.105085	0.166989	0.251412	5849.748461	32383.293608	3747.142992	13979.271446
92.536500	0.166126	0.103672	0.171703	0.251909	5838.942882	32254.101280	3756.236442	13966.563671
93.036500	0.163141	0.102998	0.174525	0.257079	5783.348788	31862.267246	3751.162735	13835.103298
93.537000	0.165557	0.102953	0.173175	0.256672	5802.477122	31886.383545	3749.133714	13845.401881
94.034500	0.165775	0.103190	0.173165	0.253368	5826.514532	32123.375231	3756.244481	13929.310228
94.535000	0.164832	0.102626	0.172451	0.253231	5820.994027	32094.662971	3754.994503	13932.797417
95.034000	0.162376	0.101331	0.169068	0.258898	5765.953801	31631.071933	3735.615706	13789.235514
95.535500	0.162140	0.101539	0.168693	0.258902	5764.333352	31644.477711	3734.811341	13789.118109
96.035000	0.166896	0.101998	0.170708	0.256365	5813.684095	31843.179938	3744.498475	13853.157148
96.536000	0.161190	0.099992	0.175766	0.255683	5779.606048	31755.282749	3756.863798	13870.452817
