sample name	sample
index	1039
start time	 04-19-2021  02:03:23 PM


Wavelength (nm)	Absorbance
494.344910	-0.326783
494.563924	-0.326783
494.782919	-0.326783
495.001897	0.011239
495.220856	-0.244230
495.439797	-0.190812
495.658719	-0.125470
495.877624	-0.115292
496.096510	-0.123997
496.315378	-0.112132
496.534227	-0.128275
496.753059	-0.032785
496.971872	-0.011782
497.190667	0.073355
497.409444	0.086698
497.628203	0.085115
497.846943	0.088372
498.065665	0.090826
498.284369	0.092402
498.503055	0.092423
498.721723	0.091302
498.940372	0.091417
499.159003	0.092255
499.377616	0.090657
499.596210	0.090985
499.814787	0.091043
500.033345	0.090030
500.251885	0.090089
500.470406	0.089934
500.688910	0.090467
500.907395	0.090564
501.125862	0.089657
501.344311	0.091094
501.562742	0.090141
501.781154	0.089209
501.999548	0.089718
502.217924	0.088582
502.436282	0.088221
502.654621	0.088812
502.872942	0.089811
503.091245	0.088906
503.309530	0.087777
503.527797	0.087880
503.746045	0.088130
503.964275	0.087585
504.182487	0.087369
504.400681	0.087362
504.618856	0.086514
504.837013	0.085520
505.055152	0.085980
505.273273	0.086515
505.491376	0.087655
505.709460	0.087938
505.927526	0.088099
506.145574	0.088418
506.363604	0.088252
506.581615	0.089175
506.799608	0.088783
507.017583	0.089286
507.235540	0.089199
507.453478	0.089116
507.671399	0.089517
507.889301	0.088814
508.107185	0.089492
508.325050	0.089850
508.542898	0.089356
508.760727	0.089570
508.978538	0.089278
509.196330	0.090199
509.414105	0.089727
509.631861	0.089381
509.849599	0.090374
510.067319	0.090756
510.285021	0.090571
510.502704	0.090332
510.720369	0.090397
510.938016	0.090661
511.155645	0.089704
511.373255	0.089993
511.590848	0.090199
511.808422	0.090333
512.025977	0.089756
512.243515	0.089897
512.461034	0.090346
512.678536	0.090376
512.896018	0.090712
513.113483	0.090929
513.330930	0.091426
513.548358	0.091328
513.765768	0.091528
513.983160	0.091805
514.200533	0.092074
514.417889	0.092405
514.635226	0.092477
514.852545	0.092219
515.069845	0.093125
515.287128	0.092894
515.504392	0.092670
515.721638	0.091937
515.938866	0.091736
516.156075	0.091894
516.373267	0.090699
516.590440	0.090897
516.807594	0.090837
517.024731	0.090443
517.241850	0.090163
517.458950	0.090274
517.676032	0.090866
517.893095	0.090334
518.110141	0.090080
518.327168	0.091865
518.544177	0.091283
518.761168	0.092474
518.978141	0.091923
519.195095	0.092443
519.412031	0.092926
519.628949	0.093182
519.845849	0.093667
520.062731	0.093513
520.279594	0.092290
520.496439	0.092308
520.713266	0.091740
520.930074	0.092135
521.146865	0.091500
521.363637	0.091109
521.580391	0.091058
521.797127	0.091444
522.013844	0.092074
522.230543	0.092661
522.447224	0.093505
522.663887	0.093136
522.880532	0.093809
523.097158	0.094536
523.313766	0.094478
523.530356	0.094362
523.746928	0.094330
523.963481	0.094083
524.180017	0.095142
524.396534	0.095485
524.613032	0.095512
524.829513	0.094794
525.045975	0.094517
525.262420	0.094676
525.478845	0.094581
525.695253	0.094812
525.911643	0.095741
526.128014	0.094735
526.344367	0.094885
526.560702	0.095657
526.777018	0.096358
526.993316	0.096814
527.209597	0.097611
527.425858	0.098127
527.642102	0.098023
527.858328	0.097842
528.074535	0.098187
528.290724	0.097973
528.506894	0.098324
528.723047	0.098075
528.939181	0.097873
529.155297	0.097964
529.371395	0.097758
529.587475	0.097829
529.803536	0.098186
530.019579	0.098037
530.235604	0.097901
530.451611	0.097846
530.667600	0.098238
530.883570	0.098893
531.099522	0.098934
531.315456	0.099128
531.531372	0.099514
531.747269	0.099554
531.963148	0.099752
532.179009	0.099976
532.394852	0.100072
532.610676	0.099440
532.826482	0.099872
533.042271	0.100065
533.258040	0.100388
533.473792	0.100883
533.689525	0.100503
533.905240	0.101193
534.120937	0.101787
534.336616	0.102076
534.552277	0.102530
534.767919	0.102209
534.983543	0.102267
535.199149	0.102687
535.414736	0.102642
535.630306	0.103110
535.845857	0.102873
536.061390	0.102730
536.276904	0.102464
536.492401	0.102743
536.707879	0.103255
536.923339	0.103471
537.138781	0.103563
537.354204	0.103174
537.569610	0.103748
537.784997	0.103902
538.000366	0.104436
538.215716	0.105136
538.431049	0.106221
538.646363	0.106348
538.861659	0.106214
539.076937	0.106381
539.292196	0.107177
539.507438	0.106843
539.722661	0.107002
539.937866	0.107049
540.153052	0.107140
540.368221	0.106647
540.583371	0.106638
540.798503	0.106850
541.013617	0.106660
541.228712	0.106649
541.443789	0.106599
541.658848	0.106814
541.873889	0.106931
542.088912	0.106712
542.303916	0.106291
542.518902	0.106425
542.733870	0.106898
542.948820	0.107302
543.163752	0.107182
543.378665	0.107458
543.593560	0.107804
543.808437	0.107696
544.023295	0.107966
544.238136	0.108668
544.452958	0.109044
544.667762	0.108911
544.882548	0.108880
545.097315	0.109572
545.312064	0.109841
545.526795	0.109753
545.741508	0.109692
545.956203	0.109825
546.170879	0.109920
546.385537	0.109744
546.600177	0.110040
546.814799	0.110470
547.029402	0.110458
547.243988	0.110671
547.458555	0.110519
547.673103	0.111181
547.887634	0.111353
548.102146	0.111400
548.316640	0.111930
548.531116	0.111803
548.745574	0.111491
548.960013	0.111690
549.174435	0.111854
549.388838	0.112594
549.603222	0.112745
549.817589	0.112795
550.031937	0.112874
550.246267	0.112807
550.460579	0.113231
550.674873	0.113722
550.889148	0.113418
551.103405	0.113613
551.317644	0.113288
551.531865	0.113209
551.746068	0.113130
551.960252	0.113401
552.174418	0.113122
552.388566	0.112628
552.602696	0.112526
552.816807	0.112956
553.030900	0.112682
553.244975	0.112943
553.459032	0.112769
553.673070	0.113092
553.887091	0.113226
554.101093	0.113426
554.315077	0.114152
554.529042	0.114149
554.742990	0.114145
554.956919	0.114675
555.170830	0.114404
555.384722	0.114714
555.598597	0.114475
555.812453	0.114511
556.026291	0.114740
556.240111	0.114379
556.453913	0.114389
556.667696	0.114530
556.881461	0.113985
557.095208	0.114131
557.308937	0.113662
557.522647	0.113702
557.736339	0.113716
557.950013	0.113522
558.163669	0.113520
558.377307	0.114086
558.590926	0.114198
558.804527	0.114244
559.018110	0.114529
559.231675	0.115098
559.445221	0.115673
559.658749	0.115827
559.872259	0.116126
560.085751	0.116598
560.299225	0.116213
560.512680	0.116473
560.726117	0.117035
560.939536	0.117036
561.152937	0.117077
561.366319	0.116800
561.579683	0.116595
561.793029	0.116868
562.006357	0.116876
562.219667	0.116949
562.432958	0.116574
562.646231	0.116519
562.859486	0.116731
563.072723	0.116792
563.285941	0.116887
563.499141	0.116937
563.712323	0.116507
563.925487	0.116566
564.138632	0.116532
564.351760	0.116572
564.564869	0.116441
564.777960	0.116330
564.991032	0.116667
565.204087	0.117144
565.417123	0.117411
565.630141	0.117861
565.843140	0.118048
566.056122	0.118360
566.269085	0.118705
566.482030	0.118945
566.694957	0.118886
566.907866	0.118568
567.120756	0.118107
567.333628	0.118069
567.546482	0.117992
567.759318	0.117484
567.972135	0.117450
568.184935	0.117425
568.397716	0.117040
568.610478	0.117209
568.823223	0.117536
569.035949	0.117600
569.248657	0.118187
569.461347	0.118227
569.674019	0.118617
569.886672	0.119058
570.099308	0.118750
570.311925	0.119303
570.524523	0.119407
570.737104	0.119060
570.949666	0.119195
571.162210	0.118980
571.374736	0.118983
571.587244	0.118945
571.799733	0.118464
572.012205	0.118517
572.224658	0.118955
572.437092	0.118689
572.649509	0.118916
572.861907	0.119182
573.074287	0.118683
573.286649	0.118536
573.498993	0.118758
573.711318	0.119009
573.923625	0.119074
574.135914	0.118630
574.348185	0.119101
574.560438	0.119295
574.772672	0.119180
574.984888	0.119528
575.197086	0.119981
575.409266	0.119983
575.621427	0.119672
575.833570	0.119738
576.045695	0.119801
576.257802	0.119696
576.469890	0.119703
576.681961	0.120030
576.894013	0.120107
577.106046	0.120194
577.318062	0.120203
577.530059	0.120802
577.742039	0.121081
577.954000	0.120983
578.165942	0.120984
578.377867	0.120692
578.589773	0.120309
578.801661	0.120264
579.013531	0.120050
579.225382	0.120376
579.437216	0.120258
579.649031	0.120426
579.860828	0.120580
580.072606	0.120712
580.284367	0.121137
580.496109	0.121150
580.707833	0.121534
580.919539	0.121888
581.131227	0.121740
581.342896	0.121754
581.554547	0.121438
581.766180	0.121505
581.977795	0.121399
582.189391	0.121158
582.400969	0.121465
582.612529	0.121210
582.824071	0.121261
583.035595	0.121267
583.247100	0.121552
583.458587	0.121733
583.670056	0.121782
583.881506	0.122198
584.092939	0.122567
584.304353	0.122568
584.515749	0.122705
584.727127	0.122664
584.938486	0.122697
585.149828	0.122463
585.361151	0.122175
585.572456	0.122281
585.783742	0.122375
585.995011	0.122472
586.206261	0.122539
586.417493	0.122571
586.628706	0.122811
586.839902	0.123340
587.051079	0.123386
587.262238	0.123689
587.473379	0.124039
587.684502	0.124098
587.895606	0.124222
588.106692	0.124487
588.317760	0.124664
588.528810	0.124378
588.739841	0.124087
588.950855	0.124647
589.161850	0.125124
589.372827	0.125293
589.583785	0.125315
589.794726	0.125305
590.005648	0.125493
590.216552	0.125688
590.427437	0.126325
590.638305	0.126414
590.849154	0.126328
591.059985	0.126322
591.270798	0.126433
591.481592	0.126145
591.692369	0.126292
591.903127	0.126023
592.113867	0.126055
592.324588	0.125683
592.535292	0.125634
592.745977	0.125926
592.956644	0.125824
593.167293	0.125747
593.377923	0.126310
593.588536	0.126545
593.799130	0.126512
594.009706	0.126784
594.220263	0.127181
594.430803	0.127716
594.641324	0.127381
594.851827	0.127734
595.062312	0.127645
595.272778	0.127699
595.483227	0.127632
595.693657	0.128075
595.904069	0.128034
596.114462	0.128265
596.324838	0.128297
596.535195	0.128615
596.745534	0.128510
596.955855	0.128691
597.166157	0.128592
597.376441	0.128720
597.586707	0.128910
597.796955	0.129122
598.007185	0.128771
598.217396	0.128881
598.427589	0.128936
598.637764	0.129079
598.847921	0.129309
599.058060	0.129532
599.268180	0.129634
599.478282	0.129567
599.688366	0.129693
599.898431	0.129981
600.108479	0.129830
600.318508	0.129930
600.528519	0.129953
600.738511	0.129864
600.948486	0.130078
601.158442	0.129991
601.368380	0.130013
601.578300	0.129836
601.788202	0.129906
601.998085	0.129983
602.207950	0.130063
602.417797	0.130641
602.627626	0.130533
602.837436	0.130596
603.047228	0.130969
603.257002	0.130946
603.466758	0.131176
603.676496	0.131226
603.886215	0.131287
604.095916	0.131284
604.305599	0.131129
604.515264	0.131472
604.724910	0.131408
604.934538	0.131220
605.144148	0.131679
605.353740	0.131818
605.563314	0.131828
605.772869	0.132135
605.982406	0.131964
606.191925	0.131768
606.401425	0.131680
606.610908	0.131657
606.820372	0.131690
607.029818	0.131464
607.239246	0.131088
607.448655	0.131067
607.658047	0.130640
607.867420	0.130776
608.076775	0.130960
608.286111	0.130827
608.495430	0.130986
608.704730	0.131064
608.914012	0.130952
609.123275	0.131388
609.332521	0.131473
609.541748	0.131772
609.750957	0.131926
609.960148	0.132070
610.169321	0.132299
610.378475	0.132324
610.587611	0.132493
610.796729	0.132697
611.005829	0.132729
611.214910	0.132950
611.423974	0.133047
611.633019	0.133232
611.842045	0.133053
612.051054	0.133403
612.260044	0.133626
612.469017	0.133444
612.677970	0.133560
612.886906	0.133578
613.095824	0.133613
613.304723	0.133488
613.513604	0.133635
613.722467	0.133688
613.931311	0.133330
614.140138	0.133009
614.348946	0.133371
614.557736	0.133462
614.766507	0.133642
614.975261	0.133476
615.183996	0.133710
615.392713	0.133408
615.601412	0.133789
615.810092	0.133885
616.018754	0.134339
616.227399	0.134262
616.436024	0.134417
616.644632	0.134520
616.853222	0.134882
617.061793	0.134963
617.270346	0.135335
617.478880	0.135320
617.687397	0.135430
617.895895	0.135422
618.104375	0.135484
618.312837	0.135416
618.521281	0.135182
618.729706	0.135081
618.938113	0.135240
619.146502	0.135314
619.354873	0.135322
619.563226	0.135477
619.771560	0.135499
619.979876	0.135598
620.188174	0.135489
620.396453	0.135746
620.604715	0.136058
620.812958	0.135780
621.021183	0.135628
621.229390	0.135684
621.437578	0.136080
621.645748	0.136275
621.853900	0.136392
622.062034	0.136667
622.270150	0.136759
622.478247	0.136673
622.686326	0.137079
622.894387	0.137271
623.102430	0.137260
623.310454	0.137146
623.518461	0.137124
623.726449	0.137148
623.934418	0.137069
624.142370	0.137225
624.350303	0.137274
624.558218	0.137074
624.766115	0.137048
624.973994	0.136882
625.181855	0.136751
625.389697	0.136730
625.597521	0.136844
625.805327	0.137019
626.013114	0.136664
626.220883	0.136438
626.428634	0.136646
626.636367	0.136922
626.844082	0.137071
627.051778	0.137336
627.259457	0.137522
627.467117	0.137625
627.674758	0.137708
627.882382	0.138161
628.089987	0.138350
628.297574	0.138631
628.505143	0.138849
628.712694	0.139126
628.920226	0.139191
629.127740	0.139200
629.335236	0.139019
629.542714	0.138946
629.750174	0.138843
629.957615	0.138887
630.165038	0.139011
630.372443	0.138916
630.579829	0.138997
630.787198	0.138868
630.994548	0.139083
631.201880	0.139302
631.409194	0.139489
631.616489	0.139559
631.823766	0.139985
632.031025	0.140080
632.238266	0.140101
632.445489	0.140082
632.652693	0.140284
632.859879	0.140225
633.067047	0.140483
633.274197	0.140814
633.481329	0.141020
633.688442	0.140867
633.895537	0.140906
634.102614	0.141181
634.309672	0.141443
634.516713	0.141663
634.723735	0.141690
634.930739	0.141600
635.137724	0.141490
635.344692	0.141340
635.551641	0.141633
635.758572	0.141800
635.965485	0.141799
636.172379	0.142012
636.379256	0.142097
636.586114	0.142496
636.792954	0.142604
636.999775	0.142843
637.206579	0.143115
637.413364	0.143010
637.620131	0.142838
637.826880	0.142743
638.033610	0.142522
638.240323	0.142274
638.447017	0.142219
638.653692	0.142155
638.860350	0.142009
639.066990	0.142087
639.273611	0.142146
639.480214	0.142366
639.686798	0.142312
639.893365	0.142288
640.099913	0.142685
640.306443	0.142407
640.512955	0.142686
640.719449	0.142833
640.925924	0.142811
641.132381	0.143120
641.338820	0.143008
641.545241	0.143020
641.751644	0.143239
641.958028	0.143302
642.164394	0.143638
642.370742	0.143622
642.577071	0.143734
642.783383	0.144018
642.989676	0.143952
643.195951	0.144102
643.402207	0.144508
643.608446	0.144861
643.814666	0.144836
644.020868	0.145146
644.227052	0.145199
644.433218	0.145392
644.639365	0.145433
644.845494	0.145459
645.051605	0.145337
645.257698	0.145313
645.463772	0.145074
645.669828	0.145090
645.875866	0.145110
646.081886	0.145257
646.287888	0.145154
646.493871	0.145110
646.699836	0.145501
646.905783	0.145780
647.111712	0.145856
647.317622	0.146134
647.523514	0.146379
647.729388	0.146159
647.935244	0.146125
648.141082	0.146397
648.346901	0.146688
648.552702	0.146551
648.758485	0.146809
648.964250	0.147073
649.169996	0.147158
649.375724	0.147227
649.581434	0.147414
649.787126	0.147774
649.992800	0.147807
650.198455	0.147951
650.404092	0.148133
650.609711	0.147960
650.815311	0.148092
651.020894	0.148085
651.226458	0.148110
651.432004	0.148181
651.637532	0.148021
651.843041	0.147743
652.048532	0.147653
652.254006	0.147461
652.459460	0.147626
652.664897	0.147682
652.870315	0.147982
653.075716	0.148158
653.281097	0.148484
653.486461	0.148656
653.691807	0.149018
653.897134	0.149082
654.102443	0.149263
654.307734	0.149474
654.513006	0.149416
654.718261	0.149269
654.923497	0.149360
655.128715	0.149464
655.333915	0.149618
655.539096	0.149865
655.744259	0.150125
655.949404	0.150264
656.154531	0.150260
656.359640	0.150358
656.564730	0.150484
656.769802	0.150531
656.974856	0.150564
657.179892	0.150655
657.384909	0.150626
657.589908	0.150718
657.794889	0.150896
657.999852	0.151112
658.204797	0.151347
658.409723	0.151475
658.614631	0.151516
658.819521	0.151399
659.024393	0.151513
659.229246	0.151622
659.434081	0.151642
659.638898	0.151483
659.843697	0.151451
660.048478	0.151576
660.253240	0.151903
660.457984	0.152182
660.662710	0.152245
660.867417	0.152428
661.072107	0.152856
661.276778	0.152967
661.481431	0.153300
661.686066	0.153317
661.890682	0.153360
662.095281	0.153197
662.299861	0.153209
662.504422	0.153363
662.708966	0.153447
662.913491	0.153183
663.117999	0.153276
663.322488	0.153402
663.526958	0.153544
663.731411	0.153552
663.935845	0.153567
664.140261	0.153711
664.344659	0.153860
664.549038	0.153676
664.753400	0.153678
664.957743	0.153875
665.162068	0.153956
665.366375	0.154218
665.570663	0.154294
665.774933	0.154484
665.979185	0.154562
666.183419	0.154731
666.387635	0.154927
666.591832	0.155247
666.796011	0.155278
667.000172	0.155254
667.204315	0.155313
667.408439	0.155465
667.612545	0.155742
667.816634	0.155767
668.020703	0.155740
668.224755	0.155914
668.428788	0.155924
668.632803	0.155851
668.836800	0.155989
669.040779	0.155959
669.244739	0.156025
669.448681	0.156039
669.652605	0.156091
669.856511	0.156361
670.060399	0.156596
670.264268	0.156647
670.468119	0.156884
670.671952	0.156873
670.875767	0.156983
671.079563	0.157005
671.283341	0.157212
671.487101	0.157400
671.690843	0.157532
671.894567	0.157456
672.098272	0.157560
672.301959	0.157695
672.505628	0.157851
672.709278	0.158094
672.912911	0.158383
673.116525	0.158272
673.320121	0.158277
673.523699	0.158182
673.727258	0.158307
673.930799	0.158441
674.134322	0.158272
674.337827	0.158337
674.541314	0.158352
674.744782	0.158233
674.948232	0.158406
675.151664	0.158721
675.355078	0.158872
675.558474	0.158914
675.761851	0.159210
675.965210	0.159551
676.168551	0.160004
676.371873	0.160136
676.575178	0.160534
676.778464	0.160754
676.981732	0.160777
677.184981	0.160931
677.388213	0.161094
677.591426	0.161240
677.794621	0.161380
677.997798	0.161450
678.200956	0.161380
678.404097	0.161419
678.607219	0.161527
678.810323	0.161558
679.013408	0.161687
679.216476	0.161818
679.419525	0.161773
679.622556	0.161808
679.825569	0.161854
680.028563	0.162392
680.231540	0.162459
680.434498	0.162595
680.637438	0.162913
680.840359	0.163061
681.043263	0.163301
681.246148	0.163359
681.449015	0.163599
681.651864	0.163431
681.854694	0.163310
682.057506	0.163322
682.260301	0.163279
682.463076	0.163209
682.665834	0.163217
682.868573	0.163286
683.071295	0.163367
683.273998	0.163223
683.476682	0.163310
683.679349	0.163242
683.881997	0.163321
684.084627	0.163314
684.287239	0.163397
684.489833	0.163337
684.692408	0.163324
684.894965	0.163342
685.097504	0.163673
685.300025	0.163817
685.502527	0.163951
685.705012	0.164004
685.907478	0.164015
686.109925	0.164117
686.312355	0.164311
686.514766	0.164583
686.717159	0.164828
686.919534	0.164734
687.121891	0.164813
687.324230	0.164989
687.526550	0.165152
687.728852	0.165393
687.931136	0.165478
688.133401	0.165526
688.335649	0.165483
688.537878	0.165342
688.740089	0.165442
688.942281	0.165722
689.144456	0.166025
689.346612	0.166205
689.548750	0.166415
689.750870	0.166457
689.952971	0.166678
690.155055	0.166976
690.357120	0.167261
690.559167	0.167318
690.761195	0.167589
690.963206	0.167498
691.165198	0.167651
691.367172	0.167578
691.569128	0.167563
691.771065	0.167607
691.972984	0.167475
692.174885	0.167542
692.376768	0.167671
692.578633	0.167421
692.780479	0.167292
692.982308	0.167240
693.184118	0.167446
693.385909	0.167836
