sample name	sample
index	1425
start time	 05-10-2021  12:18:08 PM
880	0.208372
Peak Time (s)	91.536
Peak Height 	0.2084
calc peak height	90,93
Baseline Time (s)	10.538
Baseline Value 	-0.006686
subtract baseline	10,4
Abs	0.152101
Peak Time (s)	90.035
Peak Height 	0.1521
calc peak height	90,93
Baseline Time (s)	11.536
Baseline Value 	0.001601
subtract baseline	10,3
PK_550	0.096659
Peak Time (s)	92.038
Peak Height 	0.09666
calc peak height	90,93
Baseline Time (s)	11.036
Baseline Value 	5.9996E-4
subtract baseline	10,2
PK_880	0.149728
Peak Time (s)	92.038
Peak Height 	0.1497
calc peak height	90,93
Baseline Time (s)	8.537
Baseline Value 	0.001989
subtract baseline	10,1


Time (s)	A880-A510	A880-A775	A880-A975	A880	I510	I775	I975	I880	
0.038000	-0.001046	-0.000612	0.001323	0.003272	6466.783987	43856.545417	3939.899911	22566.954840
0.535500	-0.000464	-0.000218	-0.002193	0.005830	6450.370154	43653.266911	3924.283080	22451.232526
1.035500	-0.003522	0.000017	-0.003975	0.007074	6414.885695	43558.695590	3916.580710	22395.179020
1.536000	-0.000695	0.000108	0.002196	0.002723	6474.287402	43976.276123	3943.590491	22591.898926
2.039500	-0.002056	-0.000218	-0.000762	0.002447	6465.256871	43971.619956	3936.645166	22604.473020
2.537000	-0.000195	-0.000455	-0.003701	0.002279	6482.176894	43965.082695	3929.510419	22612.096744
3.037000	0.001644	-0.000299	-0.002502	0.000350	6513.823106	44162.527015	3937.564037	22700.009095
3.537500	-0.001714	0.000109	-0.001870	0.006757	6432.369913	43596.996054	3922.740003	22409.447163
4.035000	0.000024	0.000368	0.001553	0.001386	6491.487225	44127.494787	3945.392102	22652.727823
4.534500	0.000854	0.000265	-0.001402	0.001294	6499.227603	44126.477995	3937.970506	22656.954390
5.035500	0.000914	0.001274	0.001480	0.001699	6496.325992	44183.758448	3944.388849	22638.484434
5.536000	-0.000672	0.000137	-0.005574	0.000896	6489.765736	44152.108349	3928.256534	22675.115479
6.036000	-0.001279	-0.000177	0.004373	0.000368	6489.097882	44172.391417	3955.425526	22699.191174
6.536000	-0.001696	0.000363	0.003306	0.000629	6483.418874	44198.860089	3951.943060	22687.262338
7.036500	-0.000527	0.000172	-0.001614	0.000243	6496.450057	44217.341642	3940.138683	22704.898249
7.537000	0.000403	0.000304	0.000820	0.000374	6503.169656	44217.507720	3946.121639	22698.936207
8.040000	0.001310	0.000362	-0.002393	0.000556	6509.272637	44205.676330	3937.313610	22690.605047
8.537500	0.000000	-0.000190	-0.002588	-0.000335	6505.745219	44238.012128	3939.114997	22731.355518
9.035000	-0.000658	-0.000108	0.002362	0.000014	6497.281058	44212.636842	3951.083921	22715.394464
9.535000	-0.002406	0.000554	-0.006896	0.000125	6481.704450	44264.996319	3926.842699	22710.310986
10.035000	0.000760	-0.000292	-0.001137	-0.000075	6509.953684	44203.542294	3942.199791	22719.439919
10.538000	0.000765	0.000284	0.004789	0.000000	6509.361572	44251.182010	3957.485807	22716.022697
11.036000	0.000038	0.000000	0.000579	-0.000509	6507.534843	44272.605669	3947.794834	22739.322973
11.536000	-0.002005	0.000067	0.000000	0.005710	6438.610497	43691.226120	3930.203670	22456.639220
12.036500	-0.000439	0.000404	-0.003985	0.000452	6495.437085	44219.664132	3933.478400	22695.377551
12.539500	-0.002085	-0.000078	0.004761	0.000198	6483.774269	44197.945031	3956.890917	22706.968758
13.037000	0.001362	0.000512	0.000344	0.000419	6510.868827	44233.008515	3944.764212	22696.882997
13.534000	-0.003960	-0.000346	-0.005049	0.006015	6419.985636	43623.898030	3916.543442	22442.868730
14.035500	-0.003394	-0.000437	-0.001052	0.002361	6454.842261	43959.028471	3936.116978	22608.353242
14.534500	-0.000182	0.000440	-0.001614	0.002722	6478.588902	44007.870063	3933.737157	22591.963571
15.039000	-0.000418	0.000230	0.003107	0.000860	6492.194803	44164.357992	3950.820051	22676.753217
15.536000	-0.002505	-0.000486	-0.009150	0.005640	6435.057387	43645.936122	3907.134740	22459.795189
16.036500	0.001465	0.000570	-0.000084	0.000719	6509.206035	44209.937262	3942.871248	22683.164092
16.536500	-0.002360	-0.000038	-0.002405	0.000368	6480.052034	44185.532955	3937.769362	22699.198422
17.039500	0.003019	0.000911	0.004390	-0.001951	6544.962635	44497.194013	3961.575954	22805.443711
17.537000	-0.002325	0.000013	-0.001788	0.003060	6457.911761	43935.521790	3932.418583	22576.594295
18.037500	-0.000173	0.000065	-0.001685	0.001031	6492.819969	44132.515081	3937.918657	22668.959540
18.534500	0.001584	0.001597	0.001446	0.002466	6495.512828	44141.683421	3942.311129	22603.598877
19.035500	0.000361	0.000159	0.002059	0.001864	6490.306462	44062.385842	3945.466104	22630.976672
19.535500	-0.002555	0.000438	-0.002045	0.003749	6450.284183	43910.631407	3929.986690	22545.328549
20.036000	-0.001258	-0.000806	-0.000801	0.000882	6484.963679	44063.965376	3940.588272	22675.715889
20.536000	0.000424	-0.000243	-0.002422	0.001168	6496.680893	44090.293147	3935.661829	22662.708665
21.036500	-0.001696	0.000117	0.000166	0.001193	6478.707828	44122.028299	3942.290852	22661.544996
21.539000	-0.000883	0.000750	-0.002020	0.003134	6469.294085	43998.103697	3931.631638	22573.223397
22.037000	-0.000456	0.000136	-0.002695	0.000967	6490.979109	44145.273852	3935.475800	22671.865300
22.537000	-0.000185	-0.000232	-0.002823	0.001045	6492.588737	44102.952289	3934.941605	22668.277851
23.037500	0.000064	0.000299	0.001315	0.001557	6490.387245	44104.700501	3944.330701	22644.955410
23.534500	-0.001630	-0.000819	-0.006408	0.002244	6470.490757	43934.109304	3922.677792	22613.703204
24.034500	-0.000321	0.000772	0.003104	0.001215	6490.026711	44182.083662	3949.883226	22660.547162
24.538000	-0.001457	-0.000593	-0.003509	0.000590	6485.752880	44111.861734	3934.349038	22689.076169
25.036000	0.000274	0.000517	-0.001594	0.001168	6495.420138	44162.315033	3937.799057	22662.704633
25.536000	-0.001718	-0.000208	-0.003633	0.000944	6480.602988	44114.806165	3933.118064	22672.914932
26.036000	-0.000502	-0.000129	0.002001	0.000345	6495.807352	44179.157854	3949.276148	22700.270616
26.536000	-0.000826	0.000025	-0.004836	0.000780	6489.441863	44152.469234	3930.445076	22680.400498
27.037000	0.001661	-0.000048	0.000416	-0.002014	6533.966339	44411.428260	3951.297216	22808.316469
27.540000	-0.000994	-0.000514	-0.002924	-0.001968	6511.122934	44362.631035	3942.475073	22806.212630
28.037500	0.000545	0.000052	0.001608	-0.000817	6514.394416	44306.807178	3951.285649	22753.406240
28.535000	-0.001563	0.000260	0.002224	0.003381	6461.575793	43928.507866	3941.953427	22562.014996
29.035500	0.002644	0.000213	-0.003570	-0.000403	6528.641887	44282.774376	3936.751546	22734.448079
29.535500	0.000985	0.000771	-0.001237	-0.000108	6512.128989	44307.749848	3942.025777	22720.941180
30.036500	0.001467	0.000484	0.001296	-0.000388	6518.562909	44307.136861	3949.349255	22733.782598
30.536000	-0.001179	0.000118	0.001903	0.003771	6461.527719	43878.359440	3940.111330	22544.332854
31.037000	-0.000674	0.000448	-0.002172	0.001953	6480.896326	44081.345506	3934.280062	22626.921830
31.536500	-0.002084	-0.000338	-0.001246	-0.000808	6492.213085	44268.945437	3943.823032	22753.021930
32.037500	0.000093	0.000593	-0.002271	-0.000287	6506.119884	44307.896480	3939.811174	22729.152528
32.537500	0.000144	0.000502	-0.002804	0.003561	6474.299754	43934.435582	3928.525293	22553.886248
33.035000	0.001097	0.000471	0.004175	-0.000231	6514.110614	44290.952950	3956.477236	22726.566288
33.538000	0.002579	-0.000092	0.002507	-0.002852	6548.887741	44487.342886	3958.985988	22846.864437
34.035500	-0.000094	0.000529	0.000898	0.001567	6488.980685	44125.607506	3943.219638	22644.481548
34.538500	-0.001275	0.000059	0.003268	0.002805	6468.773616	43964.017801	3946.166411	22588.197623
35.036000	0.000607	-0.000146	0.000468	0.001231	6497.682106	44093.494055	3942.976511	22659.805975
35.536000	-0.000457	0.000788	0.000649	0.003528	6469.562817	43964.467566	3937.494992	22555.352047
36.036500	-0.001665	-0.000281	0.001325	0.001213	6478.794885	44082.374419	3945.251224	22660.624348
36.540500	-0.002043	-0.000111	0.002183	0.001447	6473.688769	44076.374505	3946.875360	22649.980169
37.037000	-0.001485	-0.000131	0.000553	0.001364	6479.043805	44082.311962	3942.850816	22653.746537
37.535000	-0.000332	0.000915	0.001634	0.001805	6484.996140	44139.672981	3944.516798	22633.668373
38.035000	0.000700	-0.000055	0.003161	0.001227	6498.495616	44102.475260	3950.001174	22659.981587
38.535000	0.000411	0.000153	-0.003382	0.001561	6493.264299	44090.540249	3932.175300	22644.789276
39.039000	-0.001303	-0.000274	0.001037	0.000905	6484.401855	44112.207861	3945.303743	22674.674857
39.540000	-0.001796	0.000223	0.000733	0.003632	6457.556168	43901.370067	3937.445020	22550.644639
40.036500	-0.001277	0.000087	-0.002193	0.001352	6480.884912	44104.156271	3935.776112	22654.321224
40.536500	0.000191	-0.000090	0.001228	0.001774	6489.638361	44047.313370	3943.541656	22635.077683
41.037000	0.001429	0.000652	-0.002371	0.002085	6497.407148	44088.134116	3933.426260	22620.896411
41.537000	-0.001833	-0.000833	-0.002327	0.002535	6466.372810	43905.151552	3932.383346	22600.429733
42.035000	-0.000850	0.000544	-0.000713	0.001838	6480.391322	44101.308979	3938.344440	22632.157037
42.535000	-0.002241	0.000306	-0.006251	0.003324	6456.419922	43938.270442	3920.325393	22564.595255
43.035500	-0.000337	0.000176	0.004250	0.001501	6487.502878	44098.369658	3952.134115	22647.509976
43.538000	-0.001640	0.000002	0.000089	0.003799	6457.461353	43864.726518	3935.350397	22543.054215
44.038500	-0.000048	-0.000219	0.002109	-0.000697	6508.382198	44269.607954	3952.281224	22747.908825
44.539000	-0.001584	-0.000113	-0.002913	0.004630	6451.035093	43775.730084	3925.508718	22505.443079
45.039000	-0.001623	-0.000413	-0.002685	-0.000820	6496.178706	44262.810243	3940.119748	22753.543076
45.536500	-0.001140	0.000457	0.000683	0.004426	6456.414191	43848.642894	3935.266928	22514.682375
46.037000	0.000939	0.000449	0.001981	-0.000379	6514.026966	44302.934634	3951.116300	22733.358251
46.537500	-0.004198	-0.000240	-0.000810	0.004619	6429.521318	43764.850666	3930.925323	22505.939325
47.038000	-0.000213	0.000086	0.001756	0.000921	6493.403384	44144.870394	3947.135547	22673.964205
47.535500	-0.002165	0.000010	-0.005439	0.003969	6451.699241	43849.594537	3920.751692	22535.388079
48.035500	0.001492	0.001377	-0.000546	0.000794	6508.804937	44279.676667	3941.479790	22679.767569
48.535500	-0.003637	0.000239	0.004514	0.005393	6427.758425	43737.118374	3942.675149	22470.938464
49.036000	0.002847	-0.000103	-0.000654	-0.000403	6530.364710	44252.757113	3944.308616	22734.472741
49.536000	-0.001129	0.000265	-0.003433	0.004381	6456.876654	43834.800021	3924.817344	22516.728611
50.036500	0.001326	0.000577	-0.001980	-0.000495	6518.266705	44326.121391	3941.103532	22738.652413
50.540000	-0.000661	-0.000149	0.002098	0.010615	6409.310198	43213.484882	3923.022498	22236.550574
51.037000	0.016182	-0.032245	0.081086	0.445865	4208.425970	16670.124781	3302.998041	9971.514189
51.537500	-0.021123	-0.031646	-0.021660	-0.077995	7013.965004	48873.803140	4101.427883	26622.558907
52.035000	-0.026117	-0.022188	-0.034393	-0.132143	7512.905337	56118.808258	4230.119093	29778.145364
52.535500	-0.011069	-0.056226	-0.019281	-0.215515	8698.827606	62516.086827	4590.248850	35475.267375
53.035500	-0.004896	-0.034808	-0.006176	-0.163000	8106.917464	58399.474447	4436.272748	31760.391324
53.535500	-0.013495	-0.023151	-0.016030	-0.120657	7525.125727	54616.107204	4252.700718	29075.516343
54.036000	-0.023242	-0.036891	-0.021828	-0.182336	8118.908599	60646.977800	4450.080221	33076.250974
54.536500	-0.011180	-0.042352	-0.007352	-0.194333	8419.004419	61521.980906	4552.833636	33922.629417
55.036000	0.000874	-0.030108	0.010506	-0.156297	8095.633562	58144.240765	4473.952329	31317.756899
55.536500	0.006465	-0.015365	0.015659	-0.067485	7180.948476	49488.242619	4183.322771	26054.338134
56.037500	0.013394	-0.008542	0.029288	-0.004063	6652.728497	43800.575459	4035.128946	22902.648656
56.537500	0.022815	0.002365	0.032864	0.034195	6408.461065	41306.698613	3941.502788	21212.477949
57.035000	0.038872	0.011922	0.043484	0.048563	6422.328238	40883.959834	3931.824811	20615.179709
57.535500	0.052377	0.022397	0.049712	0.051913	6506.826721	41511.576519	3939.248886	20478.713495
58.035500	0.056947	0.025614	0.060823	0.070770	6388.497777	40147.249574	3919.379617	19730.020777
58.536000	0.064707	0.033221	0.073669	0.100475	6214.155113	38301.357535	3877.338737	18614.598338
59.036000	0.076952	0.039560	0.086731	0.122926	6136.032495	37013.547087	3854.626235	17820.786150
59.537000	0.084625	0.043949	0.087726	0.123550	6189.802923	37310.266760	3855.515877	17799.317789
60.036500	0.090649	0.047432	0.100089	0.137028	6132.972284	36528.334745	3852.847623	17342.754530
60.537500	0.092539	0.049684	0.108704	0.162550	5959.124791	34775.963984	3813.230510	16516.087982
61.040000	0.101329	0.054155	0.111164	0.173765	5941.808413	34285.410929	3793.312113	16167.892532
61.537000	0.097188	0.052884	0.116761	0.186134	5826.499017	33316.240380	3778.181244	15794.181914
62.035000	0.101252	0.057275	0.119781	0.201804	5748.022140	32537.524471	3750.537944	15335.767973
62.535500	0.104604	0.062569	0.117536	0.211516	5705.889330	32237.926908	3725.137942	15059.818579
63.035500	0.107781	0.064733	0.120910	0.205406	5767.609973	32801.444739	3745.226067	15232.684190
63.535500	0.108255	0.066359	0.123394	0.203198	5785.685363	33066.267100	3755.330499	15295.779569
64.036500	0.112486	0.068513	0.125337	0.202920	5816.317813	33235.405235	3760.150251	15303.744168
64.537000	0.113221	0.069805	0.124690	0.200987	5834.596667	33461.199045	3762.949692	15359.250445
65.036500	0.116723	0.071546	0.122995	0.199924	5866.125090	33658.884700	3761.572883	15389.877036
65.540000	0.116781	0.071187	0.130572	0.198533	5876.208762	33731.978255	3781.316905	15430.094897
66.034500	0.119250	0.073500	0.124936	0.198544	5893.381905	33895.650982	3768.836629	15429.777576
66.534500	0.121260	0.075110	0.124676	0.198997	5904.313525	33978.238843	3767.272896	15416.672079
67.035500	0.121082	0.076214	0.125119	0.199314	5900.825832	34034.473720	3767.547954	15407.488163
67.535500	0.122268	0.077330	0.131857	0.200896	5898.050065	34001.178351	3778.923175	15361.883343
68.036000	0.123278	0.077326	0.131809	0.201454	5901.223026	33960.975481	3777.577626	15345.818034
68.536000	0.120031	0.078791	0.130369	0.208607	5829.031695	33557.347483	3758.724159	15141.829051
69.036500	0.123566	0.080328	0.134112	0.205763	5873.108826	33867.802619	3773.144426	15222.540399
69.537000	0.121692	0.079996	0.130390	0.212476	5813.928223	33370.146578	3750.401800	15032.881803
70.040000	0.126460	0.081818	0.138194	0.208975	5870.891079	33745.387714	3775.064140	15131.415139
70.537500	0.123431	0.081750	0.131813	0.214750	5810.277037	33333.658962	3748.570066	14969.291835
71.035000	0.125538	0.083435	0.132177	0.211657	5845.930620	33669.959694	3756.030204	15055.869808
71.535000	0.128089	0.085122	0.137554	0.220076	5805.732744	33197.320507	3749.464597	14821.697323
72.035500	0.130061	0.085887	0.136749	0.214955	5854.395079	33610.179449	3758.795079	14963.593000
72.536000	0.129088	0.086047	0.133549	0.220519	5809.511305	33230.851681	3739.943264	14809.477791
73.036000	0.133475	0.086667	0.142665	0.216321	5868.592400	33568.794843	3768.730540	14925.568018
73.536500	0.132515	0.087250	0.137291	0.222052	5822.449600	33207.895510	3744.660009	14767.388795
74.036500	0.137027	0.088754	0.139924	0.218059	5881.225005	33593.390186	3758.947456	14877.378731
74.536500	0.133412	0.087192	0.140465	0.221633	5831.471336	33233.027502	3752.382675	14778.882514
75.037000	0.138815	0.089454	0.141545	0.218506	5890.596355	33611.230610	3761.502031	14865.000825
75.535000	0.140428	0.089249	0.147066	0.218564	5901.503864	33592.659169	3773.480043	14863.399305
76.035000	0.138491	0.089579	0.147921	0.218397	5889.094190	33627.766104	3775.738008	14868.020530
76.535500	0.137594	0.088546	0.144288	0.222921	5851.402508	33237.670303	3757.867722	14743.576071
77.035500	0.143055	0.090282	0.150020	0.219261	5915.092720	33616.436647	3778.472983	14844.156543
77.536000	0.138082	0.090637	0.143832	0.225225	5838.875044	33222.767333	3751.895284	14680.686350
78.036000	0.145935	0.091471	0.147092	0.219286	5935.304038	33698.730256	3771.945762	14843.463696
78.536500	0.139677	0.090381	0.148033	0.222525	5868.582716	33393.714710	3766.897756	14754.423082
79.037000	0.141409	0.090645	0.147019	0.216647	5921.933666	33827.432187	3777.615565	14916.521693
79.537000	0.141958	0.090669	0.149595	0.215368	5934.885795	33920.198698	3786.195407	14952.068149
80.037500	0.142738	0.091753	0.144427	0.215524	5939.321044	33986.521587	3774.365709	14947.745021
80.535000	0.141583	0.093159	0.153904	0.219610	5902.271078	33795.557013	3786.345597	14834.541750
81.035000	0.144929	0.092525	0.153292	0.213857	5966.882659	34161.345225	3797.908878	14994.219202
81.535500	0.145447	0.093326	0.149226	0.213402	5973.873609	34251.764197	3789.771947	15006.940358
82.035500	0.146165	0.093389	0.149231	0.212463	5985.811877	34324.079713	3791.892184	15033.241835
82.536000	0.142374	0.092453	0.149578	0.212704	5956.837624	34239.177235	3792.131180	15026.486211
83.036500	0.143906	0.093679	0.141547	0.209812	5988.645600	34537.365388	3780.640024	15107.791110
83.536500	0.143703	0.093044	0.150923	0.209191	5991.666285	34536.373554	3803.121121	15125.322577
84.037000	0.145179	0.095296	0.150657	0.209592	5999.449252	34671.242522	3801.604124	15113.992349
84.537000	0.147019	0.094991	0.150944	0.208472	6020.989213	34730.880072	3804.805747	15145.649233
85.037000	0.145021	0.094584	0.145049	0.207819	6011.186724	34748.899867	3792.933444	15164.141988
85.535000	0.142811	0.094884	0.141866	0.212578	5960.870688	34423.979973	3775.218169	15030.033044
86.035500	0.146278	0.095336	0.148360	0.206869	6027.286715	34873.827253	3802.571830	15191.078861
86.535500	0.145995	0.094904	0.152008	0.206047	6031.237119	34902.533252	3812.786257	15214.457767
87.035500	0.147684	0.095440	0.148152	0.205704	6046.152888	34967.293763	3804.751128	15224.215530
87.539000	0.142741	0.094641	0.146226	0.210444	5975.686455	34561.406979	3789.679681	15089.982681
88.036500	0.146408	0.093694	0.148067	0.203710	6051.440778	34985.567656	3809.109189	15281.126153
88.536500	0.148142	0.095965	0.148953	0.206281	6045.278111	34963.434385	3805.261430	15207.797462
89.037000	0.146557	0.095210	0.150238	0.203938	6050.857709	35080.739696	3813.565456	15274.599529
89.534500	0.142761	0.094766	0.147221	0.208794	5987.726306	34690.905444	3795.630033	15136.539944
90.035000	0.147574	0.096358	0.152101	0.204379	6055.099622	35133.099630	3816.838981	15261.982482
90.534500	0.145971	0.095160	0.143621	0.203085	6052.826043	35140.280657	3800.405013	15299.019376
91.035500	0.148947	0.095917	0.146265	0.203641	6070.718474	35155.094765	3805.149850	15283.075980
91.536000	0.143655	0.095211	0.145559	0.208372	5997.254479	34754.382688	3792.836376	15148.482558
92.038500	0.149728	0.096659	0.148051	0.204108	6073.047835	35175.465376	3808.161847	15269.726736
92.536500	0.146469	0.096041	0.150636	0.205460	6039.008179	35029.595078	3810.983597	15231.144634
93.036500	0.148751	0.095896	0.153312	0.203637	6069.299018	35153.884631	3821.354756	15283.207492
93.536500	0.145804	0.096609	0.151542	0.209543	6004.339009	34770.895899	3803.726684	15115.369772
94.034000	0.147740	0.096031	0.154845	0.203703	6061.329040	35159.021728	3824.758331	15281.320714
94.537500	0.149065	0.096784	0.150515	0.205038	6061.253346	35115.828064	3811.674971	15243.191112
95.035500	0.148976	0.096700	0.146916	0.204811	6062.268443	35126.450876	3803.969451	15249.664494
95.535000	0.144782	0.096044	0.149783	0.210579	5989.435740	34653.839522	3797.387077	15086.182417
96.035500	0.149797	0.097263	0.151202	0.205631	6062.273137	35107.338648	3811.888869	15226.273857
