sample name	sample
index	782
start time	 03-31-2021  01:51:35 PM


Wavelength (nm)	Absorbance
494.344910	0.016840
494.563924	0.016840
494.782919	0.016840
495.001897	NaN
495.220856	0.043382
495.439797	0.096666
495.658719	0.110586
495.877624	0.039375
496.096510	-0.070237
496.315378	-0.037945
496.534227	-0.002007
496.753059	0.071241
496.971872	0.144937
497.190667	0.117315
497.409444	0.122711
497.628203	0.121631
497.846943	0.122262
498.065665	0.120992
498.284369	0.119137
498.503055	0.119044
498.721723	0.119803
498.940372	0.120444
499.159003	0.121389
499.377616	0.120651
499.596210	0.121671
499.814787	0.123817
500.033345	0.125641
500.251885	0.127070
500.470406	0.127416
500.688910	0.126992
500.907395	0.126745
501.125862	0.126934
501.344311	0.127388
501.562742	0.127503
501.781154	0.126253
501.999548	0.126205
502.217924	0.125715
502.436282	0.125351
502.654621	0.125057
502.872942	0.125172
503.091245	0.124954
503.309530	0.124885
503.527797	0.124566
503.746045	0.123624
503.964275	0.123280
504.182487	0.123041
504.400681	0.123361
504.618856	0.124274
504.837013	0.123759
505.055152	0.123715
505.273273	0.123864
505.491376	0.122997
505.709460	0.124498
505.927526	0.124254
506.145574	0.124775
506.363604	0.124522
506.581615	0.124084
506.799608	0.125103
507.017583	0.124515
507.235540	0.124486
507.453478	0.125228
507.671399	0.124593
507.889301	0.125281
508.107185	0.124359
508.325050	0.125371
508.542898	0.125240
508.760727	0.125454
508.978538	0.126827
509.196330	0.127706
509.414105	0.127167
509.631861	0.127276
509.849599	0.126511
510.067319	0.126527
510.285021	0.125857
510.502704	0.126723
510.720369	0.126144
510.938016	0.125287
511.155645	0.124327
511.373255	0.124986
511.590848	0.125076
511.808422	0.125326
512.025977	0.125968
512.243515	0.126382
512.461034	0.125927
512.678536	0.125950
512.896018	0.125864
513.113483	0.126324
513.330930	0.126305
513.548358	0.126058
513.765768	0.126509
513.983160	0.127022
514.200533	0.127169
514.417889	0.126062
514.635226	0.126459
514.852545	0.126846
515.069845	0.127229
515.287128	0.127321
515.504392	0.127085
515.721638	0.126780
515.938866	0.126724
516.156075	0.126783
516.373267	0.127147
516.590440	0.127252
516.807594	0.126512
517.024731	0.126325
517.241850	0.126140
517.458950	0.126848
517.676032	0.127026
517.893095	0.127918
518.110141	0.127854
518.327168	0.128160
518.544177	0.127990
518.761168	0.129120
518.978141	0.128845
519.195095	0.128882
519.412031	0.129160
519.628949	0.129183
519.845849	0.128253
520.062731	0.129222
520.279594	0.129912
520.496439	0.129789
520.713266	0.130149
520.930074	0.129861
521.146865	0.130641
521.363637	0.130784
521.580391	0.130831
521.797127	0.131298
522.013844	0.130745
522.230543	0.130458
522.447224	0.130512
522.663887	0.130190
522.880532	0.130749
523.097158	0.131170
523.313766	0.131105
523.530356	0.131043
523.746928	0.130709
523.963481	0.130232
524.180017	0.131010
524.396534	0.131282
524.613032	0.130885
524.829513	0.130569
525.045975	0.129694
525.262420	0.129502
525.478845	0.129733
525.695253	0.129646
525.911643	0.129769
526.128014	0.129651
526.344367	0.129457
526.560702	0.129521
526.777018	0.129483
526.993316	0.129588
527.209597	0.129294
527.425858	0.129734
527.642102	0.129941
527.858328	0.130482
528.074535	0.130350
528.290724	0.130782
528.506894	0.130945
528.723047	0.131521
528.939181	0.131912
529.155297	0.132622
529.371395	0.132507
529.587475	0.133646
529.803536	0.133392
530.019579	0.133671
530.235604	0.134341
530.451611	0.135222
530.667600	0.135107
530.883570	0.135496
531.099522	0.135526
531.315456	0.135233
531.531372	0.134787
531.747269	0.134819
531.963148	0.134917
532.179009	0.134631
532.394852	0.134870
532.610676	0.134748
532.826482	0.134900
533.042271	0.134887
533.258040	0.135613
533.473792	0.135891
533.689525	0.136640
533.905240	0.137002
534.120937	0.136973
534.336616	0.136437
534.552277	0.136757
534.767919	0.136183
534.983543	0.136988
535.199149	0.137452
535.414736	0.137769
535.630306	0.137691
535.845857	0.137507
536.061390	0.137538
536.276904	0.138099
536.492401	0.138456
536.707879	0.138910
536.923339	0.138142
537.138781	0.138128
537.354204	0.137743
537.569610	0.138046
537.784997	0.138777
538.000366	0.139484
538.215716	0.139888
538.431049	0.139684
538.646363	0.140153
538.861659	0.140915
539.076937	0.140848
539.292196	0.141254
539.507438	0.141435
539.722661	0.140739
539.937866	0.140468
540.153052	0.140238
540.368221	0.141136
540.583371	0.141005
540.798503	0.141036
541.013617	0.141204
541.228712	0.141193
541.443789	0.141035
541.658848	0.141871
541.873889	0.141934
542.088912	0.142149
542.303916	0.141414
542.518902	0.142072
542.733870	0.142713
542.948820	0.142569
543.163752	0.142986
543.378665	0.143669
543.593560	0.143810
543.808437	0.144610
544.023295	0.144755
544.238136	0.145824
544.452958	0.145498
544.667762	0.145218
544.882548	0.145348
545.097315	0.145409
545.312064	0.144992
545.526795	0.144841
545.741508	0.145027
545.956203	0.145174
546.170879	0.144757
546.385537	0.144752
546.600177	0.145022
546.814799	0.145702
547.029402	0.145717
547.243988	0.146164
547.458555	0.146261
547.673103	0.145852
547.887634	0.146126
548.102146	0.146911
548.316640	0.147713
548.531116	0.147690
548.745574	0.147885
548.960013	0.148179
549.174435	0.148164
549.388838	0.147893
549.603222	0.148502
549.817589	0.148474
550.031937	0.148364
550.246267	0.148518
550.460579	0.149177
550.674873	0.148664
550.889148	0.148709
551.103405	0.149040
551.317644	0.149678
551.531865	0.149586
551.746068	0.149613
551.960252	0.149609
552.174418	0.149721
552.388566	0.149581
552.602696	0.150233
552.816807	0.150264
553.030900	0.150640
553.244975	0.151027
553.459032	0.151038
553.673070	0.151447
553.887091	0.151607
554.101093	0.151467
554.315077	0.151238
554.529042	0.151183
554.742990	0.151595
554.956919	0.151297
555.170830	0.151436
555.384722	0.151513
555.598597	0.151755
555.812453	0.152422
556.026291	0.152343
556.240111	0.153104
556.453913	0.153070
556.667696	0.153322
556.881461	0.153536
557.095208	0.153754
557.308937	0.153399
557.522647	0.153295
557.736339	0.153209
557.950013	0.153832
558.163669	0.154346
558.377307	0.154880
558.590926	0.154754
558.804527	0.154754
559.018110	0.154539
559.231675	0.155256
559.445221	0.155477
559.658749	0.155070
559.872259	0.155012
560.085751	0.154644
560.299225	0.154399
560.512680	0.154583
560.726117	0.154761
560.939536	0.155049
561.152937	0.154964
561.366319	0.155250
561.579683	0.155996
561.793029	0.155938
562.006357	0.155666
562.219667	0.155668
562.432958	0.156076
562.646231	0.156527
562.859486	0.156225
563.072723	0.156633
563.285941	0.156574
563.499141	0.156037
563.712323	0.155944
563.925487	0.156195
564.138632	0.156465
564.351760	0.156133
564.564869	0.156478
564.777960	0.157160
564.991032	0.157393
565.204087	0.157458
565.417123	0.157725
565.630141	0.158244
565.843140	0.158119
566.056122	0.158211
566.269085	0.158266
566.482030	0.158268
566.694957	0.157890
566.907866	0.157566
567.120756	0.157500
567.333628	0.157660
567.546482	0.157779
567.759318	0.158322
567.972135	0.158633
568.184935	0.159066
568.397716	0.158936
568.610478	0.159446
568.823223	0.160020
569.035949	0.160463
569.248657	0.160230
569.461347	0.160376
569.674019	0.160416
569.886672	0.160830
570.099308	0.160738
570.311925	0.160902
570.524523	0.160710
570.737104	0.160673
570.949666	0.160868
571.162210	0.161407
571.374736	0.161245
571.587244	0.161496
571.799733	0.161565
572.012205	0.162052
572.224658	0.162087
572.437092	0.162074
572.649509	0.162388
572.861907	0.162283
573.074287	0.162663
573.286649	0.163520
573.498993	0.163520
573.711318	0.163381
573.923625	0.163435
574.135914	0.163505
574.348185	0.164291
574.560438	0.164218
574.772672	0.164315
574.984888	0.164143
575.197086	0.163929
575.409266	0.163952
575.621427	0.164113
575.833570	0.164088
576.045695	0.164114
576.257802	0.164232
576.469890	0.164108
576.681961	0.164296
576.894013	0.164676
577.106046	0.164557
577.318062	0.164551
577.530059	0.164867
577.742039	0.165022
577.954000	0.165357
578.165942	0.165257
578.377867	0.165726
578.589773	0.165634
578.801661	0.165415
579.013531	0.165450
579.225382	0.165659
579.437216	0.165648
579.649031	0.165947
579.860828	0.165781
580.072606	0.165971
580.284367	0.166065
580.496109	0.166270
580.707833	0.166729
580.919539	0.167438
581.131227	0.167507
581.342896	0.167724
581.554547	0.167946
581.766180	0.168307
581.977795	0.168242
582.189391	0.168146
582.400969	0.168557
582.612529	0.168849
582.824071	0.168401
583.035595	0.168816
583.247100	0.168686
583.458587	0.168687
583.670056	0.168487
583.881506	0.168654
584.092939	0.168480
584.304353	0.168319
584.515749	0.167906
584.727127	0.168473
584.938486	0.168757
585.149828	0.169170
585.361151	0.168749
585.572456	0.169435
585.783742	0.169559
585.995011	0.170280
586.206261	0.170530
586.417493	0.171111
586.628706	0.170745
586.839902	0.170266
587.051079	0.169802
587.262238	0.170337
587.473379	0.170246
587.684502	0.170256
587.895606	0.170092
588.106692	0.170193
588.317760	0.169944
588.528810	0.170138
588.739841	0.170394
588.950855	0.170773
589.161850	0.170777
589.372827	0.170671
589.583785	0.170807
589.794726	0.171243
590.005648	0.171122
590.216552	0.171226
590.427437	0.171608
590.638305	0.171487
590.849154	0.171719
591.059985	0.171945
591.270798	0.172275
591.481592	0.172625
591.692369	0.172563
591.903127	0.172868
592.113867	0.173167
592.324588	0.172929
592.535292	0.173353
592.745977	0.173311
592.956644	0.173252
593.167293	0.173099
593.377923	0.173243
593.588536	0.173360
593.799130	0.173412
594.009706	0.173580
594.220263	0.173851
594.430803	0.173863
594.641324	0.173881
594.851827	0.173951
595.062312	0.174292
595.272778	0.174151
595.483227	0.174234
595.693657	0.174533
595.904069	0.174043
596.114462	0.173906
596.324838	0.174044
596.535195	0.174514
596.745534	0.174718
596.955855	0.174886
597.166157	0.175271
597.376441	0.175441
597.586707	0.175408
597.796955	0.175993
598.007185	0.176260
598.217396	0.176377
598.427589	0.176216
598.637764	0.176446
598.847921	0.176358
599.058060	0.176170
599.268180	0.175723
599.478282	0.175757
599.688366	0.175932
599.898431	0.175938
600.108479	0.175789
600.318508	0.175851
600.528519	0.175923
600.738511	0.176035
600.948486	0.176439
601.158442	0.176965
601.368380	0.176905
601.578300	0.176977
601.788202	0.176934
601.998085	0.177141
602.207950	0.177327
602.417797	0.177269
602.627626	0.177362
602.837436	0.177317
603.047228	0.177360
603.257002	0.177956
603.466758	0.177788
603.676496	0.178314
603.886215	0.178603
604.095916	0.178560
604.305599	0.178634
604.515264	0.178677
604.724910	0.178777
604.934538	0.178803
605.144148	0.178928
605.353740	0.179181
605.563314	0.178841
605.772869	0.178880
605.982406	0.178966
606.191925	0.179438
606.401425	0.179768
606.610908	0.179766
606.820372	0.180030
607.029818	0.179821
607.239246	0.179772
607.448655	0.180151
607.658047	0.180212
607.867420	0.180311
608.076775	0.179765
608.286111	0.179643
608.495430	0.179393
608.704730	0.179230
608.914012	0.179383
609.123275	0.179408
609.332521	0.179539
609.541748	0.179581
609.750957	0.179627
609.960148	0.180091
610.169321	0.179915
610.378475	0.180130
610.587611	0.180117
610.796729	0.179984
611.005829	0.180498
611.214910	0.180471
611.423974	0.180688
611.633019	0.180840
611.842045	0.180755
612.051054	0.181046
612.260044	0.181377
612.469017	0.181778
612.677970	0.181979
612.886906	0.181657
613.095824	0.181687
613.304723	0.181706
613.513604	0.181865
613.722467	0.181895
613.931311	0.182070
614.140138	0.182137
614.348946	0.182322
614.557736	0.182614
614.766507	0.182933
614.975261	0.183166
615.183996	0.183128
615.392713	0.183132
615.601412	0.183339
615.810092	0.183406
616.018754	0.183376
616.227399	0.183417
616.436024	0.183583
616.644632	0.183488
616.853222	0.183703
617.061793	0.183935
617.270346	0.183972
617.478880	0.184112
617.687397	0.184128
617.895895	0.184360
618.104375	0.184121
618.312837	0.183880
618.521281	0.184141
618.729706	0.183980
618.938113	0.184147
619.146502	0.184446
619.354873	0.184557
619.563226	0.184692
619.771560	0.184781
619.979876	0.185204
620.188174	0.185531
620.396453	0.185999
620.604715	0.186156
620.812958	0.186157
621.021183	0.186309
621.229390	0.186114
621.437578	0.186351
621.645748	0.186318
621.853900	0.186386
622.062034	0.186275
622.270150	0.185854
622.478247	0.185971
622.686326	0.186019
622.894387	0.186026
623.102430	0.186431
623.310454	0.186500
623.518461	0.186505
623.726449	0.186398
623.934418	0.186308
624.142370	0.186304
624.350303	0.186058
624.558218	0.186000
624.766115	0.186030
624.973994	0.185929
625.181855	0.185948
625.389697	0.186149
625.597521	0.186251
625.805327	0.186384
626.013114	0.186825
626.220883	0.186858
626.428634	0.187086
626.636367	0.187156
626.844082	0.187252
627.051778	0.187360
627.259457	0.187433
627.467117	0.187347
627.674758	0.187341
627.882382	0.186971
628.089987	0.187331
628.297574	0.187393
628.505143	0.187044
628.712694	0.187131
628.920226	0.187093
629.127740	0.187340
629.335236	0.187533
629.542714	0.187794
629.750174	0.187949
629.957615	0.188175
630.165038	0.188276
630.372443	0.188527
630.579829	0.188652
630.787198	0.188864
630.994548	0.188706
631.201880	0.189053
631.409194	0.189185
631.616489	0.189471
631.823766	0.189645
632.031025	0.189782
632.238266	0.189902
632.445489	0.189979
632.652693	0.190079
632.859879	0.189948
633.067047	0.189996
633.274197	0.190067
633.481329	0.190019
633.688442	0.189789
633.895537	0.189930
634.102614	0.190212
634.309672	0.190374
634.516713	0.190245
634.723735	0.190884
634.930739	0.190827
635.137724	0.190805
635.344692	0.191034
635.551641	0.191268
635.758572	0.191345
635.965485	0.191499
636.172379	0.191679
636.379256	0.191917
636.586114	0.191878
636.792954	0.191766
636.999775	0.192014
637.206579	0.192336
637.413364	0.192301
637.620131	0.192350
637.826880	0.192434
638.033610	0.192613
638.240323	0.192729
638.447017	0.192626
638.653692	0.192898
638.860350	0.192827
639.066990	0.192384
639.273611	0.192400
639.480214	0.192584
639.686798	0.192498
639.893365	0.192216
640.099913	0.192006
640.306443	0.192088
640.512955	0.192055
640.719449	0.192324
640.925924	0.192737
641.132381	0.192790
641.338820	0.192631
641.545241	0.192727
641.751644	0.192831
641.958028	0.193165
642.164394	0.193200
642.370742	0.193572
642.577071	0.193473
642.783383	0.193667
642.989676	0.193694
643.195951	0.193877
643.402207	0.194155
643.608446	0.194381
643.814666	0.194564
644.020868	0.194994
644.227052	0.194869
644.433218	0.195150
644.639365	0.194906
644.845494	0.195352
645.051605	0.195334
645.257698	0.195368
645.463772	0.195569
645.669828	0.195701
645.875866	0.195641
646.081886	0.195851
646.287888	0.195778
646.493871	0.196071
646.699836	0.196046
646.905783	0.196275
647.111712	0.196182
647.317622	0.196248
647.523514	0.196383
647.729388	0.196146
647.935244	0.196346
648.141082	0.196314
648.346901	0.196504
648.552702	0.196718
648.758485	0.197066
648.964250	0.197516
649.169996	0.197637
649.375724	0.197618
649.581434	0.198062
649.787126	0.198213
649.992800	0.198487
650.198455	0.198278
650.404092	0.198213
650.609711	0.198244
650.815311	0.198294
651.020894	0.198248
651.226458	0.198216
651.432004	0.198264
651.637532	0.198234
651.843041	0.198391
652.048532	0.198668
652.254006	0.198784
652.459460	0.198663
652.664897	0.198844
652.870315	0.199029
653.075716	0.199293
653.281097	0.199393
653.486461	0.199629
653.691807	0.199486
653.897134	0.199766
654.102443	0.200002
654.307734	0.200159
654.513006	0.200022
654.718261	0.200195
654.923497	0.199954
655.128715	0.200056
655.333915	0.200163
655.539096	0.200275
655.744259	0.200149
655.949404	0.200214
656.154531	0.200523
656.359640	0.200712
656.564730	0.200606
656.769802	0.201146
656.974856	0.201288
657.179892	0.201228
657.384909	0.201490
657.589908	0.201622
657.794889	0.201615
657.999852	0.201785
658.204797	0.201914
658.409723	0.202118
658.614631	0.202249
658.819521	0.202340
659.024393	0.202509
659.229246	0.202619
659.434081	0.202827
659.638898	0.203092
659.843697	0.202764
660.048478	0.202929
660.253240	0.202928
660.457984	0.202875
660.662710	0.202782
660.867417	0.202722
661.072107	0.202871
661.276778	0.202981
661.481431	0.203129
661.686066	0.203301
661.890682	0.203297
662.095281	0.203499
662.299861	0.203581
662.504422	0.203758
662.708966	0.204052
662.913491	0.204329
663.117999	0.204436
663.322488	0.204558
663.526958	0.205008
663.731411	0.205395
663.935845	0.205516
664.140261	0.205908
664.344659	0.206135
664.549038	0.206232
664.753400	0.206378
664.957743	0.206600
665.162068	0.206563
665.366375	0.206516
665.570663	0.206477
665.774933	0.206728
665.979185	0.206658
666.183419	0.206987
666.387635	0.206962
666.591832	0.206987
666.796011	0.206836
667.000172	0.207033
667.204315	0.207075
667.408439	0.207127
667.612545	0.207153
667.816634	0.207289
668.020703	0.207202
668.224755	0.207401
668.428788	0.207515
668.632803	0.207929
668.836800	0.207981
669.040779	0.208218
669.244739	0.208414
669.448681	0.208716
669.652605	0.208895
669.856511	0.208910
670.060399	0.208913
670.264268	0.208992
670.468119	0.208925
670.671952	0.209028
670.875767	0.209005
671.079563	0.208898
671.283341	0.209115
671.487101	0.209217
671.690843	0.209485
671.894567	0.209859
672.098272	0.209839
672.301959	0.210021
672.505628	0.210292
672.709278	0.210562
672.912911	0.210823
673.116525	0.210451
673.320121	0.210274
673.523699	0.210448
673.727258	0.210438
673.930799	0.210870
674.134322	0.210978
674.337827	0.210918
674.541314	0.210963
674.744782	0.211272
674.948232	0.211743
675.151664	0.211961
675.355078	0.211978
675.558474	0.212155
675.761851	0.212047
675.965210	0.212264
676.168551	0.212280
676.371873	0.212320
676.575178	0.212149
676.778464	0.212163
676.981732	0.212269
677.184981	0.212350
677.388213	0.212333
677.591426	0.212639
677.794621	0.212932
677.997798	0.213437
678.200956	0.213752
678.404097	0.214125
678.607219	0.214304
678.810323	0.214550
679.013408	0.214909
679.216476	0.215192
679.419525	0.215077
679.622556	0.214793
679.825569	0.214807
680.028563	0.214891
680.231540	0.214788
680.434498	0.214746
680.637438	0.214816
680.840359	0.214892
681.043263	0.214976
681.246148	0.215332
681.449015	0.215776
681.651864	0.215919
681.854694	0.215948
682.057506	0.216155
682.260301	0.216597
682.463076	0.216881
682.665834	0.216970
682.868573	0.217315
683.071295	0.217516
683.273998	0.217670
683.476682	0.217644
683.679349	0.217983
683.881997	0.218538
684.084627	0.218709
684.287239	0.218794
684.489833	0.218900
684.692408	0.218958
684.894965	0.218850
685.097504	0.218729
685.300025	0.219236
685.502527	0.219291
685.705012	0.218912
685.907478	0.218653
686.109925	0.218565
686.312355	0.218623
686.514766	0.218683
686.717159	0.218803
686.919534	0.219003
687.121891	0.218979
687.324230	0.218915
687.526550	0.219308
687.728852	0.219512
687.931136	0.219694
688.133401	0.219799
688.335649	0.219695
688.537878	0.220002
688.740089	0.220239
688.942281	0.220243
689.144456	0.220366
689.346612	0.220344
689.548750	0.220633
689.750870	0.220721
689.952971	0.220934
690.155055	0.221295
690.357120	0.221141
690.559167	0.221204
690.761195	0.221267
690.963206	0.221209
691.165198	0.221119
691.367172	0.221147
691.569128	0.221396
691.771065	0.221490
691.972984	0.221427
692.174885	0.221690
692.376768	0.221571
692.578633	0.221711
692.780479	0.222208
692.982308	0.222458
693.184118	0.222512
693.385909	0.222651
