sample name	sample
index	905
start time	 04-08-2021  04:08:39 PM


Wavelength (nm)	Absorbance
494.344910	0.024698
494.563924	0.024698
494.782919	0.024698
495.001897	0.735066
495.220856	NaN
495.439797	-1.136348
495.658719	-0.789073
495.877624	-0.603881
496.096510	-0.641426
496.315378	-0.645329
496.534227	-0.766988
496.753059	-0.625989
496.971872	-0.330306
497.190667	0.146648
497.409444	0.164321
497.628203	0.159197
497.846943	0.159113
498.065665	0.160028
498.284369	0.160404
498.503055	0.159432
498.721723	0.161353
498.940372	0.159484
499.159003	0.159804
499.377616	0.158962
499.596210	0.160382
499.814787	0.160005
500.033345	0.160272
500.251885	0.160204
500.470406	0.161939
500.688910	0.161794
500.907395	0.163857
501.125862	0.162957
501.344311	0.164460
501.562742	0.164664
501.781154	0.165360
501.999548	0.165250
502.217924	0.165638
502.436282	0.164311
502.654621	0.163538
502.872942	0.163577
503.091245	0.164346
503.309530	0.163556
503.527797	0.164450
503.746045	0.164700
503.964275	0.165149
504.182487	0.165584
504.400681	0.167409
504.618856	0.167700
504.837013	0.167762
505.055152	0.166960
505.273273	0.167790
505.491376	0.167039
505.709460	0.167535
505.927526	0.168312
506.145574	0.167902
506.363604	0.167004
506.581615	0.167898
506.799608	0.167284
507.017583	0.168657
507.235540	0.167318
507.453478	0.167483
507.671399	0.167759
507.889301	0.167286
508.107185	0.166962
508.325050	0.167337
508.542898	0.167686
508.760727	0.168209
508.978538	0.168410
509.196330	0.169764
509.414105	0.168666
509.631861	0.168875
509.849599	0.169771
510.067319	0.170374
510.285021	0.170386
510.502704	0.170449
510.720369	0.170730
510.938016	0.170948
511.155645	0.169813
511.373255	0.171332
511.590848	0.170955
511.808422	0.170668
512.025977	0.171132
512.243515	0.170577
512.461034	0.170720
512.678536	0.171789
512.896018	0.171833
513.113483	0.172573
513.330930	0.172832
513.548358	0.173253
513.765768	0.172850
513.983160	0.173972
514.200533	0.175441
514.417889	0.174903
514.635226	0.175043
514.852545	0.174538
515.069845	0.175360
515.287128	0.175237
515.504392	0.175247
515.721638	0.175589
515.938866	0.174738
516.156075	0.174921
516.373267	0.175705
516.590440	0.175959
516.807594	0.176534
517.024731	0.176983
517.241850	0.177653
517.458950	0.177861
517.676032	0.178356
517.893095	0.178437
518.110141	0.178719
518.327168	0.179061
518.544177	0.179236
518.761168	0.179362
518.978141	0.178810
519.195095	0.178661
519.412031	0.178798
519.628949	0.179809
519.845849	0.180035
520.062731	0.179574
520.279594	0.179744
520.496439	0.179932
520.713266	0.180125
520.930074	0.180884
521.146865	0.181846
521.363637	0.182541
521.580391	0.181626
521.797127	0.182693
522.013844	0.183349
522.230543	0.183665
522.447224	0.183638
522.663887	0.183918
522.880532	0.183700
523.097158	0.183973
523.313766	0.184035
523.530356	0.184399
523.746928	0.184617
523.963481	0.184773
524.180017	0.184308
524.396534	0.184471
524.613032	0.184901
524.829513	0.185553
525.045975	0.184691
525.262420	0.185674
525.478845	0.186202
525.695253	0.186136
525.911643	0.186521
526.128014	0.186875
526.344367	0.186959
526.560702	0.187391
526.777018	0.187757
526.993316	0.187861
527.209597	0.187781
527.425858	0.188099
527.642102	0.188684
527.858328	0.189039
528.074535	0.190470
528.290724	0.190409
528.506894	0.190495
528.723047	0.190730
528.939181	0.191942
529.155297	0.192206
529.371395	0.192868
529.587475	0.193073
529.803536	0.192667
530.019579	0.192220
530.235604	0.193333
530.451611	0.193986
530.667600	0.194008
530.883570	0.195047
531.099522	0.195572
531.315456	0.195254
531.531372	0.194922
531.747269	0.196148
531.963148	0.196595
532.179009	0.196846
532.394852	0.196618
532.610676	0.196949
532.826482	0.196613
533.042271	0.196768
533.258040	0.197744
533.473792	0.198858
533.689525	0.199174
533.905240	0.199599
534.120937	0.200038
534.336616	0.201474
534.552277	0.202157
534.767919	0.202160
534.983543	0.202177
535.199149	0.202616
535.414736	0.202887
535.630306	0.203013
535.845857	0.203213
536.061390	0.203398
536.276904	0.202593
536.492401	0.202298
536.707879	0.202607
536.923339	0.203201
537.138781	0.203540
537.354204	0.203744
537.569610	0.203274
537.784997	0.203703
538.000366	0.204080
538.215716	0.204990
538.431049	0.206039
538.646363	0.206015
538.861659	0.205715
539.076937	0.205326
539.292196	0.205600
539.507438	0.206196
539.722661	0.206879
539.937866	0.207087
540.153052	0.207079
540.368221	0.207758
540.583371	0.208802
540.798503	0.209627
541.013617	0.210700
541.228712	0.211184
541.443789	0.212048
541.658848	0.212437
541.873889	0.212819
542.088912	0.213158
542.303916	0.212925
542.518902	0.212811
542.733870	0.213170
542.948820	0.213408
543.163752	0.213795
543.378665	0.214505
543.593560	0.214392
543.808437	0.214874
544.023295	0.215810
544.238136	0.216110
544.452958	0.216726
544.667762	0.217098
544.882548	0.217299
545.097315	0.217619
545.312064	0.217855
545.526795	0.218115
545.741508	0.218424
545.956203	0.218397
546.170879	0.218686
546.385537	0.218685
546.600177	0.219358
546.814799	0.219674
547.029402	0.219761
547.243988	0.219717
547.458555	0.220053
547.673103	0.219790
547.887634	0.219802
548.102146	0.220224
548.316640	0.221100
548.531116	0.221039
548.745574	0.221413
548.960013	0.221563
549.174435	0.221975
549.388838	0.222354
549.603222	0.222420
549.817589	0.223148
550.031937	0.223561
550.246267	0.223619
550.460579	0.223735
550.674873	0.223165
550.889148	0.223571
551.103405	0.223767
551.317644	0.223756
551.531865	0.224534
551.746068	0.224389
551.960252	0.224146
552.174418	0.224497
552.388566	0.224929
552.602696	0.225884
552.816807	0.225893
553.030900	0.225684
553.244975	0.226003
553.459032	0.226185
553.673070	0.226012
553.887091	0.226147
554.101093	0.226080
554.315077	0.226276
554.529042	0.226079
554.742990	0.226651
554.956919	0.226903
555.170830	0.226870
555.384722	0.226910
555.598597	0.227629
555.812453	0.228067
556.026291	0.228091
556.240111	0.227866
556.453913	0.228369
556.667696	0.228347
556.881461	0.228606
557.095208	0.229169
557.308937	0.229535
557.522647	0.229632
557.736339	0.230109
557.950013	0.231096
558.163669	0.231830
558.377307	0.231719
558.590926	0.232268
558.804527	0.232824
559.018110	0.232719
559.231675	0.233185
559.445221	0.233794
559.658749	0.233912
559.872259	0.233560
560.085751	0.233456
560.299225	0.234042
560.512680	0.234209
560.726117	0.233865
560.939536	0.233887
561.152937	0.233768
561.366319	0.233564
561.579683	0.233355
561.793029	0.233303
562.006357	0.233544
562.219667	0.233728
562.432958	0.233972
562.646231	0.234557
562.859486	0.234732
563.072723	0.235151
563.285941	0.235578
563.499141	0.236080
563.712323	0.236529
563.925487	0.237000
564.138632	0.237206
564.351760	0.237223
564.564869	0.237271
564.777960	0.237655
564.991032	0.237630
565.204087	0.237921
565.417123	0.238176
565.630141	0.238307
565.843140	0.237896
566.056122	0.238041
566.269085	0.237967
566.482030	0.238289
566.694957	0.238438
566.907866	0.239067
567.120756	0.238753
567.333628	0.238866
567.546482	0.239049
567.759318	0.239615
567.972135	0.239589
568.184935	0.239964
568.397716	0.240055
568.610478	0.240552
568.823223	0.240120
569.035949	0.240393
569.248657	0.240559
569.461347	0.240607
569.674019	0.240669
569.886672	0.240892
570.099308	0.241198
570.311925	0.241657
570.524523	0.241545
570.737104	0.241827
570.949666	0.241905
571.162210	0.241780
571.374736	0.241949
571.587244	0.242320
571.799733	0.242646
572.012205	0.242467
572.224658	0.242636
572.437092	0.242791
572.649509	0.243183
572.861907	0.243651
573.074287	0.244081
573.286649	0.244217
573.498993	0.244253
573.711318	0.244148
573.923625	0.244570
574.135914	0.244483
574.348185	0.244753
574.560438	0.245172
574.772672	0.245285
574.984888	0.245087
575.197086	0.245001
575.409266	0.245251
575.621427	0.245804
575.833570	0.245980
576.045695	0.246466
576.257802	0.246844
576.469890	0.246633
576.681961	0.246741
576.894013	0.247110
577.106046	0.247528
577.318062	0.247248
577.530059	0.247048
577.742039	0.246935
577.954000	0.246871
578.165942	0.246951
578.377867	0.246960
578.589773	0.246986
578.801661	0.247311
579.013531	0.247523
579.225382	0.248093
579.437216	0.248468
579.649031	0.249287
579.860828	0.249769
580.072606	0.249896
580.284367	0.250283
580.496109	0.250961
580.707833	0.251132
580.919539	0.251300
581.131227	0.251733
581.342896	0.251821
581.554547	0.251086
581.766180	0.250677
581.977795	0.251082
582.189391	0.251039
582.400969	0.250500
582.612529	0.250629
582.824071	0.251203
583.035595	0.251052
583.247100	0.251346
583.458587	0.252037
583.670056	0.252475
583.881506	0.252466
584.092939	0.252979
584.304353	0.253689
584.515749	0.253916
584.727127	0.253659
584.938486	0.254069
585.149828	0.254472
585.361151	0.254694
585.572456	0.254877
585.783742	0.254754
585.995011	0.255058
586.206261	0.255249
586.417493	0.255542
586.628706	0.255458
586.839902	0.255200
587.051079	0.255013
587.262238	0.255096
587.473379	0.255599
587.684502	0.255994
587.895606	0.256090
588.106692	0.256203
588.317760	0.256183
588.528810	0.256471
588.739841	0.256868
588.950855	0.257340
589.161850	0.257386
589.372827	0.257027
589.583785	0.257258
589.794726	0.257284
590.005648	0.257193
590.216552	0.257163
590.427437	0.257707
590.638305	0.257843
590.849154	0.257891
591.059985	0.258129
591.270798	0.258401
591.481592	0.258609
591.692369	0.258795
591.903127	0.259224
592.113867	0.259691
592.324588	0.259456
592.535292	0.259832
592.745977	0.259998
592.956644	0.260074
593.167293	0.260555
593.377923	0.260484
593.588536	0.260409
593.799130	0.260551
594.009706	0.260724
594.220263	0.261024
594.430803	0.260921
594.641324	0.260704
594.851827	0.261115
595.062312	0.261368
595.272778	0.261751
595.483227	0.262157
595.693657	0.262403
595.904069	0.262461
596.114462	0.262783
596.324838	0.262778
596.535195	0.262966
596.745534	0.263035
596.955855	0.263031
597.166157	0.263179
597.376441	0.263401
597.586707	0.263505
597.796955	0.263750
598.007185	0.264196
598.217396	0.264680
598.427589	0.265289
598.637764	0.265527
598.847921	0.265775
599.058060	0.265911
599.268180	0.265870
599.478282	0.265946
599.688366	0.266394
599.898431	0.266319
600.108479	0.266755
600.318508	0.266695
600.528519	0.266864
600.738511	0.266737
600.948486	0.266580
601.158442	0.266958
601.368380	0.266943
601.578300	0.266788
601.788202	0.267158
601.998085	0.266976
602.207950	0.267213
602.417797	0.266646
602.627626	0.266931
602.837436	0.267528
603.047228	0.267376
603.257002	0.267890
603.466758	0.268173
603.676496	0.267896
603.886215	0.268079
604.095916	0.268277
604.305599	0.269154
604.515264	0.269244
604.724910	0.269233
604.934538	0.269450
605.144148	0.269250
605.353740	0.269160
605.563314	0.269595
605.772869	0.269731
605.982406	0.269928
606.191925	0.269882
606.401425	0.270182
606.610908	0.270555
606.820372	0.270733
607.029818	0.270778
607.239246	0.271201
607.448655	0.271112
607.658047	0.271232
607.867420	0.271681
608.076775	0.271932
608.286111	0.271826
608.495430	0.271620
608.704730	0.271653
608.914012	0.272229
609.123275	0.272100
609.332521	0.272448
609.541748	0.272592
609.750957	0.272203
609.960148	0.272630
610.169321	0.272950
610.378475	0.273242
610.587611	0.273504
610.796729	0.273506
611.005829	0.273838
611.214910	0.273970
611.423974	0.274168
611.633019	0.274593
611.842045	0.274518
612.051054	0.274568
612.260044	0.274930
612.469017	0.274973
612.677970	0.275082
612.886906	0.275295
613.095824	0.275573
613.304723	0.276198
613.513604	0.276158
613.722467	0.276499
613.931311	0.276636
614.140138	0.276533
614.348946	0.277023
614.557736	0.277405
614.766507	0.277760
614.975261	0.277754
615.183996	0.277326
615.392713	0.277534
615.601412	0.277390
615.810092	0.277685
616.018754	0.277850
616.227399	0.277787
616.436024	0.277697
616.644632	0.277611
616.853222	0.278011
617.061793	0.277997
617.270346	0.278210
617.478880	0.278181
617.687397	0.278072
617.895895	0.278335
618.104375	0.278371
618.312837	0.278234
618.521281	0.278333
618.729706	0.278074
618.938113	0.278278
619.146502	0.278383
619.354873	0.278883
619.563226	0.279051
619.771560	0.278913
619.979876	0.279232
620.188174	0.279748
620.396453	0.279926
620.604715	0.280249
620.812958	0.280590
621.021183	0.280850
621.229390	0.281087
621.437578	0.281287
621.645748	0.281870
621.853900	0.282220
622.062034	0.282280
622.270150	0.282496
622.478247	0.282517
622.686326	0.282617
622.894387	0.282611
623.102430	0.282723
623.310454	0.282818
623.518461	0.282494
623.726449	0.282585
623.934418	0.282661
624.142370	0.282738
624.350303	0.283054
624.558218	0.283557
624.766115	0.283822
624.973994	0.283813
625.181855	0.284014
625.389697	0.284631
625.597521	0.284420
625.805327	0.285000
626.013114	0.285288
626.220883	0.285174
626.428634	0.284809
626.636367	0.284847
626.844082	0.284784
627.051778	0.285015
627.259457	0.285025
627.467117	0.285492
627.674758	0.285379
627.882382	0.285601
628.089987	0.285949
628.297574	0.286550
628.505143	0.286850
628.712694	0.287066
628.920226	0.287187
629.127740	0.287122
629.335236	0.287326
629.542714	0.287156
629.750174	0.286815
629.957615	0.286869
630.165038	0.286889
630.372443	0.286936
630.579829	0.287039
630.787198	0.287253
630.994548	0.287639
631.201880	0.287889
631.409194	0.288302
631.616489	0.288975
631.823766	0.289519
632.031025	0.289873
632.238266	0.290059
632.445489	0.290556
632.652693	0.290565
632.859879	0.290742
633.067047	0.290704
633.274197	0.290712
633.481329	0.290432
633.688442	0.290309
633.895537	0.290268
634.102614	0.289969
634.309672	0.289800
634.516713	0.290140
634.723735	0.290158
634.930739	0.290023
635.137724	0.290127
635.344692	0.290406
635.551641	0.290518
635.758572	0.290551
635.965485	0.290851
636.172379	0.291060
636.379256	0.291079
636.586114	0.291189
636.792954	0.291478
636.999775	0.291993
637.206579	0.292495
637.413364	0.292564
637.620131	0.292733
637.826880	0.293467
638.033610	0.293962
638.240323	0.294336
638.447017	0.294609
638.653692	0.294985
638.860350	0.295082
639.066990	0.294913
639.273611	0.295060
639.480214	0.295181
639.686798	0.295095
639.893365	0.295160
640.099913	0.295576
640.306443	0.295880
640.512955	0.296061
640.719449	0.296032
640.925924	0.296308
641.132381	0.296879
641.338820	0.296930
641.545241	0.297300
641.751644	0.297377
641.958028	0.297255
642.164394	0.297505
642.370742	0.297486
642.577071	0.297899
642.783383	0.297935
642.989676	0.297769
643.195951	0.298421
643.402207	0.298277
643.608446	0.298494
643.814666	0.298751
644.020868	0.299057
644.227052	0.299471
644.433218	0.299716
644.639365	0.300122
644.845494	0.300272
645.051605	0.300217
645.257698	0.300518
645.463772	0.300756
645.669828	0.300691
645.875866	0.300612
646.081886	0.300645
646.287888	0.300719
646.493871	0.300693
646.699836	0.300968
646.905783	0.301020
647.111712	0.301069
647.317622	0.301167
647.523514	0.301814
647.729388	0.302202
647.935244	0.302303
648.141082	0.302316
648.346901	0.302602
648.552702	0.302977
648.758485	0.303136
648.964250	0.303683
649.169996	0.303890
649.375724	0.303762
649.581434	0.303655
649.787126	0.304140
649.992800	0.304449
650.198455	0.304680
650.404092	0.304752
650.609711	0.305198
650.815311	0.305358
651.020894	0.305429
651.226458	0.305584
651.432004	0.305837
651.637532	0.305846
651.843041	0.306335
652.048532	0.306438
652.254006	0.306806
652.459460	0.307184
652.664897	0.307274
652.870315	0.307500
653.075716	0.307788
653.281097	0.308060
653.486461	0.308225
653.691807	0.307832
653.897134	0.308259
654.102443	0.308351
654.307734	0.308192
654.513006	0.308186
654.718261	0.308576
654.923497	0.308849
655.128715	0.308900
655.333915	0.309124
655.539096	0.309688
655.744259	0.309898
655.949404	0.310181
656.154531	0.310185
656.359640	0.310477
656.564730	0.310743
656.769802	0.311204
656.974856	0.311449
657.179892	0.311913
657.384909	0.311996
657.589908	0.312096
657.794889	0.312081
657.999852	0.312327
658.204797	0.312657
658.409723	0.312833
658.614631	0.312634
658.819521	0.312995
659.024393	0.313218
659.229246	0.313689
659.434081	0.313784
659.638898	0.314085
659.843697	0.314395
660.048478	0.314620
660.253240	0.314798
660.457984	0.315133
660.662710	0.315169
660.867417	0.315184
661.072107	0.315027
661.276778	0.315389
661.481431	0.315474
661.686066	0.315924
661.890682	0.316118
662.095281	0.316259
662.299861	0.316413
662.504422	0.316840
662.708966	0.317049
662.913491	0.317611
663.117999	0.317772
663.322488	0.318382
663.526958	0.318948
663.731411	0.319155
663.935845	0.319206
664.140261	0.319456
664.344659	0.319414
664.549038	0.319923
664.753400	0.320233
664.957743	0.320592
665.162068	0.320910
665.366375	0.320595
665.570663	0.320741
665.774933	0.321393
665.979185	0.321610
666.183419	0.322241
666.387635	0.322188
666.591832	0.322569
666.796011	0.322827
667.000172	0.323096
667.204315	0.323625
667.408439	0.323981
667.612545	0.323945
667.816634	0.324308
668.020703	0.324533
668.224755	0.324864
668.428788	0.324824
668.632803	0.325062
668.836800	0.325212
669.040779	0.325474
669.244739	0.325527
669.448681	0.326047
669.652605	0.326243
669.856511	0.326409
670.060399	0.326626
670.264268	0.327226
670.468119	0.327290
670.671952	0.327471
670.875767	0.327380
671.079563	0.327913
671.283341	0.328068
671.487101	0.328523
671.690843	0.328878
671.894567	0.329062
672.098272	0.329053
672.301959	0.329456
672.505628	0.329853
672.709278	0.330385
672.912911	0.330512
673.116525	0.330962
673.320121	0.331359
673.523699	0.331620
673.727258	0.331978
673.930799	0.332169
674.134322	0.332583
674.337827	0.332438
674.541314	0.332611
674.744782	0.333254
674.948232	0.333068
675.151664	0.332958
675.355078	0.332867
675.558474	0.332977
675.761851	0.333082
675.965210	0.333228
676.168551	0.333789
676.371873	0.333913
676.575178	0.333763
676.778464	0.334455
676.981732	0.334758
677.184981	0.335167
677.388213	0.335651
677.591426	0.336021
677.794621	0.336208
677.997798	0.336478
678.200956	0.336853
678.404097	0.336917
678.607219	0.336807
678.810323	0.337091
679.013408	0.337236
679.216476	0.337607
679.419525	0.338040
679.622556	0.338238
679.825569	0.338268
680.028563	0.338547
680.231540	0.338960
680.434498	0.339279
680.637438	0.339520
680.840359	0.339745
681.043263	0.339792
681.246148	0.339980
681.449015	0.340320
681.651864	0.340409
681.854694	0.340624
682.057506	0.340457
682.260301	0.340736
682.463076	0.340868
682.665834	0.341177
682.868573	0.341433
683.071295	0.341557
683.273998	0.341829
683.476682	0.342320
683.679349	0.342513
683.881997	0.343511
684.084627	0.343806
684.287239	0.344039
684.489833	0.344292
684.692408	0.344529
684.894965	0.344512
685.097504	0.344809
685.300025	0.345102
685.502527	0.345129
685.705012	0.345216
685.907478	0.345336
686.109925	0.345561
686.312355	0.345812
686.514766	0.345976
686.717159	0.346306
686.919534	0.346480
687.121891	0.346603
687.324230	0.346963
687.526550	0.346770
687.728852	0.346904
687.931136	0.347159
688.133401	0.347230
688.335649	0.347353
688.537878	0.347869
688.740089	0.347802
688.942281	0.347950
689.144456	0.348059
689.346612	0.348493
689.548750	0.348544
689.750870	0.348645
689.952971	0.348877
690.155055	0.349309
690.357120	0.349375
690.559167	0.349664
690.761195	0.349792
690.963206	0.350210
691.165198	0.350505
691.367172	0.350887
691.569128	0.350925
691.771065	0.351231
691.972984	0.351470
692.174885	0.351589
692.376768	0.351759
692.578633	0.352134
692.780479	0.352255
692.982308	0.352248
693.184118	0.352326
693.385909	0.352921
