sample name	sample
index	1053
start time	 04-19-2021  02:41:33 PM
880	0.517928
Peak Time (s)	100.037
Peak Height 	0.5179
calc peak height	100,103
Baseline Time (s)	9.037
Baseline Value 	-0.004588
subtract baseline	10,4
Abs	0.364325
Peak Time (s)	101.037
Peak Height 	0.3643
calc peak height	100,103
Baseline Time (s)	11.035
Baseline Value 	-1.6873E-4
subtract baseline	10,3
PK_550	0.208798
Peak Time (s)	100.037
Peak Height 	0.2088
calc peak height	100,103
Baseline Time (s)	11.539
Baseline Value 	3.4982E-4
subtract baseline	10,2
PK_880	0.349209
Peak Time (s)	101.037
Peak Height 	0.3492
calc peak height	100,103
Baseline Time (s)	10.034
Baseline Value 	0.001135
subtract baseline	10,1


Time (s)	A880-A510	A880-A775	A880-A975	A880	I510	I775	I975	I880	
0.034500	-0.001804	-0.000007	-0.001024	0.004015	6560.957534	45791.353414	3995.694937	24236.318141
0.536500	-0.001781	-0.000572	-0.001175	0.007211	6534.477569	45422.345361	3987.160849	24080.017783
1.035500	-0.002399	-0.000097	0.000241	0.004571	6551.323232	45727.648989	3997.509612	24209.027163
1.535000	-0.001492	-0.000533	0.000392	0.001699	6583.019446	45968.087972	4005.284332	24350.277064
2.035500	0.001021	0.000074	-0.001914	0.001825	6603.175723	46015.577907	3999.023684	24344.022431
2.542500	-0.000814	-0.000101	-0.003463	0.005360	6557.974400	45649.739799	3986.051749	24170.377766
3.036500	-0.000223	-0.000196	0.006801	-0.000492	6612.279477	46218.836856	4027.698932	24458.611695
3.536500	-0.000180	-0.000182	0.001347	0.001087	6599.263018	46063.428818	4009.333974	24380.475130
4.037000	0.000298	-0.000277	-0.000558	0.001092	6603.260063	46053.422747	4004.396187	24380.211953
4.537000	-0.001928	-0.000475	-0.002453	0.005735	6545.546495	45576.252455	3987.664989	24152.044768
5.037500	-0.002414	-0.001100	0.002092	-0.000212	6591.355739	46101.133820	4014.641186	24444.746903
5.534500	-0.001090	-0.001093	0.005041	-0.000143	6601.964870	46094.999449	4022.161590	24441.331850
6.035000	-0.001289	-0.000316	-0.000955	0.000177	6597.576856	46140.386146	4005.735574	24425.493135
6.535500	0.000999	0.000541	0.002248	0.001351	6607.009719	46108.914832	4010.985016	24367.413939
7.035000	-0.000806	-0.000548	-0.001559	0.000706	6597.187616	46064.919729	4002.814277	24399.324974
7.536000	-0.002040	-0.000966	0.000962	-0.000134	6593.864008	46106.825383	4011.502978	24440.902691
8.036500	-0.000556	-0.000312	0.005041	0.000868	6597.935264	46072.206225	4019.516315	24391.307943
8.536500	-0.001085	-0.000959	-0.000212	-0.000075	6601.434717	46101.543429	4008.307070	24437.950426
9.037000	0.000667	-0.000347	-0.002164	0.000000	6615.659509	46154.931637	4003.073550	24434.247954
9.537000	-0.000480	0.000402	0.002709	0.000199	6604.237214	46209.544663	4015.177636	24424.379851
10.034500	0.000000	0.000866	-0.000287	0.000310	6607.367338	46244.753497	4007.116514	24418.905747
10.535000	-0.000328	-0.000049	0.002188	-0.000189	6608.822861	46203.350966	4014.831278	24443.625347
11.035000	0.001622	0.000327	0.000000	0.000192	6622.149952	46202.883494	4008.164764	24424.747764
11.538500	0.000514	0.000000	0.005044	-0.000707	6620.367492	46259.746134	4023.647706	24469.283850
12.036000	0.000595	0.000011	-0.001065	-0.000239	6617.074666	46214.224744	4006.523861	24446.084046
12.535500	-0.001219	0.000014	0.006239	-0.000544	6604.272985	46244.985237	4026.357962	24461.217670
13.036500	-0.000309	0.000167	0.001342	0.000565	6602.594185	46149.844527	4010.675168	24406.298384
13.537000	-0.000709	0.001017	-0.000238	0.005457	6558.047426	45750.112328	3994.016921	24165.655045
14.037000	-0.000613	0.000130	0.000820	0.002285	6585.489621	45975.611446	4004.875229	24321.362363
14.537000	-0.003139	0.000343	-0.001986	0.002284	6564.264590	45996.784742	3997.661679	24321.401407
15.035000	-0.000066	0.000170	0.006791	-0.000094	6610.237920	46215.671453	4026.625292	24438.916373
15.535000	-0.003388	0.000218	0.003166	0.004581	6542.997167	45757.720580	4005.005968	24208.558686
16.038000	0.001032	-0.000316	0.002870	-0.000147	6620.013827	46172.575403	4016.497416	24441.531826
16.536000	-0.000368	0.000029	-0.000415	0.000121	6605.849313	46180.282514	4007.276551	24428.271171
17.035500	0.001426	0.000145	0.004211	-0.002894	6646.833673	46492.755303	4027.206291	24578.090144
17.536500	-0.001763	-0.000664	-0.002473	0.000534	6590.554383	46070.390520	4000.904701	24407.811139
18.036500	0.000827	0.000136	0.003329	0.001201	6606.828045	46083.602425	4014.183403	24374.851618
18.537000	-0.000047	-0.000943	-0.003218	0.001014	6601.006691	45995.261916	3997.761157	24384.094161
19.037000	-0.001108	-0.000315	-0.001469	0.000570	6595.784910	46101.479489	4003.396394	24406.041919
19.535000	-0.002472	-0.001139	0.003085	0.000358	6586.064143	46040.802624	4015.744589	24416.544481
20.035000	-0.001035	-0.000490	0.003659	0.000850	6594.036345	46056.363497	4015.957816	24392.211658
20.538000	-0.002871	-0.000931	0.003125	0.000441	6582.001582	46053.210086	4015.630462	24412.419075
21.035500	-0.000618	0.000246	0.002128	0.001108	6595.379217	46103.727380	4011.303126	24379.431662
21.536000	-0.000865	-0.000030	-0.002090	0.001372	6591.069664	46050.271919	3999.735112	24366.411775
22.036000	-0.002154	-0.000554	0.003228	0.000939	6583.843974	46041.209066	4014.603178	24387.784481
22.536000	0.000505	0.000394	0.001820	0.001384	6602.542257	46091.023102	4009.788384	24365.789766
23.036500	-0.002268	0.000134	0.000272	0.000829	6583.816009	46120.407054	4007.221242	24393.249321
23.537000	-0.000222	0.000546	0.001973	0.002078	6590.530617	46037.275750	4008.388285	24331.552599
24.037000	0.000326	-0.000489	0.000917	0.001040	6603.947137	46037.610158	4008.342307	24382.803431
24.535000	-0.001312	0.000133	0.001825	0.001222	6588.556256	46081.267795	4010.223548	24373.791904
25.037500	-0.000752	0.000787	0.004352	0.001842	6588.046904	46084.635257	4015.176362	24343.203577
25.535000	-0.003849	-0.000581	0.005399	0.001299	6566.570087	46002.907046	4019.323831	24370.011253
26.035500	-0.000691	-0.000707	-0.001319	0.000502	6599.885021	46069.374149	4003.957563	24409.401958
26.536000	-0.000496	-0.000065	0.004600	0.001757	6590.935866	46008.680000	4016.047069	24347.418565
27.035500	0.000358	0.000284	0.003497	-0.001350	6624.514245	46352.122720	4021.277129	24501.203851
27.537000	-0.000705	0.000914	0.000829	0.004711	6564.321212	45813.458908	3998.657409	24202.157977
28.037000	0.000012	-0.000235	0.005391	0.000131	6608.984921	46153.022950	4022.360460	24427.775260
28.537000	-0.001379	-0.000185	0.000111	0.004383	6561.422764	45737.534027	3997.656876	24218.236735
29.037500	0.001319	0.000483	0.004003	0.000764	6614.712646	46161.480213	4017.078191	24396.445503
29.537500	0.000429	-0.000212	0.005295	0.000307	6611.035570	46137.815583	4021.647604	24419.049862
30.035000	-0.000392	0.000238	0.005973	0.000744	6600.367149	46139.095609	4022.277817	24397.430375
30.535500	-0.001959	-0.000470	0.006147	0.003592	6563.194304	45787.368937	4015.294018	24257.073084
31.036000	-0.000750	0.000117	0.005225	0.002331	6583.944619	45969.881119	4016.179753	24319.117266
31.538500	-0.000347	0.000035	-0.002735	0.001579	6593.687620	46036.160446	3997.550788	24356.183580
32.036000	0.000606	-0.000111	0.001126	-0.000114	6616.107001	46189.636964	4011.873987	24439.877301
32.541500	-0.003221	0.000093	0.004363	0.005129	6539.829344	45691.499334	4006.681574	24181.717832
33.037000	-0.001172	0.000156	0.001971	-0.000161	6601.424736	46221.007129	4014.193249	24442.233427
33.537500	0.000126	0.000505	-0.000256	0.000724	6604.918013	46167.574024	4006.125294	24398.399240
34.040500	-0.000866	-0.000234	0.002839	0.001472	6590.210648	46020.139903	4012.205025	24361.472174
34.535000	0.001362	0.000466	0.001606	0.001873	6605.660671	46049.698666	4007.968819	24341.651717
35.035000	-0.000045	0.000286	0.002613	0.001214	6599.330658	46097.238351	4012.289252	24374.216678
35.535500	0.000199	0.000178	0.004236	0.001177	6601.708835	46090.108722	4016.607636	24376.018533
36.036000	-0.001916	0.000106	0.004113	0.001215	6583.531317	46079.302016	4016.188549	24374.171013
36.536500	-0.001894	-0.000266	-0.000838	0.001361	6582.482228	46027.920165	4002.983626	24366.931386
37.036500	-0.003521	0.000105	-0.005154	0.001261	6569.639390	46074.594835	3992.175427	24371.859316
37.536500	-0.001064	0.000408	0.001967	0.001670	6586.867425	46064.103695	4009.428651	24351.673620
38.037000	-0.000200	-0.000506	-0.000414	0.001390	6596.528704	46001.289718	4004.000391	24365.493892
38.540000	-0.000627	-0.000181	0.002302	0.001225	6594.319356	46049.815763	4011.453764	24373.679073
39.034500	-0.001216	0.000456	0.005867	0.001753	6584.893459	46060.598866	4019.360117	24347.596912
39.535500	-0.001246	-0.000437	0.000234	0.001906	6583.345393	45957.036617	4004.340742	24340.053925
40.035500	-0.000373	-0.000371	0.002362	0.001399	6594.993485	46013.749403	4011.156018	24365.057272
40.535000	-0.001032	0.000440	-0.003683	0.001753	6586.442661	46059.034603	3994.676742	24347.597423
41.036000	-0.000198	-0.000578	0.004111	0.001286	6597.429865	46004.426631	4015.999215	24370.661804
41.536500	-0.001850	-0.000584	0.003343	0.001872	6578.555935	45945.951223	4012.477674	24341.744454
42.036500	-0.000330	-0.000335	0.001946	0.001356	6595.724335	46021.638742	4010.189361	24367.206654
42.536500	-0.002569	-0.000397	0.001645	0.001233	6577.877162	46027.567794	4009.727447	24373.249281
43.040000	-0.000603	-0.000364	0.001920	0.000739	6598.626538	46079.933057	4011.723418	24397.693973
43.537500	-0.000442	0.000366	0.002600	0.003069	6580.328118	45921.505442	4007.448000	24282.794545
44.035000	0.000524	0.001071	0.000074	-0.002796	6638.274301	46575.697586	4016.115597	24573.205771
44.535500	0.000775	0.000039	0.002133	0.002300	6597.076694	45965.161340	4008.229074	24320.609896
45.036000	0.000623	-0.000530	0.003261	-0.000860	6622.598679	46222.270255	4019.379276	24476.884325
45.536000	-0.001285	0.000024	0.000851	0.004954	6557.433724	45701.947224	3998.091059	24190.267619
46.036000	0.000062	0.000561	0.002266	-0.000567	6615.334154	46301.718238	4016.019648	24462.352523
46.536500	0.000608	0.000428	-0.004717	-0.000238	6617.174570	46255.618230	3997.125539	24446.018653
47.037000	0.000377	-0.000616	0.003794	-0.000847	6620.398916	46212.357678	4020.738269	24476.243038
47.540000	-0.001198	-0.000025	0.002654	0.004537	6561.648116	45738.106327	4003.795874	24210.677022
48.037000	0.001137	0.000226	-0.003426	-0.000264	6621.895498	46238.121901	4000.506271	24447.310466
48.535000	-0.001215	0.000143	0.001852	0.001908	6583.588582	46014.230021	4008.514650	24339.933029
49.035000	0.000810	-0.000173	0.001976	-0.000353	6619.873605	46207.364081	4014.707080	24451.742875
49.535000	-0.003882	-0.000610	0.002755	0.003887	6544.665838	45744.503236	4005.735729	24242.588659
50.035500	0.002615	-0.000420	0.006926	-0.000043	6632.611549	46151.858573	4026.845129	24436.355222
50.536000	0.003275	-0.001256	0.004158	0.040049	6310.812868	42271.231122	3919.490594	22539.287098
51.036000	0.027335	0.002114	0.050523	0.496391	4176.346149	16840.301662	3287.155366	9782.344700
51.536500	0.008204	-0.010531	-0.010718	0.239701	5087.417351	27275.188516	3516.036843	15310.050477
52.039500	-0.021766	-0.025177	-0.045427	-0.076819	7108.024269	51642.601931	4092.931666	28596.440140
52.537000	-0.021772	-0.140946	-0.041584	-0.301699	9945.435164	65535.000000	4930.707382	46011.580900
53.034500	-0.005894	-0.149000	-0.018665	-0.309753	10343.173055	65535.000000	5081.976378	46818.157778
53.534500	-0.004938	-0.136308	-0.016591	-0.297060	10145.382918	65535.000000	5028.894398	45553.840078
54.034500	-0.002375	-0.106686	-0.012487	-0.267439	9709.232822	65535.000000	4906.525066	42743.101946
54.535500	-0.003649	-0.071319	-0.006095	-0.229701	9126.398518	65194.566933	4765.724589	39429.049572
55.036000	-0.004025	-0.064150	-0.005507	-0.220166	8986.476499	64856.745756	4727.363617	38636.304406
55.536000	0.000923	-0.069910	-0.001066	-0.228567	9175.680336	65233.967979	4782.670134	39333.852209
56.036500	0.008964	-0.046125	0.004008	-0.196393	8837.824896	64043.492612	4667.845390	36733.959601
56.539000	0.012655	-0.017133	0.007606	-0.141451	8179.650806	60502.997053	4468.992302	32716.108488
57.037000	0.019888	-0.004745	0.012218	-0.086822	7636.375379	55173.570883	4296.619465	29194.632769
57.537500	0.025371	0.000595	0.024496	-0.028604	7097.649087	49192.859222	4154.869460	25898.710925
58.035000	0.034373	0.005162	0.033068	0.000685	6907.220168	46636.975004	4095.692789	24400.359056
58.535000	0.044693	0.014308	0.040425	0.035196	6691.466699	44161.469262	4022.280296	22759.731292
59.035500	0.055963	0.021683	0.053843	0.077475	6431.911008	40982.865843	3949.122652	20919.628270
59.536000	0.066827	0.029240	0.063962	0.109134	6267.949109	38932.457625	3897.605747	19654.405418
60.036000	0.086261	0.040250	0.089164	0.143260	6156.753510	37070.134554	3877.001244	18390.050452
60.536000	0.107212	0.055102	0.107007	0.189968	5970.655637	34660.618941	3813.176717	16812.924520
61.039000	0.132236	0.070487	0.137862	0.224202	5906.743630	33315.938474	3805.977592	15760.078001
61.536500	0.155573	0.083612	0.170153	0.268617	5765.482642	31208.749758	3780.609900	14512.159992
62.037000	0.179433	0.096334	0.189584	0.301829	5704.967319	29908.802700	3752.617161	13658.939017
62.535000	0.196161	0.105971	0.205321	0.331169	5625.400195	28715.442063	3725.847941	12957.625273
63.035000	0.217258	0.117486	0.224842	0.355254	5606.884229	27981.826454	3717.051877	12416.275553
63.535500	0.231355	0.126255	0.238388	0.371618	5592.921203	27548.806412	3711.667944	12065.246419
64.035500	0.246109	0.135833	0.255169	0.405950	5475.324591	26188.836144	3678.904666	11370.380639
64.536000	0.256060	0.141978	0.273141	0.414137	5485.707530	26080.104369	3697.007854	11212.632231
65.036000	0.265120	0.150765	0.280935	0.435742	5412.792908	25408.897521	3671.572392	10810.333674
65.539000	0.274308	0.156665	0.289042	0.466329	5293.181913	24170.718368	3631.868660	10273.967593
66.036500	0.286670	0.163535	0.300161	0.493635	5213.079350	23197.672877	3604.522883	9826.012930
66.537000	0.294582	0.169465	0.308884	0.493038	5258.351326	23503.495228	3620.141969	9835.503696
67.037000	0.304379	0.175275	0.317035	0.500909	5268.722210	23406.415746	3620.616811	9711.361579
67.534500	0.306256	0.179798	0.313925	0.514982	5203.821886	22962.686667	3592.059442	9494.930259
68.035000	0.307736	0.182946	0.328113	0.509954	5238.224052	23341.965033	3624.070271	9571.441750
68.535500	0.307000	0.182114	0.327452	0.506959	5250.292215	23443.555734	3628.056137	9617.457108
69.035500	0.312516	0.185733	0.332831	0.507083	5279.339295	23608.695330	3637.108480	9615.544041
69.536000	0.319087	0.186823	0.333500	0.504784	5327.920057	23770.130474	3642.270545	9651.063758
70.038500	0.317025	0.188165	0.337395	0.504468	5318.275676	23849.532534	3649.652395	9655.954355
70.536500	0.319582	0.189009	0.340816	0.504177	5334.024916	23904.141056	3656.221686	9660.477369
71.036500	0.319439	0.189424	0.341492	0.503364	5337.742210	23963.348946	3658.872210	9673.101488
71.537000	0.321275	0.190600	0.340156	0.506605	5329.948472	23863.844270	3650.753009	9622.906635
72.037500	0.322573	0.190981	0.343978	0.504447	5349.163913	23986.175075	3661.378260	9656.283018
72.534500	0.327086	0.192008	0.340020	0.506083	5365.277294	23956.796104	3651.435518	9630.975373
73.035000	0.327285	0.191744	0.338843	0.505997	5366.877782	23948.186716	3649.510915	9632.296874
73.535000	0.327882	0.193571	0.348728	0.508085	5358.508978	23935.643004	3663.370392	9600.124892
74.035500	0.326582	0.194063	0.350398	0.508733	5347.620640	23928.119970	3665.205363	9590.163571
74.538500	0.327482	0.195038	0.353189	0.509213	5349.962996	23951.975397	3669.371009	9582.798420
75.036000	0.332075	0.195226	0.344711	0.508523	5379.638354	23994.370074	3655.420471	9593.387042
75.536500	0.332955	0.195455	0.348504	0.507368	5391.169991	24061.356083	3664.255163	9611.153411
76.037000	0.332220	0.196683	0.349554	0.507656	5385.370575	24107.003048	3665.623020	9606.718597
76.537000	0.332620	0.197092	0.348936	0.506597	5393.652469	24178.493302	3666.419278	9623.044884
77.037500	0.331074	0.199197	0.353130	0.507633	5379.019612	24230.684449	3672.124851	9607.081278
77.535000	0.333192	0.199094	0.352904	0.508940	5383.602296	24161.869000	3669.349819	9586.994367
78.035000	0.335589	0.199029	0.352205	0.506800	5409.422609	24263.195314	3671.957825	9619.904289
78.535500	0.335930	0.200164	0.354425	0.506283	5414.332525	24344.196427	3676.934533	9627.875685
79.038500	0.336642	0.199642	0.353386	0.505309	5424.012876	24366.410393	3676.816722	9642.930978
79.536000	0.336133	0.202778	0.354077	0.511036	5388.390420	24239.356862	3667.682407	9554.907361
80.036000	0.338376	0.201800	0.352250	0.506119	5429.343109	24432.892346	3673.275953	9630.419452
80.536500	0.336950	0.201273	0.354082	0.505564	5424.321382	24434.234720	3677.622378	9638.993725
81.037000	0.337848	0.201238	0.350946	0.504988	5432.817907	24460.927258	3672.960166	9647.904329
81.537500	0.333996	0.202019	0.354797	0.507138	5398.401016	24393.423093	3676.056303	9614.704161
82.034500	0.339850	0.202604	0.353634	0.505257	5442.850639	24515.227575	3677.364671	9643.744539
82.535000	0.339083	0.204264	0.354941	0.507338	5426.393029	24494.384402	3675.953228	9611.620865
83.035500	0.341764	0.203278	0.354267	0.506468	5446.923130	24488.652629	3676.311085	9625.028040
83.538500	0.336678	0.203563	0.353882	0.506667	5416.420674	24492.893730	3675.246981	9621.955245
84.035500	0.338338	0.202484	0.355324	0.505436	5433.061194	24500.419070	3680.127739	9640.969512
84.536000	0.338309	0.202636	0.350721	0.505629	5431.785418	24498.438313	3671.392009	9637.994960
85.036500	0.339246	0.203226	0.365213	0.506680	5431.122011	24475.553883	3696.125201	9621.751809
85.537000	0.341993	0.203426	0.357884	0.507287	5443.501002	24455.451889	3681.428893	9612.398177
86.037500	0.341764	0.203742	0.357265	0.507575	5440.505120	24456.855696	3679.764924	9607.962790
86.537000	0.342367	0.203025	0.356977	0.507670	5443.453125	24416.809162	3679.066424	9606.512121
87.035000	0.343424	0.203361	0.354842	0.508024	5447.526901	24415.860339	3674.523607	9601.055285
87.535000	0.339453	0.202025	0.357881	0.507283	5428.835635	24386.555765	3681.430012	9612.458430
88.038000	0.343386	0.204480	0.355884	0.510039	5435.631619	24371.715729	3672.755133	9570.141725
88.536000	0.346033	0.204231	0.360540	0.509707	5452.910941	24375.841601	3681.860976	9575.226464
89.036000	0.343864	0.204038	0.358555	0.510111	5437.978965	24346.499801	3677.487887	9569.045015
89.536500	0.345929	0.203843	0.358945	0.512728	5434.794146	24208.728828	3673.432306	9529.125075
90.036500	0.346381	0.204423	0.363310	0.512833	5436.793014	24231.882297	3681.207249	9527.514887
90.537000	0.346799	0.205581	0.362488	0.513238	5436.868856	24268.792687	3678.959733	9521.365898
91.037000	0.344806	0.203775	0.363093	0.512045	5432.247980	24238.778574	3682.256996	9539.522657
91.534500	0.347564	0.206262	0.359676	0.514466	5434.196254	24242.009457	3671.604255	9502.742770
92.035000	0.345869	0.204991	0.361292	0.513205	5431.683044	24241.480736	3676.834607	9521.860542
92.538000	0.346103	0.204423	0.361496	0.512903	5434.785746	24228.497751	3677.760622	9526.458938
93.035500	0.350623	0.206486	0.365912	0.515387	5446.581570	24207.974648	3681.297483	9488.804488
93.535500	0.349470	0.206697	0.360052	0.515423	5439.687608	24216.506618	3670.552700	9488.259910
94.036500	0.347165	0.206654	0.359944	0.515367	5426.694272	24217.119678	3670.457061	9489.097896
94.539500	0.348196	0.206039	0.362081	0.514964	5434.965939	24206.752245	3675.068319	9495.191809
95.036000	0.347658	0.206508	0.360663	0.515214	5430.413839	24217.437423	3672.036716	9491.407004
95.540000	0.349136	0.207557	0.361372	0.515678	5436.277091	24246.079023	3672.481727	9484.402279
96.034500	0.346112	0.206515	0.361442	0.514421	5426.078149	24256.590213	3674.893479	9503.417929
96.534500	0.349164	0.207742	0.364495	0.515573	5437.044701	24260.251562	3678.360470	9485.987890
97.038000	0.346689	0.207430	0.364657	0.514632	5428.190607	24291.085187	3680.381315	9500.227728
97.535500	0.348668	0.208062	0.362257	0.515332	5435.572872	24287.733985	3674.718949	9489.631797
