sample name	sample
index	1263
start time	 04-29-2021  01:23:42 PM


Wavelength (nm)	Absorbance
494.344910	-0.158487
494.563924	-0.158487
494.782919	-0.158487
495.001897	-0.309468
495.220856	-0.113591
495.439797	-0.076594
495.658719	-0.068277
495.877624	-0.035102
496.096510	-0.016548
496.315378	0.014433
496.534227	-0.061638
496.753059	-0.063707
496.971872	-0.009030
497.190667	0.103479
497.409444	0.121910
497.628203	0.131931
497.846943	0.130095
498.065665	0.133172
498.284369	0.133727
498.503055	0.135885
498.721723	0.135210
498.940372	0.135202
499.159003	0.135350
499.377616	0.134291
499.596210	0.132443
499.814787	0.133850
500.033345	0.133488
500.251885	0.133202
500.470406	0.133604
500.688910	0.134922
500.907395	0.134375
501.125862	0.133546
501.344311	0.135172
501.562742	0.135871
501.781154	0.134489
501.999548	0.133817
502.217924	0.134345
502.436282	0.133956
502.654621	0.133690
502.872942	0.133290
503.091245	0.134814
503.309530	0.133564
503.527797	0.133630
503.746045	0.133823
503.964275	0.134480
504.182487	0.133424
504.400681	0.133129
504.618856	0.132957
504.837013	0.133622
505.055152	0.132955
505.273273	0.134066
505.491376	0.134986
505.709460	0.136139
505.927526	0.135867
506.145574	0.136112
506.363604	0.136840
506.581615	0.136611
506.799608	0.136517
507.017583	0.135630
507.235540	0.134783
507.453478	0.133223
507.671399	0.132947
507.889301	0.133994
508.107185	0.133654
508.325050	0.133055
508.542898	0.131624
508.760727	0.132069
508.978538	0.132572
509.196330	0.131724
509.414105	0.132247
509.631861	0.132464
509.849599	0.130742
510.067319	0.131403
510.285021	0.131558
510.502704	0.132878
510.720369	0.131686
510.938016	0.131343
511.155645	0.132210
511.373255	0.132716
511.590848	0.132323
511.808422	0.134019
512.025977	0.134129
512.243515	0.134039
512.461034	0.134008
512.678536	0.134658
512.896018	0.135404
513.113483	0.135433
513.330930	0.134873
513.548358	0.134495
513.765768	0.134100
513.983160	0.133556
514.200533	0.134165
514.417889	0.134387
514.635226	0.135039
514.852545	0.134870
515.069845	0.134868
515.287128	0.134991
515.504392	0.135052
515.721638	0.134792
515.938866	0.135888
516.156075	0.135423
516.373267	0.134729
516.590440	0.134782
516.807594	0.135505
517.024731	0.135105
517.241850	0.134762
517.458950	0.135356
517.676032	0.136257
517.893095	0.135781
518.110141	0.135649
518.327168	0.136770
518.544177	0.137101
518.761168	0.136533
518.978141	0.137460
519.195095	0.138744
519.412031	0.138283
519.628949	0.136962
519.845849	0.137623
520.062731	0.137567
520.279594	0.137704
520.496439	0.136848
520.713266	0.137652
520.930074	0.137537
521.146865	0.137865
521.363637	0.138158
521.580391	0.138604
521.797127	0.138771
522.013844	0.139221
522.230543	0.138780
522.447224	0.138643
522.663887	0.138486
522.880532	0.138710
523.097158	0.138121
523.313766	0.138327
523.530356	0.138917
523.746928	0.139004
523.963481	0.138521
524.180017	0.138837
524.396534	0.139552
524.613032	0.138394
524.829513	0.137961
525.045975	0.137348
525.262420	0.137188
525.478845	0.136853
525.695253	0.136445
525.911643	0.136775
526.128014	0.136806
526.344367	0.136265
526.560702	0.137248
526.777018	0.137621
526.993316	0.138016
527.209597	0.138270
527.425858	0.138879
527.642102	0.138686
527.858328	0.138946
528.074535	0.138253
528.290724	0.138799
528.506894	0.138767
528.723047	0.139117
528.939181	0.139481
529.155297	0.139101
529.371395	0.138671
529.587475	0.139238
529.803536	0.139100
530.019579	0.139919
530.235604	0.139706
530.451611	0.140366
530.667600	0.139660
530.883570	0.139089
531.099522	0.139734
531.315456	0.139949
531.531372	0.139486
531.747269	0.139672
531.963148	0.139428
532.179009	0.139673
532.394852	0.139233
532.610676	0.139827
532.826482	0.140326
533.042271	0.140212
533.258040	0.139879
533.473792	0.140052
533.689525	0.140102
533.905240	0.140072
534.120937	0.140039
534.336616	0.140445
534.552277	0.140356
534.767919	0.140461
534.983543	0.140657
535.199149	0.140999
535.414736	0.141519
535.630306	0.142430
535.845857	0.143268
536.061390	0.143297
536.276904	0.143180
536.492401	0.143745
536.707879	0.144020
536.923339	0.144083
537.138781	0.144559
537.354204	0.144619
537.569610	0.144814
537.784997	0.144385
538.000366	0.144909
538.215716	0.145268
538.431049	0.145027
538.646363	0.144546
538.861659	0.145119
539.076937	0.144784
539.292196	0.144521
539.507438	0.144355
539.722661	0.144513
539.937866	0.144098
540.153052	0.143918
540.368221	0.144480
540.583371	0.144619
540.798503	0.144025
541.013617	0.144566
541.228712	0.144884
541.443789	0.144793
541.658848	0.144306
541.873889	0.144385
542.088912	0.144033
542.303916	0.143258
542.518902	0.143295
542.733870	0.143721
542.948820	0.143677
543.163752	0.143641
543.378665	0.143379
543.593560	0.144073
543.808437	0.144575
544.023295	0.144649
544.238136	0.145087
544.452958	0.145199
544.667762	0.145508
544.882548	0.145631
545.097315	0.145413
545.312064	0.145706
545.526795	0.145481
545.741508	0.145490
545.956203	0.145419
546.170879	0.145444
546.385537	0.145891
546.600177	0.145686
546.814799	0.145498
547.029402	0.145895
547.243988	0.146109
547.458555	0.146323
547.673103	0.146395
547.887634	0.147168
548.102146	0.147256
548.316640	0.147385
548.531116	0.147156
548.745574	0.147065
548.960013	0.147103
549.174435	0.146940
549.388838	0.147026
549.603222	0.146992
549.817589	0.146859
550.031937	0.146832
550.246267	0.147003
550.460579	0.147308
550.674873	0.147935
550.889148	0.148231
551.103405	0.148474
551.317644	0.148861
551.531865	0.148719
551.746068	0.148717
551.960252	0.148911
552.174418	0.148671
552.388566	0.148744
552.602696	0.148261
552.816807	0.148054
553.030900	0.147390
553.244975	0.146890
553.459032	0.147118
553.673070	0.147245
553.887091	0.147415
554.101093	0.147583
554.315077	0.147947
554.529042	0.148587
554.742990	0.148664
554.956919	0.149713
555.170830	0.150157
555.384722	0.150141
555.598597	0.150174
555.812453	0.150167
556.026291	0.150260
556.240111	0.150126
556.453913	0.149893
556.667696	0.150258
556.881461	0.149946
557.095208	0.149955
557.308937	0.149747
557.522647	0.149721
557.736339	0.150013
557.950013	0.150102
558.163669	0.149560
558.377307	0.149463
558.590926	0.149255
558.804527	0.149725
559.018110	0.149922
559.231675	0.150523
559.445221	0.150276
559.658749	0.149938
559.872259	0.149983
560.085751	0.150750
560.299225	0.151160
560.512680	0.151090
560.726117	0.150663
560.939536	0.150503
561.152937	0.150459
561.366319	0.151436
561.579683	0.151751
561.793029	0.151659
562.006357	0.151531
562.219667	0.150958
562.432958	0.150967
562.646231	0.150941
562.859486	0.151433
563.072723	0.151391
563.285941	0.150797
563.499141	0.150738
563.712323	0.151213
563.925487	0.151540
564.138632	0.151939
564.351760	0.152183
564.564869	0.152627
564.777960	0.152443
564.991032	0.152933
565.204087	0.153374
565.417123	0.153569
565.630141	0.153175
565.843140	0.153102
566.056122	0.152798
566.269085	0.153113
566.482030	0.153226
566.694957	0.153116
566.907866	0.152836
567.120756	0.152621
567.333628	0.152756
567.546482	0.153045
567.759318	0.153183
567.972135	0.153515
568.184935	0.153618
568.397716	0.152999
568.610478	0.153158
568.823223	0.153041
569.035949	0.153185
569.248657	0.152799
569.461347	0.152654
569.674019	0.152483
569.886672	0.152800
570.099308	0.152635
570.311925	0.153209
570.524523	0.153259
570.737104	0.153417
570.949666	0.153539
571.162210	0.153909
571.374736	0.154063
571.587244	0.154264
571.799733	0.154397
572.012205	0.154788
572.224658	0.154530
572.437092	0.154257
572.649509	0.154459
572.861907	0.154087
573.074287	0.154459
573.286649	0.154772
573.498993	0.154673
573.711318	0.154426
573.923625	0.154247
574.135914	0.154165
574.348185	0.154492
574.560438	0.154663
574.772672	0.155124
574.984888	0.155074
575.197086	0.154715
575.409266	0.155165
575.621427	0.155163
575.833570	0.155330
576.045695	0.155610
576.257802	0.155742
576.469890	0.155482
576.681961	0.155332
576.894013	0.154951
577.106046	0.155242
577.318062	0.154981
577.530059	0.155032
577.742039	0.154968
577.954000	0.154927
578.165942	0.154628
578.377867	0.154565
578.589773	0.154673
578.801661	0.154915
579.013531	0.154932
579.225382	0.154693
579.437216	0.154868
579.649031	0.154648
579.860828	0.154761
580.072606	0.155265
580.284367	0.155515
580.496109	0.155559
580.707833	0.155420
580.919539	0.155260
581.131227	0.155495
581.342896	0.155795
581.554547	0.155965
581.766180	0.156310
581.977795	0.156395
582.189391	0.156536
582.400969	0.156981
582.612529	0.157406
582.824071	0.157585
583.035595	0.157453
583.247100	0.157291
583.458587	0.157301
583.670056	0.157026
583.881506	0.156714
584.092939	0.156815
584.304353	0.156637
584.515749	0.156834
584.727127	0.157022
584.938486	0.157227
585.149828	0.157443
585.361151	0.157779
585.572456	0.157746
585.783742	0.157765
585.995011	0.157895
586.206261	0.157948
586.417493	0.157296
586.628706	0.157456
586.839902	0.157749
587.051079	0.157532
587.262238	0.157611
587.473379	0.158057
587.684502	0.158224
587.895606	0.158163
588.106692	0.158217
588.317760	0.158766
588.528810	0.158668
588.739841	0.158610
588.950855	0.158846
589.161850	0.158680
589.372827	0.158449
589.583785	0.158734
589.794726	0.158748
590.005648	0.158776
590.216552	0.158980
590.427437	0.159171
590.638305	0.159753
590.849154	0.159647
591.059985	0.159827
591.270798	0.160281
591.481592	0.160800
591.692369	0.160972
591.903127	0.161034
592.113867	0.160807
592.324588	0.160748
592.535292	0.160459
592.745977	0.160844
592.956644	0.161112
593.167293	0.160849
593.377923	0.160574
593.588536	0.160525
593.799130	0.160938
594.009706	0.161035
594.220263	0.161111
594.430803	0.161165
594.641324	0.161131
594.851827	0.160969
595.062312	0.160958
595.272778	0.160632
595.483227	0.160640
595.693657	0.160515
595.904069	0.160762
596.114462	0.160783
596.324838	0.161168
596.535195	0.161282
596.745534	0.161446
596.955855	0.161668
597.166157	0.161873
597.376441	0.161737
597.586707	0.161412
597.796955	0.161200
598.007185	0.161324
598.217396	0.161026
598.427589	0.160864
598.637764	0.161053
598.847921	0.161289
599.058060	0.161227
599.268180	0.161604
599.478282	0.161865
599.688366	0.162181
599.898431	0.162461
600.108479	0.162705
600.318508	0.162938
600.528519	0.163075
600.738511	0.163098
600.948486	0.163375
601.158442	0.163296
601.368380	0.162998
601.578300	0.162856
601.788202	0.162786
601.998085	0.162594
602.207950	0.162128
602.417797	0.161753
602.627626	0.161747
602.837436	0.161833
603.047228	0.162047
603.257002	0.162482
603.466758	0.162426
603.676496	0.162392
603.886215	0.162404
604.095916	0.162758
604.305599	0.162706
604.515264	0.162547
604.724910	0.162386
604.934538	0.162186
605.144148	0.162422
605.353740	0.162816
605.563314	0.162854
605.772869	0.163025
605.982406	0.163078
606.191925	0.163267
606.401425	0.163290
606.610908	0.163235
606.820372	0.163053
607.029818	0.163062
607.239246	0.163031
607.448655	0.162939
607.658047	0.162785
607.867420	0.162835
608.076775	0.162748
608.286111	0.162810
608.495430	0.163127
608.704730	0.163331
608.914012	0.162981
609.123275	0.162853
609.332521	0.163087
609.541748	0.163275
609.750957	0.163259
609.960148	0.163340
610.169321	0.163434
610.378475	0.163688
610.587611	0.164030
610.796729	0.164434
611.005829	0.164533
611.214910	0.164706
611.423974	0.164709
611.633019	0.165048
611.842045	0.165336
612.051054	0.165625
612.260044	0.165443
612.469017	0.165593
612.677970	0.165531
612.886906	0.165637
613.095824	0.165188
613.304723	0.165050
613.513604	0.164921
613.722467	0.165153
613.931311	0.164877
614.140138	0.164940
614.348946	0.164626
614.557736	0.164550
614.766507	0.164479
614.975261	0.164969
615.183996	0.164984
615.392713	0.165062
615.601412	0.164642
615.810092	0.164592
616.018754	0.164562
616.227399	0.164768
616.436024	0.165018
616.644632	0.165045
616.853222	0.165152
617.061793	0.165472
617.270346	0.165445
617.478880	0.165739
617.687397	0.165796
617.895895	0.166045
618.104375	0.165983
618.312837	0.165860
618.521281	0.165946
618.729706	0.165678
618.938113	0.165786
619.146502	0.165971
619.354873	0.165715
619.563226	0.166031
619.771560	0.165931
619.979876	0.166006
620.188174	0.166031
620.396453	0.166068
620.604715	0.166114
620.812958	0.166035
621.021183	0.165855
621.229390	0.165905
621.437578	0.165689
621.645748	0.165523
621.853900	0.165493
622.062034	0.165522
622.270150	0.165729
622.478247	0.165796
622.686326	0.165773
622.894387	0.165670
623.102430	0.165930
623.310454	0.166205
623.518461	0.166454
623.726449	0.166753
623.934418	0.166912
624.142370	0.166702
624.350303	0.166642
624.558218	0.166536
624.766115	0.166315
624.973994	0.166355
625.181855	0.166350
625.389697	0.166212
625.597521	0.165807
625.805327	0.166090
626.013114	0.166143
626.220883	0.166200
626.428634	0.166346
626.636367	0.167028
626.844082	0.167000
627.051778	0.167052
627.259457	0.167482
627.467117	0.167658
627.674758	0.167317
627.882382	0.167422
628.089987	0.167513
628.297574	0.167563
628.505143	0.167239
628.712694	0.167447
628.920226	0.167161
629.127740	0.166951
629.335236	0.166940
629.542714	0.166999
629.750174	0.167109
629.957615	0.167078
630.165038	0.166992
630.372443	0.167148
630.579829	0.167185
630.787198	0.167388
630.994548	0.167505
631.201880	0.167782
631.409194	0.167784
631.616489	0.167576
631.823766	0.167549
632.031025	0.167822
632.238266	0.168014
632.445489	0.167971
632.652693	0.168210
632.859879	0.168254
633.067047	0.168288
633.274197	0.168169
633.481329	0.168163
633.688442	0.168478
633.895537	0.168365
634.102614	0.168541
634.309672	0.168621
634.516713	0.168819
634.723735	0.168663
634.930739	0.168770
635.137724	0.169177
635.344692	0.169466
635.551641	0.169644
635.758572	0.169743
635.965485	0.169597
636.172379	0.169483
636.379256	0.169278
636.586114	0.169447
636.792954	0.169350
636.999775	0.169496
637.206579	0.169408
637.413364	0.169110
637.620131	0.168914
637.826880	0.168828
638.033610	0.168897
638.240323	0.168959
638.447017	0.168968
638.653692	0.169032
638.860350	0.168764
639.066990	0.168958
639.273611	0.169089
639.480214	0.169433
639.686798	0.169650
639.893365	0.169641
640.099913	0.169823
640.306443	0.169684
640.512955	0.169640
640.719449	0.169697
640.925924	0.169828
641.132381	0.170081
641.338820	0.170206
641.545241	0.170112
641.751644	0.170147
641.958028	0.170066
642.164394	0.170582
642.370742	0.170698
642.577071	0.170857
642.783383	0.170819
642.989676	0.170648
643.195951	0.170432
643.402207	0.170617
643.608446	0.170979
643.814666	0.171123
644.020868	0.171020
644.227052	0.170924
644.433218	0.171024
644.639365	0.171214
644.845494	0.171474
645.051605	0.171788
645.257698	0.171911
645.463772	0.171660
645.669828	0.171654
645.875866	0.171702
646.081886	0.172105
646.287888	0.172161
646.493871	0.172166
646.699836	0.172184
646.905783	0.172180
647.111712	0.172045
647.317622	0.172340
647.523514	0.172402
647.729388	0.172336
647.935244	0.172097
648.141082	0.172284
648.346901	0.172071
648.552702	0.172167
648.758485	0.172209
648.964250	0.172202
649.169996	0.172105
649.375724	0.172073
649.581434	0.172021
649.787126	0.172160
649.992800	0.172045
650.198455	0.172236
650.404092	0.172160
650.609711	0.172187
650.815311	0.172365
651.020894	0.172445
651.226458	0.172192
651.432004	0.172133
651.637532	0.172146
651.843041	0.172112
652.048532	0.172098
652.254006	0.171830
652.459460	0.171772
652.664897	0.171427
652.870315	0.171468
653.075716	0.171700
653.281097	0.171917
653.486461	0.171995
653.691807	0.172040
653.897134	0.172130
654.102443	0.172480
654.307734	0.172635
654.513006	0.173029
654.718261	0.172986
654.923497	0.173001
655.128715	0.173195
655.333915	0.173328
655.539096	0.173342
655.744259	0.173398
655.949404	0.173333
656.154531	0.173481
656.359640	0.173554
656.564730	0.173871
656.769802	0.174027
656.974856	0.173992
657.179892	0.174014
657.384909	0.174190
657.589908	0.174097
657.794889	0.174196
657.999852	0.174009
658.204797	0.174083
658.409723	0.173909
658.614631	0.173957
658.819521	0.174087
659.024393	0.174212
659.229246	0.174507
659.434081	0.174899
659.638898	0.174982
659.843697	0.175407
660.048478	0.175660
660.253240	0.175805
660.457984	0.176092
660.662710	0.176201
660.867417	0.176257
661.072107	0.176082
661.276778	0.176095
661.481431	0.176093
661.686066	0.175797
661.890682	0.175695
662.095281	0.175548
662.299861	0.175435
662.504422	0.175337
662.708966	0.175341
662.913491	0.175259
663.117999	0.175302
663.322488	0.175484
663.526958	0.175782
663.731411	0.175550
663.935845	0.175667
664.140261	0.175743
664.344659	0.175809
664.549038	0.175825
664.753400	0.175888
664.957743	0.175889
665.162068	0.175794
665.366375	0.175719
665.570663	0.176174
665.774933	0.176325
665.979185	0.176673
666.183419	0.176918
666.387635	0.177314
666.591832	0.177753
666.796011	0.177924
667.000172	0.178135
667.204315	0.178253
667.408439	0.178162
667.612545	0.178458
667.816634	0.178436
668.020703	0.178725
668.224755	0.178855
668.428788	0.178814
668.632803	0.179097
668.836800	0.179365
669.040779	0.179826
669.244739	0.180152
669.448681	0.180177
669.652605	0.180509
669.856511	0.180621
670.060399	0.180904
670.264268	0.181185
670.468119	0.180990
670.671952	0.181143
670.875767	0.180880
671.079563	0.180840
671.283341	0.181004
671.487101	0.181112
671.690843	0.181089
671.894567	0.180593
672.098272	0.180492
672.301959	0.180637
672.505628	0.180595
672.709278	0.180799
672.912911	0.180974
673.116525	0.181115
673.320121	0.181095
673.523699	0.180966
673.727258	0.181206
673.930799	0.181248
674.134322	0.181361
674.337827	0.181531
674.541314	0.181513
674.744782	0.181717
674.948232	0.181588
675.151664	0.181501
675.355078	0.181712
675.558474	0.181740
675.761851	0.181812
675.965210	0.181929
676.168551	0.181833
676.371873	0.181849
676.575178	0.181662
676.778464	0.181677
676.981732	0.181531
677.184981	0.181408
677.388213	0.181554
677.591426	0.181660
677.794621	0.181424
677.997798	0.181393
678.200956	0.181474
678.404097	0.181636
678.607219	0.181531
678.810323	0.181568
679.013408	0.181803
679.216476	0.181589
679.419525	0.181440
679.622556	0.181641
679.825569	0.181726
680.028563	0.181801
680.231540	0.181832
680.434498	0.182051
680.637438	0.182247
680.840359	0.182260
681.043263	0.182448
681.246148	0.182606
681.449015	0.182394
681.651864	0.182343
681.854694	0.182392
682.057506	0.182441
682.260301	0.182542
682.463076	0.182624
682.665834	0.182610
682.868573	0.182654
683.071295	0.182759
683.273998	0.183291
683.476682	0.183564
683.679349	0.183861
683.881997	0.183998
684.084627	0.184213
684.287239	0.184162
684.489833	0.184342
684.692408	0.184615
684.894965	0.184880
685.097504	0.184892
685.300025	0.185193
685.502527	0.185003
685.705012	0.184899
685.907478	0.184945
686.109925	0.185071
686.312355	0.185107
686.514766	0.185198
686.717159	0.185032
686.919534	0.185020
687.121891	0.184967
687.324230	0.185254
687.526550	0.185583
687.728852	0.185483
687.931136	0.185495
688.133401	0.185473
688.335649	0.185640
688.537878	0.185545
688.740089	0.185655
688.942281	0.185688
689.144456	0.185540
689.346612	0.185525
689.548750	0.185742
689.750870	0.185999
689.952971	0.186122
690.155055	0.185873
690.357120	0.186428
690.559167	0.186541
690.761195	0.186786
690.963206	0.186867
691.165198	0.186896
691.367172	0.186906
691.569128	0.186729
691.771065	0.186843
691.972984	0.186990
692.174885	0.186919
692.376768	0.186812
692.578633	0.186564
692.780479	0.186513
692.982308	0.186316
693.184118	0.186256
693.385909	0.186321
