sample name	sample
index	481
start time	 03-11-2021  01:11:30 PM


Wavelength (nm)	Absorbance
494.344910	0.017873
494.563924	0.017873
494.782919	0.017873
495.001897	-0.128615
495.220856	-0.020384
495.439797	-0.014091
495.658719	-0.032476
495.877624	0.008179
496.096510	0.066028
496.315378	0.067108
496.534227	0.043058
496.753059	0.062002
496.971872	0.112967
497.190667	0.180017
497.409444	0.184594
497.628203	0.188678
497.846943	0.185334
498.065665	0.185385
498.284369	0.184786
498.503055	0.185145
498.721723	0.185830
498.940372	0.185996
499.159003	0.186180
499.377616	0.186652
499.596210	0.185751
499.814787	0.186834
500.033345	0.187439
500.251885	0.187790
500.470406	0.187735
500.688910	0.187834
500.907395	0.189278
501.125862	0.189353
501.344311	0.189758
501.562742	0.191337
501.781154	0.192055
501.999548	0.191449
502.217924	0.191497
502.436282	0.190803
502.654621	0.191472
502.872942	0.190546
503.091245	0.190468
503.309530	0.190019
503.527797	0.189956
503.746045	0.189321
503.964275	0.190404
504.182487	0.191353
504.400681	0.192439
504.618856	0.192513
504.837013	0.193888
505.055152	0.195226
505.273273	0.194915
505.491376	0.194094
505.709460	0.193266
505.927526	0.191413
506.145574	0.190593
506.363604	0.190547
506.581615	0.190380
506.799608	0.189752
507.017583	0.189685
507.235540	0.189753
507.453478	0.189493
507.671399	0.190242
507.889301	0.191830
508.107185	0.192653
508.325050	0.192772
508.542898	0.193822
508.760727	0.193711
508.978538	0.193476
509.196330	0.194485
509.414105	0.194809
509.631861	0.195085
509.849599	0.194541
510.067319	0.195319
510.285021	0.194961
510.502704	0.194077
510.720369	0.194025
510.938016	0.193702
511.155645	0.194138
511.373255	0.194586
511.590848	0.195161
511.808422	0.195838
512.025977	0.195060
512.243515	0.196005
512.461034	0.196242
512.678536	0.196574
512.896018	0.197483
513.113483	0.197523
513.330930	0.198613
513.548358	0.197811
513.765768	0.197712
513.983160	0.198158
514.200533	0.197843
514.417889	0.198186
514.635226	0.197928
514.852545	0.197835
515.069845	0.197248
515.287128	0.197930
515.504392	0.198939
515.721638	0.199123
515.938866	0.199670
516.156075	0.200275
516.373267	0.200044
516.590440	0.200777
516.807594	0.201568
517.024731	0.202251
517.241850	0.201757
517.458950	0.202048
517.676032	0.202664
517.893095	0.202820
518.110141	0.203443
518.327168	0.204507
518.544177	0.204597
518.761168	0.203173
518.978141	0.202788
519.195095	0.202768
519.412031	0.202593
519.628949	0.202690
519.845849	0.202969
520.062731	0.203125
520.279594	0.203101
520.496439	0.203441
520.713266	0.204560
520.930074	0.204377
521.146865	0.205466
521.363637	0.205592
521.580391	0.205384
521.797127	0.205408
522.013844	0.205017
522.230543	0.204691
522.447224	0.204811
522.663887	0.205272
522.880532	0.206529
523.097158	0.206064
523.313766	0.206970
523.530356	0.207414
523.746928	0.206792
523.963481	0.207909
524.180017	0.208815
524.396534	0.209236
524.613032	0.209634
524.829513	0.208783
525.045975	0.208849
525.262420	0.209232
525.478845	0.209011
525.695253	0.210286
525.911643	0.209769
526.128014	0.209273
526.344367	0.209531
526.560702	0.209789
526.777018	0.210948
526.993316	0.211514
527.209597	0.211754
527.425858	0.212262
527.642102	0.212554
527.858328	0.212761
528.074535	0.213725
528.290724	0.213660
528.506894	0.213998
528.723047	0.214150
528.939181	0.213728
529.155297	0.213880
529.371395	0.214112
529.587475	0.213946
529.803536	0.214856
530.019579	0.215190
530.235604	0.215790
530.451611	0.215791
530.667600	0.216424
530.883570	0.217036
531.099522	0.217167
531.315456	0.217584
531.531372	0.218112
531.747269	0.218629
531.963148	0.219401
532.179009	0.219488
532.394852	0.219943
532.610676	0.220457
532.826482	0.220926
533.042271	0.221178
533.258040	0.221835
533.473792	0.222212
533.689525	0.222141
533.905240	0.221396
534.120937	0.222120
534.336616	0.222629
534.552277	0.222898
534.767919	0.223542
534.983543	0.223967
535.199149	0.224611
535.414736	0.225276
535.630306	0.226025
535.845857	0.226820
536.061390	0.226838
536.276904	0.227238
536.492401	0.227463
536.707879	0.227872
536.923339	0.227944
537.138781	0.227723
537.354204	0.228076
537.569610	0.227714
537.784997	0.228078
538.000366	0.228183
538.215716	0.228541
538.431049	0.228602
538.646363	0.228622
538.861659	0.229301
539.076937	0.229839
539.292196	0.229485
539.507438	0.229805
539.722661	0.229850
539.937866	0.230003
540.153052	0.229360
540.368221	0.229537
540.583371	0.229300
540.798503	0.229803
541.013617	0.229812
541.228712	0.230460
541.443789	0.230786
541.658848	0.231044
541.873889	0.230912
542.088912	0.231856
542.303916	0.232407
542.518902	0.233263
542.733870	0.233336
542.948820	0.234078
543.163752	0.234083
543.378665	0.234321
543.593560	0.234791
543.808437	0.235593
544.023295	0.235456
544.238136	0.235686
544.452958	0.235991
544.667762	0.236070
544.882548	0.236323
545.097315	0.236951
545.312064	0.237389
545.526795	0.237547
545.741508	0.238080
545.956203	0.238935
546.170879	0.238941
546.385537	0.239038
546.600177	0.239112
546.814799	0.238909
547.029402	0.238910
547.243988	0.239180
547.458555	0.239825
547.673103	0.239905
547.887634	0.239826
548.102146	0.240483
548.316640	0.241018
548.531116	0.241572
548.745574	0.241866
548.960013	0.242328
549.174435	0.242284
549.388838	0.241910
549.603222	0.242282
549.817589	0.242544
550.031937	0.242426
550.246267	0.242358
550.460579	0.241937
550.674873	0.242164
550.889148	0.242389
551.103405	0.242311
551.317644	0.242963
551.531865	0.242968
551.746068	0.243205
551.960252	0.243267
552.174418	0.243373
552.388566	0.244173
552.602696	0.245188
552.816807	0.244853
553.030900	0.245711
553.244975	0.245727
553.459032	0.246307
553.673070	0.246740
553.887091	0.247203
554.101093	0.247931
554.315077	0.248102
554.529042	0.248207
554.742990	0.248984
554.956919	0.248937
555.170830	0.248763
555.384722	0.248887
555.598597	0.248665
555.812453	0.249066
556.026291	0.249232
556.240111	0.249853
556.453913	0.249961
556.667696	0.249832
556.881461	0.250262
557.095208	0.251055
557.308937	0.250841
557.522647	0.251518
557.736339	0.252009
557.950013	0.251993
558.163669	0.251525
558.377307	0.251833
558.590926	0.252220
558.804527	0.252249
559.018110	0.252313
559.231675	0.253319
559.445221	0.253573
559.658749	0.253867
559.872259	0.254255
560.085751	0.254393
560.299225	0.254209
560.512680	0.254339
560.726117	0.254585
560.939536	0.254672
561.152937	0.254614
561.366319	0.254469
561.579683	0.254048
561.793029	0.254204
562.006357	0.254855
562.219667	0.255005
562.432958	0.255074
562.646231	0.255088
562.859486	0.255125
563.072723	0.255343
563.285941	0.255519
563.499141	0.255918
563.712323	0.256046
563.925487	0.256238
564.138632	0.256305
564.351760	0.256939
564.564869	0.257048
564.777960	0.257658
564.991032	0.257643
565.204087	0.258140
565.417123	0.258245
565.630141	0.258219
565.843140	0.258323
566.056122	0.258812
566.269085	0.258546
566.482030	0.259157
566.694957	0.259507
566.907866	0.260083
567.120756	0.260019
567.333628	0.260560
567.546482	0.261072
567.759318	0.261185
567.972135	0.261549
568.184935	0.261629
568.397716	0.261810
568.610478	0.261620
568.823223	0.261830
569.035949	0.262030
569.248657	0.261813
569.461347	0.261871
569.674019	0.261653
569.886672	0.261484
570.099308	0.261978
570.311925	0.262283
570.524523	0.262622
570.737104	0.262758
570.949666	0.263126
571.162210	0.263604
571.374736	0.263424
571.587244	0.264567
571.799733	0.264723
572.012205	0.264926
572.224658	0.264730
572.437092	0.264958
572.649509	0.264868
572.861907	0.264630
573.074287	0.264860
573.286649	0.265448
573.498993	0.265241
573.711318	0.265730
573.923625	0.265926
574.135914	0.266590
574.348185	0.266850
574.560438	0.267123
574.772672	0.267731
574.984888	0.267851
575.197086	0.267962
575.409266	0.268494
575.621427	0.268396
575.833570	0.268745
576.045695	0.268438
576.257802	0.268299
576.469890	0.268689
576.681961	0.268854
576.894013	0.268771
577.106046	0.268983
577.318062	0.268961
577.530059	0.269100
577.742039	0.269352
577.954000	0.269488
578.165942	0.269652
578.377867	0.269699
578.589773	0.270033
578.801661	0.269878
579.013531	0.269994
579.225382	0.270247
579.437216	0.270334
579.649031	0.270413
579.860828	0.270529
580.072606	0.270609
580.284367	0.270720
580.496109	0.270897
580.707833	0.272028
580.919539	0.272154
581.131227	0.272031
581.342896	0.272706
581.554547	0.272697
581.766180	0.273247
581.977795	0.273721
582.189391	0.274012
582.400969	0.273895
582.612529	0.274036
582.824071	0.274573
583.035595	0.275212
583.247100	0.275377
583.458587	0.275741
583.670056	0.276119
583.881506	0.276380
584.092939	0.276524
584.304353	0.276826
584.515749	0.276860
584.727127	0.276845
584.938486	0.276743
585.149828	0.277256
585.361151	0.277266
585.572456	0.277336
585.783742	0.277759
585.995011	0.277720
586.206261	0.277754
586.417493	0.278000
586.628706	0.278607
586.839902	0.279125
587.051079	0.278880
587.262238	0.279415
587.473379	0.279376
587.684502	0.279435
587.895606	0.279893
588.106692	0.280625
588.317760	0.280666
588.528810	0.280792
588.739841	0.280741
588.950855	0.280838
589.161850	0.281027
589.372827	0.281605
589.583785	0.282154
589.794726	0.282548
590.005648	0.282534
590.216552	0.283035
590.427437	0.282854
590.638305	0.283175
590.849154	0.283397
591.059985	0.283642
591.270798	0.284025
591.481592	0.283853
591.692369	0.284295
591.903127	0.284680
592.113867	0.284618
592.324588	0.284747
592.535292	0.284466
592.745977	0.284525
592.956644	0.284514
593.167293	0.284567
593.377923	0.284833
593.588536	0.284591
593.799130	0.284676
594.009706	0.284886
594.220263	0.285165
594.430803	0.285337
594.641324	0.285869
594.851827	0.286351
595.062312	0.286182
595.272778	0.286087
595.483227	0.286539
595.693657	0.286408
595.904069	0.286607
596.114462	0.286842
596.324838	0.287300
596.535195	0.287508
596.745534	0.287453
596.955855	0.287976
597.166157	0.288860
597.376441	0.288643
597.586707	0.289050
597.796955	0.289189
598.007185	0.289371
598.217396	0.289562
598.427589	0.289856
598.637764	0.289920
598.847921	0.289964
599.058060	0.289975
599.268180	0.290288
599.478282	0.290156
599.688366	0.290088
599.898431	0.290343
600.108479	0.290906
600.318508	0.290749
600.528519	0.291139
600.738511	0.291397
600.948486	0.291224
601.158442	0.291325
601.368380	0.291823
601.578300	0.292193
601.788202	0.292096
601.998085	0.291919
602.207950	0.292212
602.417797	0.292546
602.627626	0.292689
602.837436	0.292913
603.047228	0.293135
603.257002	0.293654
603.466758	0.293755
603.676496	0.294145
603.886215	0.294205
604.095916	0.294718
604.305599	0.294305
604.515264	0.294843
604.724910	0.295323
604.934538	0.295443
605.144148	0.295445
605.353740	0.295600
605.563314	0.295958
605.772869	0.296325
605.982406	0.296141
606.191925	0.296671
606.401425	0.296624
606.610908	0.296386
606.820372	0.296562
607.029818	0.296337
607.239246	0.296490
607.448655	0.296205
607.658047	0.296443
607.867420	0.296539
608.076775	0.296318
608.286111	0.296080
608.495430	0.296335
608.704730	0.296447
608.914012	0.296941
609.123275	0.297019
609.332521	0.297647
609.541748	0.297749
609.750957	0.298124
609.960148	0.298823
610.169321	0.299147
610.378475	0.299411
610.587611	0.299794
610.796729	0.299862
611.005829	0.300119
611.214910	0.300431
611.423974	0.300553
611.633019	0.300768
611.842045	0.300673
612.051054	0.301175
612.260044	0.301366
612.469017	0.301521
612.677970	0.301810
612.886906	0.301933
613.095824	0.301521
613.304723	0.301770
613.513604	0.301730
613.722467	0.301761
613.931311	0.301729
614.140138	0.302151
614.348946	0.302186
614.557736	0.302314
614.766507	0.302592
614.975261	0.303338
615.183996	0.303536
615.392713	0.303767
615.601412	0.304031
615.810092	0.304161
616.018754	0.304115
616.227399	0.304457
616.436024	0.304859
616.644632	0.304989
616.853222	0.304981
617.061793	0.305178
617.270346	0.305325
617.478880	0.305856
617.687397	0.305704
617.895895	0.305766
618.104375	0.305623
618.312837	0.305731
618.521281	0.306215
618.729706	0.306101
618.938113	0.306117
619.146502	0.306418
619.354873	0.306576
619.563226	0.307174
619.771560	0.307238
619.979876	0.307677
620.188174	0.307587
620.396453	0.307868
620.604715	0.307873
620.812958	0.307878
621.021183	0.307949
621.229390	0.308143
621.437578	0.308144
621.645748	0.308523
621.853900	0.308655
622.062034	0.308756
622.270150	0.308575
622.478247	0.309063
622.686326	0.309391
622.894387	0.309424
623.102430	0.309388
623.310454	0.309548
623.518461	0.309643
623.726449	0.309899
623.934418	0.310200
624.142370	0.310501
624.350303	0.310717
624.558218	0.310798
624.766115	0.311122
624.973994	0.311266
625.181855	0.311448
625.389697	0.311528
625.597521	0.311462
625.805327	0.311482
626.013114	0.311602
626.220883	0.311949
626.428634	0.312144
626.636367	0.312323
626.844082	0.312505
627.051778	0.312784
627.259457	0.313064
627.467117	0.313442
627.674758	0.313716
627.882382	0.314065
628.089987	0.314045
628.297574	0.314347
628.505143	0.314547
628.712694	0.314905
628.920226	0.314908
629.127740	0.314907
629.335236	0.315087
629.542714	0.315337
629.750174	0.315654
629.957615	0.315883
630.165038	0.315842
630.372443	0.315945
630.579829	0.316320
630.787198	0.316497
630.994548	0.316739
631.201880	0.316992
631.409194	0.316908
631.616489	0.316906
631.823766	0.316885
632.031025	0.317400
632.238266	0.317472
632.445489	0.317185
632.652693	0.317605
632.859879	0.317856
633.067047	0.318073
633.274197	0.318436
633.481329	0.318431
633.688442	0.318950
633.895537	0.319060
634.102614	0.319238
634.309672	0.319758
634.516713	0.319889
634.723735	0.319895
634.930739	0.319942
635.137724	0.320007
635.344692	0.320129
635.551641	0.320138
635.758572	0.320466
635.965485	0.320620
636.172379	0.320590
636.379256	0.320905
636.586114	0.321165
636.792954	0.321072
636.999775	0.321428
637.206579	0.321576
637.413364	0.321864
637.620131	0.321802
637.826880	0.321913
638.033610	0.321979
638.240323	0.321986
638.447017	0.322336
638.653692	0.322394
638.860350	0.322421
639.066990	0.322812
639.273611	0.322848
639.480214	0.322738
639.686798	0.323233
639.893365	0.323565
640.099913	0.323433
640.306443	0.323535
640.512955	0.324220
640.719449	0.324413
640.925924	0.324504
641.132381	0.324851
641.338820	0.325408
641.545241	0.325575
641.751644	0.325895
641.958028	0.326235
642.164394	0.326486
642.370742	0.326989
642.577071	0.327356
642.783383	0.327699
642.989676	0.327941
643.195951	0.328100
643.402207	0.328405
643.608446	0.328620
643.814666	0.328968
644.020868	0.329065
644.227052	0.328730
644.433218	0.328966
644.639365	0.328903
644.845494	0.328927
645.051605	0.329065
645.257698	0.329068
645.463772	0.329102
645.669828	0.329469
645.875866	0.329764
646.081886	0.329758
646.287888	0.329952
646.493871	0.330343
646.699836	0.330771
646.905783	0.330809
647.111712	0.330854
647.317622	0.330912
647.523514	0.330865
647.729388	0.331125
647.935244	0.331754
648.141082	0.331959
648.346901	0.332328
648.552702	0.332264
648.758485	0.332828
648.964250	0.333472
649.169996	0.334013
649.375724	0.334544
649.581434	0.334772
649.787126	0.334630
649.992800	0.334988
650.198455	0.334969
650.404092	0.335259
650.609711	0.335203
650.815311	0.335066
651.020894	0.334985
651.226458	0.334915
651.432004	0.334996
651.637532	0.335226
651.843041	0.335319
652.048532	0.335330
652.254006	0.335398
652.459460	0.335709
652.664897	0.335742
652.870315	0.336305
653.075716	0.336377
653.281097	0.336301
653.486461	0.336568
653.691807	0.336437
653.897134	0.336963
654.102443	0.337126
654.307734	0.337176
654.513006	0.337546
654.718261	0.337677
654.923497	0.337737
655.128715	0.338255
655.333915	0.338730
655.539096	0.338840
655.744259	0.338904
655.949404	0.339176
656.154531	0.339387
656.359640	0.339663
656.564730	0.339598
656.769802	0.340063
656.974856	0.340133
657.179892	0.340165
657.384909	0.340475
657.589908	0.340714
657.794889	0.340898
657.999852	0.341197
658.204797	0.341487
658.409723	0.341854
658.614631	0.342163
658.819521	0.342595
659.024393	0.342747
659.229246	0.343147
659.434081	0.343480
659.638898	0.343754
659.843697	0.343870
660.048478	0.344196
660.253240	0.344196
660.457984	0.344168
660.662710	0.344158
660.867417	0.344366
661.072107	0.344396
661.276778	0.344269
661.481431	0.344372
661.686066	0.344772
661.890682	0.344558
662.095281	0.344805
662.299861	0.345196
662.504422	0.345305
662.708966	0.345485
662.913491	0.345685
663.117999	0.345920
663.322488	0.346426
663.526958	0.346571
663.731411	0.347161
663.935845	0.347411
664.140261	0.347577
664.344659	0.347891
664.549038	0.348215
664.753400	0.348709
664.957743	0.349200
665.162068	0.349390
665.366375	0.349353
665.570663	0.349498
665.774933	0.349696
665.979185	0.349950
666.183419	0.350141
666.387635	0.350584
666.591832	0.350437
666.796011	0.350361
667.000172	0.350443
667.204315	0.350812
667.408439	0.351048
667.612545	0.351387
667.816634	0.351615
668.020703	0.351905
668.224755	0.351836
668.428788	0.352199
668.632803	0.352498
668.836800	0.352687
669.040779	0.353326
669.244739	0.353339
669.448681	0.353395
669.652605	0.353547
669.856511	0.353947
670.060399	0.354132
670.264268	0.354574
670.468119	0.354601
670.671952	0.354991
670.875767	0.354578
671.079563	0.354896
671.283341	0.355415
671.487101	0.355935
671.690843	0.356023
671.894567	0.356403
672.098272	0.356586
672.301959	0.356964
672.505628	0.357082
672.709278	0.357702
672.912911	0.357985
673.116525	0.357816
673.320121	0.357861
673.523699	0.358161
673.727258	0.358189
673.930799	0.358247
674.134322	0.358646
674.337827	0.358711
674.541314	0.358959
674.744782	0.358984
674.948232	0.359493
675.151664	0.359838
675.355078	0.359687
675.558474	0.360001
675.761851	0.360075
675.965210	0.360438
676.168551	0.360624
676.371873	0.360728
676.575178	0.361009
676.778464	0.360970
676.981732	0.361127
677.184981	0.361468
677.388213	0.361607
677.591426	0.361756
677.794621	0.361855
677.997798	0.362307
678.200956	0.362532
678.404097	0.362841
678.607219	0.363158
678.810323	0.363266
679.013408	0.363974
679.216476	0.364328
679.419525	0.364832
679.622556	0.365107
679.825569	0.365561
680.028563	0.365655
680.231540	0.365885
680.434498	0.366150
680.637438	0.366286
680.840359	0.366107
681.043263	0.366565
681.246148	0.366462
681.449015	0.366671
681.651864	0.366598
681.854694	0.367216
682.057506	0.367468
682.260301	0.367900
682.463076	0.368113
682.665834	0.368567
682.868573	0.368539
683.071295	0.369165
683.273998	0.369326
683.476682	0.369751
683.679349	0.369741
683.881997	0.369837
684.084627	0.370032
684.287239	0.370352
684.489833	0.370366
684.692408	0.370299
684.894965	0.370381
685.097504	0.370765
685.300025	0.370726
685.502527	0.370928
685.705012	0.371177
685.907478	0.371308
686.109925	0.371544
686.312355	0.371757
686.514766	0.372252
686.717159	0.372660
686.919534	0.372679
687.121891	0.372849
687.324230	0.373214
687.526550	0.373427
687.728852	0.373629
687.931136	0.373707
688.133401	0.374087
688.335649	0.374407
688.537878	0.374540
688.740089	0.374847
688.942281	0.375214
689.144456	0.375380
689.346612	0.375592
689.548750	0.375728
689.750870	0.376191
689.952971	0.376082
690.155055	0.376129
690.357120	0.376215
690.559167	0.376231
690.761195	0.376170
690.963206	0.376108
691.165198	0.376312
691.367172	0.376487
691.569128	0.376213
691.771065	0.376639
691.972984	0.376405
692.174885	0.376379
692.376768	0.376637
692.578633	0.376952
692.780479	0.377090
692.982308	0.377573
693.184118	0.377803
693.385909	0.378070
