sample name	sample
index	1112
start time	 04-22-2021  01:09:14 PM
880	0.195650
Peak Time (s)	102.037
Peak Height 	0.1956
calc peak height	100,103
Baseline Time (s)	10.035
Baseline Value 	-0.005567
subtract baseline	10,4
Abs	0.148561
Peak Time (s)	102.037
Peak Height 	0.1486
calc peak height	100,103
Baseline Time (s)	10.035
Baseline Value 	-5.1261E-4
subtract baseline	10,3
PK_550	0.085575
Peak Time (s)	102.536
Peak Height 	0.08558
calc peak height	100,103
Baseline Time (s)	9.535
Baseline Value 	-1.0152E-4
subtract baseline	10,2
PK_880	0.143451
Peak Time (s)	101.536
Peak Height 	0.1435
calc peak height	100,103
Baseline Time (s)	10.536
Baseline Value 	-6.9849E-4
subtract baseline	10,1


Time (s)	A880-A510	A880-A775	A880-A975	A880	I510	I775	I975	I880	
0.035000	-0.002983	-0.000268	0.000407	0.005121	6237.645077	43046.162159	3906.812566	22599.730027
0.535500	-0.004770	-0.000639	0.002026	0.007921	6202.838107	42754.679066	3904.085785	22473.318327
1.036000	-0.000897	-0.000848	0.002155	0.005170	6253.220696	42988.164697	3910.747187	22597.520575
1.535500	0.000372	0.000071	0.000974	0.003547	6275.457959	43223.099381	3911.774333	22671.159758
2.036500	-0.001308	-0.000235	-0.008401	0.004406	6255.925661	43115.292716	3888.274060	22632.165333
2.536500	-0.000982	-0.000566	-0.000535	0.002642	6271.993784	43247.922160	3910.370550	22712.341160
3.037000	0.000997	-0.000028	0.001228	-0.000263	6309.851379	43568.527838	3921.262821	22845.164728
3.537000	0.001068	-0.000146	0.000725	0.001406	6297.422683	43401.817132	3916.180696	22768.753679
4.035000	-0.002390	0.000170	-0.001020	0.003500	6254.576316	43236.679788	3907.262689	22673.325745
4.535000	0.002599	-0.000119	0.003666	0.001916	6305.359805	43356.912958	3921.870794	22745.485229
5.035500	0.000381	0.000167	-0.002216	0.000752	6297.159534	43491.874211	3910.855685	22798.638840
5.535000	0.000910	0.000110	-0.002950	0.001661	6294.211677	43401.886950	3907.051270	22757.114700
6.035500	0.002495	0.000796	0.002432	0.001556	6307.349533	43475.648241	3919.820496	22761.915479
6.536000	-0.000569	0.000179	0.005910	0.000811	6289.334322	43487.484867	3929.758280	22795.951799
7.036500	0.001443	-0.000836	0.001787	0.000111	6310.414636	43458.217866	3921.696935	22828.023193
7.537000	0.001290	-0.000251	0.003301	0.000643	6305.079314	43463.111926	3924.003356	22803.656260
8.037000	0.000177	-0.000043	0.000824	0.000770	6295.439576	43470.678869	3917.898079	22797.846970
8.537000	0.001115	0.000172	-0.001161	0.000801	6302.489570	43487.778863	3913.194710	22796.416609
9.037500	0.000577	-0.000712	0.001575	0.000220	6302.823571	43459.601842	3920.944555	22823.035346
9.535000	-0.001277	0.000000	0.008215	0.000661	6285.012021	43484.805612	3935.581286	22802.807956
10.035000	-0.000580	-0.000134	0.000000	0.000000	6295.537553	43534.071078	3917.770887	22833.100531
10.535500	0.000000	0.000138	-0.000396	-0.000118	6300.963935	43570.464907	3917.121962	22838.518086
11.036000	-0.001305	0.000048	-0.000811	-0.000100	6290.689448	43560.336776	3916.110309	22837.681873
11.536500	0.000989	-0.000933	0.005665	-0.000547	6312.002722	43510.491447	3932.393864	22858.192138
12.036500	0.001294	0.000619	0.004563	0.000540	6305.906510	43553.962573	3927.216168	22808.360599
12.536500	0.001543	-0.000020	-0.000414	0.000181	6310.643199	43527.740692	3916.380324	22824.786847
13.037000	0.000404	0.001227	0.003165	0.001676	6290.172635	43504.555620	3921.256055	22756.415146
13.537500	0.000103	0.000488	0.000835	0.001380	6290.136024	43463.264875	3916.496706	22769.936749
14.037000	-0.001193	-0.000622	-0.002170	0.004418	6256.720890	43078.462325	3902.490791	22631.626985
14.535000	-0.001322	-0.000005	0.001226	0.002742	6268.604858	43290.691162	3914.232510	22707.787825
15.035000	0.000950	-0.000675	0.005849	0.000514	6303.434160	43435.605625	3930.315473	22809.544004
15.535500	0.000468	0.000170	-0.003393	0.001094	6295.185864	43460.331578	3907.337449	22783.036679
16.036500	-0.001612	-0.000932	0.001361	0.005545	6244.877684	42945.996614	3908.039857	22580.559914
16.536500	-0.001371	-0.000850	0.003289	0.000589	6284.844922	43412.288844	3924.101698	22806.116738
17.037000	0.002445	0.000699	0.004341	-0.002100	6335.554546	43808.929925	3932.936837	22929.598674
17.537000	0.000077	0.000133	0.005682	0.001625	6288.034336	43407.423111	3927.297469	22758.767629
18.037500	-0.002996	-0.000556	0.001301	0.003273	6251.678362	43190.425147	3913.172469	22683.659010
18.537500	-0.002113	0.000642	0.003102	0.001825	6269.576277	43436.253676	3920.761831	22749.637893
19.038000	-0.001702	-0.000033	0.003640	0.001837	6272.649187	43372.160534	3921.992805	22749.064193
19.538500	-0.000498	0.001252	0.006791	0.002660	6275.587013	43415.190848	3927.470570	22711.525254
20.035500	-0.001655	0.000166	-0.001894	0.003548	6259.848346	43231.837401	3905.132003	22671.134371
20.536000	0.000362	-0.000118	0.000318	0.001932	6287.862988	43355.415749	3914.004790	22744.728102
21.036000	0.001479	0.000354	0.001363	0.002183	6294.574039	43376.012515	3915.855528	22733.281790
21.536500	0.000403	0.000040	0.001934	0.001765	6289.470492	43385.664165	3918.166081	22752.344755
22.036500	-0.002564	-0.000534	0.000525	0.003120	6256.152792	43206.545264	3911.722708	22690.579392
22.537000	0.000379	0.000593	0.000335	0.002354	6284.732913	43382.340923	3913.062921	22725.494697
23.037000	-0.000272	0.000251	0.000375	0.002078	6281.834020	43376.252257	3913.797949	22738.086357
23.535000	-0.000201	-0.000711	0.000545	0.001323	6288.217296	43356.931744	3915.952149	22772.526540
24.035000	-0.001376	-0.000115	0.001584	0.003460	6262.663393	43213.883341	3913.396369	22675.123873
24.535500	0.000602	0.001127	0.005327	0.002570	6284.784001	43411.961980	3924.234313	22715.644825
25.035500	0.000922	-0.000166	0.002622	0.002023	6291.496238	43342.482550	3919.169850	22740.567946
25.536000	-0.001701	0.000683	0.004501	0.002210	6269.780433	43404.152329	3923.138880	22732.042469
26.036000	-0.002963	-0.000841	-0.006938	0.002759	6255.863110	43211.602930	3895.356132	22707.024230
26.536500	-0.000403	0.000066	0.004377	0.001968	6281.673245	43369.287351	3923.417692	22743.116861
27.036500	0.002771	0.000662	0.005426	-0.000813	6328.016348	43684.553050	3932.458708	22870.402825
27.537000	-0.000883	0.001001	0.005718	0.000608	6288.475505	43583.208864	3929.783602	22805.235944
28.037500	-0.002927	-0.000048	-0.001274	0.005847	6232.535700	42999.496975	3901.262606	22566.877410
28.535000	0.000897	0.000678	0.004076	0.001165	6297.962323	43501.025413	3924.597059	22779.762647
29.035000	-0.000899	0.000074	-0.000618	0.000588	6288.508262	43498.617082	3914.957021	22806.187516
29.535500	0.001131	0.000413	0.003777	0.001088	6300.377111	43483.543256	3924.073829	22783.273055
30.035500	-0.000370	0.000347	-0.000421	0.006826	6244.581727	42945.748816	3900.973794	22522.667580
30.536000	0.001733	0.000132	0.000465	0.003109	6289.371576	43269.423071	3911.610612	22691.117654
31.041500	0.001490	0.000454	0.006810	0.002075	6295.496890	43395.345973	3928.898694	22738.206138
31.539500	0.002573	0.000762	0.003440	0.000864	6313.349646	43537.001153	3923.809512	22793.526461
32.037000	-0.001165	-0.000548	-0.003579	0.004951	6252.843463	43036.010921	3898.029275	22607.444265
32.540000	-0.000409	-0.000042	-0.002153	0.000318	6294.405260	43512.912302	3912.011968	22818.543403
33.034500	0.001735	0.000320	0.002517	-0.001302	6323.732536	43698.390576	3926.736455	22892.880758
33.535000	0.001217	0.001166	0.008392	0.002328	6291.415703	43438.051657	3932.041567	22726.654877
34.038000	-0.001549	0.000238	0.003397	0.004430	6253.887513	43156.793374	3915.359203	22631.047962
34.536000	-0.002646	0.000205	0.001309	0.002633	6259.266068	43320.380737	3914.682186	22712.792880
35.038500	0.000489	0.001563	0.002452	0.003534	6276.465891	43362.825384	3915.245971	22671.784532
35.536500	0.001106	0.000181	0.001215	0.002535	6288.956545	43327.250372	3914.690896	22717.236240
36.039500	0.000967	0.000089	0.002294	0.004543	6272.370029	43132.558752	3912.528433	22625.959221
36.537000	-0.000024	0.000794	-0.000142	0.003464	6273.044158	43297.788729	3909.376695	22674.930304
37.037000	0.000697	0.000838	-0.000930	0.002811	6283.648249	43362.603056	3909.064592	22704.648430
37.537500	0.001971	-0.000189	0.004522	0.002355	6297.066696	43309.607302	3922.849689	22725.458900
38.035000	-0.001776	0.000730	0.004870	0.003239	6261.285935	43312.743774	3921.588678	22685.162982
38.535500	-0.000348	0.000149	-0.000479	0.002325	6279.328370	43343.765195	3911.238330	22726.793217
39.035000	0.000772	-0.000581	-0.001645	0.001653	6293.203597	43338.365907	3910.092702	22757.470675
39.536000	0.001175	-0.000646	-0.000709	0.001703	6295.943839	43327.635153	3912.149007	22755.179584
40.035500	-0.000667	0.000506	0.002589	0.004247	6262.065748	43198.498050	3913.901627	22639.361165
40.536500	0.000367	0.000626	0.006449	0.002504	6283.473195	43371.406738	3927.032325	22718.630207
41.039000	-0.000586	0.000724	0.003724	0.002779	6273.993937	43354.998412	3919.982787	22706.122050
41.537000	0.001859	0.001331	0.005490	0.003318	6288.720669	43361.272272	3922.858485	22681.567506
42.039500	-0.001929	0.000843	0.001429	0.005433	6243.302444	43119.969391	3908.454072	22585.593275
42.537500	-0.001131	0.001447	0.005312	0.003252	6266.153161	43378.304719	3922.596044	22684.588679
43.035000	-0.000642	0.001100	0.005819	0.002922	6272.457531	43376.627113	3924.564594	22699.596480
43.535500	0.004744	0.000383	0.007394	-0.002229	6354.679174	43791.289033	3940.514563	22935.547060
44.036000	-0.004607	-0.000165	0.001041	0.005188	6224.774966	43049.525538	3908.126339	22596.726658
44.536000	0.004202	0.000653	0.002087	0.001195	6323.498686	43495.906846	3919.857987	22778.394128
45.036500	0.001796	0.000904	0.008196	0.001777	6300.196919	43465.125350	3932.886728	22751.829596
45.536500	0.002639	0.000900	0.000229	0.001283	6310.603821	43510.807728	3915.311349	22774.376107
46.036500	-0.002794	-0.000605	-0.000647	0.006169	6231.096086	42918.636012	3901.964188	22552.320221
46.537000	0.001364	0.000964	0.003584	0.001854	6296.238906	43463.553268	3921.823611	22748.315758
47.035000	-0.001814	-0.000371	0.007043	0.002758	6264.702529	43255.284280	3927.835416	22707.097505
47.535000	0.000936	0.000035	0.005847	0.001777	6293.518823	43384.182392	3927.328419	22751.828542
48.035500	-0.001787	0.000393	0.003279	0.007415	6229.276718	42895.770442	3908.148355	22496.085268
48.535500	0.000370	0.000140	0.004347	0.000994	6295.205479	43466.846682	3925.638389	22787.610473
49.035500	0.003096	0.001045	0.000720	-0.000253	6326.173659	43668.028633	3920.047701	22844.712344
49.536500	0.001295	0.000414	0.009213	-0.000519	6314.176497	43633.851550	3940.774749	22856.925681
50.036500	-0.001637	-0.000876	0.003444	0.015932	6166.227680	42006.373238	3888.999913	22116.056274
50.537000	0.028993	-0.025311	0.010058	0.540458	3964.226870	14000.958016	3201.998072	8661.121365
51.037000	0.015333	-0.016185	-0.009495	0.055099	6004.706509	37404.838063	3777.488218	20461.113801
51.537000	0.009179	-0.068000	-0.017133	-0.247575	9021.126449	64323.058072	4628.288768	38129.370895
52.034500	-0.000760	-0.128210	-0.016051	-0.316280	9904.487465	65535.000000	4929.091888	44163.235788
52.535000	-0.088419	-0.309556	-0.104012	-0.497627	11584.954691	65535.000000	5415.217763	65535.000000
53.035000	0.004708	-0.155890	-0.002657	-0.343961	10458.100375	65535.000000	5130.099331	46877.162343
53.535500	0.003345	-0.107417	-0.006514	-0.295488	9641.389236	65535.000000	4877.251983	42235.479742
54.036000	-0.003698	-0.050912	-0.008976	-0.227162	8571.271930	63855.151665	4580.272437	36512.990405
54.536000	-0.001252	-0.047743	-0.006537	-0.222808	8546.519482	63689.241373	4572.890743	36177.917330
55.036500	0.003836	-0.042139	-0.002316	-0.212982	8485.521240	63101.887727	4551.473904	35434.053453
55.536500	0.005561	-0.023517	0.002372	-0.169699	7978.065755	59782.799308	4411.273431	32350.432170
56.040000	0.007852	-0.013333	0.001410	-0.117217	7426.535361	54510.712733	4236.598080	29001.098702
56.537500	0.013649	-0.006887	0.010214	-0.084478	7155.736628	51483.161186	4165.073215	27107.678340
57.034500	0.018907	-0.001443	0.015125	-0.049520	6876.059937	48296.006552	4080.687994	25237.472127
57.535500	0.021849	0.002929	0.018088	-0.033935	6762.691948	47140.888536	4046.946096	24451.027320
58.035500	0.028606	0.008234	0.024362	-0.005868	6578.903573	44885.625667	3990.944900	23103.910738
58.536000	0.035220	0.013869	0.031336	-0.034577	6888.537103	48334.603319	4084.131539	24482.837309
59.036000	0.037908	0.014183	0.038030	0.010717	6518.138737	43871.635869	3983.659671	22347.884664
59.536500	0.041457	0.019699	0.038761	-0.004742	6678.898078	45895.273784	4024.713841	23051.637890
60.036500	0.037147	0.019034	0.036870	-0.008039	6670.159057	46156.280859	4028.354467	23205.043434
60.537000	0.042038	0.022134	0.043697	-0.005877	6693.765625	46249.620421	4040.510315	23104.299891
61.037000	0.043483	0.022404	0.039787	-0.002966	6681.067900	45987.328064	4022.780304	22969.540572
61.537000	0.047371	0.025064	0.049395	0.001373	6677.167992	45821.387541	4036.454355	22770.285621
62.037500	0.046592	0.026698	0.047519	0.012188	6578.314477	44925.087761	4003.802037	22282.210981
62.535000	0.050845	0.029010	0.049940	0.011549	6619.701664	45210.998750	4011.585621	22310.686448
63.036000	0.055037	0.031383	0.053415	0.014694	6628.623496	45136.043970	4012.430870	22170.842002
63.536000	0.056591	0.032975	0.059765	0.020439	6593.056970	44734.774608	4013.976494	21917.938789
64.035500	0.057006	0.034272	0.061709	0.030608	6511.580506	43890.248143	3993.127279	21478.382909
64.537000	0.062913	0.036800	0.062693	0.029153	6572.901385	44267.296177	3999.269221	21540.651644
65.037000	0.064555	0.038863	0.063708	0.032468	6558.872152	44148.384763	3993.476116	21399.086408
65.540000	0.066657	0.040466	0.068274	0.035670	6549.682525	43997.101938	3996.907647	21263.393084
66.034500	0.067956	0.041422	0.069179	0.038043	6540.727194	43863.488917	3993.216016	21163.478834
66.535000	0.069966	0.042555	0.072502	0.040511	6536.918000	43737.966159	3995.366154	21060.140298
67.035000	0.074613	0.044182	0.074484	0.043412	6551.468690	43618.499713	3993.055377	20939.400175
67.535500	0.074046	0.045828	0.072779	0.046802	6518.569035	43455.605610	3980.338361	20799.322604
68.035500	0.075546	0.047449	0.075941	0.052186	6486.578150	43106.408814	3974.839405	20579.137671
68.536500	0.078750	0.048324	0.078114	0.055221	6487.965292	42907.291430	3972.714210	20456.195861
69.036000	0.079231	0.050413	0.079418	0.059986	6452.986381	42662.042121	3964.220248	20264.907732
69.536500	0.082317	0.050717	0.082137	0.063153	6452.329643	42401.236463	3963.125865	20138.940351
70.037000	0.081311	0.051439	0.082045	0.066361	6418.266419	42176.181288	3955.097948	20012.250100
70.537500	0.084814	0.052593	0.091547	0.069129	6424.177251	42030.771723	3971.544018	19903.691012
71.034500	0.083343	0.052989	0.084650	0.071020	6397.192331	41896.529273	3950.132584	19829.931055
71.535000	0.091847	0.055585	0.092249	0.074535	6437.311648	41814.195014	3960.029727	19693.650259
72.036000	0.088061	0.055520	0.090452	0.077839	6380.435701	41514.114380	3947.683719	19566.590048
72.535500	0.092622	0.057053	0.093047	0.079951	6399.973779	41462.739432	3948.845115	19485.844139
73.036000	0.095241	0.058836	0.096598	0.083173	6395.149933	41335.401297	3949.637310	19363.440829
73.536500	0.094460	0.061035	0.102572	0.086819	6359.959208	41207.835635	3955.265421	19226.031588
74.036000	0.091236	0.061431	0.096103	0.095287	6268.705701	40503.838500	3919.680307	18911.292235
74.537000	0.094931	0.061589	0.098461	0.091033	6330.480693	40886.996477	3935.283608	19068.650168
75.040000	0.095097	0.062775	0.098851	0.093971	6308.813703	40734.363844	3929.241902	18959.806542
75.537500	0.096844	0.065051	0.103880	0.098072	6290.515975	40576.013024	3931.435315	18809.093272
76.035000	0.097201	0.066344	0.099450	0.106795	6226.299316	39938.193629	3900.748328	18493.279167
76.535000	0.100351	0.067560	0.098800	0.105510	6260.181112	40151.593526	3902.206265	18539.375201
77.035500	0.101116	0.068588	0.111055	0.108991	6239.392012	39942.254443	3922.606717	18414.734164
77.535500	0.102098	0.069708	0.104578	0.112683	6218.770950	39723.964678	3899.003971	18283.633011
78.036000	0.100807	0.069997	0.104508	0.121459	6143.290300	39012.708568	3878.913590	17976.392820
78.536000	0.103642	0.069671	0.106042	0.117121	6196.890021	39347.247299	3892.202517	18127.484894
79.036500	0.106892	0.070803	0.116058	0.120463	6196.203392	39162.597181	3907.527678	18010.964034
79.537000	0.106935	0.070900	0.110822	0.122461	6181.507194	39004.567237	3890.927666	17941.709195
80.036500	0.105482	0.071000	0.111050	0.130797	6108.920051	38327.673568	3872.651514	17656.250774
80.535000	0.107189	0.072021	0.117048	0.126879	6150.429179	38732.097183	3895.051396	17789.747577
81.037500	0.110338	0.072703	0.115879	0.129943	6151.062546	38536.499129	3885.425783	17685.244951
81.535500	0.111313	0.072238	0.114944	0.131132	6149.468382	38401.260578	3880.629993	17644.878011
82.036000	0.112262	0.072959	0.115104	0.139316	6096.192582	37797.699784	3862.729204	17370.109915
82.535500	0.115494	0.073373	0.118248	0.135474	6148.269486	38140.607009	3878.296528	17498.447138
83.036500	0.116868	0.073326	0.116964	0.137416	6144.058997	37979.972096	3871.076592	17433.441366
83.536500	0.118916	0.075489	0.127300	0.140281	6138.012637	37923.461662	3887.881413	17338.064298
84.036500	0.117301	0.074738	0.123495	0.141881	6114.308241	37734.700870	3875.693858	17285.058535
84.540000	0.120724	0.076303	0.135890	0.144490	6120.298867	37651.288753	3897.869910	17199.066170
85.037000	0.119177	0.075646	0.130354	0.145485	6101.640902	37519.620254	3883.013721	17166.381100
85.534500	0.121027	0.076422	0.131482	0.147201	6102.630553	37444.941122	3881.687934	17110.242739
86.035000	0.124829	0.077435	0.133643	0.149258	6115.420079	37362.140912	3881.920991	17043.198193
86.535500	0.123812	0.077597	0.128690	0.150438	6099.318359	37281.683260	3868.193147	17004.911599
87.036000	0.124387	0.077138	0.129068	0.151853	6093.187214	37133.889443	3865.889515	16959.101571
87.536000	0.124363	0.077662	0.133728	0.153423	6081.581861	37051.787694	3872.767896	16908.476414
88.036000	0.128602	0.077896	0.133214	0.155266	6099.043796	36925.713985	3867.517403	16849.265289
88.536500	0.127555	0.079467	0.126842	0.157294	6076.645166	36889.965077	3849.033516	16784.376380
89.039500	0.127780	0.078479	0.133288	0.157789	6074.679994	36774.346693	3862.089678	16768.587661
89.534000	0.128329	0.078584	0.136565	0.159350	6067.355537	36661.305042	3865.889360	16718.945749
90.037500	0.130394	0.078318	0.136224	0.160458	6074.290754	36554.878216	3862.682245	16683.801651
90.535000	0.128477	0.079437	0.133417	0.162301	6047.138537	36498.947388	3852.457834	16625.531354
91.035500	0.129125	0.078533	0.133650	0.163131	6045.833512	36365.363427	3851.152703	16599.384730
91.535500	0.128994	0.079363	0.134231	0.164396	6035.814812	36331.891708	3849.661027	16559.616367
92.036000	0.129866	0.080147	0.134207	0.167345	6020.963570	36166.001429	3843.198496	16467.335617
92.536000	0.131513	0.080731	0.135315	0.167602	6030.894471	36190.980380	3845.043674	16459.322741
93.036500	0.133023	0.081089	0.133381	0.169017	6031.579371	36110.321091	3837.806609	16415.321701
93.536500	0.132824	0.080882	0.138322	0.169965	6023.379248	36022.317664	3846.443997	16385.909073
94.037000	0.132454	0.082281	0.135482	0.178298	5961.899965	35498.770470	3822.473100	16130.094960
94.537500	0.133976	0.082109	0.142209	0.172771	6011.598988	35902.323155	3848.794812	16299.208188
95.034500	0.137972	0.082436	0.138657	0.174277	6029.346603	35813.047483	3837.838231	16252.900537
95.535000	0.134978	0.082094	0.135664	0.174651	6005.366804	35758.957337	3830.618070	16241.452513
96.035000	0.133780	0.082182	0.142322	0.180576	5955.246327	35321.209221	3832.184282	16061.001656
96.535500	0.136542	0.082895	0.137498	0.177655	5995.167219	35593.046733	3828.122091	16149.649085
97.036000	0.137416	0.083590	0.142517	0.179200	5990.426330	35529.295543	3835.553378	16102.692260
97.536500	0.136475	0.083330	0.143866	0.179260	5983.374015	35505.353818	3838.327343	16100.890343
