sample name	sample
index	445
start time	 03-11-2021  10:51:39 AM


Wavelength (nm)	Absorbance
494.344910	0.132367
494.563924	0.132367
494.782919	0.132367
495.001897	-0.042012
495.220856	0.030867
495.439797	0.022598
495.658719	-0.002716
495.877624	0.001528
496.096510	0.013523
496.315378	0.005810
496.534227	0.005066
496.753059	-0.001362
496.971872	0.018566
497.190667	0.108873
497.409444	0.136654
497.628203	0.144548
497.846943	0.149308
498.065665	0.149494
498.284369	0.151193
498.503055	0.152897
498.721723	0.155165
498.940372	0.155328
499.159003	0.155804
499.377616	0.155880
499.596210	0.157155
499.814787	0.157479
500.033345	0.157985
500.251885	0.159300
500.470406	0.159669
500.688910	0.158134
500.907395	0.157969
501.125862	0.159166
501.344311	0.158969
501.562742	0.159134
501.781154	0.158756
501.999548	0.159609
502.217924	0.158577
502.436282	0.159671
502.654621	0.160550
502.872942	0.160782
503.091245	0.161109
503.309530	0.161576
503.527797	0.161529
503.746045	0.160929
503.964275	0.161116
504.182487	0.162190
504.400681	0.161331
504.618856	0.161430
504.837013	0.161759
505.055152	0.160463
505.273273	0.161092
505.491376	0.161919
505.709460	0.162313
505.927526	0.162983
506.145574	0.162789
506.363604	0.163599
506.581615	0.164324
506.799608	0.164550
507.017583	0.165097
507.235540	0.165076
507.453478	0.164132
507.671399	0.164953
507.889301	0.164711
508.107185	0.165135
508.325050	0.165017
508.542898	0.164603
508.760727	0.164483
508.978538	0.165547
509.196330	0.165814
509.414105	0.166414
509.631861	0.166127
509.849599	0.167204
510.067319	0.167246
510.285021	0.168229
510.502704	0.169021
510.720369	0.169332
510.938016	0.169284
511.155645	0.169253
511.373255	0.170376
511.590848	0.171426
511.808422	0.170867
512.025977	0.171350
512.243515	0.170352
512.461034	0.169685
512.678536	0.170191
512.896018	0.170857
513.113483	0.171133
513.330930	0.170996
513.548358	0.171231
513.765768	0.172044
513.983160	0.171825
514.200533	0.172163
514.417889	0.172659
514.635226	0.173108
514.852545	0.172433
515.069845	0.172792
515.287128	0.172438
515.504392	0.172007
515.721638	0.171965
515.938866	0.172609
516.156075	0.173181
516.373267	0.173875
516.590440	0.174289
516.807594	0.175277
517.024731	0.175930
517.241850	0.175991
517.458950	0.176130
517.676032	0.175998
517.893095	0.176470
518.110141	0.176639
518.327168	0.176918
518.544177	0.176519
518.761168	0.176616
518.978141	0.176634
519.195095	0.177241
519.412031	0.177647
519.628949	0.177654
519.845849	0.177191
520.062731	0.178015
520.279594	0.178242
520.496439	0.178634
520.713266	0.178584
520.930074	0.179215
521.146865	0.179514
521.363637	0.179443
521.580391	0.180011
521.797127	0.180891
522.013844	0.180648
522.230543	0.181145
522.447224	0.181669
522.663887	0.182504
522.880532	0.182373
523.097158	0.182249
523.313766	0.182612
523.530356	0.182294
523.746928	0.182010
523.963481	0.182487
524.180017	0.182365
524.396534	0.182606
524.613032	0.181527
524.829513	0.181157
525.045975	0.181824
525.262420	0.182583
525.478845	0.183267
525.695253	0.184328
525.911643	0.184473
526.128014	0.185180
526.344367	0.185453
526.560702	0.186754
526.777018	0.187837
526.993316	0.188742
527.209597	0.188748
527.425858	0.189426
527.642102	0.189314
527.858328	0.189766
528.074535	0.189963
528.290724	0.190344
528.506894	0.190690
528.723047	0.190498
528.939181	0.190376
529.155297	0.191087
529.371395	0.191342
529.587475	0.191527
529.803536	0.191653
530.019579	0.192028
530.235604	0.192035
530.451611	0.192128
530.667600	0.192408
530.883570	0.192238
531.099522	0.193128
531.315456	0.193190
531.531372	0.193356
531.747269	0.193751
531.963148	0.193675
532.179009	0.194058
532.394852	0.194191
532.610676	0.194246
532.826482	0.194756
533.042271	0.193223
533.258040	0.193738
533.473792	0.194078
533.689525	0.194248
533.905240	0.194779
534.120937	0.195496
534.336616	0.195920
534.552277	0.196928
534.767919	0.197422
534.983543	0.199033
535.199149	0.199258
535.414736	0.199681
535.630306	0.200403
535.845857	0.200434
536.061390	0.200458
536.276904	0.201242
536.492401	0.201488
536.707879	0.201288
536.923339	0.201341
537.138781	0.201586
537.354204	0.201600
537.569610	0.201269
537.784997	0.202146
538.000366	0.202310
538.215716	0.202061
538.431049	0.201862
538.646363	0.202345
538.861659	0.202306
539.076937	0.202266
539.292196	0.202884
539.507438	0.203488
539.722661	0.203614
539.937866	0.203723
540.153052	0.203765
540.368221	0.204494
540.583371	0.204717
540.798503	0.204921
541.013617	0.205505
541.228712	0.205429
541.443789	0.205709
541.658848	0.205949
541.873889	0.206417
542.088912	0.207305
542.303916	0.207298
542.518902	0.208818
542.733870	0.209092
542.948820	0.209009
543.163752	0.209842
543.378665	0.209860
543.593560	0.209621
543.808437	0.210185
544.023295	0.209833
544.238136	0.210294
544.452958	0.209299
544.667762	0.210241
544.882548	0.210907
545.097315	0.211289
545.312064	0.211606
545.526795	0.212238
545.741508	0.212047
545.956203	0.213184
546.170879	0.213955
546.385537	0.214404
546.600177	0.214571
546.814799	0.214994
547.029402	0.214493
547.243988	0.214593
547.458555	0.214465
547.673103	0.214733
547.887634	0.214416
548.102146	0.214017
548.316640	0.214042
548.531116	0.213967
548.745574	0.213964
548.960013	0.214658
549.174435	0.214846
549.388838	0.215417
549.603222	0.215892
549.817589	0.216380
550.031937	0.216777
550.246267	0.217041
550.460579	0.217193
550.674873	0.217235
550.889148	0.217312
551.103405	0.217435
551.317644	0.217424
551.531865	0.217472
551.746068	0.217056
551.960252	0.216699
552.174418	0.217271
552.388566	0.217486
552.602696	0.217699
552.816807	0.217700
553.030900	0.218073
553.244975	0.218388
553.459032	0.218800
553.673070	0.219176
553.887091	0.219738
554.101093	0.219704
554.315077	0.220604
554.529042	0.221349
554.742990	0.221577
554.956919	0.221688
555.170830	0.222121
555.384722	0.222541
555.598597	0.222989
555.812453	0.223289
556.026291	0.223633
556.240111	0.223380
556.453913	0.222905
556.667696	0.223730
556.881461	0.224353
557.095208	0.224725
557.308937	0.224556
557.522647	0.224595
557.736339	0.224702
557.950013	0.224610
558.163669	0.224692
558.377307	0.225238
558.590926	0.225106
558.804527	0.225206
559.018110	0.224909
559.231675	0.224623
559.445221	0.225407
559.658749	0.225477
559.872259	0.225898
560.085751	0.226080
560.299225	0.226479
560.512680	0.226384
560.726117	0.226393
560.939536	0.226564
561.152937	0.227264
561.366319	0.227211
561.579683	0.227653
561.793029	0.227903
562.006357	0.228027
562.219667	0.227922
562.432958	0.228198
562.646231	0.228203
562.859486	0.228760
563.072723	0.228793
563.285941	0.228821
563.499141	0.228903
563.712323	0.228948
563.925487	0.229205
564.138632	0.229187
564.351760	0.229683
564.564869	0.229908
564.777960	0.229665
564.991032	0.230071
565.204087	0.230148
565.417123	0.230370
565.630141	0.230899
565.843140	0.230988
566.056122	0.231259
566.269085	0.231307
566.482030	0.231588
566.694957	0.231853
566.907866	0.231904
567.120756	0.232099
567.333628	0.232479
567.546482	0.232317
567.759318	0.232314
567.972135	0.232292
568.184935	0.232122
568.397716	0.232374
568.610478	0.232550
568.823223	0.232552
569.035949	0.232403
569.248657	0.232014
569.461347	0.231910
569.674019	0.232336
569.886672	0.232655
570.099308	0.233061
570.311925	0.233134
570.524523	0.233515
570.737104	0.233812
570.949666	0.234500
571.162210	0.235108
571.374736	0.235474
571.587244	0.235530
571.799733	0.235852
572.012205	0.235938
572.224658	0.235894
572.437092	0.235510
572.649509	0.235347
572.861907	0.235015
573.074287	0.235074
573.286649	0.235378
573.498993	0.235475
573.711318	0.235803
573.923625	0.236023
574.135914	0.236446
574.348185	0.236664
574.560438	0.237019
574.772672	0.237265
574.984888	0.237726
575.197086	0.237878
575.409266	0.237917
575.621427	0.237744
575.833570	0.237907
576.045695	0.238201
576.257802	0.238410
576.469890	0.238585
576.681961	0.238588
576.894013	0.238132
577.106046	0.238169
577.318062	0.238452
577.530059	0.238583
577.742039	0.238887
577.954000	0.238903
578.165942	0.239416
578.377867	0.239467
578.589773	0.239900
578.801661	0.240266
579.013531	0.240069
579.225382	0.240399
579.437216	0.240345
579.649031	0.240436
579.860828	0.240227
580.072606	0.240494
580.284367	0.241223
580.496109	0.241749
580.707833	0.241704
580.919539	0.242223
581.131227	0.241898
581.342896	0.242031
581.554547	0.241992
581.766180	0.242403
581.977795	0.242327
582.189391	0.242040
582.400969	0.241623
582.612529	0.241909
582.824071	0.242195
583.035595	0.242756
583.247100	0.243036
583.458587	0.242864
583.670056	0.243069
583.881506	0.243092
584.092939	0.243235
584.304353	0.243337
584.515749	0.243389
584.727127	0.243583
584.938486	0.243757
585.149828	0.244057
585.361151	0.244656
585.572456	0.244538
585.783742	0.244731
585.995011	0.244736
586.206261	0.244888
586.417493	0.245159
586.628706	0.245429
586.839902	0.245195
587.051079	0.245539
587.262238	0.245902
587.473379	0.246353
587.684502	0.246288
587.895606	0.246393
588.106692	0.246567
588.317760	0.246722
588.528810	0.246599
588.739841	0.246927
588.950855	0.246954
589.161850	0.246889
589.372827	0.247260
589.583785	0.248073
589.794726	0.248473
590.005648	0.249158
590.216552	0.249615
590.427437	0.249387
590.638305	0.249521
590.849154	0.249516
591.059985	0.249703
591.270798	0.249490
591.481592	0.249288
591.692369	0.249519
591.903127	0.249499
592.113867	0.249310
592.324588	0.249769
592.535292	0.249833
592.745977	0.249734
592.956644	0.249984
593.167293	0.249886
593.377923	0.250253
593.588536	0.250336
593.799130	0.250183
594.009706	0.250412
594.220263	0.250811
594.430803	0.251077
594.641324	0.251825
594.851827	0.251704
595.062312	0.252089
595.272778	0.252018
595.483227	0.252066
595.693657	0.252563
595.904069	0.253101
596.114462	0.253126
596.324838	0.253782
596.535195	0.253738
596.745534	0.254107
596.955855	0.254505
597.166157	0.254794
597.376441	0.254748
597.586707	0.254711
597.796955	0.254733
598.007185	0.255105
598.217396	0.255054
598.427589	0.255175
598.637764	0.255470
598.847921	0.255678
599.058060	0.255724
599.268180	0.256209
599.478282	0.256416
599.688366	0.256662
599.898431	0.256582
600.108479	0.256873
600.318508	0.257273
600.528519	0.257238
600.738511	0.257268
600.948486	0.257361
601.158442	0.257272
601.368380	0.257257
601.578300	0.257184
601.788202	0.257343
601.998085	0.257120
602.207950	0.256969
602.417797	0.257123
602.627626	0.257529
602.837436	0.257786
603.047228	0.258041
603.257002	0.258516
603.466758	0.258541
603.676496	0.258605
603.886215	0.258725
604.095916	0.258979
604.305599	0.258907
604.515264	0.258640
604.724910	0.258537
604.934538	0.258677
605.144148	0.258600
605.353740	0.258647
605.563314	0.258638
605.772869	0.258727
605.982406	0.258374
606.191925	0.258660
606.401425	0.258839
606.610908	0.259247
606.820372	0.259363
607.029818	0.259709
607.239246	0.259861
607.448655	0.260131
607.658047	0.260047
607.867420	0.260266
608.076775	0.260764
608.286111	0.261059
608.495430	0.261004
608.704730	0.261097
608.914012	0.260840
609.123275	0.261262
609.332521	0.261255
609.541748	0.261592
609.750957	0.262141
609.960148	0.262121
610.169321	0.262191
610.378475	0.262479
610.587611	0.262414
610.796729	0.262726
611.005829	0.262969
611.214910	0.263465
611.423974	0.263778
611.633019	0.264020
611.842045	0.263783
612.051054	0.264098
612.260044	0.264251
612.469017	0.264723
612.677970	0.265008
612.886906	0.264634
613.095824	0.264559
613.304723	0.264601
613.513604	0.264475
613.722467	0.264504
613.931311	0.264491
614.140138	0.264684
614.348946	0.264731
614.557736	0.264910
614.766507	0.265229
614.975261	0.265514
615.183996	0.265563
615.392713	0.265918
615.601412	0.266362
615.810092	0.266186
616.018754	0.266272
616.227399	0.266347
616.436024	0.266266
616.644632	0.266791
616.853222	0.266873
617.061793	0.266889
617.270346	0.267076
617.478880	0.267100
617.687397	0.267507
617.895895	0.267506
618.104375	0.267682
618.312837	0.267654
618.521281	0.267391
618.729706	0.267285
618.938113	0.267609
619.146502	0.267541
619.354873	0.267624
619.563226	0.267699
619.771560	0.267696
619.979876	0.267765
620.188174	0.267968
620.396453	0.268310
620.604715	0.268342
620.812958	0.268790
621.021183	0.269038
621.229390	0.269070
621.437578	0.269200
621.645748	0.269345
621.853900	0.269707
622.062034	0.270063
622.270150	0.269952
622.478247	0.270241
622.686326	0.270238
622.894387	0.270190
623.102430	0.270413
623.310454	0.270729
623.518461	0.271257
623.726449	0.271478
623.934418	0.271433
624.142370	0.271590
624.350303	0.272118
624.558218	0.272202
624.766115	0.272282
624.973994	0.272503
625.181855	0.272547
625.389697	0.272457
625.597521	0.272511
625.805327	0.272874
626.013114	0.273019
626.220883	0.272809
626.428634	0.272833
626.636367	0.273102
626.844082	0.273254
627.051778	0.273503
627.259457	0.273999
627.467117	0.274032
627.674758	0.274223
627.882382	0.274479
628.089987	0.274977
628.297574	0.275432
628.505143	0.275494
628.712694	0.275616
628.920226	0.275545
629.127740	0.275175
629.335236	0.275364
629.542714	0.275275
629.750174	0.275366
629.957615	0.275284
630.165038	0.275245
630.372443	0.275537
630.579829	0.275633
630.787198	0.275842
630.994548	0.275862
631.201880	0.276080
631.409194	0.276238
631.616489	0.276478
631.823766	0.276520
632.031025	0.276620
632.238266	0.276815
632.445489	0.277130
632.652693	0.277427
632.859879	0.277794
633.067047	0.277944
633.274197	0.278253
633.481329	0.278200
633.688442	0.278169
633.895537	0.278184
634.102614	0.278263
634.309672	0.278241
634.516713	0.278401
634.723735	0.278863
634.930739	0.278893
635.137724	0.278948
635.344692	0.279083
635.551641	0.279549
635.758572	0.280063
635.965485	0.280157
636.172379	0.280416
636.379256	0.280247
636.586114	0.280255
636.792954	0.280393
636.999775	0.280299
637.206579	0.280539
637.413364	0.280449
637.620131	0.280104
637.826880	0.279878
638.033610	0.279945
638.240323	0.280216
638.447017	0.280028
638.653692	0.279858
638.860350	0.280022
639.066990	0.280158
639.273611	0.280506
639.480214	0.280905
639.686798	0.281413
639.893365	0.281650
640.099913	0.281884
640.306443	0.282189
640.512955	0.282741
640.719449	0.283268
640.925924	0.283513
641.132381	0.283523
641.338820	0.283319
641.545241	0.283441
641.751644	0.283872
641.958028	0.283877
642.164394	0.284046
642.370742	0.284405
642.577071	0.284475
642.783383	0.284587
642.989676	0.284984
643.195951	0.285240
643.402207	0.285557
643.608446	0.285769
643.814666	0.286034
644.020868	0.286525
644.227052	0.286588
644.433218	0.286414
644.639365	0.286463
644.845494	0.286507
645.051605	0.286894
645.257698	0.286927
645.463772	0.286872
645.669828	0.287094
645.875866	0.287209
646.081886	0.287257
646.287888	0.287789
646.493871	0.288022
646.699836	0.288096
646.905783	0.288293
647.111712	0.288564
647.317622	0.288836
647.523514	0.288964
647.729388	0.289059
647.935244	0.289253
648.141082	0.289492
648.346901	0.289842
648.552702	0.290193
648.758485	0.290437
648.964250	0.290886
649.169996	0.290972
649.375724	0.291384
649.581434	0.291444
649.787126	0.291539
649.992800	0.291677
650.198455	0.291645
650.404092	0.291532
650.609711	0.291654
650.815311	0.291499
651.020894	0.291563
651.226458	0.291304
651.432004	0.291486
651.637532	0.291359
651.843041	0.291250
652.048532	0.291431
652.254006	0.291732
652.459460	0.291649
652.664897	0.291767
652.870315	0.291743
653.075716	0.292159
653.281097	0.292332
653.486461	0.292663
653.691807	0.292975
653.897134	0.293137
654.102443	0.293182
654.307734	0.293739
654.513006	0.293881
654.718261	0.294313
654.923497	0.294636
655.128715	0.294770
655.333915	0.295099
655.539096	0.295378
655.744259	0.295765
655.949404	0.296434
656.154531	0.296591
656.359640	0.296790
656.564730	0.297003
656.769802	0.297014
656.974856	0.297414
657.179892	0.297657
657.384909	0.297739
657.589908	0.297789
657.794889	0.297957
657.999852	0.298053
658.204797	0.298563
658.409723	0.298703
658.614631	0.298977
658.819521	0.299094
659.024393	0.299392
659.229246	0.299660
659.434081	0.299962
659.638898	0.299748
659.843697	0.299959
660.048478	0.299978
660.253240	0.300111
660.457984	0.300349
660.662710	0.300580
660.867417	0.300617
661.072107	0.300850
661.276778	0.300853
661.481431	0.301128
661.686066	0.301185
661.890682	0.301466
662.095281	0.301676
662.299861	0.301694
662.504422	0.301642
662.708966	0.301797
662.913491	0.301937
663.117999	0.302222
663.322488	0.302736
663.526958	0.302954
663.731411	0.302887
663.935845	0.302961
664.140261	0.303386
664.344659	0.303456
664.549038	0.303615
664.753400	0.303714
664.957743	0.303852
665.162068	0.303898
665.366375	0.304099
665.570663	0.304303
665.774933	0.304621
665.979185	0.304708
666.183419	0.305298
666.387635	0.305583
666.591832	0.306076
666.796011	0.306275
667.000172	0.306355
667.204315	0.306507
667.408439	0.306838
667.612545	0.306915
667.816634	0.307252
668.020703	0.307407
668.224755	0.307675
668.428788	0.307644
668.632803	0.308011
668.836800	0.308104
669.040779	0.308429
669.244739	0.308721
669.448681	0.308805
669.652605	0.308992
669.856511	0.308773
670.060399	0.309026
670.264268	0.309254
670.468119	0.309310
670.671952	0.309739
670.875767	0.309927
671.079563	0.309801
671.283341	0.310016
671.487101	0.310080
671.690843	0.310524
671.894567	0.310546
672.098272	0.310693
672.301959	0.310973
672.505628	0.310897
672.709278	0.311241
672.912911	0.311477
673.116525	0.311862
673.320121	0.311920
673.523699	0.312269
673.727258	0.312627
673.930799	0.312890
674.134322	0.312855
674.337827	0.312908
674.541314	0.312989
674.744782	0.313439
674.948232	0.313896
675.151664	0.314166
675.355078	0.314249
675.558474	0.314369
675.761851	0.314537
675.965210	0.315106
676.168551	0.315364
676.371873	0.315525
676.575178	0.315793
676.778464	0.315540
676.981732	0.315648
677.184981	0.315857
677.388213	0.315905
677.591426	0.316206
677.794621	0.316384
677.997798	0.316621
678.200956	0.316556
678.404097	0.316633
678.607219	0.316978
678.810323	0.317122
679.013408	0.317465
679.216476	0.317583
679.419525	0.317689
679.622556	0.317846
679.825569	0.318359
680.028563	0.318876
680.231540	0.318999
680.434498	0.319309
680.637438	0.319747
680.840359	0.319506
681.043263	0.319777
681.246148	0.319882
681.449015	0.319911
681.651864	0.319883
681.854694	0.320089
682.057506	0.320320
682.260301	0.320420
682.463076	0.320544
682.665834	0.321018
682.868573	0.321406
683.071295	0.321545
683.273998	0.321486
683.476682	0.321812
683.679349	0.321913
683.881997	0.322080
684.084627	0.322120
684.287239	0.322051
684.489833	0.322150
684.692408	0.321956
684.894965	0.322281
685.097504	0.322663
685.300025	0.322987
685.502527	0.323135
685.705012	0.322946
685.907478	0.323190
686.109925	0.323348
686.312355	0.323535
686.514766	0.324033
686.717159	0.323950
686.919534	0.324096
687.121891	0.323866
687.324230	0.323999
687.526550	0.324345
687.728852	0.324647
687.931136	0.324820
688.133401	0.324914
688.335649	0.325066
688.537878	0.325454
688.740089	0.325819
688.942281	0.325950
689.144456	0.326161
689.346612	0.326393
689.548750	0.326611
689.750870	0.326914
689.952971	0.327134
690.155055	0.327325
690.357120	0.327423
690.559167	0.327284
690.761195	0.327630
690.963206	0.327663
691.165198	0.327891
691.367172	0.327630
691.569128	0.327733
691.771065	0.327982
691.972984	0.328222
692.174885	0.328592
692.376768	0.328767
692.578633	0.329004
692.780479	0.329334
692.982308	0.329603
693.184118	0.330036
693.385909	0.330152
