sample name	sample
index	198
start time	 02-18-2021  12:21:25 PM


Wavelength (nm)	Absorbance
494.344910	-0.406039
494.563924	-0.406039
494.782919	-0.406039
495.001897	-0.019442
495.220856	-0.197949
495.439797	-0.277522
495.658719	-0.310495
495.877624	-0.245692
496.096510	-0.283416
496.315378	-0.225045
496.534227	-0.264517
496.753059	-0.250607
496.971872	-0.210073
497.190667	0.067040
497.409444	0.090210
497.628203	0.093697
497.846943	0.094244
498.065665	0.094854
498.284369	0.093539
498.503055	0.094515
498.721723	0.094693
498.940372	0.095463
499.159003	0.096174
499.377616	0.095820
499.596210	0.095933
499.814787	0.095986
500.033345	0.096892
500.251885	0.098126
500.470406	0.098556
500.688910	0.098872
500.907395	0.099098
501.125862	0.098406
501.344311	0.098566
501.562742	0.098831
501.781154	0.100201
501.999548	0.099516
502.217924	0.099896
502.436282	0.100323
502.654621	0.100132
502.872942	0.100223
503.091245	0.101945
503.309530	0.103226
503.527797	0.103380
503.746045	0.102789
503.964275	0.102314
504.182487	0.101277
504.400681	0.100798
504.618856	0.101480
504.837013	0.101944
505.055152	0.101722
505.273273	0.100549
505.491376	0.100985
505.709460	0.101239
505.927526	0.102973
506.145574	0.104177
506.363604	0.104393
506.581615	0.104665
506.799608	0.104696
507.017583	0.103875
507.235540	0.103938
507.453478	0.103450
507.671399	0.104040
507.889301	0.102860
508.107185	0.102883
508.325050	0.102634
508.542898	0.101915
508.760727	0.102024
508.978538	0.103164
509.196330	0.104446
509.414105	0.104935
509.631861	0.103680
509.849599	0.104248
510.067319	0.105353
510.285021	0.105676
510.502704	0.107075
510.720369	0.106855
510.938016	0.107194
511.155645	0.107264
511.373255	0.107717
511.590848	0.108627
511.808422	0.108690
512.025977	0.108637
512.243515	0.108695
512.461034	0.108047
512.678536	0.108548
512.896018	0.108117
513.113483	0.108318
513.330930	0.107835
513.548358	0.108119
513.765768	0.108489
513.983160	0.108121
514.200533	0.108992
514.417889	0.109439
514.635226	0.108844
514.852545	0.108971
515.069845	0.108625
515.287128	0.109639
515.504392	0.109584
515.721638	0.109851
515.938866	0.110468
516.156075	0.110127
516.373267	0.110595
516.590440	0.111503
516.807594	0.110799
517.024731	0.110837
517.241850	0.110300
517.458950	0.110956
517.676032	0.111379
517.893095	0.111891
518.110141	0.111692
518.327168	0.111917
518.544177	0.112002
518.761168	0.113514
518.978141	0.114165
519.195095	0.114942
519.412031	0.114713
519.628949	0.114829
519.845849	0.114634
520.062731	0.115466
520.279594	0.115614
520.496439	0.115766
520.713266	0.115902
520.930074	0.115856
521.146865	0.116245
521.363637	0.116311
521.580391	0.116511
521.797127	0.116731
522.013844	0.116939
522.230543	0.117038
522.447224	0.117290
522.663887	0.117525
522.880532	0.117512
523.097158	0.117342
523.313766	0.118336
523.530356	0.118456
523.746928	0.118743
523.963481	0.119544
524.180017	0.119959
524.396534	0.120237
524.613032	0.120378
524.829513	0.121156
525.045975	0.121431
525.262420	0.121595
525.478845	0.122071
525.695253	0.122684
525.911643	0.122611
526.128014	0.122730
526.344367	0.123099
526.560702	0.123112
526.777018	0.122919
526.993316	0.122751
527.209597	0.122906
527.425858	0.122966
527.642102	0.122472
527.858328	0.122512
528.074535	0.122816
528.290724	0.123346
528.506894	0.124106
528.723047	0.124588
528.939181	0.125359
529.155297	0.125813
529.371395	0.126432
529.587475	0.126688
529.803536	0.126445
530.019579	0.126615
530.235604	0.126770
530.451611	0.126987
530.667600	0.126884
530.883570	0.126831
531.099522	0.126698
531.315456	0.126633
531.531372	0.127322
531.747269	0.127892
531.963148	0.128225
532.179009	0.128000
532.394852	0.127784
532.610676	0.128393
532.826482	0.129389
533.042271	0.129668
533.258040	0.130169
533.473792	0.130362
533.689525	0.131508
533.905240	0.131819
534.120937	0.132822
534.336616	0.133599
534.552277	0.133881
534.767919	0.133720
534.983543	0.134199
535.199149	0.134394
535.414736	0.134377
535.630306	0.134184
535.845857	0.134230
536.061390	0.134015
536.276904	0.133989
536.492401	0.134152
536.707879	0.134520
536.923339	0.134573
537.138781	0.134926
537.354204	0.135729
537.569610	0.135985
537.784997	0.136678
538.000366	0.136472
538.215716	0.136683
538.431049	0.137102
538.646363	0.137573
538.861659	0.138016
539.076937	0.138278
539.292196	0.137693
539.507438	0.137649
539.722661	0.137465
539.937866	0.138153
540.153052	0.138442
540.368221	0.138461
540.583371	0.138558
540.798503	0.138931
541.013617	0.138934
541.228712	0.140284
541.443789	0.140934
541.658848	0.141467
541.873889	0.141868
542.088912	0.142534
542.303916	0.143394
542.518902	0.143639
542.733870	0.143819
542.948820	0.144190
543.163752	0.143896
543.378665	0.144134
543.593560	0.144234
543.808437	0.144925
544.023295	0.145002
544.238136	0.144826
544.452958	0.144745
544.667762	0.145084
544.882548	0.145719
545.097315	0.146116
545.312064	0.146508
545.526795	0.146721
545.741508	0.146709
545.956203	0.146936
546.170879	0.147729
546.385537	0.148139
546.600177	0.148740
546.814799	0.149130
547.029402	0.149125
547.243988	0.149142
547.458555	0.148931
547.673103	0.148991
547.887634	0.149487
548.102146	0.149591
548.316640	0.149733
548.531116	0.149578
548.745574	0.149830
548.960013	0.150258
549.174435	0.150512
549.388838	0.151331
549.603222	0.152078
549.817589	0.152139
550.031937	0.151929
550.246267	0.152138
550.460579	0.152416
550.674873	0.152196
550.889148	0.152458
551.103405	0.152687
551.317644	0.152881
551.531865	0.152878
551.746068	0.152970
551.960252	0.153298
552.174418	0.153436
552.388566	0.153854
552.602696	0.154298
552.816807	0.154054
553.030900	0.154212
553.244975	0.154470
553.459032	0.154859
553.673070	0.154738
553.887091	0.154871
554.101093	0.155498
554.315077	0.155543
554.529042	0.155382
554.742990	0.155904
554.956919	0.155974
555.170830	0.155845
555.384722	0.156110
555.598597	0.156587
555.812453	0.156697
556.026291	0.157078
556.240111	0.157272
556.453913	0.157977
556.667696	0.158513
556.881461	0.158691
557.095208	0.159238
557.308937	0.159253
557.522647	0.159718
557.736339	0.159960
557.950013	0.159802
558.163669	0.159829
558.377307	0.159709
558.590926	0.159543
558.804527	0.159978
559.018110	0.160093
559.231675	0.160044
559.445221	0.159855
559.658749	0.160430
559.872259	0.160674
560.085751	0.160931
560.299225	0.161168
560.512680	0.161427
560.726117	0.161639
560.939536	0.161812
561.152937	0.162156
561.366319	0.162294
561.579683	0.162183
561.793029	0.162311
562.006357	0.163009
562.219667	0.163251
562.432958	0.163360
562.646231	0.163499
562.859486	0.163567
563.072723	0.163740
563.285941	0.163793
563.499141	0.164384
563.712323	0.164566
563.925487	0.164555
564.138632	0.164618
564.351760	0.165132
564.564869	0.165830
564.777960	0.166287
564.991032	0.166212
565.204087	0.166949
565.417123	0.166721
565.630141	0.167284
565.843140	0.167004
566.056122	0.167281
566.269085	0.167502
566.482030	0.166974
566.694957	0.167078
566.907866	0.167713
567.120756	0.167591
567.333628	0.167787
567.546482	0.167993
567.759318	0.168516
567.972135	0.168915
568.184935	0.168981
568.397716	0.169206
568.610478	0.169480
568.823223	0.169346
569.035949	0.170067
569.248657	0.169943
569.461347	0.169715
569.674019	0.169841
569.886672	0.169607
570.099308	0.169711
570.311925	0.170237
570.524523	0.170541
570.737104	0.171008
570.949666	0.171090
571.162210	0.171986
571.374736	0.172414
571.587244	0.172377
571.799733	0.172671
572.012205	0.172880
572.224658	0.172564
572.437092	0.172573
572.649509	0.172615
572.861907	0.172697
573.074287	0.172721
573.286649	0.172897
573.498993	0.173221
573.711318	0.173761
573.923625	0.174006
574.135914	0.174765
574.348185	0.175042
574.560438	0.175164
574.772672	0.175270
574.984888	0.175493
575.197086	0.175596
575.409266	0.175737
575.621427	0.175935
575.833570	0.175891
576.045695	0.175928
576.257802	0.176008
576.469890	0.176395
576.681961	0.176629
576.894013	0.176528
577.106046	0.176318
577.318062	0.176715
577.530059	0.176687
577.742039	0.177111
577.954000	0.177116
578.165942	0.177567
578.377867	0.177982
578.589773	0.178388
578.801661	0.178833
579.013531	0.179763
579.225382	0.179906
579.437216	0.179942
579.649031	0.180110
579.860828	0.180474
580.072606	0.180890
580.284367	0.180916
580.496109	0.180957
580.707833	0.180987
580.919539	0.180958
581.131227	0.181327
581.342896	0.181951
581.554547	0.182031
581.766180	0.182131
581.977795	0.181916
582.189391	0.182119
582.400969	0.181860
582.612529	0.182218
582.824071	0.182453
583.035595	0.182743
583.247100	0.182769
583.458587	0.183217
583.670056	0.183907
583.881506	0.184134
584.092939	0.184516
584.304353	0.185441
584.515749	0.185869
584.727127	0.186391
584.938486	0.186410
585.149828	0.186876
585.361151	0.187191
585.572456	0.187151
585.783742	0.187245
585.995011	0.187591
586.206261	0.187702
586.417493	0.187805
586.628706	0.187546
586.839902	0.188010
587.051079	0.188152
587.262238	0.188157
587.473379	0.188684
587.684502	0.189455
587.895606	0.189300
588.106692	0.189267
588.317760	0.189494
588.528810	0.189768
588.739841	0.189698
588.950855	0.189956
589.161850	0.190140
589.372827	0.190094
589.583785	0.190028
589.794726	0.190080
590.005648	0.190666
590.216552	0.190544
590.427437	0.190612
590.638305	0.190926
590.849154	0.190800
591.059985	0.191177
591.270798	0.191548
591.481592	0.191965
591.692369	0.192676
591.903127	0.192549
592.113867	0.193573
592.324588	0.194059
592.535292	0.194480
592.745977	0.194954
592.956644	0.195297
593.167293	0.195536
593.377923	0.195110
593.588536	0.195008
593.799130	0.195202
594.009706	0.195126
594.220263	0.195670
594.430803	0.195645
594.641324	0.195760
594.851827	0.196117
595.062312	0.195894
595.272778	0.196289
595.483227	0.196720
595.693657	0.197270
595.904069	0.197393
596.114462	0.197210
596.324838	0.197394
596.535195	0.197524
596.745534	0.197257
596.955855	0.197473
597.166157	0.197965
597.376441	0.198118
597.586707	0.198247
597.796955	0.198198
598.007185	0.198482
598.217396	0.198578
598.427589	0.199120
598.637764	0.199594
598.847921	0.200261
599.058060	0.200852
599.268180	0.200514
599.478282	0.200670
599.688366	0.201044
599.898431	0.201364
600.108479	0.201801
600.318508	0.201736
600.528519	0.201746
600.738511	0.201690
600.948486	0.201271
601.158442	0.201952
601.368380	0.202263
601.578300	0.202124
601.788202	0.202372
601.998085	0.202296
602.207950	0.202603
602.417797	0.202835
602.627626	0.203246
602.837436	0.203646
603.047228	0.203699
603.257002	0.203878
603.466758	0.204664
603.676496	0.204819
603.886215	0.205583
604.095916	0.206066
604.305599	0.206325
604.515264	0.206450
604.724910	0.206691
604.934538	0.206956
605.144148	0.207011
605.353740	0.206956
605.563314	0.207135
605.772869	0.207184
605.982406	0.207139
606.191925	0.207631
606.401425	0.207735
606.610908	0.207832
606.820372	0.208153
607.029818	0.208370
607.239246	0.208695
607.448655	0.208932
607.658047	0.208998
607.867420	0.209215
608.076775	0.209393
608.286111	0.209816
608.495430	0.210251
608.704730	0.210351
608.914012	0.210557
609.123275	0.210755
609.332521	0.210963
609.541748	0.211230
609.750957	0.211389
609.960148	0.211290
610.169321	0.210888
610.378475	0.211161
610.587611	0.211219
610.796729	0.211265
611.005829	0.211563
611.214910	0.211843
611.423974	0.211896
611.633019	0.211917
611.842045	0.212029
612.051054	0.212688
612.260044	0.212996
612.469017	0.213214
612.677970	0.213617
612.886906	0.213403
613.095824	0.213332
613.304723	0.213502
613.513604	0.214010
613.722467	0.214474
613.931311	0.214470
614.140138	0.214571
614.348946	0.214896
614.557736	0.215338
614.766507	0.215714
614.975261	0.216038
615.183996	0.216288
615.392713	0.216331
615.601412	0.216495
615.810092	0.216721
616.018754	0.216794
616.227399	0.217080
616.436024	0.216827
616.644632	0.216910
616.853222	0.216818
617.061793	0.216964
617.270346	0.217226
617.478880	0.217218
617.687397	0.217169
617.895895	0.217212
618.104375	0.217180
618.312837	0.217655
618.521281	0.217854
618.729706	0.218276
618.938113	0.218286
619.146502	0.218298
619.354873	0.218461
619.563226	0.218857
619.771560	0.219297
619.979876	0.219683
620.188174	0.219935
620.396453	0.220063
620.604715	0.220089
620.812958	0.220497
621.021183	0.220805
621.229390	0.221234
621.437578	0.221501
621.645748	0.221066
621.853900	0.221226
622.062034	0.221170
622.270150	0.221472
622.478247	0.222047
622.686326	0.222184
622.894387	0.222377
623.102430	0.222436
623.310454	0.222757
623.518461	0.223229
623.726449	0.223355
623.934418	0.223295
624.142370	0.223189
624.350303	0.223225
624.558218	0.223216
624.766115	0.223413
624.973994	0.223518
625.181855	0.223476
625.389697	0.223863
625.597521	0.223838
625.805327	0.224251
626.013114	0.224831
626.220883	0.224902
626.428634	0.225334
626.636367	0.225308
626.844082	0.225368
627.051778	0.225638
627.259457	0.225494
627.467117	0.225628
627.674758	0.225910
627.882382	0.225946
628.089987	0.225964
628.297574	0.226012
628.505143	0.226236
628.712694	0.226703
628.920226	0.226843
629.127740	0.227386
629.335236	0.227687
629.542714	0.227599
629.750174	0.227707
629.957615	0.227823
630.165038	0.227891
630.372443	0.228101
630.579829	0.228109
630.787198	0.228497
630.994548	0.228501
631.201880	0.228621
631.409194	0.228633
631.616489	0.229078
631.823766	0.229146
632.031025	0.229220
632.238266	0.229553
632.445489	0.229657
632.652693	0.229613
632.859879	0.229732
633.067047	0.230109
633.274197	0.230564
633.481329	0.230398
633.688442	0.230764
633.895537	0.231106
634.102614	0.231136
634.309672	0.231551
634.516713	0.231996
634.723735	0.232416
634.930739	0.232427
635.137724	0.232679
635.344692	0.233246
635.551641	0.233757
635.758572	0.234176
635.965485	0.234575
636.172379	0.234731
636.379256	0.235019
636.586114	0.234924
636.792954	0.235356
636.999775	0.235624
637.206579	0.235583
637.413364	0.235852
637.620131	0.236111
637.826880	0.236183
638.033610	0.236144
638.240323	0.236000
638.447017	0.236414
638.653692	0.236738
638.860350	0.236707
639.066990	0.236831
639.273611	0.236777
639.480214	0.236831
639.686798	0.236983
639.893365	0.237405
640.099913	0.237769
640.306443	0.237615
640.512955	0.237519
640.719449	0.237721
640.925924	0.237847
641.132381	0.238083
641.338820	0.238325
641.545241	0.238471
641.751644	0.238422
641.958028	0.238454
642.164394	0.238723
642.370742	0.239207
642.577071	0.239644
642.783383	0.240038
642.989676	0.240304
643.195951	0.240267
643.402207	0.240449
643.608446	0.240903
643.814666	0.241089
644.020868	0.241378
644.227052	0.241106
644.433218	0.241149
644.639365	0.241258
644.845494	0.241287
645.051605	0.241758
645.257698	0.242202
645.463772	0.242318
645.669828	0.242613
645.875866	0.242824
646.081886	0.243194
646.287888	0.243326
646.493871	0.243623
646.699836	0.243766
646.905783	0.243911
647.111712	0.243636
647.317622	0.243723
647.523514	0.243897
647.729388	0.244236
647.935244	0.244410
648.141082	0.244658
648.346901	0.244732
648.552702	0.245202
648.758485	0.245570
648.964250	0.246226
649.169996	0.246363
649.375724	0.246554
649.581434	0.246758
649.787126	0.247011
649.992800	0.247501
650.198455	0.247854
650.404092	0.247581
650.609711	0.247454
650.815311	0.247700
651.020894	0.248128
651.226458	0.248258
651.432004	0.248556
651.637532	0.248755
651.843041	0.248785
652.048532	0.248890
652.254006	0.249269
652.459460	0.249456
652.664897	0.249418
652.870315	0.249731
653.075716	0.249868
653.281097	0.249956
653.486461	0.250177
653.691807	0.250219
653.897134	0.250660
654.102443	0.250969
654.307734	0.251543
654.513006	0.251727
654.718261	0.251601
654.923497	0.251876
655.128715	0.252026
655.333915	0.252435
655.539096	0.252746
655.744259	0.252369
655.949404	0.252743
656.154531	0.252515
656.359640	0.252825
656.564730	0.253414
656.769802	0.253737
656.974856	0.253942
657.179892	0.254007
657.384909	0.254085
657.589908	0.254668
657.794889	0.254728
657.999852	0.255316
658.204797	0.255407
658.409723	0.255281
658.614631	0.255532
658.819521	0.255775
659.024393	0.255846
659.229246	0.256082
659.434081	0.256489
659.638898	0.256842
659.843697	0.256977
660.048478	0.257219
660.253240	0.257753
660.457984	0.257953
660.662710	0.258224
660.867417	0.258706
661.072107	0.259126
661.276778	0.259204
661.481431	0.259170
661.686066	0.259099
661.890682	0.259480
662.095281	0.259674
662.299861	0.259757
662.504422	0.260114
662.708966	0.260360
662.913491	0.260495
663.117999	0.260746
663.322488	0.260934
663.526958	0.261706
663.731411	0.261818
663.935845	0.262130
664.140261	0.262305
664.344659	0.262360
664.549038	0.262441
664.753400	0.262815
664.957743	0.263222
665.162068	0.263664
665.366375	0.263497
665.570663	0.263781
665.774933	0.263803
665.979185	0.264179
666.183419	0.264370
666.387635	0.264600
666.591832	0.264690
666.796011	0.264674
667.000172	0.264827
667.204315	0.265149
667.408439	0.265364
667.612545	0.265416
667.816634	0.265562
668.020703	0.265790
668.224755	0.266236
668.428788	0.266672
668.632803	0.267253
668.836800	0.267541
669.040779	0.267772
669.244739	0.267995
669.448681	0.268604
669.652605	0.268867
669.856511	0.269300
670.060399	0.269442
670.264268	0.269595
670.468119	0.269581
670.671952	0.270036
670.875767	0.270171
671.079563	0.270650
671.283341	0.270798
671.487101	0.271396
671.690843	0.271325
671.894567	0.271408
672.098272	0.271591
672.301959	0.271965
672.505628	0.272057
672.709278	0.272596
672.912911	0.272690
673.116525	0.272929
673.320121	0.273021
673.523699	0.273440
673.727258	0.273610
673.930799	0.273904
674.134322	0.273940
674.337827	0.274086
674.541314	0.274129
674.744782	0.274415
674.948232	0.274784
675.151664	0.274786
675.355078	0.275136
675.558474	0.275459
675.761851	0.275684
675.965210	0.276374
676.168551	0.276580
676.371873	0.276771
676.575178	0.277086
676.778464	0.277236
676.981732	0.277787
677.184981	0.277977
677.388213	0.278239
677.591426	0.278415
677.794621	0.278476
677.997798	0.278635
678.200956	0.279210
678.404097	0.279052
678.607219	0.279238
678.810323	0.279209
679.013408	0.279405
679.216476	0.280026
679.419525	0.280276
679.622556	0.280481
679.825569	0.281034
680.028563	0.281129
680.231540	0.281790
680.434498	0.281905
680.637438	0.282111
680.840359	0.282510
681.043263	0.282683
681.246148	0.282919
681.449015	0.283115
681.651864	0.283371
681.854694	0.283606
682.057506	0.283531
682.260301	0.283619
682.463076	0.284016
682.665834	0.284033
682.868573	0.284016
683.071295	0.284278
683.273998	0.284522
683.476682	0.284435
683.679349	0.284439
683.881997	0.284864
684.084627	0.285326
684.287239	0.285597
684.489833	0.286131
684.692408	0.286303
684.894965	0.286707
685.097504	0.286845
685.300025	0.287521
685.502527	0.287877
685.705012	0.288075
685.907478	0.288352
686.109925	0.288488
686.312355	0.288607
686.514766	0.288761
686.717159	0.288715
686.919534	0.289115
687.121891	0.289069
687.324230	0.289323
687.526550	0.289676
687.728852	0.289858
687.931136	0.290150
688.133401	0.290328
688.335649	0.290780
688.537878	0.291090
688.740089	0.290890
688.942281	0.291073
689.144456	0.291301
689.346612	0.291465
689.548750	0.291616
689.750870	0.292004
689.952971	0.292161
690.155055	0.292276
690.357120	0.292378
690.559167	0.292891
690.761195	0.293218
690.963206	0.293508
691.165198	0.293540
691.367172	0.293812
691.569128	0.293526
691.771065	0.293892
691.972984	0.293939
692.174885	0.294208
692.376768	0.294450
692.578633	0.294558
692.780479	0.294540
692.982308	0.294898
693.184118	0.295308
693.385909	0.295774
