sample name	sample
index	1210
start time	 04-26-2021  01:13:13 PM
880	0.471405
Peak Time (s)	91.037
Peak Height 	0.4714
calc peak height	90,93
Baseline Time (s)	10.534
Baseline Value 	-0.002607
subtract baseline	10,4
Abs	0.314936
Peak Time (s)	92.535
Peak Height 	0.3149
calc peak height	90,93
Baseline Time (s)	8.536
Baseline Value 	0.001808
subtract baseline	10,3
PK_550	0.155762
Peak Time (s)	90.039
Peak Height 	0.1558
calc peak height	90,93
Baseline Time (s)	11.034
Baseline Value 	6.1632E-4
subtract baseline	10,2
PK_880	0.307721
Peak Time (s)	92.037
Peak Height 	0.3077
calc peak height	90,93
Baseline Time (s)	9.036
Baseline Value 	-0.001385
subtract baseline	10,1


Time (s)	A880-A510	A880-A775	A880-A975	A880	I510	I775	I975	I880	
0.033500	0.001196	-0.000147	-0.001748	0.001636	6164.791178	43563.823367	3875.998972	22551.978207
0.537000	-0.001283	-0.001100	-0.008056	0.006847	6108.054316	42991.693677	3850.706711	22317.935370
1.037000	-0.000514	-0.000584	0.003010	0.004684	6129.571203	43239.341007	3879.812321	22414.753026
1.534500	-0.000401	-0.000701	0.001562	0.000633	6160.374310	43605.848334	3885.644570	22597.362353
2.035500	-0.000869	0.000257	0.005547	0.000622	6156.981135	43696.605962	3894.665584	22597.857539
2.535500	-0.003714	-0.001372	-0.003585	0.004668	6106.218990	43167.924747	3865.227215	22415.496862
3.038500	0.001294	0.000257	0.004271	0.001045	6169.926248	43656.981068	3890.819098	22578.724844
3.536000	0.001240	-0.000409	0.006165	0.000155	6176.161891	43677.912444	3897.128582	22619.003378
4.036500	-0.000150	-0.000830	-0.002554	-0.000712	6172.263960	43719.785193	3879.437268	22658.381565
4.536500	-0.001008	-0.000689	-0.002497	0.000291	6158.406964	43638.948217	3877.325517	22612.850326
5.037000	0.001318	0.000263	0.002127	0.000054	6177.495524	43750.430860	3888.217030	22623.579664
5.537000	0.000675	-0.000309	0.002126	-0.000514	6176.941656	43750.108940	3889.496013	22649.384121
6.035000	0.000674	0.000135	0.000500	-0.000406	6176.127602	43781.640057	3885.592430	22644.469214
6.535000	0.001974	0.000334	0.001803	-0.000183	6184.182168	43779.444002	3888.020862	22634.346663
7.035000	0.002442	0.000422	0.006145	0.000218	6184.685788	43750.092516	3896.940453	22616.186657
7.538000	-0.000412	0.000026	0.003731	-0.000159	6166.182521	43748.265714	3892.318745	22633.253625
8.036000	0.000125	0.000157	0.001673	0.000278	6166.929181	43719.551750	3886.690565	22613.439692
8.536000	-0.000242	0.000274	0.000000	0.000100	6165.522078	43747.226345	3883.333639	22621.503648
9.035500	0.000000	-0.000717	-0.000497	-0.000880	6174.634627	43746.148670	3884.417504	22666.002493
9.536500	0.001883	0.000104	0.001304	0.000073	6181.586346	43733.772318	3886.323085	22622.745046
10.037000	0.000478	0.000354	0.006253	0.000283	6169.524409	43737.522729	3897.037142	22613.206178
10.534500	0.001149	-0.000073	0.005109	0.000000	6176.643772	43724.046510	3895.081073	22626.048772
11.034500	-0.001240	0.000000	-0.004061	-0.000236	6160.601342	43753.067287	3875.020524	22636.773146
11.535000	-0.000510	-0.000715	-0.005930	-0.000555	6168.408470	43715.820620	3871.580800	22651.239012
12.035000	-0.003233	-0.000301	0.002995	-0.000317	6146.416966	43732.342345	3891.012564	22640.418076
12.535500	0.000243	0.000416	-0.003099	-0.000573	6174.159367	43823.861899	3877.911921	22652.068391
13.039000	-0.001065	0.000365	-0.005036	0.000640	6155.389096	43705.101970	3870.913250	22597.041244
13.536500	-0.000262	-0.000543	0.002348	-0.001223	6175.237756	43794.739754	3891.597694	22681.584439
14.037000	-0.002687	0.000251	-0.000516	0.002334	6130.872325	43535.781479	3877.188168	22520.470791
14.537000	-0.004750	0.000145	-0.002100	0.001682	6120.503369	43586.892551	3875.114735	22549.922974
15.036500	-0.003210	-0.000588	-0.001436	0.000700	6139.062419	43610.159235	3878.779254	22594.309165
15.534500	-0.002364	0.000328	-0.001597	-0.000505	6154.242869	43809.086573	3881.112047	22648.949303
16.038000	0.000196	-0.000185	-0.008010	-0.001081	6177.600863	43815.044960	3868.144759	22675.122612
16.535500	0.000206	-0.000283	0.001144	-0.001395	6180.021482	43835.349836	3889.266640	22689.398844
17.038000	0.001517	0.000033	0.000156	-0.001825	6193.072675	43905.694958	3888.012066	22709.006814
17.536000	-0.002180	-0.000081	-0.004787	-0.000408	6154.889626	43761.532130	3873.786693	22644.543574
18.035500	0.002157	0.000726	0.000632	0.001056	6176.284918	43699.862461	3882.606805	22578.198344
18.536000	-0.002773	-0.000894	-0.006240	-0.000361	6150.147847	43680.853981	3870.464108	22642.423252
19.036500	0.000489	-0.000352	-0.002959	0.000573	6167.440657	43644.074621	3875.670413	22600.059469
19.537000	-0.001597	0.000021	0.001132	0.000445	6152.894611	43691.154012	3885.100908	22605.887441
20.037500	-0.002396	-0.000156	0.000486	-0.000035	6150.527205	43719.484037	3884.727799	22627.635765
20.537500	-0.000757	0.000036	0.001039	-0.000057	6162.863112	43739.572427	3886.020158	22628.639916
21.035000	-0.000888	-0.000226	0.000231	0.000176	6160.154491	43693.141746	3883.682407	22618.081164
21.538000	-0.000480	-0.000232	0.000375	0.000180	6163.151855	43692.156265	3883.993908	22617.864950
22.035500	-0.000144	0.000435	-0.001610	0.000349	6164.399863	43738.945213	3879.175429	22610.229251
22.536000	-0.000090	0.000448	-0.002703	0.000762	6161.725236	43701.336251	3875.817900	22591.504809
23.036000	-0.003004	0.000648	-0.006545	0.001485	6134.797432	43652.429930	3865.718134	22558.821518
23.537000	-0.003453	0.000182	-0.003829	0.000075	6141.895697	43740.937854	3874.844789	22622.669365
24.037000	-0.001416	0.000067	-0.001246	0.000293	6155.364984	43709.723787	3880.114130	22612.774766
24.539500	-0.001531	0.000304	0.001425	0.000167	6155.446756	43743.735140	3886.385004	22618.497392
25.040000	-0.003369	0.000029	-0.000323	0.000967	6135.920535	43642.918357	3880.669360	22582.225239
25.536500	-0.002329	0.000028	0.001215	0.000052	6150.381006	43728.606637	3886.170348	22623.700736
26.038000	-0.000246	0.000658	0.003583	0.000807	6160.227814	43716.849882	3889.801662	22589.466577
26.535500	-0.003910	0.000175	0.000463	0.000385	6136.229783	43711.173205	3883.732293	22608.597707
27.038500	-0.002563	0.000445	-0.001221	-0.001937	6163.404629	43955.021289	3885.163945	22714.071007
27.536000	0.001725	0.000459	-0.000254	-0.002244	6197.776211	43985.351554	3888.030777	22728.075522
28.035500	0.000183	-0.000081	-0.000641	-0.001450	6180.265263	43859.563602	3885.374401	22691.933560
28.536500	0.001228	0.000154	0.001293	-0.000920	6184.113589	43831.822174	3888.533488	22667.805318
29.037000	0.000531	-0.000090	0.003493	-0.001579	6183.835617	43870.890734	3894.999703	22697.807403
29.537000	0.003382	0.000398	0.003692	-0.001228	6202.598378	43883.809302	3894.653793	22681.812507
30.037500	0.001234	-0.000160	-0.003228	-0.001883	6191.374754	43892.937450	3880.547504	22711.626713
30.535000	-0.000790	-0.000780	-0.000995	0.000989	6154.841107	43565.202400	3879.119605	22581.242742
31.037500	0.002670	-0.000535	-0.001216	0.000072	6187.486210	43673.911707	3880.674697	22622.770556
31.535500	0.002484	-0.000334	0.002045	-0.001605	6198.681177	43850.327806	3891.778095	22698.985210
32.035500	0.003224	-0.000417	0.001060	-0.001701	6204.974183	43851.589998	3889.768972	22703.334628
32.536000	0.001100	-0.000957	0.001970	-0.002119	6192.147551	43840.107463	3892.771415	22722.401174
33.036500	-0.000292	-0.000476	0.001492	-0.001948	6180.435920	43869.265991	3891.304079	22714.606924
33.537000	0.001804	-0.000464	-0.002614	-0.003755	6209.761071	44041.005213	3886.120307	22797.096550
34.039500	0.000967	-0.000808	-0.000501	0.000063	6174.816203	43649.214447	3882.294168	22623.186960
34.536000	0.002209	0.000237	0.003258	0.000884	6177.958383	43670.243986	3888.896527	22586.010946
35.035000	-0.000020	0.000190	-0.001771	0.001457	6157.085683	43612.142904	3876.346759	22560.076602
35.535500	-0.001832	-0.000214	0.000272	0.000708	6149.200934	43644.385262	3882.580209	22593.951448
36.035000	-0.001253	-0.001009	0.003783	0.000232	6157.024021	43614.597139	3891.554798	22615.540735
36.536000	0.000946	0.000426	0.000584	0.001052	6167.280821	43672.175489	3882.510786	22578.415710
37.036000	0.001107	-0.000188	0.008060	0.000681	6171.246887	43649.399477	3900.247183	22595.200606
37.535500	0.001305	0.000010	-0.002665	0.001175	6169.045444	43621.732334	3874.986338	22572.848686
38.036500	0.000948	-0.000008	-0.001769	0.000813	6169.080425	43653.937925	3877.786605	22589.230926
38.536500	0.000881	-0.000473	0.005434	0.000342	6172.086089	43654.477632	3895.044252	22610.542027
39.037500	-0.001538	-0.000917	-0.001002	0.001014	6149.108491	43550.043849	3879.049355	22580.115083
39.535000	0.001762	0.000784	0.011006	0.001669	6168.766187	43647.930045	3904.721782	22550.500463
40.036000	0.001289	-0.000840	0.004291	0.000429	6174.480028	43611.885053	3892.254813	22606.584022
40.538000	-0.000172	-0.000496	0.001596	0.000408	6163.746881	43646.049904	3886.224209	22607.537665
41.035500	0.000074	0.000126	0.001697	0.000803	6162.647790	43667.401180	3885.564922	22589.675337
41.536000	-0.000090	-0.000304	0.003394	0.000741	6161.891594	43632.930669	3889.527498	22592.493531
42.036500	0.000218	-0.000100	-0.000531	0.001140	6161.211635	43614.692538	3879.818863	22574.416998
42.536500	-0.000435	-0.000348	0.000394	0.000805	6158.843784	43622.757439	3882.636034	22589.561001
43.037000	0.003010	-0.000630	-0.000667	0.001690	6177.926761	43513.709531	3878.288937	22549.573865
43.537000	0.001873	-0.000252	0.002385	0.000927	6175.124017	43620.412519	3886.832338	22584.056667
44.037000	0.003002	-0.000108	0.004876	-0.003790	6219.075256	44077.898355	3903.184265	22798.668260
44.535000	-0.000572	-0.001361	0.000703	-0.002029	6178.946996	43793.597186	3889.703457	22718.295527
45.035000	-0.000619	-0.000321	-0.001588	0.001127	6155.089582	43595.172366	3877.489909	22574.997946
45.535500	0.002577	-0.000053	0.001159	-0.000985	6194.718174	43818.417182	3888.376620	22670.770002
46.035000	-0.000370	-0.000371	0.003758	0.001302	6155.631840	43574.099283	3889.080232	22567.069413
46.536000	0.001315	-0.000807	0.000023	-0.001902	6192.129369	43833.805440	3887.885476	22712.511838
47.036000	0.000668	-0.000496	0.002317	0.001067	6165.097955	43584.472905	3886.366516	22577.733418
47.536000	0.000997	-0.000325	-0.001273	0.001480	6164.474569	43561.802912	3877.402824	22559.024107
48.037000	-0.003169	-0.001438	-0.001951	0.001903	6130.498995	43418.452859	3874.954406	22539.941620
48.537000	0.001996	0.000345	0.004022	-0.000517	6186.847408	43811.903360	3893.790143	22649.511272
49.034000	-0.002568	-0.000679	0.004218	0.001229	6139.905277	43552.147087	3890.284456	22570.396632
49.535000	0.001418	0.000360	-0.005220	-0.001884	6192.770098	43942.051432	3876.107092	22711.700951
50.038000	0.000046	-0.000752	0.004735	0.001406	6157.950084	43528.770155	3891.051484	22562.371933
50.535000	0.002863	-0.000579	-0.000840	0.003603	6162.560980	43340.177181	3873.646797	22463.305689
51.035500	0.014868	-0.027867	-0.020085	0.489739	4016.369289	15345.288328	3210.792639	9307.120384
51.536000	0.007719	-0.032802	-0.019133	-0.041708	6558.136213	44575.480074	3935.518851	24611.445317
52.036500	0.000665	-0.060663	-0.021193	-0.222202	8338.041259	62098.142369	4456.736976	35783.714702
52.536500	0.008886	-0.094002	0.000636	-0.277402	9188.026866	65150.752190	4756.961576	40236.531571
53.037000	0.015188	-0.049336	0.011597	-0.208216	8344.725581	61737.076335	4525.189063	34742.512754
53.534500	0.020080	-0.036339	0.015182	-0.185266	8124.279643	60405.593986	4454.738302	33105.056815
54.035000	0.021925	-0.019332	0.017936	-0.141259	7643.910514	56943.314230	4314.733773	30197.147605
54.537500	0.025615	-0.010578	0.022141	-0.127633	7537.343598	56341.280639	4284.585629	29354.954851
55.035500	0.037533	-0.004365	0.036245	-0.117492	7556.212043	55860.571332	4297.187021	28745.014048
55.535500	0.057654	0.006934	0.058187	-0.060317	7178.047756	50558.190967	4189.071912	25560.645938
56.036000	0.079128	0.022988	0.083221	0.028843	6565.296980	43185.014213	4013.455003	21360.440258
56.536500	0.103598	0.039642	0.107832	0.099455	6199.091069	38486.086407	3902.525133	18594.711732
57.036500	0.128779	0.055493	0.132026	0.157991	5957.567140	35161.098946	3827.041754	16619.416474
57.537000	0.149289	0.069538	0.149048	0.212626	5728.940448	32288.482545	3750.939369	15001.140302
58.036500	0.172549	0.085110	0.180635	0.259687	5579.785126	30237.705771	3721.494458	13761.432952
58.534500	0.197039	0.096720	0.199619	0.299931	5485.465428	28497.648464	3682.712903	12802.811381
59.037000	0.217175	0.110962	0.222479	0.354587	5290.367064	26229.020667	3628.143514	11635.284122
59.538000	0.238351	0.124541	0.239708	0.374806	5295.570022	25876.067582	3623.213990	11239.270313
60.035500	0.242239	0.129054	0.245663	0.389718	5236.331363	25334.049308	3608.649006	10958.797364
60.536000	0.261286	0.140609	0.259988	0.423319	5160.392054	24226.909574	3578.306949	10361.009469
61.036000	0.265780	0.145579	0.266360	0.433074	5133.563067	23993.969821	3573.118667	10195.951260
61.536000	0.275740	0.147959	0.279714	0.449350	5101.778758	23331.830439	3568.669992	9928.675314
62.037000	0.268978	0.151671	0.272063	0.453663	5047.149858	23303.642321	3550.765675	9859.508850
62.537000	0.275045	0.153286	0.273333	0.446231	5113.924986	23731.780132	3563.740467	9979.124256
63.037000	0.278205	0.155185	0.282330	0.445426	5133.933235	23861.439657	3578.668179	9992.204579
63.542500	0.281097	0.158620	0.288982	0.443949	5156.193719	24099.098896	3591.306460	10016.258072
64.038000	0.276848	0.159688	0.290056	0.449081	5108.668619	23902.331137	3584.968505	9933.017934
64.535000	0.288370	0.160455	0.293917	0.442324	5202.232070	24268.153773	3601.680167	10042.822244
65.036000	0.288791	0.162324	0.296088	0.443257	5199.561445	24314.136940	3603.656152	10027.570070
65.536000	0.285493	0.160528	0.293064	0.441261	5192.771933	24323.947783	3602.015560	10060.253788
66.036000	0.288480	0.163149	0.291647	0.444551	5191.195012	24291.072443	3594.552117	10006.442553
66.536000	0.288878	0.162703	0.294323	0.446446	5183.422569	24176.454646	3595.786619	9975.642787
67.036500	0.287536	0.163069	0.285488	0.451960	5148.160152	23926.491528	3573.487420	9886.734106
67.537000	0.289501	0.162946	0.289505	0.447831	5179.475031	24120.753324	3586.056949	9953.202187
68.034000	0.294433	0.164549	0.290904	0.448006	5204.224417	24190.397220	3587.964493	9950.365944
68.535000	0.292119	0.164674	0.299701	0.446908	5197.875282	24250.268653	3603.594992	9968.145130
69.035500	0.289409	0.164152	0.296537	0.449700	5169.350350	24088.511241	3594.145424	9923.046356
69.535500	0.293562	0.163960	0.303891	0.446819	5205.878068	24219.632709	3610.465868	9969.582532
70.035500	0.291219	0.164808	0.285031	0.454015	5156.484488	23911.254297	3569.660765	9853.899207
70.536000	0.295768	0.164241	0.297006	0.448003	5211.235525	24175.476599	3597.566058	9950.412060
71.036500	0.290501	0.164677	0.299165	0.454028	5152.739525	23904.303124	3591.470852	9853.691349
71.536500	0.293750	0.163110	0.295141	0.451874	5180.541859	23932.627198	3588.540603	9888.115830
72.036000	0.286888	0.163476	0.297465	0.458448	5112.047020	23635.068896	3581.931945	9783.581950
72.537000	0.291625	0.164110	0.297844	0.453165	5162.924583	23918.573789	3590.751833	9867.461900
73.035000	0.291281	0.164471	0.290754	0.457325	5139.910719	23736.120111	3573.338056	9801.330631
73.534500	0.294306	0.166552	0.296705	0.462749	5127.748088	23576.850460	3574.143179	9716.041371
74.035500	0.285231	0.161599	0.288972	0.462344	5084.348494	23362.118516	3563.025356	9722.366788
74.535500	0.291669	0.162345	0.299020	0.457998	5138.462656	23602.709862	3585.042060	9790.692288
75.036000	0.290050	0.162612	0.291539	0.462692	5106.620836	23393.395151	3566.372590	9716.932842
75.536500	0.293574	0.162972	0.298631	0.460339	5136.242685	23521.397230	3580.809159	9753.796202
76.036000	0.291451	0.162688	0.294580	0.465459	5099.789673	23267.222601	3566.787322	9673.817226
76.536500	0.296899	0.164523	0.302819	0.461142	5149.083151	23556.844323	3586.060099	9741.191245
77.036500	0.295216	0.161654	0.302935	0.457910	5157.007971	23574.042390	3591.294893	9792.079366
77.537000	0.298283	0.163312	0.300666	0.458903	5167.657666	23605.655080	3586.194590	9776.406785
78.038000	0.300638	0.163400	0.306697	0.465224	5147.332758	23311.521589	3585.743573	9677.469946
78.535000	0.302665	0.164012	0.310170	0.460440	5182.344773	23565.887766	3598.718142	9752.211492
79.035000	0.298482	0.161730	0.305797	0.461441	5155.644989	23410.749408	3590.244991	9736.502938
79.535000	0.301681	0.163126	0.311548	0.458807	5185.715813	23601.383437	3603.512727	9777.921014
80.036000	0.299071	0.163128	0.306354	0.464393	5143.583694	23337.741418	3586.503767	9690.400374
80.536000	0.302222	0.163483	0.308179	0.458840	5188.347258	23616.732107	3598.098825	9777.391718
81.036500	0.302381	0.162882	0.309460	0.461829	5173.696120	23446.773031	3595.397123	9730.430471
81.536500	0.305878	0.163240	0.306002	0.457594	5213.964107	23664.495054	3596.625016	9797.075095
82.037500	0.302999	0.161663	0.307183	0.457098	5201.475627	23613.055561	3599.282013	9804.918981
82.537500	0.303996	0.162608	0.307510	0.457861	5202.701253	23621.735701	3598.590260	9792.854815
83.034500	0.301132	0.161286	0.302612	0.461579	5168.549686	23383.379631	3585.058740	9734.348713
83.535000	0.302865	0.160906	0.307773	0.458009	5196.017722	23533.869384	3598.772984	9790.506869
84.035500	0.301859	0.162138	0.314378	0.459059	5185.328549	23542.488440	3607.641708	9773.939394
84.535500	0.305484	0.162884	0.308464	0.460502	5196.676781	23509.522187	3595.918632	9751.237603
85.036000	0.303377	0.160634	0.303634	0.464027	5167.501881	23238.201037	3582.845032	9696.104714
85.536000	0.306311	0.161178	0.309629	0.460848	5199.191178	23412.687959	3597.216016	9745.811928
86.036500	0.305125	0.159934	0.307411	0.460224	5196.253944	23383.517016	3594.696523	9755.609100
86.537000	0.305602	0.159717	0.304151	0.460672	5196.408444	23352.301374	3588.873294	9748.569029
87.037500	0.298955	0.157702	0.309665	0.464298	5143.474452	23089.205490	3591.831343	9691.877545
87.537500	0.304081	0.157863	0.313874	0.460905	5187.280430	23254.574940	3603.876816	9744.919379
88.035000	0.304794	0.157525	0.314854	0.460911	5190.952565	23238.471778	3605.435144	9744.814698
88.535500	0.305732	0.157716	0.307358	0.462131	5189.486863	23190.502379	3591.611419	9725.696621
89.037500	0.305637	0.157230	0.311830	0.467098	5163.333043	22938.195805	3590.835078	9648.424933
89.536000	0.303873	0.155836	0.313333	0.462763	5176.574706	23073.855849	3600.051744	9715.813784
90.039000	0.302455	0.155762	0.308039	0.470254	5131.008798	22726.692638	3580.027035	9599.779175
90.536500	0.304323	0.153839	0.308916	0.463596	5174.597182	22943.259880	3591.757031	9702.810349
91.036500	0.305617	0.154958	0.314364	0.471405	5141.208284	22637.904378	3588.059909	9582.116280
91.537000	0.307016	0.153501	0.314334	0.466215	5174.985088	22807.737422	3596.168662	9662.098295
92.037000	0.307721	0.152973	0.311455	0.471399	5151.967567	22548.474201	3583.540382	9582.204387
92.534500	0.305745	0.152768	0.314936	0.467831	5160.121197	22700.694954	3594.567213	9637.091848
93.037000	0.304403	0.151240	0.307066	0.472822	5127.869435	22406.699049	3574.583524	9560.446859
93.560500	0.309471	0.149666	0.315447	0.469452	5170.950690	22487.254535	3592.819861	9612.103418
94.144500	0.308906	0.150761	0.314551	0.472456	5152.626330	22401.631880	3586.712329	9566.038545
94.535500	0.307558	0.150650	0.313103	0.472479	5145.622633	22395.620392	3584.422140	9565.680890
95.036000	0.308192	0.148316	0.315622	0.476711	5127.360824	22104.100641	3581.766503	9501.329823
95.537000	0.311087	0.151413	0.320404	0.476228	5144.502592	22262.515603	3589.963838	9508.649371
96.037000	0.306051	0.148242	0.319301	0.479999	5100.094226	21956.570681	3582.372445	9451.773942
96.537000	0.307061	0.148180	0.319099	0.476263	5123.914387	22117.846577	3587.868922	9508.117486
