sample name	sample
index	1116
start time	 04-22-2021  01:19:37 PM
880	0.456864
Peak Time (s)	101.035
Peak Height 	0.4569
calc peak height	100,103
Baseline Time (s)	9.535
Baseline Value 	-0.005152
subtract baseline	10,4
Abs	0.322899
Peak Time (s)	101.035
Peak Height 	0.3229
calc peak height	100,103
Baseline Time (s)	8.537
Baseline Value 	0.001432
subtract baseline	10,3
PK_550	0.182387
Peak Time (s)	101.035
Peak Height 	0.1824
calc peak height	100,103
Baseline Time (s)	9.035
Baseline Value 	9.9164E-4
subtract baseline	10,2
PK_880	0.309914
Peak Time (s)	101.035
Peak Height 	0.3099
calc peak height	100,103
Baseline Time (s)	10.036
Baseline Value 	0.003681
subtract baseline	10,1


Time (s)	A880-A510	A880-A775	A880-A975	A880	I510	I775	I975	I880	
0.035500	-0.006118	-0.000256	-0.001019	0.005325	6227.078487	42998.977720	3905.601664	22562.948246
0.535500	-0.005036	-0.001072	-0.008640	0.004805	6239.283363	42971.625943	3889.338474	22586.470006
1.039000	-0.003712	-0.001053	-0.002408	0.003984	6255.686178	43049.059495	3905.490842	22623.649510
1.539500	-0.003708	-0.001032	0.001189	0.004950	6248.327432	42962.030067	3911.585067	22579.918415
2.036500	-0.001433	-0.000888	-0.000248	0.002480	6284.841365	43203.489102	3913.988488	22692.023531
2.536500	-0.000792	-0.000343	-0.001172	0.001434	6297.915730	43351.091883	3914.273083	22739.678315
3.039500	0.000200	0.000419	-0.000181	-0.001167	6325.937536	43664.925980	3922.673661	22858.699957
3.537500	-0.005564	-0.000723	0.000138	0.004181	6240.018659	43061.382508	3910.930961	22614.760298
4.040000	-0.001462	0.000021	-0.001053	0.000277	6301.693006	43492.688634	3917.247881	22792.510695
4.535000	-0.001295	-0.000243	-0.000104	-0.000284	6307.362577	43520.430539	3920.780766	22818.188963
5.035500	-0.000426	-0.000610	-0.001930	-0.000592	6316.543754	43514.987360	3917.228722	22832.325296
5.535000	-0.003950	-0.001428	0.000497	-0.000585	6289.085946	43438.054019	3922.898835	22832.017118
6.035500	-0.000349	0.000094	0.002149	0.000283	6310.316708	43498.963154	3924.741603	22792.244149
6.536500	-0.002510	-0.000709	-0.003403	-0.000370	6298.587883	43484.997362	3913.277576	22822.159455
7.036000	-0.002328	-0.000142	0.002536	0.000102	6296.329571	43493.782331	3926.079199	22800.525947
7.537000	-0.003702	0.000189	0.006581	0.000325	6283.957843	43503.891840	3935.125534	22790.335864
8.037000	-0.001875	-0.000029	-0.001066	0.000082	6300.002002	43506.255400	3917.672837	22801.429990
8.537500	-0.001988	-0.001134	0.000000	-0.000554	6304.075976	43462.561086	3921.659598	22830.589942
9.035000	-0.001652	0.000000	0.002517	0.000068	6301.849928	43510.301383	3926.115330	22802.106776
9.535000	0.000098	0.000241	0.001070	0.000000	6316.016566	43539.099356	3922.870811	22805.200628
10.035500	0.000000	0.000549	-0.000022	0.000141	6314.144529	43554.691612	3919.976780	22798.728964
10.535500	0.001528	0.000890	-0.000724	0.000512	6323.194478	43551.906796	3917.468699	22781.786741
11.036000	0.000329	-0.000110	-0.000194	-0.000431	6321.181380	43546.549092	3920.915481	22824.919864
11.536500	-0.000709	-0.000371	0.002194	-0.000464	6313.335861	43525.339998	3926.608729	22826.470913
12.036500	-0.001114	-0.000863	0.002295	-0.000825	6312.996129	43513.060106	3927.697173	22842.998833
12.537000	-0.001919	-0.000435	0.000402	-0.001163	6309.352749	43584.646509	3924.033859	22858.523626
13.037000	0.001402	0.001210	0.001433	0.000611	6321.431930	43572.578289	3922.288675	22777.254433
13.534500	-0.002390	-0.000304	0.001685	0.000183	6295.222970	43471.153152	3923.885545	22796.824467
14.034500	-0.005192	-0.000767	0.001699	0.002755	6253.763844	43189.155851	3917.887717	22679.480752
14.535500	-0.004282	-0.001513	-0.001077	0.001675	6269.056797	43220.064129	3913.931459	22728.679842
15.035000	-0.001675	-0.000519	-0.001391	0.000215	6300.526868	43448.200589	3916.604826	22795.378854
15.539000	-0.000674	-0.000195	0.000353	0.000558	6305.642125	43446.371388	3919.880004	22779.679053
16.036000	-0.004696	0.000177	0.001396	0.004488	6244.294417	43116.107798	3913.139177	22600.806345
16.536500	-0.002650	-0.000263	0.001048	0.000389	6291.605332	43455.752535	3921.903775	22787.386821
17.036500	-0.000480	0.000412	0.003291	0.000529	6307.380216	43505.734718	3926.852235	22781.004434
17.536500	-0.001699	-0.001318	-0.004151	0.000001	6301.996918	43393.655861	3910.675887	22805.146034
18.034500	-0.001111	0.000416	0.002701	0.002651	6286.009776	43308.574506	3920.477236	22684.236798
18.535000	-0.002544	-0.000232	0.003911	0.001706	6282.229288	43336.129330	3925.541544	22727.273785
19.034500	-0.002427	0.000302	0.000198	0.001851	6282.016189	43372.295154	3916.494675	22720.658152
19.536000	-0.001330	-0.000160	0.000370	0.001899	6290.132120	43324.813404	3916.783798	22718.469634
20.035500	-0.000696	-0.000713	0.002182	0.001765	6296.086679	43285.911270	3921.336978	22724.576333
20.536500	-0.002421	-0.000590	-0.000343	0.001188	6287.189798	43351.006812	3916.778754	22750.903685
21.036500	-0.004016	-0.000739	-0.001627	0.000887	6277.189329	43365.124345	3914.487068	22764.662292
21.536500	-0.001118	-0.000751	0.003645	0.001375	6295.840822	43318.673834	3925.693387	22742.380699
22.037000	0.000091	-0.000034	0.000138	0.001749	6302.324446	43350.525314	3916.590470	22725.293338
22.537000	-0.002535	-0.000169	-0.001021	0.001903	6280.773517	43323.623943	3913.531445	22718.277357
23.037500	-0.004092	-0.000451	0.001963	0.001204	6274.153230	43362.459610	3922.139621	22750.169595
23.535000	-0.002058	-0.000488	0.007129	0.001415	6288.244866	43339.398812	3933.837462	22740.540092
24.035500	-0.002956	-0.000114	0.002336	0.001865	6277.816965	43332.290918	3921.465151	22720.025137
24.536000	-0.002389	-0.000344	0.000373	0.001686	6283.584414	43327.534042	3917.288988	22728.178340
25.035500	-0.004178	-0.000528	0.001900	0.001485	6271.323904	43329.126045	3921.332623	22737.338641
25.536000	-0.001446	0.000185	0.009415	0.003754	6274.894159	43184.823873	3933.713041	22634.123705
26.036500	-0.000695	0.000644	0.006228	0.002686	6288.958225	43326.441425	3928.693592	22682.629198
26.536500	-0.003542	-0.001089	0.001369	0.000922	6280.575735	43329.300803	3921.407227	22763.048407
27.037000	-0.001812	0.000215	0.004073	0.002044	6285.282434	43346.222323	3925.125539	22711.870429
27.534500	-0.006025	0.000069	-0.001817	0.005161	6229.030467	43044.031053	3904.140628	22570.359903
28.035000	-0.002969	-0.000589	-0.000962	0.000144	6291.028341	43448.265133	3917.771334	22798.602264
28.535000	-0.000263	-0.000221	-0.002397	0.000805	6306.919383	43420.955068	3912.884638	22768.395475
29.035500	-0.003389	-0.000529	-0.001809	0.000779	6282.867645	43394.676938	3914.315016	22769.590642
29.536000	-0.003831	0.000074	0.000120	0.006407	6236.252846	42929.665961	3905.733143	22514.076764
30.036000	-0.001738	-0.000165	0.005989	0.000665	6296.538124	43439.265380	3932.913323	22774.796635
30.539000	-0.001797	-0.000425	0.002257	0.000635	6296.311932	43417.752293	3924.166766	22776.157302
31.037000	-0.001844	0.000077	0.003379	0.003216	6275.972992	43224.636470	3920.741553	22658.517232
31.536500	-0.007668	-0.001351	-0.002731	0.004970	6218.006552	42930.833432	3902.474490	22579.023818
32.037500	-0.003980	-0.000154	0.001091	0.004173	6252.188406	43114.628643	3913.163002	22615.087510
32.534500	-0.003757	-0.000704	0.000573	0.000225	6284.300984	43429.964544	3921.175288	22794.882584
33.035000	-0.001890	-0.000998	0.003790	-0.000614	6305.303924	43480.743516	3930.732373	22833.324153
33.535500	-0.007059	-0.000620	-0.000569	0.005468	6218.845902	42952.204868	3906.311284	22556.481546
34.035500	0.000213	0.000303	0.000231	0.001682	6303.799239	43388.092766	3916.966436	22728.376482
34.539000	-0.001963	0.000267	0.001357	0.002144	6283.337865	43341.788594	3918.518980	22707.323740
35.036000	-0.000969	-0.000364	-0.000143	0.002146	6291.016334	43282.939392	3915.011416	22707.219211
35.536500	-0.001342	0.000445	0.000222	0.002912	6282.196135	43286.956480	3914.076760	22672.359944
36.037000	-0.001300	0.000285	-0.003105	0.002952	6282.211452	43268.376048	3906.264859	22670.527760
36.539500	-0.001430	0.000144	0.004612	0.002390	6285.555317	43307.486083	3925.579862	22696.118043
37.038000	-0.004461	-0.000746	0.001899	0.001809	6266.652285	43278.777759	3920.570397	22722.575312
37.535000	-0.002054	-0.000427	-0.000466	0.003116	6275.124106	43187.157863	3912.000469	22663.061393
38.035500	-0.001190	-0.000435	-0.001252	0.002227	6288.674818	43268.872963	3912.240223	22703.527234
38.535500	-0.001892	0.000602	0.000112	0.002943	6277.710588	43298.745682	3913.749182	22670.965770
39.038500	-0.002000	-0.000372	0.002028	0.001781	6285.856807	43316.112463	3920.939082	22723.848505
39.536500	-0.003845	-0.000472	0.002118	0.002110	6269.077400	43276.362123	3920.379857	22708.869198
40.036500	-0.001684	-0.000341	0.001639	0.002734	6280.933601	43230.536391	3917.797930	22680.448685
40.536000	-0.002093	-0.000132	0.003526	0.002593	6278.864276	43263.093290	3922.550377	22686.883955
41.037000	-0.001793	-0.000182	0.003057	0.002695	6280.387687	43248.869756	3921.206996	22682.202506
41.537000	-0.003936	0.000120	0.004118	0.002798	6263.078671	43267.361106	3923.457749	22677.539136
42.037000	-0.004663	0.000215	0.000841	0.002932	6256.466930	43263.781295	3915.471902	22671.443779
42.535000	-0.000568	-0.000334	0.003560	0.002518	6291.240105	43251.179209	3922.803711	22690.262400
43.035500	-0.000564	-0.000088	0.002656	0.002761	6289.384027	43251.520153	3920.112011	22679.203468
43.535500	-0.001340	-0.000286	0.004747	0.002797	6283.100211	43229.846829	3924.939957	22677.578363
44.038500	-0.000930	0.000267	0.002399	0.000298	6305.678243	43513.760526	3925.295112	22791.579491
44.538500	0.000214	0.000137	0.007752	-0.000539	6321.132416	43579.769423	3939.975186	22829.888853
45.036500	-0.002164	0.001174	0.004013	0.001492	6286.825164	43486.952649	3926.285661	22737.044424
45.539500	-0.001811	0.000036	0.001886	0.004693	6264.849816	43084.265161	3913.805764	22591.561664
46.034500	-0.000443	-0.000006	0.004091	0.002992	6288.539637	43237.700096	3922.938495	22668.732160
46.540000	0.000647	0.000419	0.001653	0.001011	6312.411825	43461.391546	3921.866662	22758.988333
47.034500	-0.000888	0.000251	0.005200	0.000995	6300.579241	43447.204048	3930.261078	22759.722302
47.538000	-0.000939	0.000876	0.006424	0.005760	6263.345971	43063.216560	3921.916238	22543.283580
48.035000	-0.004596	0.000485	0.000958	0.003592	6251.926541	43227.615691	3914.206741	22641.470748
48.536500	-0.002086	0.000430	0.003977	0.000927	6291.806474	43470.225826	3927.531955	22762.814649
49.036500	-0.002413	0.000526	-0.000704	0.000887	6289.576572	43482.929921	3916.637205	22764.623577
49.536000	-0.002516	0.000144	0.001055	0.003852	6265.894310	43171.929238	3913.828004	22629.669155
50.036500	-0.001481	0.000369	0.002439	0.001008	6295.871456	43457.004473	3923.718606	22759.098789
50.537000	0.003419	0.000938	0.008763	0.001284	6331.954794	43484.288555	3938.035797	22746.516393
51.034500	-0.003404	-0.009910	0.012827	0.046841	5944.812595	38550.218899	3843.698349	20772.666925
51.534500	0.015280	-0.026814	0.000298	0.357069	4468.077020	19724.379834	3350.243659	11662.266807
52.034500	0.013686	-0.020243	-0.013637	-0.028599	6661.974300	44304.160772	3956.028765	24158.341844
52.535000	0.003663	-0.121370	-0.019128	-0.309761	9902.172284	65535.000000	4889.865166	43491.934539
53.035500	0.011508	-0.165436	-0.005506	-0.353827	10788.068645	65535.000000	5172.155910	47824.037786
53.535000	-0.092791	-0.309845	-0.106787	-0.498236	11548.903419	65535.000000	5409.096564	65535.000000
54.035500	0.004747	-0.119433	-0.001640	-0.307824	9888.483326	65535.000000	4962.311674	43311.419793
54.542000	0.003708	-0.063220	0.003798	-0.246150	8952.120629	64753.263470	4712.161741	37964.884552
55.037000	0.006357	-0.032467	-0.001403	-0.197809	8350.186549	62301.357354	4502.285885	34273.960291
55.537000	0.003430	-0.027227	0.001190	-0.184550	8151.711858	61215.955288	4463.481107	33331.376058
56.037000	0.012649	-0.016820	0.012674	-0.157630	7942.929527	59042.829362	4408.979627	31503.833710
56.534500	0.019186	-0.007671	0.022408	-0.116451	7558.195595	55056.463126	4303.772010	28918.632302
57.035000	0.033098	0.004395	0.036161	-0.042897	6963.633306	48180.830590	4123.545098	24869.015956
57.535000	0.046915	0.011288	0.047500	0.001119	6692.318254	44477.140799	4035.058920	22754.068163
58.038500	0.066424	0.024101	0.068050	0.045753	6480.532926	41544.931178	3973.972898	20817.467388
58.536000	0.083515	0.034152	0.087370	0.093596	6237.447839	38330.307395	3905.875070	18951.142420
59.036000	0.104199	0.046865	0.104228	0.132284	6102.922952	36277.645957	3856.695537	17585.319421
59.536500	0.118075	0.057454	0.121011	0.175288	5896.750672	33882.487618	3800.803735	16203.305253
60.037000	0.130782	0.065456	0.132256	0.193951	5856.265337	33132.919123	3785.593975	15644.806268
60.537000	0.134682	0.071356	0.136754	0.204776	5809.888933	32792.839013	3772.823768	15331.687476
61.037500	0.138801	0.076535	0.152231	0.221933	5724.559944	31981.677149	3769.464587	14851.155944
61.537500	0.147087	0.080352	0.154257	0.228371	5736.496137	31807.121964	3760.702847	14675.668480
62.034500	0.152281	0.084826	0.158531	0.239085	5700.983515	31395.816977	3748.074033	14389.351558
62.538500	0.158967	0.088428	0.169985	0.247703	5688.668360	31069.451070	3753.614768	14164.132003
63.036000	0.165514	0.092983	0.183215	0.258388	5662.450753	30675.605718	3758.613336	13890.988951
63.536000	0.170676	0.096426	0.188062	0.269668	5624.158362	30180.233568	3746.028935	13609.870385
64.036500	0.176934	0.100793	0.185151	0.277698	5613.163154	29951.734081	3725.050634	13414.144433
64.536000	0.184624	0.103935	0.196679	0.284981	5615.684912	29695.700680	3733.126560	13239.713008
65.036500	0.193050	0.109514	0.204835	0.295307	5603.936619	29405.231430	3728.988112	12997.393789
65.537000	0.194422	0.111658	0.199794	0.301755	5572.806034	29144.567589	3707.415144	12848.957892
66.034500	0.200841	0.116947	0.214279	0.306857	5580.848643	29155.855005	3724.990678	12733.072484
66.537500	0.209047	0.119578	0.215408	0.307433	5627.927486	29280.050496	3726.039083	12720.068598
67.035500	0.212536	0.123787	0.222531	0.313918	5609.340669	29142.531038	3727.248643	12574.905924
67.538000	0.216480	0.125733	0.222615	0.323463	5574.935686	28688.603150	3709.479265	12365.140774
68.036000	0.221917	0.127223	0.232603	0.331424	5559.578502	28308.295010	3713.255501	12193.695724
68.536000	0.230697	0.132583	0.238156	0.338184	5571.867421	28226.798575	3711.005730	12050.557839
69.036500	0.230312	0.133849	0.239549	0.342074	5545.930998	28074.624093	3706.370802	11969.177076
69.536500	0.234635	0.137148	0.242882	0.349260	5528.707360	27851.028682	3699.272721	11820.783232
70.037500	0.234828	0.138103	0.250907	0.352703	5509.299819	27708.937689	3707.721687	11750.552998
70.537000	0.239664	0.139658	0.252752	0.357281	5510.833803	27537.339789	3702.671494	11658.013226
71.038000	0.246372	0.141870	0.254908	0.362137	5521.879655	27388.192520	3697.712827	11560.911123
71.535000	0.248387	0.144152	0.257948	0.367089	5504.383332	27238.608413	3694.222236	11463.025543
72.038500	0.251796	0.147590	0.264535	0.371487	5498.510446	27185.009212	3698.221029	11377.001625
72.535000	0.258302	0.148610	0.268972	0.375717	5512.037245	27006.722971	3698.600437	11295.085609
73.036000	0.259375	0.151808	0.276060	0.379960	5493.216775	26948.984860	3703.832374	11213.722923
73.538500	0.262017	0.154231	0.271865	0.384733	5480.642324	26819.566981	3687.458584	11123.131022
74.036500	0.264767	0.155801	0.270701	0.390005	5465.841379	26617.159131	3675.914083	11024.218188
74.536500	0.266270	0.157015	0.279759	0.391111	5468.166096	26623.069964	3690.200617	11003.622283
75.037500	0.269471	0.158419	0.285141	0.394310	5468.183933	26525.535627	3694.170921	10944.351051
75.535000	0.270032	0.161352	0.278767	0.399241	5442.716297	26417.433904	3673.834264	10853.821267
76.035000	0.270650	0.161636	0.285394	0.401946	5430.643391	26287.085660	3680.830233	10804.594712
76.537000	0.272421	0.163932	0.294039	0.404182	5427.961352	26290.296767	3692.397714	10764.133379
77.035500	0.275676	0.164631	0.281664	0.406449	5433.661556	26206.306454	3666.216413	10723.324434
77.536000	0.273915	0.165946	0.294028	0.409652	5405.152187	26105.543596	3682.493513	10666.034916
78.036000	0.277507	0.168147	0.288945	0.414673	5397.002560	25955.804929	3664.561930	10577.057503
78.536500	0.279836	0.169925	0.293599	0.416064	5402.344008	25976.269236	3670.306113	10552.589890
79.037000	0.284978	0.170832	0.298209	0.418393	5418.449534	25901.114576	3674.348921	10511.802935
79.538500	0.284615	0.171932	0.289365	0.419925	5407.588518	25878.275246	3656.131520	10485.082465
80.037500	0.283567	0.171264	0.292430	0.422956	5384.376427	25684.022953	3656.191407	10432.516837
80.534500	0.288155	0.172608	0.298577	0.421922	5416.423194	25808.693459	3668.753276	10450.406478
81.035000	0.287152	0.174246	0.298389	0.423505	5401.632626	25811.604784	3665.635725	10423.032082
81.541000	0.288934	0.173497	0.299271	0.423334	5412.795971	25781.221637	3667.487892	10425.980437
82.036000	0.288727	0.174993	0.297346	0.427889	5385.668014	25621.194181	3656.161507	10347.738618
82.536500	0.290842	0.175334	0.305549	0.427280	5401.146694	25670.740002	3671.604479	10358.137430
83.036000	0.291332	0.175222	0.302526	0.427844	5400.727364	25635.443423	3665.281396	10348.499990
83.536500	0.292377	0.175724	0.304161	0.430085	5393.912654	25544.854272	3664.216466	10310.290040
84.036500	0.293764	0.173973	0.309405	0.429141	5407.204713	25502.976615	3675.145403	10326.364047
84.539500	0.292160	0.175807	0.303311	0.430966	5387.686201	25503.457032	3661.188702	10295.338497
85.037500	0.296506	0.176050	0.307997	0.432962	5401.046888	25412.698122	3665.900489	10261.543060
85.537000	0.294969	0.176494	0.310379	0.434101	5385.833483	25376.770081	3668.087602	10242.319492
86.035000	0.298565	0.177814	0.309456	0.435420	5398.773013	25376.885987	3664.148317	10220.146912
86.535500	0.299464	0.175598	0.305647	0.434515	5409.066325	25309.309092	3659.071012	10235.347647
87.035500	0.297776	0.176026	0.310340	0.435607	5393.218020	25275.192599	3665.369376	10216.992478
87.536000	0.296090	0.177466	0.313024	0.437495	5372.985753	25252.270633	3666.770525	10185.379242
88.036000	0.300600	0.178022	0.317001	0.437848	5396.534563	25262.653117	3673.171896	10179.478025
88.537000	0.298617	0.178980	0.318458	0.439321	5376.940851	25236.235642	3673.143872	10154.909551
89.037000	0.300262	0.178360	0.306876	0.440261	5380.925395	25156.375724	3651.246407	10139.280290
89.536500	0.300071	0.178997	0.315860	0.441476	5372.983777	25126.881286	3664.757271	10119.127351
90.037500	0.301784	0.178673	0.312584	0.441468	5382.706422	25110.781622	3659.043436	10119.257329
90.535000	0.304714	0.180460	0.319030	0.443421	5388.240514	25102.295062	3666.909216	10086.982560
91.038000	0.304394	0.179528	0.320794	0.443917	5383.619194	25029.674838	3669.144941	10078.809323
91.535500	0.305712	0.180511	0.312094	0.445521	5381.997756	24998.160897	3651.174953	10052.442781
92.035500	0.303412	0.179940	0.308838	0.445009	5371.902967	24995.151189	3646.459637	10060.850287
92.536500	0.304773	0.180196	0.318609	0.445876	5374.691333	24964.217843	3661.866098	10046.620584
93.036500	0.303422	0.181053	0.321590	0.446830	5361.722059	24959.302177	3665.418211	10030.999534
93.536500	0.304357	0.181069	0.318556	0.448068	5360.016677	24897.512280	3657.951687	10010.764445
94.037500	0.303725	0.180510	0.322285	0.447726	5358.394449	24886.609992	3665.065088	10016.356345
94.538500	0.302642	0.180810	0.320276	0.447768	5352.097688	24899.613009	3661.473228	10015.668401
95.035000	0.306178	0.180975	0.317588	0.449068	5364.624509	24842.366101	3654.536165	9994.470252
95.535500	0.306886	0.181197	0.317492	0.449597	5365.636543	24826.910241	3653.456432	9985.872876
96.035500	0.305419	0.179920	0.314279	0.451121	5348.885694	24686.450674	3645.312580	9961.146630
96.535500	0.306995	0.181123	0.309673	0.450798	5359.503126	24762.865365	3638.024046	9966.370343
97.036500	0.306682	0.180733	0.314915	0.451046	5356.359661	24730.863463	3646.527029	9962.347151
97.536500	0.307374	0.183430	0.320650	0.453220	5348.076433	24757.099534	3652.652738	9927.217397
