sample name	sample
index	167
start time	 02-18-2021  10:15:11 AM
880	0.395380
Peak Time (s)	92.034
Peak Height 	0.3954
calc peak height	90,93
Baseline Time (s)	9.536
Baseline Value 	-0.006186
subtract baseline	10,4
Abs	0.260327
Peak Time (s)	92.535
Peak Height 	0.2603
calc peak height	90,93
Baseline Time (s)	9.039
Baseline Value 	0.001649
subtract baseline	10,3
PK_550	0.131547
Peak Time (s)	90.037
Peak Height 	0.1315
calc peak height	90,93
Baseline Time (s)	10.534
Baseline Value 	6.6162E-4
subtract baseline	10,2
PK_880	0.247308
Peak Time (s)	91.037
Peak Height 	0.2473
calc peak height	90,93
Baseline Time (s)	8.542
Baseline Value 	0.001875
subtract baseline	10,1


Time (s)	A880-A510	A880-A775	A880-A975	A880	I510	I775	I975	I880	
0.036000	-0.000254	0.000085	-0.000939	0.001401	6645.831867	43835.901097	3774.131894	22923.916559
0.536500	-0.000532	-0.001370	0.001369	0.003773	6621.762293	43475.112726	3773.963595	22813.619414
1.033500	-0.003921	-0.001434	-0.002496	0.005256	6577.899594	43330.145383	3760.189463	22744.933250
1.538500	0.000535	-0.000371	-0.000670	-0.000266	6668.261229	43950.664098	3779.158039	23001.794735
2.035000	0.001521	-0.000022	-0.000759	-0.000648	6680.811618	44020.123313	3779.921539	23019.677548
2.536000	0.001723	-0.000514	0.002856	-0.001000	6685.908496	44006.847357	3790.302526	23036.177674
3.038000	0.000720	-0.000166	0.000580	-0.000431	6671.457956	43985.798793	3782.847191	23009.476757
3.537500	-0.000734	-0.000347	0.001901	0.000295	6651.524857	43899.646959	3784.400562	22975.519158
4.039000	0.002375	-0.000619	-0.000229	0.000310	6679.848499	43872.495775	3778.806345	22974.815602
4.538500	-0.001602	-0.000748	0.001634	0.000002	6646.286623	43889.402629	3784.468935	22989.223590
5.036500	0.001234	-0.000362	0.001844	0.000345	6669.068613	43893.539780	3784.122422	22973.205231
5.541500	0.000270	-0.000629	-0.003932	-0.000130	6664.588897	43913.251390	3770.348066	22995.422185
6.037000	-0.000531	-0.000792	0.000909	-0.000100	6656.990272	43895.001412	3782.842612	22994.004396
6.534000	0.001446	0.000028	-0.002793	0.000557	6669.066834	43910.419497	3771.516606	22963.313221
7.038500	-0.000659	0.000027	0.003558	0.000749	6648.081088	43892.189368	3787.554778	22954.343205
7.538000	0.000418	0.000046	0.005843	0.000353	6661.529673	43931.544454	3794.606348	22972.839937
8.048000	0.000753	-0.000560	0.002799	0.000329	6664.805207	43876.308260	3786.664689	22973.939985
8.542000	0.000000	-0.000224	-0.000630	0.000382	6657.436628	43903.144830	3777.577402	22971.463957
9.038500	0.002260	0.000525	0.000000	0.000431	6677.686929	43969.562439	3779.087945	22969.178579
9.536000	-0.000761	-0.000562	0.004901	0.000000	6653.981050	43907.298003	3793.052753	22989.328661
10.037000	-0.000003	0.000095	0.000972	-0.000026	6661.139050	43972.096052	3782.813091	22990.553997
10.534000	0.000442	0.000000	0.000065	-0.000100	6665.883398	43970.087187	3780.640179	22993.987128
11.036500	0.000066	-0.000693	-0.000741	-0.000414	6665.317572	43934.129995	3779.356910	23008.694663
11.534500	-0.001697	0.000173	-0.000828	0.000009	6645.370244	43976.256531	3778.031880	22988.930695
12.035000	0.000687	-0.000480	0.001807	-0.000138	6668.478824	43928.176278	3785.289309	22995.799064
12.535500	-0.000731	-0.001169	0.000466	-0.001128	6664.565032	43956.751007	3784.373140	23042.177767
13.035000	0.001748	-0.000420	0.001838	-0.002711	6701.902011	44178.748244	3792.125464	23116.524990
13.536000	0.001861	-0.000822	-0.002418	-0.002644	6702.335917	44134.035142	3780.800508	23113.379095
14.044500	0.000597	-0.000452	0.004516	-0.002586	6690.142405	44163.793986	3798.866893	23110.668683
14.536500	-0.002669	0.000408	-0.000053	0.001937	6619.042654	43815.692279	3775.037166	22898.925608
15.036500	0.000801	-0.000759	0.002723	-0.001315	6680.319461	44013.502647	3790.780897	23050.935534
15.599000	0.003655	-0.000606	0.002357	-0.002216	6714.967731	44113.778625	3792.188433	23093.247336
16.037500	-0.001019	-0.000550	-0.000822	0.002517	6628.734517	43670.400378	3771.544027	22871.946834
16.535000	0.002277	-0.000270	0.000753	-0.002168	6701.781801	44141.355879	3787.847499	23091.010571
17.035500	0.001814	0.000221	0.003152	-0.001731	6693.473769	44146.444160	3793.004520	23070.464959
17.535000	0.003625	-0.000313	0.004239	-0.003452	6726.160425	44259.816063	3800.426943	23151.428021
18.038000	-0.000112	0.000715	0.003258	0.001245	6648.540241	43910.306869	3785.468349	22931.172553
18.536000	-0.001169	0.000075	-0.000342	0.000515	6645.561158	43918.842007	3777.979585	22965.247887
19.035500	-0.002088	0.000108	0.005257	0.000351	6638.693038	43937.581009	3793.066507	22972.935774
19.536500	-0.000247	-0.000573	0.002353	-0.000275	6661.181739	43932.326229	3787.078215	23002.203532
20.037000	0.000560	0.000715	0.001362	0.002174	6646.200158	43822.296409	3778.098670	22887.906140
20.534000	-0.002414	-0.000372	0.002023	-0.000086	6639.694695	43933.407803	3785.718620	22993.329627
21.034000	-0.000822	0.000438	0.001451	0.000774	6646.368295	43928.780072	3781.976484	22953.162121
21.537500	-0.002458	-0.001425	-0.002520	-0.000357	6641.765898	43859.301833	3774.589453	23006.032223
22.035000	0.000398	-0.000300	-0.000682	0.001577	6650.162617	43782.710005	3774.338579	22915.685031
22.538000	0.000306	-0.000475	0.001307	0.000314	6660.855199	43885.760837	3782.800387	22974.626425
23.035500	0.000149	0.000037	0.000419	0.000770	6655.259642	43891.129436	3779.296352	22953.358637
23.536000	0.000376	-0.000146	0.001722	0.000658	6658.348165	43884.361699	3782.986726	22958.572726
24.039500	-0.000483	-0.000124	-0.000596	0.002018	6638.127163	43757.715800	3773.420087	22895.145523
24.536500	-0.000686	0.000312	0.000645	0.001148	6644.197189	43881.285084	3778.901313	22935.694872
25.037000	-0.000164	0.000280	0.001268	0.001081	6649.567789	43884.645331	3780.698638	22938.841126
25.534000	0.000830	-0.000430	0.000810	0.000309	6665.691496	43890.499237	3781.515551	22974.881568
26.037000	-0.000294	0.000123	0.004676	0.002239	6637.834714	43760.209459	3786.579188	22884.873801
26.535000	0.001157	-0.000564	-0.000501	0.000250	6669.227757	43883.421611	3778.254575	22977.627358
27.038500	0.000627	-0.000061	0.004107	0.000689	6660.359533	43889.475524	3789.150443	22957.134331
27.535000	0.000725	-0.000769	0.005486	0.000666	6661.466826	43824.601724	3792.840284	22958.204417
28.035500	-0.002449	-0.000329	-0.002427	0.003231	6609.342293	43623.919508	3765.564980	22838.774216
28.535500	-0.000653	-0.000069	-0.000961	0.003034	6627.360764	43667.040771	3769.850692	22847.913222
29.100000	0.001306	-0.000209	0.004481	-0.002001	6691.282900	44131.142494	3797.226146	23083.136272
29.539000	0.000938	-0.000455	0.003810	-0.002485	6692.351605	44153.860535	3796.732076	23105.898798
30.034000	0.003068	0.000667	0.002514	-0.001571	6703.571424	44173.704861	3790.904939	23062.952172
30.534000	-0.000913	0.000012	0.001670	0.003361	6622.042884	43643.803660	3775.812904	22832.737217
31.034500	0.002632	0.000590	0.004424	-0.001211	6696.214456	44131.997731	3794.987942	23046.032121
31.535000	-0.000549	0.000367	0.006137	0.000165	6654.412040	43979.835993	3795.879168	22981.627331
32.035000	-0.000261	-0.000783	0.001735	0.001061	6648.862483	43785.927813	3781.969048	22939.776964
32.552000	-0.001107	0.000852	0.003203	0.004520	6609.818837	43613.783156	3776.784226	22779.005185
33.036000	-0.000198	-0.000170	0.008819	-0.001954	6677.018680	44130.453409	3808.629769	23080.938101
33.536000	0.002345	0.000102	0.005418	-0.001759	6698.629344	44137.718060	3799.065316	23071.763059
34.036000	0.001084	-0.000262	0.006314	-0.002041	6689.610523	44129.985919	3802.192180	23085.037943
34.534000	-0.001256	-0.000532	-0.005797	0.002565	6626.146601	43667.521756	3758.631669	22869.696261
35.034000	-0.001817	-0.000093	0.003612	0.001338	6632.187921	43824.996960	3786.150703	22926.849394
35.534000	0.001103	0.000040	0.004067	0.001377	6658.424006	43833.923507	3787.242004	22925.035112
36.034500	-0.000695	-0.000517	-0.000511	0.001074	6644.781740	43809.760241	3776.087739	22939.134624
36.534500	-0.002007	-0.000760	-0.002550	0.001821	6626.079999	43716.255554	3768.877425	22904.314370
37.035500	-0.001806	-0.001437	-0.001125	0.000446	6640.396888	43782.247239	3776.124491	22968.491360
37.535500	0.000545	0.000440	0.005592	0.001015	6656.627268	43906.028340	3792.196987	22941.895270
38.035500	0.001155	0.000930	-0.000029	0.003509	6639.466527	43716.456404	3771.031625	22825.875523
38.536500	0.000718	-0.000347	0.001552	0.000926	6659.024863	43839.960593	3781.844111	22946.070343
39.034000	-0.000893	-0.000904	0.002539	0.000616	6647.151765	43816.493151	3785.231006	22960.525378
39.533500	0.000470	-0.000363	0.002220	0.000744	6658.418621	43855.642829	3784.062019	22954.544929
40.034000	-0.000737	-0.000359	0.000796	0.001875	6637.119378	43749.005997	3777.404146	22901.823875
40.534500	-0.000125	0.000167	0.000527	0.001080	6649.928767	43874.012870	3778.769680	22938.875296
41.035000	0.000257	0.000214	0.004568	0.001411	6650.393206	43847.123419	3788.465387	22923.440359
41.535000	0.000684	-0.000891	0.001372	0.000579	6661.883685	43821.228677	3782.278293	22962.258411
42.036000	0.000361	0.000160	-0.001133	0.003036	6636.541843	43688.386170	3769.399071	22847.796451
42.536000	-0.001447	-0.000395	-0.000489	0.001069	6637.989362	43821.847450	3776.157610	22939.393105
43.036000	0.001107	-0.000081	0.000395	0.001272	6659.422255	43832.301749	3777.926239	22929.904744
43.536000	0.002157	-0.000323	0.004153	0.001162	6670.032325	43819.781694	3788.030068	22935.031712
44.036000	-0.000962	-0.000564	0.000180	0.002070	6633.297882	43711.165497	3775.295992	22892.717206
44.537000	-0.000377	-0.000886	0.002988	0.001902	6640.145350	43696.662945	3783.042843	22900.552004
45.034500	0.001777	-0.000253	0.004379	-0.003191	6706.611131	44240.609040	3800.108385	23139.146342
45.538000	0.002629	0.000091	0.004395	-0.001483	6698.708200	44110.409020	3795.631238	23058.824208
46.051500	-0.001966	-0.000444	0.004753	0.003703	6609.429350	43568.643123	3782.948477	22816.850858
46.536000	-0.003037	-0.000318	0.004085	0.004599	6591.720521	43496.317060	3778.873358	22775.345423
47.036000	0.002279	0.000427	0.007738	-0.001001	6691.026470	44096.436636	3803.210909	23036.190880
47.536500	0.001354	-0.000128	0.004941	-0.001689	6688.845680	44109.140969	3797.617208	23068.471034
48.036500	-0.002196	-0.000709	0.001275	0.003092	6612.869562	43601.252170	3775.486239	22845.205636
48.536500	-0.002174	-0.000019	-0.001331	0.003724	6607.361310	43606.640069	3767.114288	22815.863908
49.036500	-0.000184	-0.000547	-0.000332	0.001506	6645.508588	43766.133347	3775.431241	22919.002712
49.534000	0.000554	-0.000434	-0.001164	-0.001999	6684.342791	44109.603588	3782.389494	23083.072115
50.037500	-0.000598	-0.000330	-0.001520	0.003224	6626.136769	43624.449035	3767.915124	22839.067263
50.535000	-0.001169	-0.000251	-0.001833	0.004525	6609.207556	43509.487674	3763.765555	22778.752807
51.035000	0.001669	-0.000092	0.003996	-0.003046	6704.269664	44242.077318	3798.708286	23132.302611
51.536000	0.001630	0.000032	0.006468	-0.000745	6682.698231	44034.477145	3799.160732	23024.204082
52.035500	-0.006337	-0.003736	-0.002701	0.003537	6571.664791	43275.669393	3764.073372	22824.543733
52.535500	-0.023606	-0.012247	0.013760	0.325670	4466.815227	21659.486790	3200.432016	12271.838186
53.037000	-0.032304	-0.019179	-0.004411	-0.007933	6444.244197	42906.386040	3789.425433	23363.828871
53.536500	-0.013838	-0.021415	0.003399	-0.132387	7907.178905	55968.162352	4195.556907	30229.376824
54.039000	-0.009695	-0.015227	0.015327	-0.041639	6964.004610	46546.800223	3938.810107	25033.471503
54.534500	-0.003521	-0.005880	0.012583	-0.058941	7201.381638	49320.439808	3982.792115	25942.194485
55.035000	0.022461	0.002963	0.026950	-0.073980	7648.252677	51954.946912	4076.253055	26762.002683
55.535000	0.050000	0.015243	0.049342	-0.053348	7727.743959	51017.143050	4082.051565	25644.483263
56.035000	0.070352	0.027359	0.067359	-0.004435	7407.106426	47093.274254	3983.620459	23197.844836
56.535500	0.090878	0.039762	0.093289	0.050928	7043.514420	42913.715309	3896.144195	20741.497016
57.036500	0.115637	0.053769	0.116750	0.091107	6891.664312	40562.917794	3849.035168	19145.050326
57.536000	0.140526	0.068075	0.138756	0.126088	6795.152707	38803.395742	3813.703097	17870.440816
58.036000	0.161336	0.079963	0.159058	0.157422	6696.882360	37223.225137	3784.482913	16812.707580
58.537000	0.173663	0.089080	0.179435	0.196720	6455.617232	34906.627520	3736.058461	15589.569211
59.036500	0.190894	0.098480	0.192213	0.229391	6324.102161	33227.230287	3687.373978	14653.686397
59.534500	0.198683	0.104938	0.203789	0.247668	6237.399418	32408.125415	3671.470142	14160.019047
60.034500	0.208850	0.113245	0.211837	0.300561	5905.032615	29511.124885	3571.122385	12843.035229
60.534500	0.206114	0.111468	0.217042	0.320629	5740.586662	28196.695856	3540.088059	12383.884073
61.035000	0.225079	0.121276	0.228809	0.330490	5805.207087	28193.590841	3544.007720	12165.915602
61.535500	0.226064	0.123554	0.231837	0.316263	5916.249619	29180.462543	3580.298565	12481.977633
62.035500	0.232841	0.128268	0.251246	0.364220	5624.407282	26672.373956	3521.025720	11456.670315
62.536000	0.234710	0.129439	0.245405	0.386745	5488.115994	25522.997858	3465.868344	11012.806352
63.036500	0.242359	0.133799	0.257148	0.381055	5575.389157	26056.935849	3499.340123	11122.771649
63.533500	0.244181	0.137024	0.254174	0.377418	5611.879769	26428.581958	3500.637370	11193.809127
64.034000	0.244623	0.138105	0.257018	0.364729	5701.572167	27192.478065	3531.663365	11446.389001
64.534500	0.244009	0.138628	0.255028	0.366149	5687.498812	27141.993455	3524.755978	11417.757596
65.068000	0.244332	0.136941	0.253280	0.364734	5699.515096	27126.653355	3524.084434	11446.278393
65.538000	0.244079	0.137352	0.258252	0.368733	5670.196911	26925.832454	3526.047734	11365.890170
66.035500	0.240590	0.137161	0.254246	0.378170	5582.813073	26395.083616	3499.304817	11179.074852
66.535500	0.239671	0.136108	0.252747	0.377898	5578.501099	26352.482449	3496.904633	11184.398823
67.036000	0.245367	0.136821	0.256703	0.375885	5630.232391	26501.354929	3508.643873	11223.936110
67.536000	0.243479	0.135880	0.260214	0.377168	5608.846288	26379.836735	3513.068276	11198.716993
68.033500	0.241673	0.136192	0.256353	0.385490	5541.564328	25947.377183	3489.154477	11036.930622
68.536500	0.241463	0.136496	0.254341	0.382568	5559.422075	26120.595633	3490.917615	11093.377703
69.034500	0.244782	0.137314	0.255663	0.380361	5596.166844	26284.169849	3497.790746	11136.271744
69.534500	0.245217	0.135750	0.259079	0.379612	5604.104806	26239.994751	3505.972829	11150.882656
70.035000	0.240416	0.135260	0.251090	0.385506	5533.220180	25896.744989	3479.000471	11036.621543
70.535500	0.242925	0.136208	0.256881	0.381967	5573.086772	26137.478481	3497.031980	11105.045285
71.035500	0.243450	0.136545	0.260283	0.379818	5590.889231	26271.927915	3507.945062	11146.856005
71.536000	0.245793	0.136735	0.258078	0.380115	5604.589651	26266.115538	3503.009307	11141.068192
72.036500	0.242132	0.136783	0.263941	0.385986	5541.321239	25952.467258	3502.993453	11027.387363
72.533500	0.242088	0.136099	0.252968	0.384014	5554.007056	26021.523528	3485.469525	11065.398628
73.034000	0.243897	0.136344	0.259315	0.380609	5588.601471	26218.226358	3504.473114	11131.454392
73.534000	0.246425	0.137317	0.263194	0.381770	5597.736254	26208.018594	3509.844568	11108.870067
74.034500	0.239296	0.135136	0.253880	0.386251	5521.038723	25850.436551	3482.920734	11022.297179
74.535000	0.245801	0.136792	0.258761	0.382240	5590.423507	26154.302644	3500.177400	11099.751276
75.035500	0.244874	0.136343	0.245002	0.381312	5590.426224	26180.155527	3475.387645	11117.774415
75.544000	0.244282	0.135002	0.256192	0.380625	5591.065026	26144.850525	3498.310516	11131.144411
76.038500	0.244598	0.136063	0.251856	0.388486	5541.096233	25780.853464	3474.778088	10979.438630
76.536000	0.243221	0.135906	0.260653	0.385630	5550.828166	25924.668060	3497.246257	11034.247278
77.034000	0.247059	0.136278	0.257602	0.382479	5597.230558	26113.659017	3497.439723	11095.104510
77.536000	0.247420	0.137664	0.254319	0.383432	5593.272694	26136.969994	3489.201436	11076.648211
78.034500	0.241044	0.135262	0.256288	0.387973	5521.204538	25765.555570	3484.237725	10989.256768
78.535000	0.244423	0.134363	0.250973	0.385136	5562.018933	25868.659887	3479.484762	11043.749088
79.035500	0.243209	0.134670	0.258521	0.381910	5575.353089	26057.747196	3500.353738	11106.143500
79.535000	0.244651	0.135238	0.255046	0.382634	5580.128860	26049.410618	3492.159038	11092.109924
80.035500	0.243229	0.135261	0.255896	0.389406	5526.110995	25689.547816	3480.734069	10961.865798
80.537000	0.243836	0.134250	0.252299	0.382695	5574.302962	25993.083383	3486.721913	11090.921318
81.036000	0.245692	0.134975	0.255301	0.384239	5576.374411	25949.218834	3489.539463	11061.051074
81.555500	0.246573	0.135690	0.255990	0.384712	5579.087725	25962.199292	3489.958549	11051.928220
82.039500	0.239225	0.133358	0.247642	0.389150	5501.745909	25602.635833	3465.552402	10966.766745
82.537000	0.249836	0.135125	0.251176	0.385304	5596.910787	25900.337361	3479.550967	11040.511419
83.038500	0.243951	0.134687	0.263933	0.385115	5559.038270	25887.043699	3504.693399	11044.166004
83.537500	0.247142	0.135074	0.258594	0.386239	5572.726239	25847.749734	3492.047836	11022.527446
84.035000	0.242066	0.133039	0.257130	0.391248	5506.560071	25475.644942	3479.571244	10926.803187
84.535000	0.244722	0.133494	0.248073	0.387045	5551.387766	25720.993989	3470.335575	11007.038718
85.043500	0.244131	0.133061	0.249367	0.385999	5554.391948	25753.510989	3474.775832	11027.141752
85.537000	0.245199	0.132944	0.249402	0.385700	5563.421096	25763.156358	3475.409730	11032.887153
86.036500	0.245400	0.132993	0.255957	0.386125	5561.942943	25743.272225	3487.163240	11024.721646
86.538500	0.243075	0.132564	0.255566	0.388666	5529.940644	25586.293223	3481.521685	10976.008837
87.036500	0.245379	0.130310	0.257214	0.385340	5566.996440	25642.852034	3491.115366	11039.830425
87.534000	0.245331	0.131820	0.250227	0.385993	5562.353923	25688.096420	3476.423569	11027.255339
88.036500	0.244543	0.132398	0.253598	0.387614	5546.463720	25633.008359	3479.764710	10996.130942
88.534000	0.244076	0.131371	0.255796	0.388664	5536.505002	25523.680645	3481.965198	10976.038135
89.035000	0.245324	0.132422	0.252599	0.388328	5546.909236	25596.619274	3476.494713	10982.467478
89.538000	0.245220	0.130235	0.256517	0.386438	5558.681046	25580.998104	3487.638529	11018.698060
90.036500	0.244248	0.131547	0.246282	0.387670	5544.162966	25585.235543	3465.777351	10995.073909
90.536000	0.241870	0.128661	0.252111	0.387104	5532.278949	25463.346960	3477.899391	11005.915841
91.036500	0.247308	0.131127	0.254370	0.388052	5561.809096	25543.002750	3480.405888	10987.745456
91.536500	0.244265	0.129996	0.253791	0.387432	5545.834207	25516.174036	3480.484487	10999.625441
92.034000	0.241632	0.130650	0.255737	0.395380	5477.103443	25136.444111	3469.065904	10848.651911
92.534500	0.243976	0.128816	0.260327	0.387916	5540.759366	25428.946688	3492.157454	10990.351492
93.034500	0.243357	0.128850	0.257837	0.387287	5540.819694	25463.669942	3488.549585	11002.399987
93.534500	0.242977	0.128489	0.253051	0.387528	5536.750413	25432.147505	3478.885362	10997.787873
94.035500	0.243567	0.128554	0.255409	0.387850	5538.505847	25418.697689	3482.784969	10991.610548
94.535000	0.242509	0.127279	0.259109	0.388710	5525.961288	25307.422579	3488.258604	10975.170943
95.035500	0.241734	0.127404	0.259059	0.387564	5528.385315	25373.610683	3490.381320	10997.105977
95.536000	0.243875	0.126530	0.250803	0.387331	5543.940579	25340.213910	3474.974032	11001.567867
96.072000	0.240468	0.127075	0.246870	0.394215	5477.112040	25012.355317	3454.644742	10870.613387
96.536500	0.242620	0.128264	0.254938	0.390337	5516.072877	25274.019818	3477.123051	10944.127131
97.033500	0.244356	0.127318	0.258479	0.389507	5532.822293	25268.017926	3485.504159	10959.950387
97.534500	0.241482	0.126173	0.252708	0.388690	5519.390309	25250.986267	3476.012143	10975.550617
