sample name	sample
index	1095
start time	 04-22-2021  11:56:37 AM


Wavelength (nm)	Absorbance
494.344910	-0.064392
494.563924	-0.064392
494.782919	-0.064392
495.001897	-0.038712
495.220856	0.025203
495.439797	0.043693
495.658719	-0.023913
495.877624	-0.030387
496.096510	-0.046375
496.315378	-0.087537
496.534227	-0.086338
496.753059	-0.050478
496.971872	-0.050830
497.190667	0.115987
497.409444	0.138293
497.628203	0.148705
497.846943	0.150715
498.065665	0.152590
498.284369	0.154593
498.503055	0.155316
498.721723	0.154790
498.940372	0.155511
499.159003	0.155403
499.377616	0.156786
499.596210	0.156622
499.814787	0.156290
500.033345	0.157113
500.251885	0.156898
500.470406	0.155794
500.688910	0.156853
500.907395	0.155832
501.125862	0.155706
501.344311	0.154049
501.562742	0.154758
501.781154	0.155333
501.999548	0.155020
502.217924	0.154688
502.436282	0.156112
502.654621	0.155483
502.872942	0.155297
503.091245	0.156094
503.309530	0.156588
503.527797	0.157290
503.746045	0.156996
503.964275	0.156535
504.182487	0.157369
504.400681	0.155592
504.618856	0.155691
504.837013	0.156752
505.055152	0.156441
505.273273	0.157065
505.491376	0.156828
505.709460	0.157427
505.927526	0.159308
506.145574	0.159583
506.363604	0.160593
506.581615	0.160666
506.799608	0.160079
507.017583	0.160957
507.235540	0.160933
507.453478	0.161565
507.671399	0.161796
507.889301	0.161153
508.107185	0.161858
508.325050	0.162150
508.542898	0.161898
508.760727	0.163060
508.978538	0.161406
509.196330	0.161687
509.414105	0.162164
509.631861	0.161997
509.849599	0.162435
510.067319	0.161181
510.285021	0.161603
510.502704	0.162123
510.720369	0.162091
510.938016	0.164334
511.155645	0.165571
511.373255	0.164736
511.590848	0.165491
511.808422	0.165213
512.025977	0.166145
512.243515	0.166418
512.461034	0.165581
512.678536	0.165645
512.896018	0.165217
513.113483	0.164382
513.330930	0.164859
513.548358	0.163989
513.765768	0.163514
513.983160	0.163167
514.200533	0.163037
514.417889	0.164293
514.635226	0.164082
514.852545	0.164903
515.069845	0.165099
515.287128	0.165821
515.504392	0.167111
515.721638	0.167847
515.938866	0.169255
516.156075	0.169988
516.373267	0.170874
516.590440	0.171349
516.807594	0.171456
517.024731	0.171917
517.241850	0.172177
517.458950	0.172079
517.676032	0.172108
517.893095	0.171798
518.110141	0.171480
518.327168	0.171603
518.544177	0.172565
518.761168	0.172149
518.978141	0.172505
519.195095	0.172650
519.412031	0.173547
519.628949	0.173801
519.845849	0.174423
520.062731	0.174800
520.279594	0.174630
520.496439	0.175060
520.713266	0.175456
520.930074	0.175458
521.146865	0.175683
521.363637	0.176022
521.580391	0.176287
521.797127	0.175910
522.013844	0.176867
522.230543	0.177970
522.447224	0.177537
522.663887	0.177396
522.880532	0.178039
523.097158	0.177841
523.313766	0.176691
523.530356	0.176706
523.746928	0.177291
523.963481	0.177405
524.180017	0.176981
524.396534	0.177477
524.613032	0.178019
524.829513	0.178118
525.045975	0.178619
525.262420	0.180201
525.478845	0.180926
525.695253	0.180894
525.911643	0.181336
526.128014	0.182443
526.344367	0.183351
526.560702	0.184033
526.777018	0.185047
526.993316	0.185877
527.209597	0.185550
527.425858	0.185589
527.642102	0.186188
527.858328	0.186616
528.074535	0.186133
528.290724	0.185503
528.506894	0.186041
528.723047	0.185910
528.939181	0.185927
529.155297	0.186747
529.371395	0.187827
529.587475	0.188120
529.803536	0.187860
530.019579	0.187943
530.235604	0.188699
530.451611	0.189357
530.667600	0.190005
530.883570	0.190501
531.099522	0.190829
531.315456	0.191343
531.531372	0.191713
531.747269	0.192333
531.963148	0.192754
532.179009	0.193672
532.394852	0.193445
532.610676	0.193268
532.826482	0.193040
533.042271	0.193383
533.258040	0.193608
533.473792	0.194320
533.689525	0.194708
533.905240	0.195515
534.120937	0.195638
534.336616	0.195768
534.552277	0.196180
534.767919	0.196610
534.983543	0.196850
535.199149	0.197514
535.414736	0.197618
535.630306	0.198296
535.845857	0.197832
536.061390	0.197736
536.276904	0.198176
536.492401	0.198674
536.707879	0.199203
536.923339	0.199434
537.138781	0.199009
537.354204	0.199766
537.569610	0.199565
537.784997	0.200276
538.000366	0.200683
538.215716	0.201621
538.431049	0.202218
538.646363	0.202267
538.861659	0.202716
539.076937	0.203225
539.292196	0.202936
539.507438	0.202896
539.722661	0.203906
539.937866	0.205075
540.153052	0.204454
540.368221	0.204561
540.583371	0.205028
540.798503	0.205384
541.013617	0.205905
541.228712	0.206226
541.443789	0.207130
541.658848	0.207033
541.873889	0.206046
542.088912	0.206178
542.303916	0.206256
542.518902	0.206114
542.733870	0.206218
542.948820	0.206480
543.163752	0.206568
543.378665	0.206805
543.593560	0.207304
543.808437	0.207980
544.023295	0.208918
544.238136	0.209288
544.452958	0.209922
544.667762	0.210572
544.882548	0.210744
545.097315	0.211596
545.312064	0.211646
545.526795	0.211281
545.741508	0.211531
545.956203	0.212025
546.170879	0.211594
546.385537	0.211870
546.600177	0.212012
546.814799	0.212113
547.029402	0.212107
547.243988	0.212396
547.458555	0.212839
547.673103	0.213211
547.887634	0.213507
548.102146	0.214456
548.316640	0.214638
548.531116	0.214771
548.745574	0.214763
548.960013	0.215008
549.174435	0.215707
549.388838	0.215935
549.603222	0.216055
549.817589	0.215895
550.031937	0.215631
550.246267	0.215701
550.460579	0.216280
550.674873	0.216720
550.889148	0.217032
551.103405	0.216720
551.317644	0.217388
551.531865	0.217422
551.746068	0.217639
551.960252	0.218095
552.174418	0.218661
552.388566	0.218584
552.602696	0.218998
552.816807	0.219647
553.030900	0.219797
553.244975	0.219366
553.459032	0.219536
553.673070	0.219934
553.887091	0.220322
554.101093	0.220637
554.315077	0.221212
554.529042	0.221102
554.742990	0.220602
554.956919	0.220531
555.170830	0.221304
555.384722	0.221758
555.598597	0.221762
555.812453	0.221721
556.026291	0.221951
556.240111	0.221622
556.453913	0.221605
556.667696	0.221678
556.881461	0.222238
557.095208	0.221738
557.308937	0.221902
557.522647	0.221885
557.736339	0.221957
557.950013	0.221661
558.163669	0.221828
558.377307	0.222015
558.590926	0.222482
558.804527	0.222698
559.018110	0.222981
559.231675	0.222991
559.445221	0.223077
559.658749	0.223446
559.872259	0.223910
560.085751	0.223732
560.299225	0.223936
560.512680	0.223907
560.726117	0.223250
560.939536	0.223313
561.152937	0.223256
561.366319	0.223291
561.579683	0.223484
561.793029	0.223733
562.006357	0.224290
562.219667	0.224335
562.432958	0.224617
562.646231	0.225330
562.859486	0.225429
563.072723	0.225775
563.285941	0.225937
563.499141	0.225738
563.712323	0.225529
563.925487	0.225420
564.138632	0.225573
564.351760	0.225576
564.564869	0.225456
564.777960	0.225987
564.991032	0.226195
565.204087	0.226539
565.417123	0.226881
565.630141	0.226919
565.843140	0.227252
566.056122	0.227364
566.269085	0.227419
566.482030	0.227907
566.694957	0.227785
566.907866	0.227792
567.120756	0.228077
567.333628	0.228355
567.546482	0.229104
567.759318	0.229399
567.972135	0.230262
568.184935	0.230746
568.397716	0.230864
568.610478	0.231684
568.823223	0.232429
569.035949	0.233014
569.248657	0.233014
569.461347	0.233033
569.674019	0.233048
569.886672	0.232968
570.099308	0.233030
570.311925	0.233002
570.524523	0.232540
570.737104	0.232481
570.949666	0.232294
571.162210	0.232505
571.374736	0.232295
571.587244	0.232221
571.799733	0.231955
572.012205	0.231993
572.224658	0.232377
572.437092	0.232710
572.649509	0.232521
572.861907	0.232626
573.074287	0.232698
573.286649	0.233069
573.498993	0.233340
573.711318	0.233773
573.923625	0.233848
574.135914	0.234288
574.348185	0.234334
574.560438	0.234565
574.772672	0.234606
574.984888	0.235409
575.197086	0.235320
575.409266	0.235575
575.621427	0.235825
575.833570	0.236181
576.045695	0.235767
576.257802	0.235691
576.469890	0.235599
576.681961	0.235708
576.894013	0.235412
577.106046	0.235934
577.318062	0.235986
577.530059	0.235829
577.742039	0.235644
577.954000	0.236329
578.165942	0.236726
578.377867	0.237304
578.589773	0.237424
578.801661	0.237324
579.013531	0.237170
579.225382	0.237291
579.437216	0.237420
579.649031	0.237666
579.860828	0.237306
580.072606	0.237433
580.284367	0.237583
580.496109	0.237459
580.707833	0.237539
580.919539	0.237772
581.131227	0.237466
581.342896	0.237565
581.554547	0.237423
581.766180	0.237856
581.977795	0.238078
582.189391	0.238065
582.400969	0.238473
582.612529	0.238586
582.824071	0.238626
583.035595	0.239228
583.247100	0.239866
583.458587	0.240916
583.670056	0.241106
583.881506	0.241195
584.092939	0.241388
584.304353	0.241698
584.515749	0.241593
584.727127	0.241980
584.938486	0.242115
585.149828	0.241713
585.361151	0.241586
585.572456	0.241650
585.783742	0.241562
585.995011	0.241377
586.206261	0.241223
586.417493	0.242361
586.628706	0.242372
586.839902	0.242791
587.051079	0.243369
587.262238	0.243530
587.473379	0.243577
587.684502	0.243764
587.895606	0.244019
588.106692	0.244099
588.317760	0.243308
588.528810	0.243307
588.739841	0.243494
588.950855	0.243480
589.161850	0.243000
589.372827	0.243095
589.583785	0.243726
589.794726	0.243858
590.005648	0.244240
590.216552	0.244779
590.427437	0.244879
590.638305	0.244973
590.849154	0.245326
591.059985	0.245716
591.270798	0.245857
591.481592	0.245954
591.692369	0.246113
591.903127	0.246151
592.113867	0.246172
592.324588	0.246512
592.535292	0.246436
592.745977	0.246606
592.956644	0.247018
593.167293	0.247041
593.377923	0.246958
593.588536	0.247053
593.799130	0.247224
594.009706	0.247520
594.220263	0.247541
594.430803	0.247869
594.641324	0.247655
594.851827	0.247860
595.062312	0.248119
595.272778	0.248153
595.483227	0.248345
595.693657	0.248518
595.904069	0.248734
596.114462	0.249225
596.324838	0.249015
596.535195	0.249013
596.745534	0.248996
596.955855	0.249032
597.166157	0.249639
597.376441	0.250022
597.586707	0.250118
597.796955	0.250206
598.007185	0.249901
598.217396	0.250028
598.427589	0.250292
598.637764	0.250566
598.847921	0.250748
599.058060	0.250499
599.268180	0.250300
599.478282	0.250562
599.688366	0.250453
599.898431	0.250602
600.108479	0.250856
600.318508	0.250928
600.528519	0.250597
600.738511	0.250702
600.948486	0.250647
601.158442	0.251131
601.368380	0.251215
601.578300	0.251458
601.788202	0.252234
601.998085	0.252534
602.207950	0.252914
602.417797	0.253585
602.627626	0.253788
602.837436	0.253695
603.047228	0.253419
603.257002	0.253764
603.466758	0.253877
603.676496	0.253219
603.886215	0.253157
604.095916	0.253132
604.305599	0.252897
604.515264	0.253608
604.724910	0.254256
604.934538	0.254680
605.144148	0.254180
605.353740	0.254166
605.563314	0.254508
605.772869	0.254844
605.982406	0.255131
606.191925	0.255687
606.401425	0.255644
606.610908	0.255748
606.820372	0.255893
607.029818	0.256319
607.239246	0.256704
607.448655	0.256928
607.658047	0.257309
607.867420	0.257594
608.076775	0.257340
608.286111	0.257225
608.495430	0.257252
608.704730	0.257392
608.914012	0.257680
609.123275	0.257714
609.332521	0.257921
609.541748	0.257676
609.750957	0.257801
609.960148	0.258173
610.169321	0.258489
610.378475	0.258805
610.587611	0.259098
610.796729	0.259175
611.005829	0.259448
611.214910	0.259410
611.423974	0.259707
611.633019	0.259444
611.842045	0.259480
612.051054	0.259482
612.260044	0.259455
612.469017	0.259194
612.677970	0.259642
612.886906	0.259828
613.095824	0.260517
613.304723	0.260348
613.513604	0.260520
613.722467	0.260666
613.931311	0.260787
614.140138	0.260830
614.348946	0.261047
614.557736	0.260961
614.766507	0.260795
614.975261	0.260322
615.183996	0.260353
615.392713	0.260759
615.601412	0.260599
615.810092	0.260538
616.018754	0.260767
616.227399	0.260824
616.436024	0.260888
616.644632	0.261483
616.853222	0.261635
617.061793	0.261876
617.270346	0.262050
617.478880	0.262467
617.687397	0.262635
617.895895	0.262564
618.104375	0.262702
618.312837	0.262469
618.521281	0.262319
618.729706	0.262648
618.938113	0.262704
619.146502	0.262463
619.354873	0.262429
619.563226	0.262767
619.771560	0.263066
619.979876	0.263368
620.188174	0.263880
620.396453	0.263965
620.604715	0.263691
620.812958	0.264093
621.021183	0.264416
621.229390	0.264490
621.437578	0.264462
621.645748	0.264535
621.853900	0.264606
622.062034	0.264846
622.270150	0.264939
622.478247	0.265423
622.686326	0.265636
622.894387	0.265709
623.102430	0.266086
623.310454	0.266030
623.518461	0.266032
623.726449	0.266058
623.934418	0.266228
624.142370	0.266420
624.350303	0.266517
624.558218	0.266409
624.766115	0.266398
624.973994	0.266331
625.181855	0.266519
625.389697	0.266485
625.597521	0.266663
625.805327	0.266663
626.013114	0.267050
626.220883	0.267249
626.428634	0.267530
626.636367	0.267944
626.844082	0.268013
627.051778	0.268349
627.259457	0.268870
627.467117	0.269064
627.674758	0.269568
627.882382	0.269565
628.089987	0.270010
628.297574	0.270310
628.505143	0.270364
628.712694	0.270924
628.920226	0.271324
629.127740	0.271674
629.335236	0.272101
629.542714	0.271965
629.750174	0.271927
629.957615	0.271879
630.165038	0.272129
630.372443	0.272187
630.579829	0.272157
630.787198	0.271985
630.994548	0.271958
631.201880	0.271844
631.409194	0.271820
631.616489	0.272291
631.823766	0.272482
632.031025	0.272514
632.238266	0.272623
632.445489	0.272600
632.652693	0.273015
632.859879	0.273242
633.067047	0.273448
633.274197	0.273465
633.481329	0.273627
633.688442	0.273833
633.895537	0.273781
634.102614	0.274249
634.309672	0.274360
634.516713	0.274260
634.723735	0.274353
634.930739	0.274610
635.137724	0.274894
635.344692	0.274757
635.551641	0.274455
635.758572	0.274852
635.965485	0.274682
636.172379	0.275088
636.379256	0.275257
636.586114	0.275240
636.792954	0.275332
636.999775	0.275821
637.206579	0.276031
637.413364	0.276698
637.620131	0.276487
637.826880	0.276567
638.033610	0.276637
638.240323	0.276823
638.447017	0.277293
638.653692	0.277344
638.860350	0.277026
639.066990	0.277162
639.273611	0.276818
639.480214	0.277156
639.686798	0.277548
639.893365	0.277813
640.099913	0.278154
640.306443	0.278294
640.512955	0.278520
640.719449	0.278876
640.925924	0.279084
641.132381	0.279760
641.338820	0.279853
641.545241	0.280107
641.751644	0.280282
641.958028	0.280358
642.164394	0.280720
642.370742	0.281088
642.577071	0.281406
642.783383	0.281733
642.989676	0.281668
643.195951	0.281779
643.402207	0.281861
643.608446	0.282031
643.814666	0.282224
644.020868	0.282083
644.227052	0.282327
644.433218	0.282434
644.639365	0.282543
644.845494	0.282682
645.051605	0.283037
645.257698	0.283172
645.463772	0.283099
645.669828	0.283255
645.875866	0.283511
646.081886	0.283604
646.287888	0.284051
646.493871	0.284321
646.699836	0.284587
646.905783	0.284746
647.111712	0.285096
647.317622	0.285732
647.523514	0.286103
647.729388	0.286326
647.935244	0.286308
648.141082	0.286583
648.346901	0.286661
648.552702	0.286892
648.758485	0.287425
648.964250	0.287528
649.169996	0.287455
649.375724	0.287340
649.581434	0.287508
649.787126	0.287854
649.992800	0.287583
650.198455	0.287822
650.404092	0.287830
650.609711	0.287744
650.815311	0.288051
651.020894	0.288271
651.226458	0.288587
651.432004	0.289041
651.637532	0.289213
651.843041	0.289662
652.048532	0.289821
652.254006	0.290086
652.459460	0.290369
652.664897	0.290698
652.870315	0.290795
653.075716	0.291144
653.281097	0.291184
653.486461	0.291260
653.691807	0.291343
653.897134	0.291777
654.102443	0.291997
654.307734	0.292128
654.513006	0.292252
654.718261	0.292489
654.923497	0.292638
655.128715	0.292626
655.333915	0.292877
655.539096	0.292858
655.744259	0.292838
655.949404	0.292792
656.154531	0.292867
656.359640	0.292940
656.564730	0.293149
656.769802	0.292987
656.974856	0.293374
657.179892	0.293488
657.384909	0.293898
657.589908	0.294008
657.794889	0.294497
657.999852	0.294682
658.204797	0.294938
658.409723	0.295090
658.614631	0.295707
658.819521	0.295869
659.024393	0.296480
659.229246	0.296920
659.434081	0.297024
659.638898	0.297287
659.843697	0.297489
660.048478	0.297672
660.253240	0.297973
660.457984	0.298246
660.662710	0.298605
660.867417	0.298768
661.072107	0.298804
661.276778	0.299321
661.481431	0.299537
661.686066	0.299786
661.890682	0.300155
662.095281	0.300332
662.299861	0.300452
662.504422	0.300718
662.708966	0.300901
662.913491	0.301153
663.117999	0.301024
663.322488	0.301125
663.526958	0.301517
663.731411	0.301533
663.935845	0.301793
664.140261	0.301839
664.344659	0.301743
664.549038	0.301837
664.753400	0.301656
664.957743	0.302004
665.162068	0.302241
665.366375	0.302544
665.570663	0.302839
665.774933	0.303149
665.979185	0.303435
666.183419	0.303751
666.387635	0.304104
666.591832	0.304707
666.796011	0.305055
667.000172	0.305515
667.204315	0.305545
667.408439	0.305545
667.612545	0.305479
667.816634	0.305702
668.020703	0.305933
668.224755	0.306009
668.428788	0.305973
668.632803	0.306238
668.836800	0.306239
669.040779	0.306335
669.244739	0.306832
669.448681	0.307133
669.652605	0.307330
669.856511	0.307456
670.060399	0.307847
670.264268	0.308250
670.468119	0.308170
670.671952	0.308639
670.875767	0.308861
671.079563	0.308977
671.283341	0.309454
671.487101	0.309731
671.690843	0.310158
671.894567	0.310015
672.098272	0.310129
672.301959	0.310593
672.505628	0.310619
672.709278	0.310852
672.912911	0.311050
673.116525	0.311120
673.320121	0.311676
673.523699	0.311902
673.727258	0.312496
673.930799	0.313072
674.134322	0.313395
674.337827	0.313720
674.541314	0.314009
674.744782	0.314000
674.948232	0.314207
675.151664	0.314000
675.355078	0.313946
675.558474	0.314070
675.761851	0.313988
675.965210	0.314176
676.168551	0.314229
676.371873	0.314650
676.575178	0.315167
676.778464	0.315430
676.981732	0.315866
677.184981	0.316305
677.388213	0.316469
677.591426	0.316701
677.794621	0.316876
677.997798	0.317054
678.200956	0.316913
678.404097	0.316889
678.607219	0.317053
678.810323	0.317034
679.013408	0.317082
679.216476	0.317454
679.419525	0.317651
679.622556	0.317579
679.825569	0.317944
680.028563	0.318366
680.231540	0.318913
680.434498	0.319353
680.637438	0.319720
680.840359	0.320051
681.043263	0.319975
681.246148	0.320311
681.449015	0.320829
681.651864	0.321064
681.854694	0.321270
682.057506	0.321381
682.260301	0.321346
682.463076	0.321557
682.665834	0.321762
682.868573	0.322301
683.071295	0.322542
683.273998	0.322755
683.476682	0.323015
683.679349	0.323333
683.881997	0.323559
684.084627	0.324027
684.287239	0.324234
684.489833	0.324313
684.692408	0.324205
684.894965	0.324530
685.097504	0.324936
685.300025	0.325110
685.502527	0.325067
685.705012	0.325072
685.907478	0.325063
686.109925	0.325062
686.312355	0.325521
686.514766	0.325435
686.717159	0.325474
686.919534	0.325214
687.121891	0.325197
687.324230	0.325345
687.526550	0.325617
687.728852	0.325693
687.931136	0.325952
688.133401	0.325657
688.335649	0.326433
688.537878	0.326566
688.740089	0.327118
688.942281	0.327208
689.144456	0.327556
689.346612	0.327693
689.548750	0.327608
689.750870	0.327803
689.952971	0.328333
690.155055	0.328227
690.357120	0.328095
690.559167	0.327930
690.761195	0.328435
690.963206	0.328635
691.165198	0.328909
691.367172	0.329560
691.569128	0.329704
691.771065	0.329924
691.972984	0.330067
692.174885	0.330507
692.376768	0.330729
692.578633	0.330819
692.780479	0.330761
692.982308	0.330767
693.184118	0.330878
693.385909	0.331065
