sample name	sample
index	1146
start time	 04-22-2021  03:19:23 PM


Wavelength (nm)	Absorbance
494.344910	NaN
494.563924	NaN
494.782919	NaN
495.001897	NaN
495.220856	NaN
495.439797	NaN
495.658719	NaN
495.877624	NaN
496.096510	NaN
496.315378	NaN
496.534227	NaN
496.753059	NaN
496.971872	1.492089
497.190667	0.125852
497.409444	0.119048
497.628203	0.117264
497.846943	0.118445
498.065665	0.116622
498.284369	0.117358
498.503055	0.115829
498.721723	0.116443
498.940372	0.117435
499.159003	0.117738
499.377616	0.118370
499.596210	0.119381
499.814787	0.118991
500.033345	0.120382
500.251885	0.118938
500.470406	0.118429
500.688910	0.119017
500.907395	0.118564
501.125862	0.119385
501.344311	0.119102
501.562742	0.119146
501.781154	0.119295
501.999548	0.118438
502.217924	0.119307
502.436282	0.120700
502.654621	0.119984
502.872942	0.118856
503.091245	0.117945
503.309530	0.117915
503.527797	0.117352
503.746045	0.117215
503.964275	0.118609
504.182487	0.119422
504.400681	0.117825
504.618856	0.118621
504.837013	0.120538
505.055152	0.120787
505.273273	0.120683
505.491376	0.121320
505.709460	0.122199
505.927526	0.121523
506.145574	0.120177
506.363604	0.120501
506.581615	0.119587
506.799608	0.119197
507.017583	0.119734
507.235540	0.120247
507.453478	0.119143
507.671399	0.117656
507.889301	0.117223
508.107185	0.117822
508.325050	0.118954
508.542898	0.119381
508.760727	0.119585
508.978538	0.119298
509.196330	0.117628
509.414105	0.118189
509.631861	0.118633
509.849599	0.119200
510.067319	0.119525
510.285021	0.119914
510.502704	0.120132
510.720369	0.119664
510.938016	0.119348
511.155645	0.120316
511.373255	0.121305
511.590848	0.121966
511.808422	0.121519
512.025977	0.121409
512.243515	0.119946
512.461034	0.120073
512.678536	0.120573
512.896018	0.120838
513.113483	0.120746
513.330930	0.119594
513.548358	0.118806
513.765768	0.118924
513.983160	0.119048
514.200533	0.120386
514.417889	0.120506
514.635226	0.120051
514.852545	0.120315
515.069845	0.121076
515.287128	0.120687
515.504392	0.121215
515.721638	0.122314
515.938866	0.122288
516.156075	0.122758
516.373267	0.122864
516.590440	0.123456
516.807594	0.124335
517.024731	0.124519
517.241850	0.125485
517.458950	0.125551
517.676032	0.125285
517.893095	0.125510
518.110141	0.125212
518.327168	0.125397
518.544177	0.124686
518.761168	0.124712
518.978141	0.124359
519.195095	0.123940
519.412031	0.124313
519.628949	0.124224
519.845849	0.124500
520.062731	0.124477
520.279594	0.124608
520.496439	0.124458
520.713266	0.124027
520.930074	0.124241
521.146865	0.124549
521.363637	0.124420
521.580391	0.124209
521.797127	0.124207
522.013844	0.123615
522.230543	0.123367
522.447224	0.123946
522.663887	0.123424
522.880532	0.122977
523.097158	0.122962
523.313766	0.123324
523.530356	0.123413
523.746928	0.123673
523.963481	0.124205
524.180017	0.124950
524.396534	0.124384
524.613032	0.124637
524.829513	0.125111
525.045975	0.125050
525.262420	0.124949
525.478845	0.125079
525.695253	0.125725
525.911643	0.126273
526.128014	0.125488
526.344367	0.125897
526.560702	0.125767
526.777018	0.126362
526.993316	0.126727
527.209597	0.126461
527.425858	0.126527
527.642102	0.125401
527.858328	0.125103
528.074535	0.125158
528.290724	0.125588
528.506894	0.126379
528.723047	0.125954
528.939181	0.125860
529.155297	0.126660
529.371395	0.126813
529.587475	0.127677
529.803536	0.127647
530.019579	0.127608
530.235604	0.127719
530.451611	0.127199
530.667600	0.127587
530.883570	0.128247
531.099522	0.128588
531.315456	0.128790
531.531372	0.127951
531.747269	0.127610
531.963148	0.128536
532.179009	0.128780
532.394852	0.128859
532.610676	0.129122
532.826482	0.128534
533.042271	0.127626
533.258040	0.127940
533.473792	0.128545
533.689525	0.129741
533.905240	0.129781
534.120937	0.129745
534.336616	0.130091
534.552277	0.129317
534.767919	0.129780
534.983543	0.130506
535.199149	0.130595
535.414736	0.131449
535.630306	0.131177
535.845857	0.131617
536.061390	0.132443
536.276904	0.132618
536.492401	0.133517
536.707879	0.133474
536.923339	0.133331
537.138781	0.133477
537.354204	0.132940
537.569610	0.132859
537.784997	0.132017
538.000366	0.131535
538.215716	0.131761
538.431049	0.131425
538.646363	0.131876
538.861659	0.131878
539.076937	0.131863
539.292196	0.131971
539.507438	0.131727
539.722661	0.132038
539.937866	0.132369
540.153052	0.132220
540.368221	0.132538
540.583371	0.132491
540.798503	0.133038
541.013617	0.133297
541.228712	0.133260
541.443789	0.133841
541.658848	0.134227
541.873889	0.134149
542.088912	0.134778
542.303916	0.134896
542.518902	0.135089
542.733870	0.135024
542.948820	0.134744
543.163752	0.135015
543.378665	0.134778
543.593560	0.135021
543.808437	0.135021
544.023295	0.134819
544.238136	0.134885
544.452958	0.135147
544.667762	0.135286
544.882548	0.135815
545.097315	0.136111
545.312064	0.136431
545.526795	0.136737
545.741508	0.137107
545.956203	0.137422
546.170879	0.137115
546.385537	0.136978
546.600177	0.137215
546.814799	0.137085
547.029402	0.137153
547.243988	0.137435
547.458555	0.136980
547.673103	0.137564
547.887634	0.137308
548.102146	0.137820
548.316640	0.138009
548.531116	0.137875
548.745574	0.137886
548.960013	0.137861
549.174435	0.137589
549.388838	0.137445
549.603222	0.136835
549.817589	0.137473
550.031937	0.137621
550.246267	0.137545
550.460579	0.137768
550.674873	0.138074
550.889148	0.138501
551.103405	0.138603
551.317644	0.138747
551.531865	0.138959
551.746068	0.138835
551.960252	0.139124
552.174418	0.139114
552.388566	0.139129
552.602696	0.139253
552.816807	0.139478
553.030900	0.139966
553.244975	0.140326
553.459032	0.140343
553.673070	0.140573
553.887091	0.140642
554.101093	0.141034
554.315077	0.141155
554.529042	0.141343
554.742990	0.141086
554.956919	0.140840
555.170830	0.140999
555.384722	0.141429
555.598597	0.141591
555.812453	0.141322
556.026291	0.141287
556.240111	0.141200
556.453913	0.141012
556.667696	0.141069
556.881461	0.141405
557.095208	0.141431
557.308937	0.141082
557.522647	0.140850
557.736339	0.141203
557.950013	0.141506
558.163669	0.141748
558.377307	0.142205
558.590926	0.142411
558.804527	0.142623
559.018110	0.142863
559.231675	0.143387
559.445221	0.143709
559.658749	0.143953
559.872259	0.143792
560.085751	0.143949
560.299225	0.143630
560.512680	0.143033
560.726117	0.142876
560.939536	0.142907
561.152937	0.142611
561.366319	0.142349
561.579683	0.142214
561.793029	0.142350
562.006357	0.142601
562.219667	0.142705
562.432958	0.142954
562.646231	0.143271
562.859486	0.143330
563.072723	0.143631
563.285941	0.143908
563.499141	0.143858
563.712323	0.143721
563.925487	0.143303
564.138632	0.143141
564.351760	0.143427
564.564869	0.143227
564.777960	0.143232
564.991032	0.142606
565.204087	0.142358
565.417123	0.142283
565.630141	0.142250
565.843140	0.142010
566.056122	0.142208
566.269085	0.142414
566.482030	0.142557
566.694957	0.142207
566.907866	0.142741
567.120756	0.142934
567.333628	0.142882
567.546482	0.143249
567.759318	0.143930
567.972135	0.144165
568.184935	0.144107
568.397716	0.143902
568.610478	0.144255
568.823223	0.144186
569.035949	0.144058
569.248657	0.144595
569.461347	0.144675
569.674019	0.144636
569.886672	0.144436
570.099308	0.144266
570.311925	0.144346
570.524523	0.144328
570.737104	0.144587
570.949666	0.144616
571.162210	0.144763
571.374736	0.144752
571.587244	0.144479
571.799733	0.144292
572.012205	0.144769
572.224658	0.145421
572.437092	0.145891
572.649509	0.146033
572.861907	0.146132
573.074287	0.145980
573.286649	0.145784
573.498993	0.146479
573.711318	0.146772
573.923625	0.146908
574.135914	0.146606
574.348185	0.146589
574.560438	0.146658
574.772672	0.146897
574.984888	0.147062
575.197086	0.147545
575.409266	0.147059
575.621427	0.147012
575.833570	0.147196
576.045695	0.146952
576.257802	0.146942
576.469890	0.146929
576.681961	0.147233
576.894013	0.146988
577.106046	0.146736
577.318062	0.146909
577.530059	0.147512
577.742039	0.147085
577.954000	0.147497
578.165942	0.147762
578.377867	0.147718
578.589773	0.147535
578.801661	0.147777
579.013531	0.148081
579.225382	0.148403
579.437216	0.147981
579.649031	0.148164
579.860828	0.148044
580.072606	0.147882
580.284367	0.147977
580.496109	0.147977
580.707833	0.148216
580.919539	0.147882
581.131227	0.147696
581.342896	0.148062
581.554547	0.148149
581.766180	0.148242
581.977795	0.148153
582.189391	0.148168
582.400969	0.147949
582.612529	0.147818
582.824071	0.147787
583.035595	0.147973
583.247100	0.148076
583.458587	0.148630
583.670056	0.148938
583.881506	0.149136
584.092939	0.149578
584.304353	0.149861
584.515749	0.150283
584.727127	0.150557
584.938486	0.150912
585.149828	0.150761
585.361151	0.150416
585.572456	0.150329
585.783742	0.150420
585.995011	0.149839
586.206261	0.149814
586.417493	0.149443
586.628706	0.149232
586.839902	0.149372
587.051079	0.149631
587.262238	0.149403
587.473379	0.149546
587.684502	0.149307
587.895606	0.150092
588.106692	0.150443
588.317760	0.150433
588.528810	0.150677
588.739841	0.150562
588.950855	0.150823
589.161850	0.151084
589.372827	0.150876
589.583785	0.151321
589.794726	0.151141
590.005648	0.151006
590.216552	0.151019
590.427437	0.151296
590.638305	0.151460
590.849154	0.151409
591.059985	0.151808
591.270798	0.151942
591.481592	0.152011
591.692369	0.152010
591.903127	0.152306
592.113867	0.152691
592.324588	0.152778
592.535292	0.152512
592.745977	0.152475
592.956644	0.152300
593.167293	0.152656
593.377923	0.152344
593.588536	0.152382
593.799130	0.152553
594.009706	0.152488
594.220263	0.152670
594.430803	0.152643
594.641324	0.152958
594.851827	0.153175
595.062312	0.153336
595.272778	0.153764
595.483227	0.153927
595.693657	0.154028
595.904069	0.154192
596.114462	0.154276
596.324838	0.154661
596.535195	0.154486
596.745534	0.154447
596.955855	0.154586
597.166157	0.154536
597.376441	0.154632
597.586707	0.154518
597.796955	0.154682
598.007185	0.154728
598.217396	0.154664
598.427589	0.154839
598.637764	0.154624
598.847921	0.154478
599.058060	0.154566
599.268180	0.154670
599.478282	0.154777
599.688366	0.154628
599.898431	0.154737
600.108479	0.154862
600.318508	0.154728
600.528519	0.154771
600.738511	0.154464
600.948486	0.154523
601.158442	0.154178
601.368380	0.154201
601.578300	0.154216
601.788202	0.154409
601.998085	0.154195
602.207950	0.154340
602.417797	0.154927
602.627626	0.155270
602.837436	0.155165
603.047228	0.155251
603.257002	0.154988
603.466758	0.154804
603.676496	0.154480
603.886215	0.154727
604.095916	0.154982
604.305599	0.154802
604.515264	0.154859
604.724910	0.155075
604.934538	0.155181
605.144148	0.155639
605.353740	0.156396
605.563314	0.156554
605.772869	0.156760
605.982406	0.156420
606.191925	0.156414
606.401425	0.156377
606.610908	0.156204
606.820372	0.156581
607.029818	0.156561
607.239246	0.155905
607.448655	0.155948
607.658047	0.155476
607.867420	0.155282
608.076775	0.155435
608.286111	0.155346
608.495430	0.155328
608.704730	0.155055
608.914012	0.155072
609.123275	0.155482
609.332521	0.155440
609.541748	0.155721
609.750957	0.156275
609.960148	0.156322
610.169321	0.156395
610.378475	0.156684
610.587611	0.157244
610.796729	0.157167
611.005829	0.157324
611.214910	0.157326
611.423974	0.157505
611.633019	0.157560
611.842045	0.157751
612.051054	0.157681
612.260044	0.157740
612.469017	0.157394
612.677970	0.157357
612.886906	0.157316
613.095824	0.157499
613.304723	0.157523
613.513604	0.157385
613.722467	0.157160
613.931311	0.157376
614.140138	0.157483
614.348946	0.157780
614.557736	0.157971
614.766507	0.157943
614.975261	0.158142
615.183996	0.158394
615.392713	0.158578
615.601412	0.158827
615.810092	0.159216
616.018754	0.159274
616.227399	0.159202
616.436024	0.159208
616.644632	0.159275
616.853222	0.158929
617.061793	0.158938
617.270346	0.159100
617.478880	0.158973
617.687397	0.158925
617.895895	0.159010
618.104375	0.158784
618.312837	0.158923
618.521281	0.159078
618.729706	0.159549
618.938113	0.159384
619.146502	0.159336
619.354873	0.159313
619.563226	0.159294
619.771560	0.159206
619.979876	0.159415
620.188174	0.159826
620.396453	0.159897
620.604715	0.159872
620.812958	0.159925
621.021183	0.160086
621.229390	0.160172
621.437578	0.160295
621.645748	0.160081
621.853900	0.160193
622.062034	0.159648
622.270150	0.159469
622.478247	0.159543
622.686326	0.159622
622.894387	0.159414
623.102430	0.159529
623.310454	0.159509
623.518461	0.159973
623.726449	0.159968
623.934418	0.160403
624.142370	0.160556
624.350303	0.160541
624.558218	0.160777
624.766115	0.160889
624.973994	0.160911
625.181855	0.160943
625.389697	0.160961
625.597521	0.160816
625.805327	0.160701
626.013114	0.160981
626.220883	0.161148
626.428634	0.161170
626.636367	0.161226
626.844082	0.161029
627.051778	0.161175
627.259457	0.161193
627.467117	0.161588
627.674758	0.161703
627.882382	0.161491
628.089987	0.161139
628.297574	0.161288
628.505143	0.161438
628.712694	0.161863
628.920226	0.162044
629.127740	0.162153
629.335236	0.162192
629.542714	0.162238
629.750174	0.162301
629.957615	0.162604
630.165038	0.162176
630.372443	0.162093
630.579829	0.162062
630.787198	0.161995
630.994548	0.162182
631.201880	0.161998
631.409194	0.162205
631.616489	0.162289
631.823766	0.162394
632.031025	0.162683
632.238266	0.162717
632.445489	0.162639
632.652693	0.162703
632.859879	0.162576
633.067047	0.162984
633.274197	0.162958
633.481329	0.163133
633.688442	0.163076
633.895537	0.163108
634.102614	0.163294
634.309672	0.163422
634.516713	0.163322
634.723735	0.163554
634.930739	0.163674
635.137724	0.163549
635.344692	0.163862
635.551641	0.164145
635.758572	0.164591
635.965485	0.164502
636.172379	0.164849
636.379256	0.165098
636.586114	0.165116
636.792954	0.165030
636.999775	0.165284
637.206579	0.165009
637.413364	0.164911
637.620131	0.164517
637.826880	0.164810
638.033610	0.164763
638.240323	0.164821
638.447017	0.164888
638.653692	0.164914
638.860350	0.165104
639.066990	0.165323
639.273611	0.165581
639.480214	0.165762
639.686798	0.165999
639.893365	0.166224
640.099913	0.166476
640.306443	0.166426
640.512955	0.166583
640.719449	0.166804
640.925924	0.167102
641.132381	0.167164
641.338820	0.167515
641.545241	0.167635
641.751644	0.167707
641.958028	0.167762
642.164394	0.168071
642.370742	0.168345
642.577071	0.168447
642.783383	0.168269
642.989676	0.168410
643.195951	0.168278
643.402207	0.168161
643.608446	0.168312
643.814666	0.168288
644.020868	0.168539
644.227052	0.168044
644.433218	0.167868
644.639365	0.167878
644.845494	0.167569
645.051605	0.167805
645.257698	0.167850
645.463772	0.167753
645.669828	0.167633
645.875866	0.167232
646.081886	0.167645
646.287888	0.167759
646.493871	0.167813
646.699836	0.168134
646.905783	0.168327
647.111712	0.168327
647.317622	0.168272
647.523514	0.168607
647.729388	0.168948
647.935244	0.169113
648.141082	0.169122
648.346901	0.169268
648.552702	0.169400
648.758485	0.169332
648.964250	0.169605
649.169996	0.169965
649.375724	0.170151
649.581434	0.170310
649.787126	0.170405
649.992800	0.170673
650.198455	0.170744
650.404092	0.170698
650.609711	0.170794
650.815311	0.170989
651.020894	0.170879
651.226458	0.170816
651.432004	0.170780
651.637532	0.170562
651.843041	0.170458
652.048532	0.170647
652.254006	0.170909
652.459460	0.170954
652.664897	0.170982
652.870315	0.171339
653.075716	0.171383
653.281097	0.171561
653.486461	0.171888
653.691807	0.172070
653.897134	0.172125
654.102443	0.172235
654.307734	0.172532
654.513006	0.172344
654.718261	0.172221
654.923497	0.172333
655.128715	0.172521
655.333915	0.172717
655.539096	0.172919
655.744259	0.173176
655.949404	0.173370
656.154531	0.173169
656.359640	0.173544
656.564730	0.173710
656.769802	0.173981
656.974856	0.174011
657.179892	0.174027
657.384909	0.174179
657.589908	0.173921
657.794889	0.174101
657.999852	0.174388
658.204797	0.174291
658.409723	0.174349
658.614631	0.174173
658.819521	0.174274
659.024393	0.174357
659.229246	0.174198
659.434081	0.174407
659.638898	0.174324
659.843697	0.174359
660.048478	0.174653
660.253240	0.174535
660.457984	0.174695
660.662710	0.174513
660.867417	0.174502
661.072107	0.174725
661.276778	0.174881
661.481431	0.174939
661.686066	0.175107
661.890682	0.174997
662.095281	0.175206
662.299861	0.175449
662.504422	0.175659
662.708966	0.175983
662.913491	0.176041
663.117999	0.176121
663.322488	0.176195
663.526958	0.176171
663.731411	0.176468
663.935845	0.176485
664.140261	0.176260
664.344659	0.176236
664.549038	0.176245
664.753400	0.176163
664.957743	0.176312
665.162068	0.176332
665.366375	0.176517
665.570663	0.176418
665.774933	0.176653
665.979185	0.176947
666.183419	0.177256
666.387635	0.177403
666.591832	0.177842
666.796011	0.177933
667.000172	0.178227
667.204315	0.178318
667.408439	0.178610
667.612545	0.178738
667.816634	0.179052
668.020703	0.179285
668.224755	0.179483
668.428788	0.179470
668.632803	0.179748
668.836800	0.179789
669.040779	0.180072
669.244739	0.180302
669.448681	0.180428
669.652605	0.180627
669.856511	0.180669
670.060399	0.180746
670.264268	0.180758
670.468119	0.180868
670.671952	0.181018
670.875767	0.180912
671.079563	0.180784
671.283341	0.180817
671.487101	0.180687
671.690843	0.180701
671.894567	0.180742
672.098272	0.180912
672.301959	0.180884
672.505628	0.180990
672.709278	0.181310
672.912911	0.181732
673.116525	0.182027
673.320121	0.182205
673.523699	0.182660
673.727258	0.182774
673.930799	0.183163
674.134322	0.183425
674.337827	0.183596
674.541314	0.183586
674.744782	0.183505
674.948232	0.183307
675.151664	0.183279
675.355078	0.182906
675.558474	0.182969
675.761851	0.182898
675.965210	0.182736
676.168551	0.182750
676.371873	0.182647
676.575178	0.182477
676.778464	0.182792
676.981732	0.182739
677.184981	0.182974
677.388213	0.182914
677.591426	0.182841
677.794621	0.183109
677.997798	0.183310
678.200956	0.183628
678.404097	0.183906
678.607219	0.183986
678.810323	0.184422
679.013408	0.184479
679.216476	0.184717
679.419525	0.185008
679.622556	0.185101
679.825569	0.185172
680.028563	0.185278
680.231540	0.185504
680.434498	0.185580
680.637438	0.185533
680.840359	0.185780
681.043263	0.186041
681.246148	0.186064
681.449015	0.186194
681.651864	0.186311
681.854694	0.186575
682.057506	0.186578
682.260301	0.186991
682.463076	0.187054
682.665834	0.187150
682.868573	0.187300
683.071295	0.187395
683.273998	0.187625
683.476682	0.187931
683.679349	0.187929
683.881997	0.188117
684.084627	0.188174
684.287239	0.188254
684.489833	0.188365
684.692408	0.188254
684.894965	0.188085
685.097504	0.187921
685.300025	0.187682
685.502527	0.187551
685.705012	0.187479
685.907478	0.187220
686.109925	0.187387
686.312355	0.187308
686.514766	0.187572
686.717159	0.187862
686.919534	0.187831
687.121891	0.187840
687.324230	0.187909
687.526550	0.188171
687.728852	0.188485
687.931136	0.188412
688.133401	0.188488
688.335649	0.188165
688.537878	0.188242
688.740089	0.188682
688.942281	0.188807
689.144456	0.189047
689.346612	0.188844
689.548750	0.188507
689.750870	0.188582
689.952971	0.188490
690.155055	0.188654
690.357120	0.188552
690.559167	0.188280
690.761195	0.188308
690.963206	0.188373
691.165198	0.188541
691.367172	0.188576
691.569128	0.188508
691.771065	0.188809
691.972984	0.188910
692.174885	0.189077
692.376768	0.189265
692.578633	0.189479
692.780479	0.189569
692.982308	0.189741
693.184118	0.190216
693.385909	0.190399
693.587683	0.190364
693.789438	0.190600
693.991175	0.190831
