sample name	sample
index	1509
start time	 05-18-2021  02:57:01 PM


Wavelength (nm)	Absorbance
494.344910	-1.522048
494.563924	-1.522048
494.782919	-1.522048
495.001897	-0.093151
495.220856	-0.776377
495.439797	-0.572651
495.658719	-0.244690
495.877624	NaN
496.096510	NaN
496.315378	NaN
496.534227	NaN
496.753059	NaN
496.971872	0.570752
497.190667	0.094944
497.409444	0.093578
497.628203	0.090897
497.846943	0.088499
498.065665	0.088987
498.284369	0.088945
498.503055	0.089328
498.721723	0.090976
498.940372	0.091765
499.159003	0.091840
499.377616	0.091419
499.596210	0.092653
499.814787	0.093819
500.033345	0.093947
500.251885	0.093616
500.470406	0.094260
500.688910	0.094281
500.907395	0.094310
501.125862	0.095333
501.344311	0.095707
501.562742	0.095363
501.781154	0.095110
501.999548	0.094019
502.217924	0.093882
502.436282	0.093046
502.654621	0.092116
502.872942	0.091757
503.091245	0.091272
503.309530	0.091052
503.527797	0.090117
503.746045	0.088799
503.964275	0.090022
504.182487	0.090951
504.400681	0.091785
504.618856	0.092918
504.837013	0.093495
505.055152	0.094058
505.273273	0.093951
505.491376	0.095293
505.709460	0.096767
505.927526	0.096422
506.145574	0.096166
506.363604	0.095480
506.581615	0.094512
506.799608	0.093627
507.017583	0.092695
507.235540	0.093946
507.453478	0.093523
507.671399	0.093383
507.889301	0.093541
508.107185	0.093438
508.325050	0.093646
508.542898	0.093044
508.760727	0.093716
508.978538	0.093422
509.196330	0.092877
509.414105	0.093006
509.631861	0.092599
509.849599	0.092771
510.067319	0.091998
510.285021	0.091373
510.502704	0.092746
510.720369	0.092737
510.938016	0.092853
511.155645	0.092196
511.373255	0.092622
511.590848	0.092722
511.808422	0.092510
512.025977	0.093585
512.243515	0.094421
512.461034	0.094627
512.678536	0.094619
512.896018	0.096014
513.113483	0.095905
513.330930	0.095342
513.548358	0.095950
513.765768	0.095932
513.983160	0.095411
514.200533	0.095534
514.417889	0.095138
514.635226	0.095303
514.852545	0.094374
515.069845	0.095258
515.287128	0.095572
515.504392	0.094761
515.721638	0.094939
515.938866	0.095145
516.156075	0.094635
516.373267	0.094563
516.590440	0.094058
516.807594	0.093956
517.024731	0.093863
517.241850	0.093396
517.458950	0.094030
517.676032	0.094179
517.893095	0.094421
518.110141	0.095063
518.327168	0.094857
518.544177	0.095419
518.761168	0.096211
518.978141	0.096499
519.195095	0.097266
519.412031	0.097851
519.628949	0.097423
519.845849	0.097806
520.062731	0.097389
520.279594	0.097145
520.496439	0.096998
520.713266	0.097234
520.930074	0.096653
521.146865	0.096508
521.363637	0.096231
521.580391	0.096234
521.797127	0.096184
522.013844	0.096777
522.230543	0.097648
522.447224	0.097449
522.663887	0.097493
522.880532	0.098065
523.097158	0.097973
523.313766	0.097717
523.530356	0.097180
523.746928	0.096662
523.963481	0.096612
524.180017	0.096745
524.396534	0.097789
524.613032	0.097832
524.829513	0.097966
525.045975	0.097586
525.262420	0.097461
525.478845	0.098861
525.695253	0.099184
525.911643	0.099378
526.128014	0.099682
526.344367	0.098774
526.560702	0.098048
526.777018	0.098424
526.993316	0.099194
527.209597	0.099477
527.425858	0.099031
527.642102	0.099448
527.858328	0.099530
528.074535	0.099052
528.290724	0.100077
528.506894	0.100799
528.723047	0.100622
528.939181	0.100499
529.155297	0.100761
529.371395	0.101537
529.587475	0.102340
529.803536	0.101844
530.019579	0.102045
530.235604	0.101559
530.451611	0.101843
530.667600	0.101225
530.883570	0.101009
531.099522	0.100940
531.315456	0.100571
531.531372	0.100111
531.747269	0.100846
531.963148	0.100814
532.179009	0.100801
532.394852	0.100402
532.610676	0.101223
532.826482	0.101705
533.042271	0.102378
533.258040	0.102123
533.473792	0.101730
533.689525	0.102276
533.905240	0.102414
534.120937	0.103077
534.336616	0.103333
534.552277	0.103674
534.767919	0.103918
534.983543	0.103954
535.199149	0.104501
535.414736	0.104857
535.630306	0.104384
535.845857	0.104192
536.061390	0.104228
536.276904	0.104504
536.492401	0.104205
536.707879	0.104445
536.923339	0.104573
537.138781	0.104433
537.354204	0.105062
537.569610	0.105080
537.784997	0.105454
538.000366	0.105322
538.215716	0.105114
538.431049	0.105625
538.646363	0.105663
538.861659	0.105505
539.076937	0.105715
539.292196	0.105412
539.507438	0.105432
539.722661	0.105483
539.937866	0.104967
540.153052	0.104864
540.368221	0.104524
540.583371	0.104696
540.798503	0.105278
541.013617	0.105298
541.228712	0.105437
541.443789	0.105178
541.658848	0.105099
541.873889	0.105503
542.088912	0.106217
542.303916	0.106469
542.518902	0.106697
542.733870	0.106352
542.948820	0.106523
543.163752	0.106070
543.378665	0.106634
543.593560	0.106917
543.808437	0.107223
544.023295	0.107001
544.238136	0.106689
544.452958	0.106104
544.667762	0.106370
544.882548	0.106485
545.097315	0.107073
545.312064	0.107322
545.526795	0.107499
545.741508	0.107431
545.956203	0.107480
546.170879	0.108077
546.385537	0.108307
546.600177	0.108067
546.814799	0.108118
547.029402	0.107816
547.243988	0.108048
547.458555	0.108151
547.673103	0.108356
547.887634	0.108584
548.102146	0.108574
548.316640	0.108700
548.531116	0.109224
548.745574	0.109425
548.960013	0.109481
549.174435	0.109037
549.388838	0.108952
549.603222	0.108805
549.817589	0.109051
550.031937	0.109111
550.246267	0.109218
550.460579	0.109021
550.674873	0.108806
550.889148	0.108867
551.103405	0.109053
551.317644	0.109722
551.531865	0.109982
551.746068	0.109842
551.960252	0.109977
552.174418	0.110124
552.388566	0.110386
552.602696	0.110427
552.816807	0.110714
553.030900	0.110460
553.244975	0.110061
553.459032	0.110246
553.673070	0.110493
553.887091	0.110027
554.101093	0.110031
554.315077	0.110143
554.529042	0.110506
554.742990	0.110127
554.956919	0.110574
555.170830	0.110656
555.384722	0.110481
555.598597	0.110098
555.812453	0.110552
556.026291	0.110504
556.240111	0.109847
556.453913	0.109653
556.667696	0.109947
556.881461	0.109794
557.095208	0.109746
557.308937	0.110011
557.522647	0.110345
557.736339	0.110031
557.950013	0.110169
558.163669	0.110888
558.377307	0.110836
558.590926	0.110941
558.804527	0.111106
559.018110	0.111293
559.231675	0.111348
559.445221	0.111240
559.658749	0.111481
559.872259	0.111489
560.085751	0.111466
560.299225	0.111964
560.512680	0.111833
560.726117	0.111978
560.939536	0.111918
561.152937	0.111854
561.366319	0.111918
561.579683	0.112166
561.793029	0.112168
562.006357	0.111874
562.219667	0.111656
562.432958	0.111901
562.646231	0.111807
562.859486	0.111833
563.072723	0.111857
563.285941	0.111620
563.499141	0.111233
563.712323	0.111294
563.925487	0.111215
564.138632	0.110989
564.351760	0.110752
564.564869	0.110998
564.777960	0.110664
564.991032	0.110607
565.204087	0.110885
565.417123	0.111199
565.630141	0.111047
565.843140	0.111355
566.056122	0.111250
566.269085	0.111285
566.482030	0.111358
566.694957	0.111675
566.907866	0.111499
567.120756	0.111591
567.333628	0.111832
567.546482	0.111963
567.759318	0.111822
567.972135	0.111957
568.184935	0.112198
568.397716	0.111753
568.610478	0.111615
568.823223	0.111861
569.035949	0.111500
569.248657	0.111141
569.461347	0.111045
569.674019	0.110912
569.886672	0.110923
570.099308	0.110656
570.311925	0.110974
570.524523	0.111120
570.737104	0.111214
570.949666	0.111450
571.162210	0.111386
571.374736	0.111429
571.587244	0.111651
571.799733	0.111845
572.012205	0.112021
572.224658	0.111914
572.437092	0.111915
572.649509	0.111893
572.861907	0.111934
573.074287	0.112044
573.286649	0.112128
573.498993	0.112351
573.711318	0.112567
573.923625	0.112748
574.135914	0.112644
574.348185	0.112798
574.560438	0.112797
574.772672	0.112452
574.984888	0.112339
575.197086	0.112004
575.409266	0.111930
575.621427	0.111710
575.833570	0.111825
576.045695	0.111860
576.257802	0.112130
576.469890	0.112337
576.681961	0.112757
576.894013	0.113258
577.106046	0.114006
577.318062	0.113934
577.530059	0.114247
577.742039	0.114312
577.954000	0.114739
578.165942	0.114358
578.377867	0.114346
578.589773	0.114572
578.801661	0.114174
579.013531	0.114079
579.225382	0.114038
579.437216	0.114034
579.649031	0.113893
579.860828	0.114081
580.072606	0.114440
580.284367	0.114186
580.496109	0.114131
580.707833	0.114317
580.919539	0.114238
581.131227	0.114567
581.342896	0.114370
581.554547	0.114333
581.766180	0.114173
581.977795	0.114041
582.189391	0.114409
582.400969	0.114446
582.612529	0.114649
582.824071	0.114709
583.035595	0.114629
583.247100	0.115007
583.458587	0.115418
583.670056	0.115676
583.881506	0.115571
584.092939	0.115724
584.304353	0.115937
584.515749	0.115731
584.727127	0.115833
584.938486	0.116279
585.149828	0.116072
585.361151	0.115885
585.572456	0.115431
585.783742	0.115543
585.995011	0.115012
586.206261	0.115007
586.417493	0.115483
586.628706	0.115283
586.839902	0.114796
587.051079	0.115138
587.262238	0.115170
587.473379	0.115297
587.684502	0.114859
587.895606	0.115181
588.106692	0.114979
588.317760	0.114678
588.528810	0.114812
588.739841	0.114767
588.950855	0.114428
589.161850	0.114578
589.372827	0.114849
589.583785	0.115473
589.794726	0.115550
590.005648	0.116047
590.216552	0.116230
590.427437	0.116381
590.638305	0.116774
590.849154	0.117081
591.059985	0.117232
591.270798	0.117207
591.481592	0.117567
591.692369	0.117773
591.903127	0.117871
592.113867	0.117903
592.324588	0.118155
592.535292	0.118424
592.745977	0.118368
592.956644	0.118356
593.167293	0.118446
593.377923	0.118411
593.588536	0.118326
593.799130	0.118112
594.009706	0.118184
594.220263	0.118064
594.430803	0.117720
594.641324	0.117696
594.851827	0.117646
595.062312	0.117335
595.272778	0.117041
595.483227	0.116971
595.693657	0.116712
595.904069	0.116934
596.114462	0.117003
596.324838	0.117008
596.535195	0.117266
596.745534	0.117495
596.955855	0.117949
597.166157	0.118470
597.376441	0.118740
597.586707	0.119189
597.796955	0.119269
598.007185	0.119614
598.217396	0.120078
598.427589	0.120200
598.637764	0.120258
598.847921	0.120242
599.058060	0.120119
599.268180	0.120234
599.478282	0.120375
599.688366	0.120415
599.898431	0.120288
600.108479	0.120124
600.318508	0.120067
600.528519	0.119889
600.738511	0.119912
600.948486	0.120075
601.158442	0.120091
601.368380	0.120221
601.578300	0.120003
601.788202	0.120060
601.998085	0.120347
602.207950	0.120495
602.417797	0.120698
602.627626	0.120945
602.837436	0.120763
603.047228	0.121033
603.257002	0.120939
603.466758	0.121201
603.676496	0.121238
603.886215	0.121228
604.095916	0.120966
604.305599	0.120896
604.515264	0.120883
604.724910	0.121010
604.934538	0.121054
605.144148	0.121317
605.353740	0.121420
605.563314	0.121370
605.772869	0.121435
605.982406	0.121820
606.191925	0.122220
606.401425	0.122576
606.610908	0.122780
606.820372	0.122651
607.029818	0.122483
607.239246	0.122592
607.448655	0.122821
607.658047	0.122523
607.867420	0.122535
608.076775	0.122259
608.286111	0.121964
608.495430	0.121764
608.704730	0.122130
608.914012	0.122301
609.123275	0.122378
609.332521	0.122283
609.541748	0.122438
609.750957	0.122447
609.960148	0.122512
610.169321	0.122641
610.378475	0.122607
610.587611	0.122596
610.796729	0.122530
611.005829	0.122527
611.214910	0.122765
611.423974	0.122924
611.633019	0.123127
611.842045	0.123347
612.051054	0.123525
612.260044	0.123890
612.469017	0.123892
612.677970	0.123903
612.886906	0.123989
613.095824	0.123800
613.304723	0.123641
613.513604	0.123633
613.722467	0.123747
613.931311	0.123645
614.140138	0.123738
614.348946	0.123752
614.557736	0.124055
614.766507	0.124217
614.975261	0.124535
615.183996	0.124785
615.392713	0.124955
615.601412	0.124847
615.810092	0.124815
616.018754	0.124820
616.227399	0.125048
616.436024	0.124867
616.644632	0.124807
616.853222	0.124732
617.061793	0.124800
617.270346	0.124421
617.478880	0.124640
617.687397	0.124840
617.895895	0.124880
618.104375	0.124670
618.312837	0.124616
618.521281	0.124658
618.729706	0.124568
618.938113	0.124466
619.146502	0.124812
619.354873	0.124577
619.563226	0.124364
619.771560	0.124326
619.979876	0.124274
620.188174	0.124444
620.396453	0.124718
620.604715	0.124926
620.812958	0.125241
621.021183	0.125345
621.229390	0.125484
621.437578	0.126115
621.645748	0.126444
621.853900	0.126673
622.062034	0.126873
622.270150	0.126837
622.478247	0.127098
622.686326	0.127312
622.894387	0.127457
623.102430	0.127692
623.310454	0.127304
623.518461	0.127110
623.726449	0.127210
623.934418	0.127287
624.142370	0.127450
624.350303	0.127484
624.558218	0.127555
624.766115	0.127399
624.973994	0.127681
625.181855	0.127976
625.389697	0.128226
625.597521	0.128136
625.805327	0.128116
626.013114	0.127861
626.220883	0.127801
626.428634	0.127601
626.636367	0.127582
626.844082	0.127533
627.051778	0.127310
627.259457	0.127162
627.467117	0.127152
627.674758	0.127122
627.882382	0.127248
628.089987	0.127126
628.297574	0.127131
628.505143	0.127524
628.712694	0.127536
628.920226	0.127827
629.127740	0.127851
629.335236	0.128174
629.542714	0.128281
629.750174	0.128365
629.957615	0.128521
630.165038	0.128741
630.372443	0.128668
630.579829	0.128656
630.787198	0.128652
630.994548	0.128867
631.201880	0.128923
631.409194	0.128725
631.616489	0.128634
631.823766	0.128446
632.031025	0.128396
632.238266	0.128573
632.445489	0.128755
632.652693	0.128941
632.859879	0.129106
633.067047	0.129136
633.274197	0.129645
633.481329	0.129851
633.688442	0.130112
633.895537	0.130269
634.102614	0.130303
634.309672	0.130210
634.516713	0.130284
634.723735	0.130303
634.930739	0.130630
635.137724	0.130595
635.344692	0.130794
635.551641	0.131252
635.758572	0.131095
635.965485	0.131111
636.172379	0.131055
636.379256	0.130981
636.586114	0.130955
636.792954	0.130524
636.999775	0.130661
637.206579	0.130615
637.413364	0.130360
637.620131	0.130777
637.826880	0.130593
638.033610	0.130735
638.240323	0.130707
638.447017	0.130709
638.653692	0.130928
638.860350	0.130758
639.066990	0.130780
639.273611	0.130729
639.480214	0.130540
639.686798	0.130560
639.893365	0.130710
640.099913	0.130550
640.306443	0.130707
640.512955	0.130817
640.719449	0.130845
640.925924	0.130949
641.132381	0.131157
641.338820	0.131228
641.545241	0.131616
641.751644	0.131793
641.958028	0.132169
642.164394	0.132212
642.370742	0.131890
642.577071	0.132077
642.783383	0.131931
642.989676	0.131995
643.195951	0.132165
643.402207	0.132160
643.608446	0.132222
643.814666	0.132447
644.020868	0.132496
644.227052	0.132772
644.433218	0.132756
644.639365	0.132914
644.845494	0.133143
645.051605	0.133171
645.257698	0.133255
645.463772	0.133189
645.669828	0.133027
645.875866	0.133087
646.081886	0.133283
646.287888	0.133400
646.493871	0.133450
646.699836	0.133361
646.905783	0.133460
647.111712	0.133327
647.317622	0.133480
647.523514	0.133647
647.729388	0.133493
647.935244	0.133594
648.141082	0.133827
648.346901	0.134090
648.552702	0.134220
648.758485	0.134133
648.964250	0.134157
649.169996	0.133925
649.375724	0.133930
649.581434	0.134237
649.787126	0.134107
649.992800	0.133867
650.198455	0.133941
650.404092	0.133789
650.609711	0.133947
650.815311	0.134090
651.020894	0.134323
651.226458	0.134275
651.432004	0.134144
651.637532	0.134213
651.843041	0.134401
652.048532	0.134341
652.254006	0.134536
652.459460	0.134429
652.664897	0.134538
652.870315	0.134733
653.075716	0.134634
653.281097	0.134668
653.486461	0.134774
653.691807	0.134877
653.897134	0.134989
654.102443	0.134987
654.307734	0.135212
654.513006	0.135351
654.718261	0.135126
654.923497	0.135245
655.128715	0.135334
655.333915	0.135481
655.539096	0.135508
655.744259	0.135473
655.949404	0.135655
656.154531	0.135884
656.359640	0.135862
656.564730	0.136206
656.769802	0.136442
656.974856	0.136704
657.179892	0.136732
657.384909	0.136970
657.589908	0.137109
657.794889	0.136974
657.999852	0.137030
658.204797	0.137143
658.409723	0.137091
658.614631	0.137124
658.819521	0.137123
659.024393	0.137214
659.229246	0.137103
659.434081	0.137314
659.638898	0.137274
659.843697	0.137247
660.048478	0.137348
660.253240	0.137604
660.457984	0.137533
660.662710	0.137635
660.867417	0.137605
661.072107	0.137646
661.276778	0.137538
661.481431	0.137997
661.686066	0.138024
661.890682	0.138085
662.095281	0.138075
662.299861	0.138337
662.504422	0.138386
662.708966	0.138700
662.913491	0.138863
663.117999	0.138888
663.322488	0.138813
663.526958	0.138702
663.731411	0.138662
663.935845	0.138668
664.140261	0.139025
664.344659	0.139007
664.549038	0.138955
664.753400	0.138866
664.957743	0.138946
665.162068	0.139059
665.366375	0.139146
665.570663	0.139294
665.774933	0.139333
665.979185	0.138938
666.183419	0.138927
666.387635	0.138787
666.591832	0.138744
666.796011	0.138615
667.000172	0.138767
667.204315	0.138810
667.408439	0.138893
667.612545	0.138911
667.816634	0.139121
668.020703	0.139306
668.224755	0.139492
668.428788	0.139857
668.632803	0.140017
668.836800	0.139956
669.040779	0.140095
669.244739	0.140099
669.448681	0.140244
669.652605	0.140350
669.856511	0.140518
670.060399	0.140782
670.264268	0.140860
670.468119	0.141176
670.671952	0.141444
670.875767	0.141803
671.079563	0.141994
671.283341	0.142224
671.487101	0.142451
671.690843	0.142635
671.894567	0.142709
672.098272	0.142705
672.301959	0.142760
672.505628	0.142795
672.709278	0.142820
672.912911	0.142920
673.116525	0.142845
673.320121	0.142700
673.523699	0.142832
673.727258	0.142845
673.930799	0.143064
674.134322	0.143037
674.337827	0.142956
674.541314	0.143051
674.744782	0.143220
674.948232	0.143339
675.151664	0.143525
675.355078	0.143379
675.558474	0.143461
675.761851	0.143188
675.965210	0.143408
676.168551	0.143366
676.371873	0.143322
676.575178	0.143370
676.778464	0.143442
676.981732	0.143645
677.184981	0.143760
677.388213	0.143862
677.591426	0.144123
677.794621	0.144171
677.997798	0.144512
678.200956	0.144553
678.404097	0.144517
678.607219	0.144578
678.810323	0.144501
679.013408	0.144655
679.216476	0.144811
679.419525	0.144949
679.622556	0.144870
679.825569	0.144840
680.028563	0.144853
680.231540	0.144705
680.434498	0.144620
680.637438	0.144541
680.840359	0.144410
681.043263	0.144308
681.246148	0.144231
681.449015	0.144351
681.651864	0.144338
681.854694	0.144411
682.057506	0.144440
682.260301	0.144700
682.463076	0.144830
682.665834	0.144906
682.868573	0.144894
683.071295	0.145112
683.273998	0.145146
683.476682	0.145095
683.679349	0.145269
683.881997	0.145542
684.084627	0.145668
684.287239	0.145849
684.489833	0.145883
684.692408	0.145965
684.894965	0.145886
685.097504	0.145948
685.300025	0.146259
685.502527	0.146105
685.705012	0.146102
685.907478	0.145872
686.109925	0.145702
686.312355	0.145959
686.514766	0.146030
686.717159	0.146247
686.919534	0.146228
687.121891	0.146011
687.324230	0.146323
687.526550	0.146497
687.728852	0.146720
687.931136	0.147025
688.133401	0.146956
688.335649	0.147259
688.537878	0.147094
688.740089	0.147186
688.942281	0.147269
689.144456	0.147333
689.346612	0.147339
689.548750	0.147246
689.750870	0.147374
689.952971	0.147504
690.155055	0.147403
690.357120	0.147613
690.559167	0.147654
690.761195	0.147894
690.963206	0.147671
691.165198	0.147620
691.367172	0.147924
691.569128	0.147836
691.771065	0.147887
691.972984	0.148022
692.174885	0.148087
692.376768	0.148238
692.578633	0.148085
692.780479	0.148071
692.982308	0.148085
693.184118	0.147922
693.385909	0.148048
693.587683	0.148055
