sample name	sample
index	1310
start time	 04-29-2021  04:18:13 PM


Wavelength (nm)	Absorbance
494.344910	0.014977
494.563924	0.014977
494.782919	0.014977
495.001897	-0.057893
495.220856	0.063928
495.439797	0.157796
495.658719	0.105255
495.877624	0.182064
496.096510	0.348748
496.315378	0.695339
496.534227	0.421684
496.753059	0.547570
496.971872	0.412106
497.190667	0.154901
497.409444	0.135070
497.628203	0.134627
497.846943	0.132966
498.065665	0.130087
498.284369	0.129235
498.503055	0.127582
498.721723	0.126738
498.940372	0.126711
499.159003	0.124917
499.377616	0.124669
499.596210	0.125266
499.814787	0.124666
500.033345	0.124167
500.251885	0.124658
500.470406	0.127329
500.688910	0.126123
500.907395	0.124479
501.125862	0.126406
501.344311	0.126770
501.562742	0.125830
501.781154	0.125195
501.999548	0.126110
502.217924	0.124811
502.436282	0.122338
502.654621	0.123612
502.872942	0.123687
503.091245	0.124051
503.309530	0.123609
503.527797	0.123135
503.746045	0.123005
503.964275	0.123182
504.182487	0.122748
504.400681	0.124240
504.618856	0.125501
504.837013	0.125929
505.055152	0.125627
505.273273	0.125913
505.491376	0.126331
505.709460	0.126956
505.927526	0.125710
506.145574	0.125240
506.363604	0.124476
506.581615	0.122461
506.799608	0.122698
507.017583	0.121266
507.235540	0.121584
507.453478	0.122090
507.671399	0.121383
507.889301	0.121869
508.107185	0.122962
508.325050	0.123397
508.542898	0.123898
508.760727	0.124321
508.978538	0.125307
509.196330	0.124298
509.414105	0.123896
509.631861	0.124065
509.849599	0.123890
510.067319	0.124718
510.285021	0.124136
510.502704	0.124304
510.720369	0.123971
510.938016	0.123656
511.155645	0.123687
511.373255	0.124144
511.590848	0.123410
511.808422	0.124615
512.025977	0.124716
512.243515	0.125215
512.461034	0.125178
512.678536	0.125154
512.896018	0.124955
513.113483	0.125230
513.330930	0.126335
513.548358	0.127905
513.765768	0.125889
513.983160	0.125397
514.200533	0.124842
514.417889	0.124504
514.635226	0.124606
514.852545	0.125231
515.069845	0.125428
515.287128	0.124497
515.504392	0.124195
515.721638	0.125452
515.938866	0.126340
516.156075	0.126202
516.373267	0.126356
516.590440	0.125487
516.807594	0.125259
517.024731	0.125830
517.241850	0.125365
517.458950	0.125067
517.676032	0.125468
517.893095	0.124445
518.110141	0.125468
518.327168	0.125686
518.544177	0.126907
518.761168	0.127664
518.978141	0.126901
519.195095	0.126892
519.412031	0.127092
519.628949	0.126172
519.845849	0.125845
520.062731	0.125370
520.279594	0.126107
520.496439	0.126699
520.713266	0.126845
520.930074	0.127088
521.146865	0.127179
521.363637	0.127144
521.580391	0.128536
521.797127	0.129002
522.013844	0.128999
522.230543	0.128745
522.447224	0.128266
522.663887	0.127608
522.880532	0.127577
523.097158	0.128599
523.313766	0.128723
523.530356	0.128029
523.746928	0.128409
523.963481	0.128742
524.180017	0.128394
524.396534	0.127561
524.613032	0.128225
524.829513	0.128328
525.045975	0.127970
525.262420	0.127897
525.478845	0.127860
525.695253	0.127650
525.911643	0.127800
526.128014	0.128158
526.344367	0.129064
526.560702	0.128654
526.777018	0.129024
526.993316	0.128570
527.209597	0.129956
527.425858	0.130776
527.642102	0.130946
527.858328	0.131220
528.074535	0.131970
528.290724	0.132145
528.506894	0.132690
528.723047	0.132168
528.939181	0.132729
529.155297	0.131832
529.371395	0.131358
529.587475	0.132625
529.803536	0.132542
530.019579	0.132934
530.235604	0.133181
530.451611	0.132684
530.667600	0.133251
530.883570	0.133245
531.099522	0.133504
531.315456	0.133717
531.531372	0.133210
531.747269	0.133574
531.963148	0.133310
532.179009	0.133060
532.394852	0.133986
532.610676	0.134307
532.826482	0.134711
533.042271	0.134272
533.258040	0.134633
533.473792	0.134273
533.689525	0.134885
533.905240	0.134277
534.120937	0.134310
534.336616	0.134048
534.552277	0.134386
534.767919	0.134446
534.983543	0.135069
535.199149	0.134563
535.414736	0.134715
535.630306	0.134664
535.845857	0.134850
536.061390	0.135731
536.276904	0.136451
536.492401	0.136556
536.707879	0.137050
536.923339	0.137267
537.138781	0.137649
537.354204	0.137629
537.569610	0.136982
537.784997	0.138281
538.000366	0.138321
538.215716	0.137824
538.431049	0.138444
538.646363	0.138284
538.861659	0.138438
539.076937	0.139204
539.292196	0.139487
539.507438	0.139939
539.722661	0.138912
539.937866	0.138468
540.153052	0.138799
540.368221	0.137877
540.583371	0.137402
540.798503	0.137059
541.013617	0.136585
541.228712	0.136551
541.443789	0.136625
541.658848	0.136953
541.873889	0.136693
542.088912	0.136034
542.303916	0.136487
542.518902	0.136568
542.733870	0.137048
542.948820	0.136817
543.163752	0.137255
543.378665	0.136909
543.593560	0.136836
543.808437	0.137128
544.023295	0.137828
544.238136	0.137239
544.452958	0.136783
544.667762	0.136433
544.882548	0.136662
545.097315	0.136801
545.312064	0.136887
545.526795	0.136585
545.741508	0.136424
545.956203	0.135747
546.170879	0.136321
546.385537	0.136790
546.600177	0.137254
546.814799	0.137498
547.029402	0.137409
547.243988	0.138066
547.458555	0.138125
547.673103	0.138830
547.887634	0.139809
548.102146	0.139778
548.316640	0.140262
548.531116	0.139932
548.745574	0.139898
548.960013	0.139973
549.174435	0.139509
549.388838	0.139744
549.603222	0.139533
549.817589	0.139937
550.031937	0.139762
550.246267	0.139795
550.460579	0.140667
550.674873	0.141112
550.889148	0.140871
551.103405	0.141010
551.317644	0.141253
551.531865	0.141440
551.746068	0.141255
551.960252	0.142219
552.174418	0.142033
552.388566	0.141922
552.602696	0.141367
552.816807	0.142215
553.030900	0.142747
553.244975	0.143283
553.459032	0.142910
553.673070	0.142796
553.887091	0.143126
554.101093	0.143538
554.315077	0.143499
554.529042	0.144019
554.742990	0.143422
554.956919	0.143519
555.170830	0.143462
555.384722	0.143949
555.598597	0.143911
555.812453	0.143212
556.026291	0.142202
556.240111	0.141917
556.453913	0.141871
556.667696	0.141997
556.881461	0.141393
557.095208	0.141027
557.308937	0.141023
557.522647	0.141150
557.736339	0.141374
557.950013	0.141873
558.163669	0.142130
558.377307	0.142125
558.590926	0.141782
558.804527	0.142330
559.018110	0.142153
559.231675	0.142118
559.445221	0.141802
559.658749	0.141599
559.872259	0.141715
560.085751	0.141740
560.299225	0.141796
560.512680	0.142174
560.726117	0.142240
560.939536	0.142718
561.152937	0.142773
561.366319	0.143158
561.579683	0.143229
561.793029	0.143473
562.006357	0.143413
562.219667	0.143420
562.432958	0.143601
562.646231	0.143634
562.859486	0.143645
563.072723	0.143884
563.285941	0.143774
563.499141	0.143986
563.712323	0.144222
563.925487	0.144266
564.138632	0.144641
564.351760	0.144683
564.564869	0.144838
564.777960	0.144794
564.991032	0.144677
565.204087	0.144562
565.417123	0.144947
565.630141	0.145085
565.843140	0.145571
566.056122	0.145673
566.269085	0.146089
566.482030	0.146231
566.694957	0.146741
566.907866	0.147258
567.120756	0.147615
567.333628	0.147470
567.546482	0.147865
567.759318	0.147949
567.972135	0.147717
568.184935	0.147279
568.397716	0.147392
568.610478	0.147059
568.823223	0.146723
569.035949	0.146472
569.248657	0.146335
569.461347	0.145954
569.674019	0.145647
569.886672	0.145674
570.099308	0.146128
570.311925	0.145596
570.524523	0.145678
570.737104	0.145609
570.949666	0.145799
571.162210	0.146021
571.374736	0.145766
571.587244	0.145546
571.799733	0.145693
572.012205	0.145321
572.224658	0.145381
572.437092	0.145535
572.649509	0.145965
572.861907	0.146195
573.074287	0.146051
573.286649	0.146408
573.498993	0.147429
573.711318	0.147522
573.923625	0.147723
574.135914	0.148218
574.348185	0.148399
574.560438	0.147854
574.772672	0.147751
574.984888	0.147666
575.197086	0.147520
575.409266	0.146604
575.621427	0.146632
575.833570	0.146790
576.045695	0.146226
576.257802	0.145658
576.469890	0.145757
576.681961	0.145648
576.894013	0.145578
577.106046	0.145634
577.318062	0.145837
577.530059	0.145804
577.742039	0.145596
577.954000	0.145881
578.165942	0.145774
578.377867	0.145864
578.589773	0.145889
578.801661	0.145875
579.013531	0.145796
579.225382	0.145733
579.437216	0.145383
579.649031	0.145766
579.860828	0.145962
580.072606	0.146305
580.284367	0.146296
580.496109	0.146332
580.707833	0.146616
580.919539	0.147081
581.131227	0.146765
581.342896	0.146923
581.554547	0.146536
581.766180	0.146215
581.977795	0.146781
582.189391	0.146963
582.400969	0.147365
582.612529	0.147491
582.824071	0.147114
583.035595	0.148095
583.247100	0.148416
583.458587	0.148956
583.670056	0.149489
583.881506	0.149411
584.092939	0.149573
584.304353	0.149396
584.515749	0.149363
584.727127	0.149324
584.938486	0.148907
585.149828	0.148941
585.361151	0.148522
585.572456	0.148479
585.783742	0.148068
585.995011	0.148199
586.206261	0.148177
586.417493	0.148198
586.628706	0.148358
586.839902	0.148403
587.051079	0.148352
587.262238	0.148614
587.473379	0.148571
587.684502	0.148981
587.895606	0.148746
588.106692	0.148693
588.317760	0.148819
588.528810	0.148846
588.739841	0.149146
588.950855	0.149206
589.161850	0.149207
589.372827	0.149350
589.583785	0.149458
589.794726	0.149989
590.005648	0.150629
590.216552	0.150784
590.427437	0.151095
590.638305	0.150554
590.849154	0.150476
591.059985	0.150350
591.270798	0.150422
591.481592	0.150280
591.692369	0.150192
591.903127	0.150060
592.113867	0.149853
592.324588	0.149442
592.535292	0.149624
592.745977	0.149996
592.956644	0.150413
593.167293	0.150716
593.377923	0.150934
593.588536	0.150834
593.799130	0.150615
594.009706	0.150703
594.220263	0.151163
594.430803	0.151570
594.641324	0.151615
594.851827	0.151518
595.062312	0.151455
595.272778	0.151463
595.483227	0.151664
595.693657	0.151775
595.904069	0.152035
596.114462	0.152596
596.324838	0.152821
596.535195	0.152872
596.745534	0.153107
596.955855	0.153257
597.166157	0.153444
597.376441	0.153484
597.586707	0.153872
597.796955	0.154229
598.007185	0.153738
598.217396	0.153538
598.427589	0.153578
598.637764	0.153949
598.847921	0.153419
599.058060	0.153165
599.268180	0.153168
599.478282	0.153006
599.688366	0.152375
599.898431	0.152671
600.108479	0.152675
600.318508	0.152695
600.528519	0.152182
600.738511	0.152557
600.948486	0.152741
601.158442	0.152851
601.368380	0.152869
601.578300	0.153062
601.788202	0.152774
601.998085	0.152652
602.207950	0.152899
602.417797	0.152818
602.627626	0.152801
602.837436	0.153035
603.047228	0.153256
603.257002	0.153497
603.466758	0.153748
603.676496	0.154037
603.886215	0.154609
604.095916	0.154591
604.305599	0.155360
604.515264	0.155706
604.724910	0.155545
604.934538	0.155024
605.144148	0.155175
605.353740	0.155030
605.563314	0.154707
605.772869	0.154436
605.982406	0.154088
606.191925	0.153679
606.401425	0.153610
606.610908	0.153725
606.820372	0.154190
607.029818	0.153714
607.239246	0.153655
607.448655	0.154007
607.658047	0.153905
607.867420	0.154562
608.076775	0.154786
608.286111	0.154963
608.495430	0.155272
608.704730	0.155206
608.914012	0.155274
609.123275	0.155654
609.332521	0.155862
609.541748	0.156200
609.750957	0.155984
609.960148	0.155801
610.169321	0.155793
610.378475	0.155926
610.587611	0.156025
610.796729	0.156702
611.005829	0.156770
611.214910	0.156472
611.423974	0.156198
611.633019	0.155907
611.842045	0.156186
612.051054	0.156005
612.260044	0.155958
612.469017	0.155943
612.677970	0.155655
612.886906	0.155720
613.095824	0.156196
613.304723	0.156739
613.513604	0.157110
613.722467	0.156965
613.931311	0.157196
614.140138	0.157182
614.348946	0.157437
614.557736	0.157712
614.766507	0.157825
614.975261	0.157834
615.183996	0.157877
615.392713	0.157903
615.601412	0.157903
615.810092	0.157797
616.018754	0.157945
616.227399	0.157942
616.436024	0.157933
616.644632	0.157854
616.853222	0.158018
617.061793	0.158065
617.270346	0.158600
617.478880	0.158836
617.687397	0.158730
617.895895	0.158727
618.104375	0.158591
618.312837	0.158361
618.521281	0.158674
618.729706	0.158677
618.938113	0.158740
619.146502	0.158362
619.354873	0.158598
619.563226	0.158868
619.771560	0.159084
619.979876	0.159325
620.188174	0.159721
620.396453	0.159350
620.604715	0.159244
620.812958	0.158964
621.021183	0.158835
621.229390	0.158416
621.437578	0.158201
621.645748	0.157835
621.853900	0.157589
622.062034	0.157580
622.270150	0.157982
622.478247	0.157735
622.686326	0.158028
622.894387	0.158155
623.102430	0.158551
623.310454	0.158949
623.518461	0.159075
623.726449	0.159079
623.934418	0.158874
624.142370	0.158512
624.350303	0.158745
624.558218	0.158742
624.766115	0.158847
624.973994	0.159077
625.181855	0.159334
625.389697	0.159607
625.597521	0.159911
625.805327	0.160272
626.013114	0.161032
626.220883	0.161146
626.428634	0.161037
626.636367	0.161189
626.844082	0.161106
627.051778	0.161363
627.259457	0.161420
627.467117	0.161555
627.674758	0.161570
627.882382	0.161346
628.089987	0.161798
628.297574	0.161926
628.505143	0.162331
628.712694	0.162635
628.920226	0.162305
629.127740	0.162265
629.335236	0.162364
629.542714	0.162094
629.750174	0.162146
629.957615	0.161930
630.165038	0.162034
630.372443	0.161992
630.579829	0.161983
630.787198	0.161925
630.994548	0.161843
631.201880	0.162028
631.409194	0.162169
631.616489	0.162022
631.823766	0.162153
632.031025	0.162212
632.238266	0.161862
632.445489	0.161473
632.652693	0.161566
632.859879	0.161453
633.067047	0.161234
633.274197	0.161636
633.481329	0.162074
633.688442	0.161897
633.895537	0.162155
634.102614	0.162548
634.309672	0.162664
634.516713	0.162941
634.723735	0.163154
634.930739	0.163275
635.137724	0.163101
635.344692	0.162982
635.551641	0.163379
635.758572	0.163293
635.965485	0.163309
636.172379	0.163449
636.379256	0.163260
636.586114	0.163464
636.792954	0.163634
636.999775	0.163631
637.206579	0.163673
637.413364	0.163477
637.620131	0.163516
637.826880	0.163378
638.033610	0.163605
638.240323	0.164139
638.447017	0.164276
638.653692	0.164453
638.860350	0.164712
639.066990	0.164799
639.273611	0.165126
639.480214	0.165167
639.686798	0.165409
639.893365	0.165373
640.099913	0.165362
640.306443	0.165312
640.512955	0.165516
640.719449	0.165786
640.925924	0.165865
641.132381	0.165997
641.338820	0.166200
641.545241	0.166371
641.751644	0.166373
641.958028	0.166121
642.164394	0.166229
642.370742	0.166000
642.577071	0.165895
642.783383	0.165806
642.989676	0.165693
643.195951	0.165668
643.402207	0.165343
643.608446	0.165695
643.814666	0.165675
644.020868	0.165893
644.227052	0.165832
644.433218	0.166088
644.639365	0.166305
644.845494	0.166253
645.051605	0.166449
645.257698	0.166742
645.463772	0.166400
645.669828	0.166691
645.875866	0.166599
646.081886	0.166609
646.287888	0.166613
646.493871	0.166523
646.699836	0.166585
646.905783	0.166505
647.111712	0.166575
647.317622	0.166884
647.523514	0.166902
647.729388	0.166782
647.935244	0.167072
648.141082	0.166743
648.346901	0.166980
648.552702	0.167238
648.758485	0.167540
648.964250	0.167779
649.169996	0.168190
649.375724	0.168447
649.581434	0.168955
649.787126	0.169103
649.992800	0.169311
650.198455	0.169485
650.404092	0.169529
650.609711	0.169541
650.815311	0.169820
651.020894	0.169732
651.226458	0.169794
651.432004	0.169847
651.637532	0.169942
651.843041	0.170163
652.048532	0.170201
652.254006	0.170268
652.459460	0.170464
652.664897	0.170034
652.870315	0.170016
653.075716	0.169858
653.281097	0.169641
653.486461	0.169862
653.691807	0.169998
653.897134	0.170141
654.102443	0.169962
654.307734	0.170015
654.513006	0.170088
654.718261	0.170303
654.923497	0.170606
655.128715	0.170884
655.333915	0.170701
655.539096	0.170818
655.744259	0.170702
655.949404	0.170997
656.154531	0.170872
656.359640	0.171335
656.564730	0.171056
656.769802	0.170822
656.974856	0.170980
657.179892	0.171115
657.384909	0.170931
657.589908	0.171107
657.794889	0.171426
657.999852	0.171488
658.204797	0.171528
658.409723	0.171910
658.614631	0.172045
658.819521	0.172068
659.024393	0.172348
659.229246	0.172782
659.434081	0.172865
659.638898	0.172954
659.843697	0.173368
660.048478	0.173235
660.253240	0.173212
660.457984	0.173270
660.662710	0.173160
660.867417	0.173467
661.072107	0.173491
661.276778	0.173718
661.481431	0.173786
661.686066	0.173835
661.890682	0.174064
662.095281	0.174149
662.299861	0.174521
662.504422	0.174937
662.708966	0.174655
662.913491	0.174573
663.117999	0.174880
663.322488	0.174827
663.526958	0.174934
663.731411	0.175081
663.935845	0.175362
664.140261	0.175301
664.344659	0.175132
664.549038	0.175380
664.753400	0.175516
664.957743	0.175415
665.162068	0.175632
665.366375	0.175542
665.570663	0.175686
665.774933	0.175656
665.979185	0.175885
666.183419	0.176275
666.387635	0.176419
666.591832	0.176653
666.796011	0.176534
667.000172	0.176594
667.204315	0.176711
667.408439	0.176640
667.612545	0.176682
667.816634	0.176809
668.020703	0.176628
668.224755	0.176461
668.428788	0.176325
668.632803	0.176584
668.836800	0.176605
669.040779	0.176510
669.244739	0.176626
669.448681	0.176603
669.652605	0.176557
669.856511	0.176585
670.060399	0.176544
670.264268	0.176456
670.468119	0.176060
670.671952	0.175713
670.875767	0.175822
671.079563	0.175839
671.283341	0.175955
671.487101	0.175955
671.690843	0.176318
671.894567	0.176415
672.098272	0.176643
672.301959	0.176705
672.505628	0.177266
672.709278	0.177616
672.912911	0.177767
673.116525	0.177656
673.320121	0.177848
673.523699	0.177871
673.727258	0.178041
673.930799	0.178035
674.134322	0.178455
674.337827	0.178587
674.541314	0.178559
674.744782	0.178826
674.948232	0.179094
675.151664	0.178720
675.355078	0.178505
675.558474	0.178273
675.761851	0.178487
675.965210	0.178492
676.168551	0.178315
676.371873	0.178413
676.575178	0.178111
676.778464	0.178112
676.981732	0.178611
677.184981	0.178802
677.388213	0.179186
677.591426	0.179442
677.794621	0.179613
677.997798	0.179588
678.200956	0.179542
678.404097	0.179814
678.607219	0.179968
678.810323	0.180172
679.013408	0.180326
679.216476	0.180403
679.419525	0.180278
679.622556	0.180456
679.825569	0.180910
680.028563	0.181180
680.231540	0.181309
680.434498	0.181377
680.637438	0.181446
680.840359	0.181537
681.043263	0.181523
681.246148	0.181610
681.449015	0.181710
681.651864	0.181585
681.854694	0.181378
682.057506	0.181320
682.260301	0.181498
682.463076	0.181409
682.665834	0.181496
682.868573	0.181901
683.071295	0.181894
683.273998	0.181996
683.476682	0.182231
683.679349	0.182688
683.881997	0.182773
684.084627	0.183084
684.287239	0.183253
684.489833	0.183329
684.692408	0.183531
684.894965	0.183880
685.097504	0.183841
685.300025	0.183968
685.502527	0.183955
685.705012	0.184370
685.907478	0.184329
686.109925	0.184385
686.312355	0.184364
686.514766	0.184080
686.717159	0.184128
686.919534	0.184077
687.121891	0.183927
687.324230	0.184122
687.526550	0.183993
687.728852	0.183818
687.931136	0.183947
688.133401	0.184232
688.335649	0.184574
688.537878	0.184566
688.740089	0.185007
688.942281	0.185300
689.144456	0.184922
689.346612	0.185052
689.548750	0.185241
689.750870	0.185377
689.952971	0.185111
690.155055	0.184870
690.357120	0.184968
690.559167	0.184668
690.761195	0.184347
690.963206	0.184522
691.165198	0.184312
691.367172	0.184320
691.569128	0.184012
691.771065	0.184158
691.972984	0.184229
692.174885	0.184162
692.376768	0.184277
692.578633	0.184516
692.780479	0.184599
692.982308	0.184780
693.184118	0.184964
693.385909	0.185177
