sample name	sample
index	168
start time	 02-18-2021  10:19:12 AM


Wavelength (nm)	Absorbance
494.344910	0.109212
494.563924	0.109212
494.782919	0.109212
495.001897	0.095417
495.220856	0.071977
495.439797	0.032817
495.658719	0.014752
495.877624	0.023485
496.096510	0.000438
496.315378	-0.011881
496.534227	0.006268
496.753059	-0.004270
496.971872	0.017626
497.190667	0.110630
497.409444	0.136472
497.628203	0.144497
497.846943	0.146730
498.065665	0.151001
498.284369	0.151664
498.503055	0.151606
498.721723	0.151837
498.940372	0.152754
499.159003	0.152602
499.377616	0.153313
499.596210	0.152880
499.814787	0.152075
500.033345	0.151355
500.251885	0.152152
500.470406	0.152599
500.688910	0.153270
500.907395	0.151836
501.125862	0.151897
501.344311	0.152004
501.562742	0.153430
501.781154	0.154276
501.999548	0.153397
502.217924	0.154100
502.436282	0.153892
502.654621	0.153188
502.872942	0.153551
503.091245	0.154764
503.309530	0.154511
503.527797	0.153793
503.746045	0.155165
503.964275	0.156141
504.182487	0.156021
504.400681	0.156504
504.618856	0.156337
504.837013	0.156757
505.055152	0.156194
505.273273	0.156967
505.491376	0.157096
505.709460	0.155055
505.927526	0.154588
506.145574	0.153710
506.363604	0.153821
506.581615	0.153694
506.799608	0.154856
507.017583	0.155239
507.235540	0.154866
507.453478	0.154844
507.671399	0.155930
507.889301	0.157212
508.107185	0.157805
508.325050	0.157181
508.542898	0.157991
508.760727	0.157785
508.978538	0.157314
509.196330	0.157991
509.414105	0.157252
509.631861	0.156957
509.849599	0.157591
510.067319	0.158060
510.285021	0.158638
510.502704	0.158948
510.720369	0.158923
510.938016	0.159854
511.155645	0.159818
511.373255	0.160748
511.590848	0.161472
511.808422	0.161319
512.025977	0.161519
512.243515	0.162015
512.461034	0.161951
512.678536	0.161547
512.896018	0.162253
513.113483	0.162228
513.330930	0.162076
513.548358	0.160918
513.765768	0.160483
513.983160	0.159701
514.200533	0.160018
514.417889	0.160265
514.635226	0.160403
514.852545	0.159919
515.069845	0.159970
515.287128	0.160138
515.504392	0.161162
515.721638	0.162072
515.938866	0.162915
516.156075	0.163142
516.373267	0.163679
516.590440	0.163989
516.807594	0.164388
517.024731	0.164773
517.241850	0.165304
517.458950	0.165835
517.676032	0.165688
517.893095	0.165139
518.110141	0.164976
518.327168	0.165372
518.544177	0.165978
518.761168	0.164955
518.978141	0.164861
519.195095	0.165328
519.412031	0.165034
519.628949	0.164747
519.845849	0.165772
520.062731	0.165693
520.279594	0.165214
520.496439	0.165053
520.713266	0.166138
520.930074	0.166877
521.146865	0.166573
521.363637	0.166752
521.580391	0.167236
521.797127	0.167415
522.013844	0.167227
522.230543	0.167194
522.447224	0.166822
522.663887	0.167075
522.880532	0.167267
523.097158	0.167978
523.313766	0.168743
523.530356	0.168411
523.746928	0.168244
523.963481	0.169239
524.180017	0.169959
524.396534	0.170388
524.613032	0.170029
524.829513	0.169736
525.045975	0.170064
525.262420	0.169673
525.478845	0.170627
525.695253	0.170936
525.911643	0.170201
526.128014	0.170647
526.344367	0.171710
526.560702	0.172423
526.777018	0.173382
526.993316	0.172817
527.209597	0.173840
527.425858	0.174019
527.642102	0.174587
527.858328	0.175758
528.074535	0.175895
528.290724	0.175900
528.506894	0.175566
528.723047	0.175264
528.939181	0.176771
529.155297	0.176411
529.371395	0.176873
529.587475	0.177205
529.803536	0.177310
530.019579	0.177161
530.235604	0.176622
530.451611	0.177294
530.667600	0.177557
530.883570	0.177302
531.099522	0.178195
531.315456	0.177974
531.531372	0.177841
531.747269	0.177738
531.963148	0.178462
532.179009	0.179003
532.394852	0.179784
532.610676	0.180179
532.826482	0.180401
533.042271	0.179824
533.258040	0.180507
533.473792	0.180570
533.689525	0.180967
533.905240	0.181319
534.120937	0.181790
534.336616	0.181748
534.552277	0.182332
534.767919	0.182413
534.983543	0.183120
535.199149	0.183097
535.414736	0.183502
535.630306	0.183989
535.845857	0.184653
536.061390	0.184756
536.276904	0.185228
536.492401	0.185282
536.707879	0.185165
536.923339	0.185819
537.138781	0.186054
537.354204	0.186510
537.569610	0.186417
537.784997	0.185942
538.000366	0.186491
538.215716	0.186213
538.431049	0.186323
538.646363	0.187479
538.861659	0.187112
539.076937	0.187706
539.292196	0.187653
539.507438	0.187781
539.722661	0.188308
539.937866	0.188587
540.153052	0.188931
540.368221	0.189334
540.583371	0.188933
540.798503	0.188856
541.013617	0.188867
541.228712	0.189483
541.443789	0.190385
541.658848	0.190255
541.873889	0.190319
542.088912	0.190453
542.303916	0.190633
542.518902	0.191267
542.733870	0.192116
542.948820	0.192472
543.163752	0.192850
543.378665	0.193175
543.593560	0.193587
543.808437	0.194073
544.023295	0.194405
544.238136	0.194566
544.452958	0.194597
544.667762	0.194875
544.882548	0.194739
545.097315	0.195100
545.312064	0.195158
545.526795	0.195335
545.741508	0.195551
545.956203	0.195724
546.170879	0.195876
546.385537	0.196337
546.600177	0.196440
546.814799	0.197149
547.029402	0.197272
547.243988	0.197407
547.458555	0.197443
547.673103	0.197794
547.887634	0.198180
548.102146	0.198656
548.316640	0.198780
548.531116	0.198878
548.745574	0.198497
548.960013	0.198325
549.174435	0.198618
549.388838	0.199014
549.603222	0.199029
549.817589	0.199173
550.031937	0.198950
550.246267	0.198882
550.460579	0.199334
550.674873	0.200027
550.889148	0.200613
551.103405	0.200577
551.317644	0.200802
551.531865	0.200848
551.746068	0.200946
551.960252	0.201441
552.174418	0.202104
552.388566	0.202084
552.602696	0.202037
552.816807	0.202357
553.030900	0.202480
553.244975	0.202374
553.459032	0.202428
553.673070	0.202768
553.887091	0.202598
554.101093	0.202595
554.315077	0.203050
554.529042	0.203118
554.742990	0.202519
554.956919	0.202936
555.170830	0.203697
555.384722	0.203721
555.598597	0.203765
555.812453	0.204597
556.026291	0.204507
556.240111	0.204106
556.453913	0.204575
556.667696	0.205126
556.881461	0.204992
557.095208	0.204799
557.308937	0.205523
557.522647	0.205940
557.736339	0.205913
557.950013	0.206123
558.163669	0.206388
558.377307	0.206441
558.590926	0.206737
558.804527	0.207481
559.018110	0.207584
559.231675	0.207667
559.445221	0.208056
559.658749	0.208065
559.872259	0.208414
560.085751	0.208938
560.299225	0.208961
560.512680	0.209190
560.726117	0.209277
560.939536	0.209865
561.152937	0.210151
561.366319	0.210225
561.579683	0.210629
561.793029	0.210718
562.006357	0.210888
562.219667	0.211008
562.432958	0.211483
562.646231	0.211665
562.859486	0.212031
563.072723	0.211920
563.285941	0.211597
563.499141	0.211339
563.712323	0.211617
563.925487	0.211870
564.138632	0.212044
564.351760	0.211817
564.564869	0.211707
564.777960	0.211610
564.991032	0.211701
565.204087	0.211955
565.417123	0.212484
565.630141	0.212739
565.843140	0.212691
566.056122	0.212976
566.269085	0.212870
566.482030	0.213109
566.694957	0.213516
566.907866	0.214079
567.120756	0.214648
567.333628	0.214835
567.546482	0.214955
567.759318	0.214908
567.972135	0.215651
568.184935	0.216024
568.397716	0.215944
568.610478	0.215678
568.823223	0.215799
569.035949	0.216137
569.248657	0.215847
569.461347	0.215994
569.674019	0.216379
569.886672	0.216232
570.099308	0.216477
570.311925	0.217150
570.524523	0.217755
570.737104	0.217846
570.949666	0.217720
571.162210	0.218388
571.374736	0.218637
571.587244	0.218711
571.799733	0.219080
572.012205	0.219401
572.224658	0.219248
572.437092	0.219086
572.649509	0.219167
572.861907	0.219503
573.074287	0.219516
573.286649	0.219619
573.498993	0.220162
573.711318	0.219447
573.923625	0.219588
574.135914	0.220150
574.348185	0.220444
574.560438	0.220738
574.772672	0.220493
574.984888	0.221033
575.197086	0.221058
575.409266	0.221176
575.621427	0.221971
575.833570	0.221860
576.045695	0.222214
576.257802	0.222196
576.469890	0.222229
576.681961	0.222940
576.894013	0.223039
577.106046	0.223260
577.318062	0.223115
577.530059	0.223119
577.742039	0.223781
577.954000	0.223612
578.165942	0.223672
578.377867	0.224160
578.589773	0.223932
578.801661	0.223676
579.013531	0.224007
579.225382	0.224552
579.437216	0.224890
579.649031	0.224720
579.860828	0.224515
580.072606	0.224679
580.284367	0.224494
580.496109	0.224495
580.707833	0.225024
580.919539	0.225172
581.131227	0.225121
581.342896	0.225063
581.554547	0.225264
581.766180	0.225908
581.977795	0.226177
582.189391	0.226219
582.400969	0.226768
582.612529	0.226684
582.824071	0.226694
583.035595	0.227248
583.247100	0.227494
583.458587	0.227498
583.670056	0.227341
583.881506	0.227807
584.092939	0.228166
584.304353	0.228430
584.515749	0.228589
584.727127	0.228719
584.938486	0.228421
585.149828	0.228391
585.361151	0.228987
585.572456	0.229624
585.783742	0.229773
585.995011	0.230078
586.206261	0.229974
586.417493	0.230161
586.628706	0.230571
586.839902	0.230852
587.051079	0.230676
587.262238	0.230480
587.473379	0.229860
587.684502	0.229591
587.895606	0.229580
588.106692	0.229803
588.317760	0.229740
588.528810	0.229794
588.739841	0.229992
588.950855	0.230869
589.161850	0.230992
589.372827	0.231600
589.583785	0.231564
589.794726	0.231829
590.005648	0.232031
590.216552	0.232902
590.427437	0.233207
590.638305	0.233735
590.849154	0.233790
591.059985	0.234204
591.270798	0.234738
591.481592	0.235522
591.692369	0.235677
591.903127	0.235794
592.113867	0.235712
592.324588	0.235814
592.535292	0.235571
592.745977	0.235960
592.956644	0.236387
593.167293	0.236096
593.377923	0.236070
593.588536	0.235961
593.799130	0.236197
594.009706	0.236324
594.220263	0.236576
594.430803	0.236669
594.641324	0.236586
594.851827	0.236350
595.062312	0.236759
595.272778	0.236928
595.483227	0.237186
595.693657	0.237062
595.904069	0.237008
596.114462	0.236948
596.324838	0.237299
596.535195	0.237583
596.745534	0.237780
596.955855	0.237972
597.166157	0.238071
597.376441	0.238638
597.586707	0.238918
597.796955	0.239182
598.007185	0.239502
598.217396	0.239575
598.427589	0.239644
598.637764	0.239617
598.847921	0.239540
599.058060	0.239519
599.268180	0.239549
599.478282	0.239733
599.688366	0.239963
599.898431	0.239863
600.108479	0.239757
600.318508	0.239681
600.528519	0.239909
600.738511	0.240336
600.948486	0.240568
601.158442	0.240779
601.368380	0.240655
601.578300	0.240737
601.788202	0.240822
601.998085	0.241411
602.207950	0.241561
602.417797	0.241779
602.627626	0.242126
602.837436	0.242167
603.047228	0.242153
603.257002	0.242876
603.466758	0.242886
603.676496	0.243044
603.886215	0.243008
604.095916	0.243140
604.305599	0.243149
604.515264	0.242469
604.724910	0.242910
604.934538	0.242987
605.144148	0.242650
605.353740	0.242724
605.563314	0.243127
605.772869	0.243212
605.982406	0.243390
606.191925	0.243841
606.401425	0.244350
606.610908	0.244636
606.820372	0.245103
607.029818	0.245287
607.239246	0.245697
607.448655	0.245500
607.658047	0.245761
607.867420	0.246255
608.076775	0.246620
608.286111	0.246675
608.495430	0.246727
608.704730	0.246524
608.914012	0.246769
609.123275	0.246635
609.332521	0.246805
609.541748	0.246936
609.750957	0.247017
609.960148	0.246915
610.169321	0.247213
610.378475	0.247100
610.587611	0.247281
610.796729	0.247319
611.005829	0.247659
611.214910	0.247997
611.423974	0.248128
611.633019	0.248185
611.842045	0.248218
612.051054	0.248351
612.260044	0.248668
612.469017	0.248737
612.677970	0.249432
612.886906	0.249592
613.095824	0.249704
613.304723	0.249965
613.513604	0.250044
613.722467	0.250102
613.931311	0.250311
614.140138	0.250430
614.348946	0.250784
614.557736	0.250463
614.766507	0.250589
614.975261	0.250936
615.183996	0.250852
615.392713	0.250981
615.601412	0.251235
615.810092	0.251340
616.018754	0.251386
616.227399	0.251411
616.436024	0.251601
616.644632	0.251640
616.853222	0.251836
617.061793	0.251920
617.270346	0.251921
617.478880	0.252037
617.687397	0.251808
617.895895	0.252007
618.104375	0.251966
618.312837	0.252009
618.521281	0.252171
618.729706	0.252239
618.938113	0.252475
619.146502	0.253043
619.354873	0.253124
619.563226	0.253441
619.771560	0.253723
619.979876	0.254000
620.188174	0.254243
620.396453	0.254145
620.604715	0.253937
620.812958	0.253972
621.021183	0.253840
621.229390	0.254120
621.437578	0.254356
621.645748	0.254445
621.853900	0.254642
622.062034	0.254977
622.270150	0.255383
622.478247	0.255706
622.686326	0.255955
622.894387	0.256279
623.102430	0.256171
623.310454	0.256175
623.518461	0.256223
623.726449	0.256185
623.934418	0.256435
624.142370	0.256428
624.350303	0.256522
624.558218	0.256490
624.766115	0.256515
624.973994	0.256729
625.181855	0.256855
625.389697	0.257134
625.597521	0.257425
625.805327	0.257311
626.013114	0.257643
626.220883	0.257989
626.428634	0.258073
626.636367	0.258156
626.844082	0.258479
627.051778	0.258795
627.259457	0.258773
627.467117	0.258909
627.674758	0.259029
627.882382	0.258964
628.089987	0.258903
628.297574	0.259252
628.505143	0.259309
628.712694	0.259447
628.920226	0.259212
629.127740	0.259472
629.335236	0.259576
629.542714	0.259750
629.750174	0.259837
629.957615	0.259875
630.165038	0.259935
630.372443	0.260205
630.579829	0.260229
630.787198	0.260764
630.994548	0.260808
631.201880	0.260874
631.409194	0.261054
631.616489	0.261383
631.823766	0.261599
632.031025	0.261909
632.238266	0.261934
632.445489	0.262034
632.652693	0.261951
632.859879	0.262110
633.067047	0.262557
633.274197	0.262773
633.481329	0.262888
633.688442	0.263093
633.895537	0.263183
634.102614	0.263330
634.309672	0.263259
634.516713	0.263606
634.723735	0.263585
634.930739	0.263721
635.137724	0.263723
635.344692	0.263549
635.551641	0.263635
635.758572	0.263734
635.965485	0.263962
636.172379	0.264364
636.379256	0.264569
636.586114	0.264557
636.792954	0.264390
636.999775	0.264245
637.206579	0.264690
637.413364	0.265104
637.620131	0.265101
637.826880	0.265164
638.033610	0.265441
638.240323	0.265529
638.447017	0.265971
638.653692	0.266345
638.860350	0.266782
639.066990	0.267190
639.273611	0.267099
639.480214	0.267373
639.686798	0.267484
639.893365	0.267561
640.099913	0.267842
640.306443	0.268011
640.512955	0.268116
640.719449	0.267986
640.925924	0.267828
641.132381	0.268174
641.338820	0.268294
641.545241	0.268497
641.751644	0.268872
641.958028	0.268944
642.164394	0.269117
642.370742	0.269345
642.577071	0.269647
642.783383	0.269880
642.989676	0.269932
643.195951	0.270073
643.402207	0.270129
643.608446	0.270156
643.814666	0.270203
644.020868	0.270336
644.227052	0.270134
644.433218	0.270257
644.639365	0.270587
644.845494	0.270644
645.051605	0.270934
645.257698	0.271325
645.463772	0.271545
645.669828	0.271721
645.875866	0.271853
646.081886	0.272183
646.287888	0.272516
646.493871	0.272755
646.699836	0.273001
646.905783	0.273310
647.111712	0.273342
647.317622	0.273414
647.523514	0.273358
647.729388	0.273494
647.935244	0.273927
648.141082	0.273816
648.346901	0.273947
648.552702	0.274224
648.758485	0.274125
648.964250	0.274257
649.169996	0.274239
649.375724	0.274610
649.581434	0.274837
649.787126	0.274639
649.992800	0.275321
650.198455	0.275419
650.404092	0.275395
650.609711	0.275494
650.815311	0.275604
651.020894	0.275886
651.226458	0.276092
651.432004	0.276267
651.637532	0.276586
651.843041	0.276611
652.048532	0.276473
652.254006	0.276437
652.459460	0.276896
652.664897	0.277219
652.870315	0.277552
653.075716	0.277666
653.281097	0.277722
653.486461	0.278053
653.691807	0.278098
653.897134	0.278452
654.102443	0.279002
654.307734	0.278868
654.513006	0.279281
654.718261	0.279216
654.923497	0.279204
655.128715	0.279515
655.333915	0.279696
655.539096	0.279777
655.744259	0.280165
655.949404	0.280405
656.154531	0.280454
656.359640	0.280206
656.564730	0.280196
656.769802	0.280464
656.974856	0.280441
657.179892	0.280737
657.384909	0.280920
657.589908	0.280818
657.794889	0.280973
657.999852	0.281368
658.204797	0.281572
658.409723	0.281947
658.614631	0.282223
658.819521	0.282709
659.024393	0.282404
659.229246	0.282846
659.434081	0.282989
659.638898	0.283141
659.843697	0.283366
660.048478	0.283816
660.253240	0.283921
660.457984	0.284271
660.662710	0.284335
660.867417	0.284752
661.072107	0.284906
661.276778	0.285261
661.481431	0.285399
661.686066	0.285605
661.890682	0.285996
662.095281	0.286014
662.299861	0.286061
662.504422	0.286407
662.708966	0.286584
662.913491	0.286842
663.117999	0.287047
663.322488	0.287374
663.526958	0.287574
663.731411	0.287352
663.935845	0.287732
664.140261	0.287944
664.344659	0.287949
664.549038	0.288044
664.753400	0.287981
664.957743	0.288251
665.162068	0.288091
665.366375	0.288445
665.570663	0.288698
665.774933	0.289103
665.979185	0.289456
666.183419	0.289913
666.387635	0.289895
666.591832	0.290070
666.796011	0.290259
667.000172	0.290420
667.204315	0.290575
667.408439	0.290760
667.612545	0.290898
667.816634	0.290823
668.020703	0.290978
668.224755	0.291406
668.428788	0.291804
668.632803	0.291983
668.836800	0.292323
669.040779	0.292338
669.244739	0.292527
669.448681	0.292690
669.652605	0.292921
669.856511	0.292702
670.060399	0.293020
670.264268	0.293019
670.468119	0.293019
670.671952	0.293295
670.875767	0.293511
671.079563	0.293826
671.283341	0.294122
671.487101	0.294633
671.690843	0.295010
671.894567	0.295118
672.098272	0.295262
672.301959	0.295570
672.505628	0.295760
672.709278	0.296017
672.912911	0.296207
673.116525	0.296114
673.320121	0.296030
673.523699	0.296562
673.727258	0.296771
673.930799	0.297272
674.134322	0.297399
674.337827	0.297481
674.541314	0.297578
674.744782	0.297894
674.948232	0.298476
675.151664	0.298981
675.355078	0.299043
675.558474	0.299246
675.761851	0.299083
675.965210	0.299264
676.168551	0.299350
676.371873	0.299631
676.575178	0.299725
676.778464	0.299592
676.981732	0.299505
677.184981	0.299347
677.388213	0.299460
677.591426	0.299934
677.794621	0.300334
677.997798	0.300631
678.200956	0.300802
678.404097	0.301049
678.607219	0.301343
678.810323	0.301664
679.013408	0.302070
679.216476	0.302401
679.419525	0.302637
679.622556	0.302756
679.825569	0.302913
680.028563	0.303104
680.231540	0.303371
680.434498	0.303700
680.637438	0.303922
680.840359	0.304049
681.043263	0.304254
681.246148	0.304261
681.449015	0.304160
681.651864	0.304380
681.854694	0.304483
682.057506	0.304337
682.260301	0.304470
682.463076	0.304394
682.665834	0.304691
682.868573	0.305021
683.071295	0.305351
683.273998	0.305873
683.476682	0.306189
683.679349	0.306519
683.881997	0.306878
684.084627	0.306956
684.287239	0.307186
684.489833	0.307086
684.692408	0.307065
684.894965	0.307005
685.097504	0.307192
685.300025	0.307429
685.502527	0.307480
685.705012	0.307506
685.907478	0.307742
686.109925	0.307926
686.312355	0.308211
686.514766	0.308397
686.717159	0.308834
686.919534	0.308817
687.121891	0.308890
687.324230	0.309093
687.526550	0.309362
687.728852	0.309386
687.931136	0.309683
688.133401	0.309879
688.335649	0.309856
688.537878	0.309815
688.740089	0.310126
688.942281	0.310457
689.144456	0.310521
689.346612	0.310597
689.548750	0.310920
689.750870	0.311046
689.952971	0.311199
690.155055	0.311393
690.357120	0.311760
690.559167	0.311816
690.761195	0.311875
690.963206	0.312172
691.165198	0.312464
691.367172	0.312666
691.569128	0.312678
691.771065	0.312889
691.972984	0.313139
692.174885	0.313306
692.376768	0.313470
692.578633	0.313521
692.780479	0.313741
692.982308	0.313831
693.184118	0.314135
693.385909	0.314360
