sample name	sample
index	1304
start time	 04-29-2021  03:55:24 PM
880	0.592685
Peak Time (s)	102.037
Peak Height 	0.5927
calc peak height	100,103
Baseline Time (s)	10.536
Baseline Value 	-0.003264
subtract baseline	10,4
Abs	0.354832
Peak Time (s)	102.037
Peak Height 	0.3548
calc peak height	100,103
Baseline Time (s)	11.036
Baseline Value 	0.002754
subtract baseline	10,3
PK_550	0.201586
Peak Time (s)	102.537
Peak Height 	0.2016
calc peak height	100,103
Baseline Time (s)	10.536
Baseline Value 	9.9195E-4
subtract baseline	10,2
PK_880	0.339221
Peak Time (s)	101.535
Peak Height 	0.3392
calc peak height	100,103
Baseline Time (s)	9.037
Baseline Value 	0.001521
subtract baseline	10,1


Time (s)	A880-A510	A880-A775	A880-A975	A880	I510	I775	I975	I880	
0.035000	-0.002102	-0.001381	-0.002216	0.000907	6330.779367	41158.539883	3879.874687	21010.896024
0.538000	-0.004609	-0.001734	-0.005659	0.004608	6283.476308	40804.356796	3865.034731	20858.022061
1.035500	-0.001193	-0.000001	-0.002241	0.003801	6315.583797	41025.900350	3873.782114	20891.263228
1.536000	-0.003788	-0.000970	-0.003346	0.000722	6319.283502	41210.949714	3877.899527	21018.591550
2.036500	-0.002254	-0.000763	-0.002356	0.000946	6329.319001	41209.430037	3879.500305	21009.282712
2.536500	-0.001732	-0.000181	-0.003157	0.005672	6297.218775	40846.847184	3868.001403	20814.296167
3.037000	0.000013	-0.000723	0.002327	-0.001514	6365.776065	41429.753422	3894.577759	21111.613242
3.537000	0.000814	0.000414	-0.006283	0.001092	6351.807950	41300.113434	3871.012729	21003.241827
4.037500	0.000250	0.000879	0.000308	0.001826	6341.797798	41276.429176	3883.243249	20972.832084
4.535000	-0.000587	0.000268	-0.003602	0.000949	6342.104772	41299.837273	3876.887856	21009.139224
5.038500	0.000964	-0.000433	0.000073	0.000300	6359.088582	41295.270974	3885.959376	21036.082865
5.535500	-0.001239	-0.000903	0.006203	-0.000422	6347.648006	41317.450845	3900.521192	21066.097766
6.036000	-0.001616	-0.000761	-0.008560	-0.000629	6346.333493	41348.182737	3869.859217	21074.712435
6.536000	0.000159	-0.000082	0.002611	0.000477	6351.495886	41310.607138	3890.952677	21028.747699
7.036500	-0.001802	0.000109	-0.003694	0.000097	6339.314084	41360.987449	3878.476395	21044.536693
7.536500	-0.001748	-0.000292	-0.002864	-0.000154	6341.663110	41347.700855	3880.740591	21054.977527
8.037000	-0.001185	-0.000828	0.001014	-0.000044	6345.149469	41290.751331	3888.672782	21050.378923
8.537000	-0.000117	0.000382	0.001994	0.000617	6348.284930	41339.112470	3889.347700	21022.925204
9.037500	0.000000	-0.000655	-0.002751	-0.000199	6355.494463	41319.682844	3881.072145	21056.839008
9.534500	-0.001581	-0.000162	-0.001023	-0.000199	6343.292403	41363.124965	3884.701875	21056.831638
10.035500	0.001639	0.000176	0.002325	0.000512	6362.682059	41330.273960	3890.273112	21027.312283
10.535500	0.000420	0.000000	0.003313	0.000000	6357.206070	41359.896591	3893.454371	21048.563825
11.036000	-0.000079	0.000123	0.000000	0.000034	6353.082243	41367.707761	3886.367273	21047.138758
11.536000	0.000672	-0.000520	-0.005472	-0.000337	6361.758565	41343.699221	3875.669518	21062.570631
12.036500	0.000275	0.000536	0.002847	0.000665	6350.941375	41348.515827	3891.055013	21020.949990
12.534000	-0.000118	-0.000770	-0.000132	-0.000390	6356.059300	41326.335040	3886.982907	21064.765526
13.037000	0.000720	-0.000225	-0.002181	-0.002396	6378.125560	41552.014060	3886.893343	21148.454521
13.534500	0.000551	-0.000196	0.000509	-0.000283	6360.405614	41367.581253	3888.111923	21060.328994
14.045000	-0.001181	-0.001726	-0.000605	-0.001782	6358.604379	41364.853511	3888.926203	21122.809796
14.538000	-0.000247	-0.000332	-0.000733	0.001682	6339.083841	41182.654534	3881.360890	20978.792743
15.038000	-0.001482	-0.000316	-0.007272	0.000421	6339.285378	41294.963501	3870.353957	21031.089206
15.552000	0.001586	-0.000272	0.002301	-0.000602	6370.904910	41389.067003	3892.584112	21073.606521
16.036000	0.002935	0.000008	0.003854	0.000349	6373.999855	41329.756024	3893.862114	21034.051095
16.536000	0.001305	0.000258	0.000884	0.000438	6360.666589	41344.021031	3887.380803	21030.379273
17.037000	0.002824	0.000254	-0.003097	-0.000502	6379.760732	41426.659833	3880.981308	21069.444775
17.537500	0.001267	-0.001065	-0.000083	-0.003321	6389.601809	41559.467403	3893.295316	21187.155509
18.037000	-0.000700	-0.000400	0.000206	-0.003172	6373.118161	41605.290444	3893.594199	21180.914166
18.535000	0.002500	0.000493	0.001843	0.001597	6360.943573	41262.661157	3886.959840	20982.310881
19.035500	0.001578	-0.000295	0.003224	0.001055	6358.000657	41240.952621	3891.026989	21004.768177
19.535500	0.001613	0.000538	-0.004136	0.001521	6354.661733	41273.259506	3874.583174	20985.429792
20.035500	-0.000799	-0.000408	-0.003280	0.000720	6342.234074	41260.478048	3878.038597	21018.646053
20.536000	0.000120	-0.000459	-0.000842	0.000537	6350.729956	41272.068781	3883.533870	21026.234406
21.036000	0.000801	-0.000352	-0.003653	0.000739	6354.432675	41263.730043	3877.220255	21017.854152
21.536500	-0.000256	0.000445	0.000701	0.001133	6343.235485	41299.255945	3885.529617	21001.525995
22.036500	-0.001247	-0.000565	0.000590	0.000124	6343.372643	41299.088311	3887.422581	21043.399075
22.537500	0.000237	-0.000512	-0.002088	0.000341	6353.154182	41284.747205	3881.331505	21034.409238
23.037500	-0.002032	-0.000621	-0.002780	0.000582	6333.814182	41253.958312	3879.374902	21024.398075
23.537500	-0.000395	-0.000876	-0.002813	0.000494	6347.091864	41239.195455	3879.490235	21028.032985
24.037500	-0.002054	-0.000403	0.008046	0.000892	6331.267424	41245.808228	3901.656595	21011.518599
24.535000	0.000484	-0.000359	0.003170	0.000726	6352.085971	41264.325305	3891.610622	21018.428120
25.036000	0.000358	-0.000257	0.001356	0.000580	6352.243041	41286.147294	3888.079768	21024.488107
25.536000	0.001231	-0.000076	-0.002032	0.001107	6354.916137	41255.665691	3879.841482	21002.604115
26.036000	-0.000350	-0.000839	-0.002649	-0.000170	6352.564690	41300.901123	3881.223385	21055.619538
26.536500	-0.001323	-0.000056	-0.004265	0.000921	6336.656552	41273.730292	3875.564032	21010.301870
27.037500	-0.003152	-0.001069	-0.002564	0.000447	6326.259630	41226.394368	3880.110601	21030.002242
27.534500	0.000105	0.000239	0.000016	0.001718	6341.519381	41229.684339	3882.857076	20977.308774
28.035000	0.002203	-0.000218	0.002379	-0.002142	6387.703141	41530.034489	3896.026986	21137.813290
28.534000	-0.002122	-0.001111	-0.004622	-0.001028	6345.509410	41352.544890	3878.889698	21091.344348
29.069000	-0.000867	-0.000093	0.002061	-0.000048	6347.633924	41355.967632	3890.899486	21050.560035
29.535500	0.001794	-0.000428	-0.000647	-0.000579	6372.342794	41373.227497	3886.295061	21072.644996
30.036000	0.003616	0.000268	0.005876	0.000251	6380.056590	41361.407661	3898.382691	21038.117485
30.536000	0.001403	-0.000033	0.001738	0.000322	6362.323007	41328.617814	3889.432150	21035.192356
31.036500	-0.000206	-0.000245	-0.003401	-0.000678	6357.608453	41398.148331	3880.713015	21076.785203
31.537000	-0.000301	-0.000146	-0.000136	0.000632	6346.751193	41291.255570	3884.819618	21022.297543
32.037000	0.000531	-0.000592	0.002372	0.001363	6347.533971	41187.820544	3888.570377	20992.008275
32.539000	0.002568	0.000228	-0.000151	0.000587	6369.300271	41328.241896	3884.883102	21024.169160
33.035000	0.000162	-0.000306	0.001755	-0.000775	6361.205536	41401.358229	3891.794017	21080.823227
33.538000	-0.000279	0.000573	0.003425	0.000001	6351.793967	41410.389037	3893.690889	21048.522796
34.035500	0.002252	-0.000401	0.004897	-0.000299	6373.736063	41350.895556	3897.468261	21061.016243
34.534500	0.001125	0.000496	0.002079	0.000192	6361.168480	41386.672479	3890.427278	21040.567973
35.036500	0.000616	0.000225	-0.001720	0.002317	6340.834629	41175.692869	3877.961962	20952.484018
35.536000	-0.000428	-0.000016	0.003330	0.001756	6337.118027	41203.822026	3889.764686	20975.694438
36.037000	-0.001511	-0.000377	-0.004675	0.001053	6334.195023	41233.891566	3874.434189	21004.840192
36.537000	0.000080	-0.000024	-0.002215	0.001286	6344.649950	41244.471128	3879.083542	20995.194298
37.037500	-0.001347	-0.000043	-0.000470	0.001369	6333.028539	41235.497504	3882.568418	20991.750666
37.535000	0.001442	-0.000300	0.001691	0.001252	6355.424303	41223.194797	3887.365035	20996.575205
38.038000	-0.001441	-0.000698	-0.001233	0.000855	6336.255948	41223.090884	3882.044741	21013.040741
38.534500	-0.000220	-0.000085	-0.003313	0.001715	6339.030974	41201.348510	3875.892057	20977.392521
39.035000	-0.000172	-0.000752	0.002749	0.000702	6347.205503	41231.738871	3890.767629	21019.392057
39.535500	-0.000069	-0.000065	-0.000680	0.001537	6341.568147	41218.827682	3881.774639	20984.779028
40.035500	-0.001369	-0.000170	0.000598	0.001589	6331.178538	41205.005317	3884.352144	20982.643484
40.536500	0.001501	-0.000406	-0.003794	0.001939	6350.578618	41153.556046	3874.425100	20968.153163
41.037000	0.000299	-0.000309	-0.000189	0.001521	6344.525391	41198.774779	3882.838296	20985.437284
41.537000	0.001278	0.000147	0.001417	0.001939	6348.851101	41202.061198	3885.338027	20968.128921
42.034000	-0.001852	-0.000386	0.003652	0.001165	6330.717260	41223.274687	3891.701751	21000.198360
42.534500	-0.000366	0.000053	0.003856	0.001974	6335.916611	41190.735549	3890.417966	20966.689983
43.035000	0.001384	0.000532	0.001449	0.001855	6350.319175	41243.331306	3885.583186	20971.603952
43.535000	-0.002712	-0.000775	-0.003159	0.000729	6327.470977	41227.453128	3878.275270	21018.292338
44.036000	0.000203	0.000493	-0.000170	0.001892	6340.934533	41236.710275	3882.101391	20970.103081
44.536000	0.000493	-0.000011	-0.000663	0.001116	6349.145279	41260.563944	3882.693355	21002.225884
45.036000	0.001857	0.000396	0.003569	-0.003749	6397.560868	41727.457404	3902.008445	21205.092916
45.536500	0.001186	-0.000403	-0.001194	-0.000590	6367.710554	41376.463854	3885.167094	21073.122043
46.066500	-0.000549	0.000249	0.002449	-0.000133	6350.738553	41393.651759	3891.901603	21054.089728
46.536500	0.000572	0.000157	0.004010	0.001944	6343.369975	41202.586092	3890.808960	20967.938782
47.040500	0.000113	0.000313	0.000195	0.000073	6354.259795	41381.074850	3886.695678	21045.518732
47.537500	-0.000077	0.000799	-0.000054	0.000324	6350.861383	41401.852599	3885.643589	21035.107227
48.035000	-0.000246	0.000091	0.002049	-0.000497	6355.897290	41411.755490	3891.826483	21069.224376
48.535500	-0.000363	-0.000401	-0.003537	0.002424	6332.487714	41111.442236	3873.950861	20948.090379
49.035500	0.000852	0.000045	-0.000947	0.001810	6346.561464	41204.468191	3880.643591	20973.498795
49.595000	0.001582	0.000285	0.003695	-0.000161	6367.449628	41399.281926	3894.609244	21055.242178
50.036500	0.000030	0.000332	-0.000942	0.000075	6353.613730	41382.610035	3884.296990	21045.455446
50.536500	-0.000177	0.000191	-0.000918	0.000931	6345.400662	41294.647624	3882.546780	21009.886995
51.037000	0.003469	0.000160	-0.001602	-0.002329	6399.070988	41580.143803	3887.975332	21145.651609
51.537000	0.002631	0.000779	-0.003807	-0.000299	6376.678238	41455.142404	3879.069341	21061.010768
52.035000	0.001293	0.000148	0.002506	0.004291	6330.863263	40996.011793	3882.680738	20871.058253
52.535000	-0.005528	-0.026385	0.020608	0.420670	4255.527788	16727.520829	3334.952083	9848.233910
53.035500	-0.030469	-0.028299	-0.025180	0.072751	5643.941704	33404.661346	3701.485156	18264.068422
53.535500	-0.048686	-0.047361	-0.027283	-0.189921	7643.874446	56249.675098	4302.604521	30951.516205
54.036000	-0.033405	-0.041189	-0.013814	-0.205836	7989.916075	59026.050225	4395.871411	31995.058095
54.536000	-0.006892	-0.027654	0.003784	-0.203233	8272.476837	60453.166227	4445.953048	31821.742902
55.035500	0.010528	-0.017530	0.014800	-0.185178	8264.769859	59414.306646	4422.227602	30647.916881
55.536500	0.019471	-0.007052	0.031224	-0.098824	7404.823953	50377.018065	4206.284787	25661.591681
56.037000	0.024301	0.001470	0.033494	-0.050146	6981.576281	46196.189989	4081.020219	23258.254289
56.537500	0.045349	0.013669	0.056237	-0.041135	7093.533215	46514.164936	4116.699630	22842.115457
57.037500	0.064706	0.023818	0.069674	-0.014154	7022.259003	44861.351622	4081.498590	21646.633396
57.537500	0.073608	0.031688	0.080876	0.040665	6618.455435	40575.880528	3975.318533	19434.858287
58.035500	0.091172	0.043326	0.090873	0.096016	6316.725775	36981.489483	3875.653440	17467.626345
58.536000	0.106582	0.050206	0.105297	0.107502	6346.850751	36623.363302	3881.798085	17089.863506
59.036000	0.129135	0.058509	0.131118	0.097302	6609.213336	38085.176355	3960.625754	17424.822604
59.536000	0.137703	0.065927	0.146726	0.173067	6091.477583	32981.742463	3832.522223	15114.827746
60.037000	0.145416	0.072307	0.160532	0.222619	5807.322312	30148.292329	3764.395769	13807.971893
60.537000	0.164221	0.081859	0.180585	0.256986	5708.422402	28642.706922	3738.647980	12985.300592
61.037000	0.180681	0.090299	0.195941	0.286748	5626.646276	27415.950721	3713.578345	12323.595034
61.535000	0.190277	0.096176	0.199462	0.299947	5604.929334	27008.386020	3697.198170	12044.354371
62.035000	0.198459	0.102409	0.222139	0.314398	5567.561425	26559.035214	3711.097015	11748.190495
62.535000	0.210716	0.106960	0.230054	0.336050	5512.560530	25650.889085	3688.031390	11322.508069
63.035500	0.223940	0.116868	0.240121	0.404259	5213.470764	22810.152692	3598.093557	10112.146418
63.535500	0.227207	0.117316	0.261374	0.397544	5264.997455	23138.986768	3639.856383	10223.055108
64.036000	0.231726	0.117526	0.264579	0.388508	5336.876772	23571.474940	3658.996184	10375.001924
64.535500	0.236226	0.118565	0.269382	0.429907	5146.329075	21749.257894	3603.339092	9704.007105
65.036500	0.241541	0.122012	0.269053	0.462791	5014.164529	20523.006482	3556.729626	9214.777670
65.536000	0.248807	0.133476	0.283308	0.560879	4633.610354	17361.189706	3453.779354	7957.348532
66.048500	0.259134	0.143324	0.282716	0.555909	4692.268217	17858.337772	3458.678152	8014.465204
66.542500	0.267105	0.153261	0.281653	0.560079	4707.166990	18056.482201	3452.828707	7966.503960
67.037500	0.271734	0.156661	0.288418	0.564063	4709.704805	18036.268421	3455.928149	7921.100170
67.537000	0.275871	0.160210	0.289829	0.569678	4703.886713	17965.088698	3451.249343	7857.823795
68.045000	0.279006	0.162375	0.288332	0.575229	4694.420103	17849.159673	3443.507002	7796.064925
68.536000	0.281460	0.167335	0.287963	0.574764	4705.865719	18035.347046	3443.611972	7801.212956
69.035500	0.289716	0.170984	0.294483	0.575150	4737.105201	18148.467030	3450.344226	7796.940152
69.536500	0.293219	0.175033	0.298298	0.577908	4740.091399	18193.429468	3451.514934	7766.541933
70.039500	0.288649	0.174617	0.291899	0.580254	4712.562442	18097.359564	3441.921271	7740.840354
70.537000	0.290706	0.177633	0.294458	0.577227	4732.757455	18308.399746	3448.027287	7774.034687
71.040000	0.296943	0.178942	0.301434	0.575971	4762.955012	18398.810918	3457.168814	7787.868195
71.535000	0.296953	0.177056	0.306447	0.571386	4781.732348	18494.587302	3468.048915	7838.737726
72.035500	0.294054	0.177918	0.299207	0.574972	4755.285387	18397.932591	3455.793142	7798.904237
72.535000	0.297478	0.178629	0.308869	0.568775	4794.664566	18644.237364	3473.851935	7867.951822
73.036000	0.299708	0.181622	0.309694	0.567864	4807.707755	18785.172275	3475.869165	7878.182514
73.536500	0.299047	0.180116	0.307168	0.565139	4816.329332	18829.422831	3476.100725	7908.915772
74.036500	0.297725	0.180352	0.312155	0.568629	4796.289511	18711.555053	3477.846959	7869.587757
74.536500	0.308173	0.182553	0.313305	0.564136	4859.245513	18954.973293	3484.484089	7920.272351
75.037000	0.304465	0.181274	0.313180	0.560272	4859.919642	19050.009669	3488.931111	7964.291621
75.537500	0.307931	0.183741	0.311093	0.558611	4882.034618	19202.909437	3488.422617	7983.331123
76.037500	0.305062	0.183919	0.314686	0.563574	4848.356533	19025.823827	3486.791113	7926.659190
76.537500	0.308252	0.185893	0.320016	0.557826	4886.836379	19312.618545	3500.135709	7992.355282
77.035000	0.311098	0.188579	0.324749	0.557426	4901.013245	19428.696765	3506.436396	7996.967664
77.536000	0.316510	0.190671	0.318570	0.557597	4924.125580	19501.370932	3498.653500	7994.998316
78.036000	0.315765	0.191007	0.325695	0.555594	4929.711452	19590.253584	3509.875294	8018.105292
78.536000	0.315742	0.190428	0.323273	0.555579	4929.680424	19568.792864	3506.893663	8018.287159
79.036500	0.314368	0.192258	0.328285	0.555463	4924.087239	19642.996559	3513.266854	8019.620903
79.537000	0.317974	0.192344	0.329322	0.554698	4943.573389	19675.576090	3515.525267	8028.479648
80.037000	0.311905	0.192648	0.317500	0.559957	4893.475047	19486.836428	3494.497304	7967.902289
80.540000	0.315766	0.192676	0.318360	0.554840	4933.072759	19682.867274	3501.760224	8026.834357
81.037500	0.321363	0.194868	0.323585	0.555664	4954.466174	19735.393908	3507.174127	8017.301897
81.535000	0.318189	0.194314	0.320167	0.555400	4941.397144	19724.241131	3503.288652	8020.352978
82.035000	0.321759	0.196112	0.333659	0.558027	4945.622407	19692.392049	3516.791769	7990.045961
82.535500	0.320219	0.194038	0.328913	0.557004	4943.300111	19652.150195	3512.127320	8001.823189
83.039000	0.319021	0.193160	0.334691	0.556654	4939.507320	19631.945442	3519.827056	8005.858234
83.536500	0.320217	0.194674	0.328510	0.559402	4932.581392	19584.898571	3508.643873	7974.257845
84.036500	0.319709	0.195882	0.329960	0.561259	4922.073647	19560.173881	3508.139423	7953.017942
84.536500	0.323188	0.195269	0.340387	0.561768	4935.275536	19517.540927	3520.564408	7947.204650
85.037500	0.324446	0.194411	0.333363	0.561618	4941.573038	19490.714813	3511.922648	7948.919756
85.537500	0.324266	0.196662	0.325748	0.565103	4925.229216	19444.015149	3498.253865	7909.317649
86.035000	0.324051	0.197465	0.331078	0.572684	4890.940739	19189.966864	3495.525053	7824.288946
86.535000	0.328782	0.197493	0.331547	0.567615	4934.149320	19380.658883	3502.266171	7880.984372
87.035500	0.327656	0.197457	0.340255	0.568620	4924.669073	19341.497652	3511.785317	7869.688466
87.536000	0.331077	0.198790	0.337403	0.570076	4933.408094	19336.901983	3506.440459	7853.372766
88.036500	0.326376	0.198217	0.336013	0.575686	4887.989424	19106.497856	3497.867760	7791.022392
88.536500	0.330966	0.199086	0.352526	0.571276	4927.573993	19303.019373	3523.908407	7839.971303
89.036500	0.330686	0.199260	0.334779	0.572653	4920.223745	19258.023481	3500.057800	7824.630844
89.536000	0.329663	0.199141	0.338495	0.573467	4912.107814	19223.188898	3503.610223	7815.585841
90.040000	0.330776	0.199657	0.339562	0.573345	4917.563001	19246.986939	3505.072446	7816.941574
90.535000	0.327903	0.198860	0.333716	0.574059	4901.765637	19190.682885	3497.053325	7809.013796
91.034500	0.330267	0.198681	0.344558	0.574644	4909.585908	19162.308328	3509.644561	7802.542820
91.534500	0.332991	0.200069	0.339940	0.576934	4911.492728	19128.818280	3501.132197	7777.250817
92.035000	0.328548	0.196959	0.350195	0.574409	4903.063794	19107.200162	3516.985769	7805.141005
92.536000	0.332777	0.200020	0.342353	0.578792	4902.385416	19058.319550	3501.811091	7756.835786
93.036500	0.330971	0.199788	0.349231	0.577564	4899.850071	19095.122695	3511.825132	7770.321385
93.535500	0.331748	0.200566	0.338886	0.578710	4898.237824	19081.529195	3497.684657	7757.740494
94.036500	0.326260	0.197938	0.339089	0.582981	4856.002293	18828.675627	3492.766632	7711.127552
94.540000	0.330424	0.198726	0.343621	0.579591	4888.612909	18981.326974	3502.385325	7748.092462
95.040000	0.329637	0.197860	0.352415	0.578542	4889.750736	18988.043020	3514.583329	7759.579231
95.535000	0.329791	0.199574	0.348788	0.580763	4880.767193	18969.424008	3507.302455	7735.278386
96.038000	0.326626	0.198244	0.339215	0.585398	4847.246177	18752.123936	3490.017902	7684.958879
96.536000	0.330383	0.198568	0.345476	0.581329	4880.879844	18911.893943	3502.528613	7729.107073
97.036500	0.333525	0.197599	0.345369	0.580793	4896.897422	18896.044898	3503.055061	7734.949212
97.537000	0.334180	0.199188	0.343854	0.583156	4889.442773	18867.819664	3498.319002	7709.233916
