sample name	sample
index	565
start time	 03-16-2021  02:36:50 PM


Wavelength (nm)	Absorbance
494.344910	0.028803
494.563924	0.028803
494.782919	0.028803
495.001897	0.044494
495.220856	0.003087
495.439797	-0.009225
495.658719	-0.012032
495.877624	-0.023010
496.096510	-0.045640
496.315378	-0.047294
496.534227	-0.047850
496.753059	-0.039887
496.971872	-0.034476
497.190667	0.030471
497.409444	0.065943
497.628203	0.076576
497.846943	0.083285
498.065665	0.088640
498.284369	0.090650
498.503055	0.090807
498.721723	0.090944
498.940372	0.091638
499.159003	0.091886
499.377616	0.092083
499.596210	0.091957
499.814787	0.092937
500.033345	0.093344
500.251885	0.092688
500.470406	0.093293
500.688910	0.094239
500.907395	0.094873
501.125862	0.095384
501.344311	0.096367
501.562742	0.096843
501.781154	0.095910
501.999548	0.097173
502.217924	0.097359
502.436282	0.097945
502.654621	0.098604
502.872942	0.096949
503.091245	0.097017
503.309530	0.095933
503.527797	0.096820
503.746045	0.097432
503.964275	0.096730
504.182487	0.097677
504.400681	0.097101
504.618856	0.096983
504.837013	0.097550
505.055152	0.097572
505.273273	0.097709
505.491376	0.096472
505.709460	0.095834
505.927526	0.094165
506.145574	0.095379
506.363604	0.095040
506.581615	0.094667
506.799608	0.095574
507.017583	0.096216
507.235540	0.096406
507.453478	0.096802
507.671399	0.097148
507.889301	0.098471
508.107185	0.098153
508.325050	0.098981
508.542898	0.099706
508.760727	0.099642
508.978538	0.099939
509.196330	0.100145
509.414105	0.100271
509.631861	0.099727
509.849599	0.099548
510.067319	0.099495
510.285021	0.099050
510.502704	0.098179
510.720369	0.098053
510.938016	0.097994
511.155645	0.097710
511.373255	0.097996
511.590848	0.098759
511.808422	0.098937
512.025977	0.099094
512.243515	0.100047
512.461034	0.101149
512.678536	0.101467
512.896018	0.100959
513.113483	0.101975
513.330930	0.102278
513.548358	0.102983
513.765768	0.103430
513.983160	0.103252
514.200533	0.103884
514.417889	0.103715
514.635226	0.103968
514.852545	0.104538
515.069845	0.103528
515.287128	0.103458
515.504392	0.103315
515.721638	0.103625
515.938866	0.103414
516.156075	0.102467
516.373267	0.102045
516.590440	0.102342
516.807594	0.101796
517.024731	0.102994
517.241850	0.103148
517.458950	0.103293
517.676032	0.102820
517.893095	0.103444
518.110141	0.103774
518.327168	0.105031
518.544177	0.106186
518.761168	0.106688
518.978141	0.106673
519.195095	0.106688
519.412031	0.106775
519.628949	0.106924
519.845849	0.106605
520.062731	0.107123
520.279594	0.107404
520.496439	0.105843
520.713266	0.106325
520.930074	0.106075
521.146865	0.105348
521.363637	0.105043
521.580391	0.105731
521.797127	0.105501
522.013844	0.105910
522.230543	0.105748
522.447224	0.106305
522.663887	0.105748
522.880532	0.105534
523.097158	0.106833
523.313766	0.107411
523.530356	0.106858
523.746928	0.107413
523.963481	0.107124
524.180017	0.107737
524.396534	0.108084
524.613032	0.108717
524.829513	0.109422
525.045975	0.109354
525.262420	0.110083
525.478845	0.111061
525.695253	0.111260
525.911643	0.111145
526.128014	0.111298
526.344367	0.112081
526.560702	0.112753
526.777018	0.113379
526.993316	0.113900
527.209597	0.114302
527.425858	0.114892
527.642102	0.115492
527.858328	0.116175
528.074535	0.116172
528.290724	0.115865
528.506894	0.115499
528.723047	0.115726
528.939181	0.115547
529.155297	0.114605
529.371395	0.114329
529.587475	0.114611
529.803536	0.114412
530.019579	0.113803
530.235604	0.113723
530.451611	0.113417
530.667600	0.112549
530.883570	0.112427
531.099522	0.112694
531.315456	0.113166
531.531372	0.113065
531.747269	0.113832
531.963148	0.114670
532.179009	0.115334
532.394852	0.116472
532.610676	0.117303
532.826482	0.117956
533.042271	0.119333
533.258040	0.119082
533.473792	0.119069
533.689525	0.118621
533.905240	0.118448
534.120937	0.118407
534.336616	0.118741
534.552277	0.119058
534.767919	0.119124
534.983543	0.118792
535.199149	0.119274
535.414736	0.119794
535.630306	0.120255
535.845857	0.120573
536.061390	0.120970
536.276904	0.121100
536.492401	0.121303
536.707879	0.120925
536.923339	0.120710
537.138781	0.120954
537.354204	0.121334
537.569610	0.121655
537.784997	0.121774
538.000366	0.121684
538.215716	0.121238
538.431049	0.121665
538.646363	0.122085
538.861659	0.122774
539.076937	0.122172
539.292196	0.121789
539.507438	0.121725
539.722661	0.121820
539.937866	0.121267
540.153052	0.121426
540.368221	0.120878
540.583371	0.121105
540.798503	0.121250
541.013617	0.122190
541.228712	0.122410
541.443789	0.123028
541.658848	0.123803
541.873889	0.124839
542.088912	0.125024
542.303916	0.125466
542.518902	0.125993
542.733870	0.125942
542.948820	0.125837
543.163752	0.126179
543.378665	0.126181
543.593560	0.125848
543.808437	0.126077
544.023295	0.126589
544.238136	0.127049
544.452958	0.127112
544.667762	0.126648
544.882548	0.126607
545.097315	0.126423
545.312064	0.126919
545.526795	0.127256
545.741508	0.127198
545.956203	0.127753
546.170879	0.127779
546.385537	0.127819
546.600177	0.128189
546.814799	0.128450
547.029402	0.129118
547.243988	0.128977
547.458555	0.129277
547.673103	0.129899
547.887634	0.129910
548.102146	0.130232
548.316640	0.131114
548.531116	0.131656
548.745574	0.132033
548.960013	0.132379
549.174435	0.132327
549.388838	0.132399
549.603222	0.132108
549.817589	0.132121
550.031937	0.132110
550.246267	0.131599
550.460579	0.131687
550.674873	0.131684
550.889148	0.131569
551.103405	0.131751
551.317644	0.131895
551.531865	0.131826
551.746068	0.132055
551.960252	0.132089
552.174418	0.131971
552.388566	0.131775
552.602696	0.132009
552.816807	0.132607
553.030900	0.132547
553.244975	0.132692
553.459032	0.133207
553.673070	0.132952
553.887091	0.133104
554.101093	0.133930
554.315077	0.134229
554.529042	0.134239
554.742990	0.134150
554.956919	0.134589
555.170830	0.134736
555.384722	0.134785
555.598597	0.135220
555.812453	0.135339
556.026291	0.135308
556.240111	0.135326
556.453913	0.135684
556.667696	0.135529
556.881461	0.135871
557.095208	0.135879
557.308937	0.136350
557.522647	0.136367
557.736339	0.136329
557.950013	0.136272
558.163669	0.136509
558.377307	0.136649
558.590926	0.136697
558.804527	0.136482
559.018110	0.136652
559.231675	0.136147
559.445221	0.136406
559.658749	0.136814
559.872259	0.136901
560.085751	0.137082
560.299225	0.137333
560.512680	0.137641
560.726117	0.137983
560.939536	0.138050
561.152937	0.138296
561.366319	0.137972
561.579683	0.137914
561.793029	0.138264
562.006357	0.138483
562.219667	0.138439
562.432958	0.138447
562.646231	0.138234
562.859486	0.138677
563.072723	0.138800
563.285941	0.139339
563.499141	0.139524
563.712323	0.139443
563.925487	0.139416
564.138632	0.139210
564.351760	0.139360
564.564869	0.139024
564.777960	0.138849
564.991032	0.139063
565.204087	0.138976
565.417123	0.138917
565.630141	0.138930
565.843140	0.138785
566.056122	0.139198
566.269085	0.139196
566.482030	0.139769
566.694957	0.139867
566.907866	0.139493
567.120756	0.139372
567.333628	0.139534
567.546482	0.139883
567.759318	0.140577
567.972135	0.140649
568.184935	0.141085
568.397716	0.140950
568.610478	0.140924
568.823223	0.141678
569.035949	0.142241
569.248657	0.142490
569.461347	0.142576
569.674019	0.142803
569.886672	0.142521
570.099308	0.142070
570.311925	0.142672
570.524523	0.142396
570.737104	0.142234
570.949666	0.141762
571.162210	0.141619
571.374736	0.141353
571.587244	0.140975
571.799733	0.141489
572.012205	0.141596
572.224658	0.141584
572.437092	0.142562
572.649509	0.142529
572.861907	0.142810
573.074287	0.143080
573.286649	0.143483
573.498993	0.143944
573.711318	0.143981
573.923625	0.143960
574.135914	0.143614
574.348185	0.143526
574.560438	0.143891
574.772672	0.144493
574.984888	0.144258
575.197086	0.144417
575.409266	0.144090
575.621427	0.144303
575.833570	0.144865
576.045695	0.145257
576.257802	0.145246
576.469890	0.145432
576.681961	0.145077
576.894013	0.145355
577.106046	0.144767
577.318062	0.144949
577.530059	0.144469
577.742039	0.144536
577.954000	0.144637
578.165942	0.144447
578.377867	0.144068
578.589773	0.144412
578.801661	0.144576
579.013531	0.145172
579.225382	0.145419
579.437216	0.145377
579.649031	0.145531
579.860828	0.146148
580.072606	0.146533
580.284367	0.146858
580.496109	0.147007
580.707833	0.146993
580.919539	0.147305
581.131227	0.147031
581.342896	0.147713
581.554547	0.147681
581.766180	0.147593
581.977795	0.147610
582.189391	0.147654
582.400969	0.147593
582.612529	0.147696
582.824071	0.147350
583.035595	0.147611
583.247100	0.147271
583.458587	0.147011
583.670056	0.147054
583.881506	0.147174
584.092939	0.147282
584.304353	0.147520
584.515749	0.147737
584.727127	0.148002
584.938486	0.148547
585.149828	0.148836
585.361151	0.149469
585.572456	0.149162
585.783742	0.149082
585.995011	0.149165
586.206261	0.148664
586.417493	0.148555
586.628706	0.148493
586.839902	0.147951
587.051079	0.148277
587.262238	0.148162
587.473379	0.148381
587.684502	0.149041
587.895606	0.149334
588.106692	0.149775
588.317760	0.150013
588.528810	0.150509
588.739841	0.150791
588.950855	0.151152
589.161850	0.151061
589.372827	0.151149
589.583785	0.150577
589.794726	0.150726
590.005648	0.150946
590.216552	0.151122
590.427437	0.151033
590.638305	0.151487
590.849154	0.151274
591.059985	0.151617
591.270798	0.151578
591.481592	0.151846
591.692369	0.151742
591.903127	0.151648
592.113867	0.151635
592.324588	0.151589
592.535292	0.151800
592.745977	0.151713
592.956644	0.151361
593.167293	0.151872
593.377923	0.151984
593.588536	0.151700
593.799130	0.151801
594.009706	0.152050
594.220263	0.152110
594.430803	0.151711
594.641324	0.151798
594.851827	0.152656
595.062312	0.152594
595.272778	0.152765
595.483227	0.153479
595.693657	0.153749
595.904069	0.154425
596.114462	0.154705
596.324838	0.155071
596.535195	0.155362
596.745534	0.155187
596.955855	0.155303
597.166157	0.155293
597.376441	0.155140
597.586707	0.154982
597.796955	0.154616
598.007185	0.154770
598.217396	0.154420
598.427589	0.154237
598.637764	0.154361
598.847921	0.154581
599.058060	0.154482
599.268180	0.154461
599.478282	0.154716
599.688366	0.154703
599.898431	0.154853
600.108479	0.155172
600.318508	0.155410
600.528519	0.155196
600.738511	0.155147
600.948486	0.155338
601.158442	0.155766
601.368380	0.155848
601.578300	0.156102
601.788202	0.155958
601.998085	0.155921
602.207950	0.156006
602.417797	0.156354
602.627626	0.155971
602.837436	0.156359
603.047228	0.156547
603.257002	0.156615
603.466758	0.156319
603.676496	0.156495
603.886215	0.156713
604.095916	0.156958
604.305599	0.156990
604.515264	0.157298
604.724910	0.157101
604.934538	0.157074
605.144148	0.157256
605.353740	0.157222
605.563314	0.157296
605.772869	0.157744
605.982406	0.157408
606.191925	0.157445
606.401425	0.157755
606.610908	0.157745
606.820372	0.157621
607.029818	0.157727
607.239246	0.158153
607.448655	0.158328
607.658047	0.158138
607.867420	0.158320
608.076775	0.158386
608.286111	0.158553
608.495430	0.159117
608.704730	0.159301
608.914012	0.159463
609.123275	0.159704
609.332521	0.159815
609.541748	0.159678
609.750957	0.160128
609.960148	0.160322
610.169321	0.160280
610.378475	0.160198
610.587611	0.160115
610.796729	0.159928
611.005829	0.159804
611.214910	0.159859
611.423974	0.159953
611.633019	0.159807
611.842045	0.159896
612.051054	0.159940
612.260044	0.159672
612.469017	0.159839
612.677970	0.159906
612.886906	0.159894
613.095824	0.159951
613.304723	0.160487
613.513604	0.160522
613.722467	0.160362
613.931311	0.160378
614.140138	0.160868
614.348946	0.160976
614.557736	0.161239
614.766507	0.161399
614.975261	0.161712
615.183996	0.161475
615.392713	0.161619
615.601412	0.162035
615.810092	0.162519
616.018754	0.162433
616.227399	0.162460
616.436024	0.162308
616.644632	0.162686
616.853222	0.162649
617.061793	0.163252
617.270346	0.163536
617.478880	0.163608
617.687397	0.163686
617.895895	0.163908
618.104375	0.164000
618.312837	0.164314
618.521281	0.164193
618.729706	0.164528
618.938113	0.164312
619.146502	0.164296
619.354873	0.164368
619.563226	0.164391
619.771560	0.164275
619.979876	0.164504
620.188174	0.164648
620.396453	0.164387
620.604715	0.164227
620.812958	0.164180
621.021183	0.164196
621.229390	0.164062
621.437578	0.163765
621.645748	0.164233
621.853900	0.164029
622.062034	0.164089
622.270150	0.164246
622.478247	0.163901
622.686326	0.163824
622.894387	0.164117
623.102430	0.164552
623.310454	0.164998
623.518461	0.164841
623.726449	0.165223
623.934418	0.165433
624.142370	0.165950
624.350303	0.166325
624.558218	0.166507
624.766115	0.166603
624.973994	0.166520
625.181855	0.166345
625.389697	0.166375
625.597521	0.166268
625.805327	0.166044
626.013114	0.165888
626.220883	0.166215
626.428634	0.166463
626.636367	0.166575
626.844082	0.166661
627.051778	0.166918
627.259457	0.167118
627.467117	0.167747
627.674758	0.167717
627.882382	0.167817
628.089987	0.167570
628.297574	0.167473
628.505143	0.167527
628.712694	0.167352
628.920226	0.167456
629.127740	0.167663
629.335236	0.167354
629.542714	0.167839
629.750174	0.168293
629.957615	0.168736
630.165038	0.168894
630.372443	0.169029
630.579829	0.169394
630.787198	0.169237
630.994548	0.169247
631.201880	0.169452
631.409194	0.169305
631.616489	0.169174
631.823766	0.169353
632.031025	0.169263
632.238266	0.169055
632.445489	0.169209
632.652693	0.169598
632.859879	0.169360
633.067047	0.169357
633.274197	0.169656
633.481329	0.169697
633.688442	0.169668
633.895537	0.169721
634.102614	0.169932
634.309672	0.169878
634.516713	0.169956
634.723735	0.170342
634.930739	0.170498
635.137724	0.170409
635.344692	0.170441
635.551641	0.170466
635.758572	0.170740
635.965485	0.171169
636.172379	0.171528
636.379256	0.171569
636.586114	0.171589
636.792954	0.171650
636.999775	0.171911
637.206579	0.172107
637.413364	0.172304
637.620131	0.172556
637.826880	0.172436
638.033610	0.172533
638.240323	0.172572
638.447017	0.172830
638.653692	0.173025
638.860350	0.173292
639.066990	0.173495
639.273611	0.173579
639.480214	0.173629
639.686798	0.173858
639.893365	0.174107
640.099913	0.174210
640.306443	0.174333
640.512955	0.174462
640.719449	0.174336
640.925924	0.174335
641.132381	0.174452
641.338820	0.174510
641.545241	0.174565
641.751644	0.174311
641.958028	0.174395
642.164394	0.174418
642.370742	0.174546
642.577071	0.174654
642.783383	0.174780
642.989676	0.174768
643.195951	0.174870
643.402207	0.175050
643.608446	0.175337
643.814666	0.175591
644.020868	0.175665
644.227052	0.175716
644.433218	0.175961
644.639365	0.176003
644.845494	0.176044
645.051605	0.176334
645.257698	0.176375
645.463772	0.176192
645.669828	0.176114
645.875866	0.176134
646.081886	0.176418
646.287888	0.176260
646.493871	0.176564
646.699836	0.176852
646.905783	0.176832
647.111712	0.177013
647.317622	0.177186
647.523514	0.177393
647.729388	0.177677
647.935244	0.177716
648.141082	0.177873
648.346901	0.178153
648.552702	0.178252
648.758485	0.178378
648.964250	0.178049
649.169996	0.178254
649.375724	0.178241
649.581434	0.178263
649.787126	0.178279
649.992800	0.178688
650.198455	0.178542
650.404092	0.178486
650.609711	0.178596
650.815311	0.178958
651.020894	0.179074
651.226458	0.179220
651.432004	0.179309
651.637532	0.179280
651.843041	0.179210
652.048532	0.179283
652.254006	0.179424
652.459460	0.179554
652.664897	0.179411
652.870315	0.179602
653.075716	0.179705
653.281097	0.179930
653.486461	0.180238
653.691807	0.180496
653.897134	0.180559
654.102443	0.180799
654.307734	0.180821
654.513006	0.180981
654.718261	0.180982
654.923497	0.181244
655.128715	0.181242
655.333915	0.181300
655.539096	0.181323
655.744259	0.181837
655.949404	0.181831
656.154531	0.182143
656.359640	0.182486
656.564730	0.182768
656.769802	0.182677
656.974856	0.183036
657.179892	0.183242
657.384909	0.183341
657.589908	0.183065
657.794889	0.183514
657.999852	0.183755
658.204797	0.184052
658.409723	0.183866
658.614631	0.184393
658.819521	0.184580
659.024393	0.184846
659.229246	0.185351
659.434081	0.185632
659.638898	0.185493
659.843697	0.185559
660.048478	0.185722
660.253240	0.185909
660.457984	0.185780
660.662710	0.185542
660.867417	0.185352
661.072107	0.185131
661.276778	0.185239
661.481431	0.185412
661.686066	0.185628
661.890682	0.185648
662.095281	0.186184
662.299861	0.186087
662.504422	0.186089
662.708966	0.186305
662.913491	0.186645
663.117999	0.186812
663.322488	0.186898
663.526958	0.186817
663.731411	0.186832
663.935845	0.186605
664.140261	0.187104
664.344659	0.187415
664.549038	0.187535
664.753400	0.187447
664.957743	0.187407
665.162068	0.187506
665.366375	0.187528
665.570663	0.187724
665.774933	0.187825
665.979185	0.187743
666.183419	0.187816
666.387635	0.187987
666.591832	0.188022
666.796011	0.188076
667.000172	0.188272
667.204315	0.188511
667.408439	0.188634
667.612545	0.188982
667.816634	0.189328
668.020703	0.189571
668.224755	0.189662
668.428788	0.189732
668.632803	0.190085
668.836800	0.190308
669.040779	0.190449
669.244739	0.190708
669.448681	0.190937
669.652605	0.191152
669.856511	0.191530
670.060399	0.191482
670.264268	0.191812
670.468119	0.192021
670.671952	0.192034
670.875767	0.192018
671.079563	0.192013
671.283341	0.192144
671.487101	0.192305
671.690843	0.191998
671.894567	0.192138
672.098272	0.192309
672.301959	0.192373
672.505628	0.192655
672.709278	0.193060
672.912911	0.193417
673.116525	0.193442
673.320121	0.193643
673.523699	0.193920
673.727258	0.194320
673.930799	0.194268
674.134322	0.194105
674.337827	0.194155
674.541314	0.194221
674.744782	0.194234
674.948232	0.194411
675.151664	0.194323
675.355078	0.194568
675.558474	0.194799
675.761851	0.195007
675.965210	0.195573
676.168551	0.195790
676.371873	0.195936
676.575178	0.195895
676.778464	0.195763
676.981732	0.195895
677.184981	0.196019
677.388213	0.195959
677.591426	0.196159
677.794621	0.196096
677.997798	0.196093
678.200956	0.196278
678.404097	0.196660
678.607219	0.196973
678.810323	0.197122
679.013408	0.197178
679.216476	0.197259
679.419525	0.197546
679.622556	0.197733
679.825569	0.197849
680.028563	0.198068
680.231540	0.197979
680.434498	0.198226
680.637438	0.198321
680.840359	0.198451
681.043263	0.198804
681.246148	0.198799
681.449015	0.199014
681.651864	0.199296
681.854694	0.199041
682.057506	0.199438
682.260301	0.199652
682.463076	0.199782
682.665834	0.199991
682.868573	0.200066
683.071295	0.200039
683.273998	0.200097
683.476682	0.200120
683.679349	0.200483
683.881997	0.200154
684.084627	0.199958
684.287239	0.200290
684.489833	0.200424
684.692408	0.200564
684.894965	0.200887
685.097504	0.201045
685.300025	0.201112
685.502527	0.201311
685.705012	0.201668
685.907478	0.202119
686.109925	0.202094
686.312355	0.202199
686.514766	0.202176
686.717159	0.202231
686.919534	0.202190
687.121891	0.202537
687.324230	0.202759
687.526550	0.203030
687.728852	0.203103
687.931136	0.202986
688.133401	0.202941
688.335649	0.203051
688.537878	0.203225
688.740089	0.203525
688.942281	0.203500
689.144456	0.203552
689.346612	0.203249
689.548750	0.203004
689.750870	0.203269
689.952971	0.203541
690.155055	0.203834
690.357120	0.203801
690.559167	0.203723
690.761195	0.203916
690.963206	0.203790
691.165198	0.204087
691.367172	0.204327
691.569128	0.204520
691.771065	0.204740
691.972984	0.204888
692.174885	0.205173
692.376768	0.205357
692.578633	0.205458
692.780479	0.205751
692.982308	0.205702
693.184118	0.205773
693.385909	0.205630
