sample name	sample
index	52
start time	 02-11-2021  02:35:13 PM


Wavelength (nm)	Absorbance
494.344910	NaN
494.563924	NaN
494.782919	NaN
495.001897	0.227244
495.220856	0.104442
495.439797	0.103255
495.658719	0.027891
495.877624	0.036850
496.096510	0.299953
496.315378	1.130080
496.534227	NaN
496.753059	NaN
496.971872	NaN
497.190667	0.209833
497.409444	0.139738
497.628203	0.132983
497.846943	0.125527
498.065665	0.119701
498.284369	0.120638
498.503055	0.115022
498.721723	0.114971
498.940372	0.115377
499.159003	0.114566
499.377616	0.115366
499.596210	0.113202
499.814787	0.114366
500.033345	0.115011
500.251885	0.112484
500.470406	0.114263
500.688910	0.114075
500.907395	0.114368
501.125862	0.113972
501.344311	0.114504
501.562742	0.116142
501.781154	0.113989
501.999548	0.112427
502.217924	0.113052
502.436282	0.111915
502.654621	0.111860
502.872942	0.113147
503.091245	0.114103
503.309530	0.114398
503.527797	0.112561
503.746045	0.115757
503.964275	0.117279
504.182487	0.115581
504.400681	0.116564
504.618856	0.118586
504.837013	0.116214
505.055152	0.114277
505.273273	0.113784
505.491376	0.115508
505.709460	0.115629
505.927526	0.115528
506.145574	0.117097
506.363604	0.119025
506.581615	0.118625
506.799608	0.120287
507.017583	0.124045
507.235540	0.123980
507.453478	0.124766
507.671399	0.120669
507.889301	0.118799
508.107185	0.118624
508.325050	0.117548
508.542898	0.114514
508.760727	0.113682
508.978538	0.111746
509.196330	0.112958
509.414105	0.112098
509.631861	0.115494
509.849599	0.117004
510.067319	0.117539
510.285021	0.118267
510.502704	0.119854
510.720369	0.120787
510.938016	0.121949
511.155645	0.122018
511.373255	0.122664
511.590848	0.121350
511.808422	0.120863
512.025977	0.121639
512.243515	0.120968
512.461034	0.121067
512.678536	0.120846
512.896018	0.121658
513.113483	0.120271
513.330930	0.119531
513.548358	0.120021
513.765768	0.120511
513.983160	0.120382
514.200533	0.120116
514.417889	0.120329
514.635226	0.119763
514.852545	0.118933
515.069845	0.119708
515.287128	0.120564
515.504392	0.120084
515.721638	0.120264
515.938866	0.119504
516.156075	0.120245
516.373267	0.121166
516.590440	0.122182
516.807594	0.121453
517.024731	0.121813
517.241850	0.121349
517.458950	0.122662
517.676032	0.124845
517.893095	0.124768
518.110141	0.125321
518.327168	0.125134
518.544177	0.124346
518.761168	0.125434
518.978141	0.124915
519.195095	0.125176
519.412031	0.124466
519.628949	0.122130
519.845849	0.123566
520.062731	0.123622
520.279594	0.123549
520.496439	0.124201
520.713266	0.122574
520.930074	0.123047
521.146865	0.123498
521.363637	0.123563
521.580391	0.125377
521.797127	0.124387
522.013844	0.123183
522.230543	0.124908
522.447224	0.124950
522.663887	0.126755
522.880532	0.126432
523.097158	0.125638
523.313766	0.127328
523.530356	0.128078
523.746928	0.129158
523.963481	0.130423
524.180017	0.129297
524.396534	0.129681
524.613032	0.130154
524.829513	0.130511
525.045975	0.132392
525.262420	0.130776
525.478845	0.130640
525.695253	0.129930
525.911643	0.130611
526.128014	0.130428
526.344367	0.130661
526.560702	0.130427
526.777018	0.130954
526.993316	0.130237
527.209597	0.130732
527.425858	0.129992
527.642102	0.130739
527.858328	0.130067
528.074535	0.130351
528.290724	0.131405
528.506894	0.131524
528.723047	0.132664
528.939181	0.132501
529.155297	0.133454
529.371395	0.132126
529.587475	0.131657
529.803536	0.131622
530.019579	0.132396
530.235604	0.132215
530.451611	0.132384
530.667600	0.130746
530.883570	0.131786
531.099522	0.133070
531.315456	0.135074
531.531372	0.135679
531.747269	0.137127
531.963148	0.136911
532.179009	0.138113
532.394852	0.137642
532.610676	0.138234
532.826482	0.137907
533.042271	0.136241
533.258040	0.136891
533.473792	0.137376
533.689525	0.136211
533.905240	0.136087
534.120937	0.134901
534.336616	0.135796
534.552277	0.136394
534.767919	0.137025
534.983543	0.139012
535.199149	0.138887
535.414736	0.138742
535.630306	0.139774
535.845857	0.140827
536.061390	0.141133
536.276904	0.141268
536.492401	0.142882
536.707879	0.142701
536.923339	0.140891
537.138781	0.140298
537.354204	0.140779
537.569610	0.141559
537.784997	0.140947
538.000366	0.142032
538.215716	0.142090
538.431049	0.140997
538.646363	0.142372
538.861659	0.143712
539.076937	0.145187
539.292196	0.145711
539.507438	0.145282
539.722661	0.145369
539.937866	0.145215
540.153052	0.146247
540.368221	0.147039
540.583371	0.145769
540.798503	0.145593
541.013617	0.144809
541.228712	0.145075
541.443789	0.146068
541.658848	0.147375
541.873889	0.147441
542.088912	0.146645
542.303916	0.145685
542.518902	0.146113
542.733870	0.146322
542.948820	0.146462
543.163752	0.146149
543.378665	0.145524
543.593560	0.145897
543.808437	0.146319
544.023295	0.146792
544.238136	0.147998
544.452958	0.148726
544.667762	0.149231
544.882548	0.149568
545.097315	0.150701
545.312064	0.150658
545.526795	0.150593
545.741508	0.150188
545.956203	0.150987
546.170879	0.150859
546.385537	0.150696
546.600177	0.150859
546.814799	0.150875
547.029402	0.149918
547.243988	0.149869
547.458555	0.149777
547.673103	0.150416
547.887634	0.150516
548.102146	0.150865
548.316640	0.151110
548.531116	0.151552
548.745574	0.151782
548.960013	0.152243
549.174435	0.153291
549.388838	0.153539
549.603222	0.153601
549.817589	0.153041
550.031937	0.153717
550.246267	0.154161
550.460579	0.153701
550.674873	0.154344
550.889148	0.154462
551.103405	0.154109
551.317644	0.154366
551.531865	0.154203
551.746068	0.154893
551.960252	0.154192
552.174418	0.153593
552.388566	0.154036
552.602696	0.153171
552.816807	0.152647
553.030900	0.152612
553.244975	0.152234
553.459032	0.152525
553.673070	0.152591
553.887091	0.153244
554.101093	0.154537
554.315077	0.154556
554.529042	0.156010
554.742990	0.157061
554.956919	0.157163
555.170830	0.157449
555.384722	0.158160
555.598597	0.158345
555.812453	0.158412
556.026291	0.157969
556.240111	0.157635
556.453913	0.157565
556.667696	0.157515
556.881461	0.158120
557.095208	0.158294
557.308937	0.158201
557.522647	0.158267
557.736339	0.158230
557.950013	0.158869
558.163669	0.160099
558.377307	0.160582
558.590926	0.160458
558.804527	0.160858
559.018110	0.161163
559.231675	0.161410
559.445221	0.161936
559.658749	0.162676
559.872259	0.163064
560.085751	0.162642
560.299225	0.162422
560.512680	0.163284
560.726117	0.162962
560.939536	0.163581
561.152937	0.163768
561.366319	0.162974
561.579683	0.162404
561.793029	0.161606
562.006357	0.161265
562.219667	0.161551
562.432958	0.161222
562.646231	0.161116
562.859486	0.160857
563.072723	0.160246
563.285941	0.160899
563.499141	0.161467
563.712323	0.161953
563.925487	0.162610
564.138632	0.160886
564.351760	0.161009
564.564869	0.161456
564.777960	0.160935
564.991032	0.161399
565.204087	0.162285
565.417123	0.161942
565.630141	0.161723
565.843140	0.161660
566.056122	0.163511
566.269085	0.163883
566.482030	0.163698
566.694957	0.164015
566.907866	0.164065
567.120756	0.163971
567.333628	0.164521
567.546482	0.164826
567.759318	0.164930
567.972135	0.165132
568.184935	0.165247
568.397716	0.165420
568.610478	0.165739
568.823223	0.165659
569.035949	0.165051
569.248657	0.164845
569.461347	0.164793
569.674019	0.164904
569.886672	0.164610
570.099308	0.164689
570.311925	0.164862
570.524523	0.165288
570.737104	0.165892
570.949666	0.166105
571.162210	0.166110
571.374736	0.166049
571.587244	0.165707
571.799733	0.165739
572.012205	0.165917
572.224658	0.166006
572.437092	0.165916
572.649509	0.165690
572.861907	0.165454
573.074287	0.165706
573.286649	0.166084
573.498993	0.166523
573.711318	0.166757
573.923625	0.166544
574.135914	0.166549
574.348185	0.166805
574.560438	0.167244
574.772672	0.167239
574.984888	0.167440
575.197086	0.167507
575.409266	0.167632
575.621427	0.167037
575.833570	0.167546
576.045695	0.167721
576.257802	0.168114
576.469890	0.167849
576.681961	0.168288
576.894013	0.168575
577.106046	0.168196
577.318062	0.168435
577.530059	0.169683
577.742039	0.169799
577.954000	0.170306
578.165942	0.169264
578.377867	0.169226
578.589773	0.169606
578.801661	0.169343
579.013531	0.170290
579.225382	0.171003
579.437216	0.170017
579.649031	0.169382
579.860828	0.168888
580.072606	0.169894
580.284367	0.169982
580.496109	0.169927
580.707833	0.170067
580.919539	0.169977
581.131227	0.169716
581.342896	0.170214
581.554547	0.170405
581.766180	0.171180
581.977795	0.171540
582.189391	0.171851
582.400969	0.171470
582.612529	0.171875
582.824071	0.172187
583.035595	0.171735
583.247100	0.172377
583.458587	0.172740
583.670056	0.172070
583.881506	0.172089
584.092939	0.171815
584.304353	0.172643
584.515749	0.172703
584.727127	0.172512
584.938486	0.172936
585.149828	0.172819
585.361151	0.173146
585.572456	0.173636
585.783742	0.173595
585.995011	0.174225
586.206261	0.174120
586.417493	0.174157
586.628706	0.174732
586.839902	0.175032
587.051079	0.174433
587.262238	0.173580
587.473379	0.173658
587.684502	0.173189
587.895606	0.173252
588.106692	0.172665
588.317760	0.172852
588.528810	0.172449
588.739841	0.172219
588.950855	0.173587
589.161850	0.174451
589.372827	0.175086
589.583785	0.176542
589.794726	0.176432
590.005648	0.177142
590.216552	0.177029
590.427437	0.177299
590.638305	0.178501
590.849154	0.177966
591.059985	0.177856
591.270798	0.177494
591.481592	0.176331
591.692369	0.176251
591.903127	0.176337
592.113867	0.176768
592.324588	0.176927
592.535292	0.175720
592.745977	0.175357
592.956644	0.176058
593.167293	0.176404
593.377923	0.176313
593.588536	0.176968
593.799130	0.176619
594.009706	0.176176
594.220263	0.175732
594.430803	0.176409
594.641324	0.177127
594.851827	0.176901
595.062312	0.176971
595.272778	0.177754
595.483227	0.177303
595.693657	0.177632
595.904069	0.177669
596.114462	0.178219
596.324838	0.178407
596.535195	0.178315
596.745534	0.178466
596.955855	0.178252
597.166157	0.178317
597.376441	0.178778
597.586707	0.179490
597.796955	0.179791
598.007185	0.179735
598.217396	0.179960
598.427589	0.180324
598.637764	0.180449
598.847921	0.181122
599.058060	0.181035
599.268180	0.180983
599.478282	0.180444
599.688366	0.180616
599.898431	0.180796
600.108479	0.180391
600.318508	0.180556
600.528519	0.180992
600.738511	0.180605
600.948486	0.180699
601.158442	0.181066
601.368380	0.181231
601.578300	0.181449
601.788202	0.181658
601.998085	0.181926
602.207950	0.181760
602.417797	0.181138
602.627626	0.181767
602.837436	0.181822
603.047228	0.181644
603.257002	0.181623
603.466758	0.181750
603.676496	0.182339
603.886215	0.182703
604.095916	0.182547
604.305599	0.182739
604.515264	0.182328
604.724910	0.183108
604.934538	0.183395
605.144148	0.183865
605.353740	0.184355
605.563314	0.183581
605.772869	0.183786
605.982406	0.184193
606.191925	0.184584
606.401425	0.184895
606.610908	0.184644
606.820372	0.185425
607.029818	0.185824
607.239246	0.185606
607.448655	0.186147
607.658047	0.186200
607.867420	0.186206
608.076775	0.186276
608.286111	0.186350
608.495430	0.186259
608.704730	0.185409
608.914012	0.185410
609.123275	0.185690
609.332521	0.185724
609.541748	0.185334
609.750957	0.185513
609.960148	0.185256
610.169321	0.185582
610.378475	0.185607
610.587611	0.185714
610.796729	0.185730
611.005829	0.185514
611.214910	0.185406
611.423974	0.185773
611.633019	0.185882
611.842045	0.186236
612.051054	0.185879
612.260044	0.186310
612.469017	0.186664
612.677970	0.186592
612.886906	0.187097
613.095824	0.187237
613.304723	0.187510
613.513604	0.187571
613.722467	0.187737
613.931311	0.188425
614.140138	0.187877
614.348946	0.188065
614.557736	0.187921
614.766507	0.187716
614.975261	0.188272
615.183996	0.188039
615.392713	0.188113
615.601412	0.188223
615.810092	0.187807
616.018754	0.188197
616.227399	0.188438
616.436024	0.189110
616.644632	0.189101
616.853222	0.189327
617.061793	0.189633
617.270346	0.189035
617.478880	0.189439
617.687397	0.189321
617.895895	0.189223
618.104375	0.189120
618.312837	0.188852
618.521281	0.188814
618.729706	0.188241
618.938113	0.188132
619.146502	0.188969
619.354873	0.188845
619.563226	0.188961
619.771560	0.189681
619.979876	0.189905
620.188174	0.190344
620.396453	0.190771
620.604715	0.191190
620.812958	0.191627
621.021183	0.191945
621.229390	0.192166
621.437578	0.192551
621.645748	0.192296
621.853900	0.192581
622.062034	0.192567
622.270150	0.192646
622.478247	0.193286
622.686326	0.193401
622.894387	0.193199
623.102430	0.193358
623.310454	0.193469
623.518461	0.193443
623.726449	0.193349
623.934418	0.193609
624.142370	0.193694
624.350303	0.193143
624.558218	0.193101
624.766115	0.192977
624.973994	0.193118
625.181855	0.193206
625.389697	0.193423
625.597521	0.193413
625.805327	0.193317
626.013114	0.193605
626.220883	0.193990
626.428634	0.194015
626.636367	0.194158
626.844082	0.194160
627.051778	0.194584
627.259457	0.195325
627.467117	0.195608
627.674758	0.195634
627.882382	0.195524
628.089987	0.195896
628.297574	0.196343
628.505143	0.197057
628.712694	0.197519
628.920226	0.197830
629.127740	0.197552
629.335236	0.197951
629.542714	0.198271
629.750174	0.198701
629.957615	0.198436
630.165038	0.198215
630.372443	0.198144
630.579829	0.198052
630.787198	0.197880
630.994548	0.198066
631.201880	0.198007
631.409194	0.198163
631.616489	0.198022
631.823766	0.198076
632.031025	0.198288
632.238266	0.198460
632.445489	0.199088
632.652693	0.199728
632.859879	0.200091
633.067047	0.200562
633.274197	0.200267
633.481329	0.200293
633.688442	0.200645
633.895537	0.200716
634.102614	0.200500
634.309672	0.200373
634.516713	0.200284
634.723735	0.200006
634.930739	0.199457
635.137724	0.200091
635.344692	0.200415
635.551641	0.200421
635.758572	0.200732
635.965485	0.200803
636.172379	0.200337
636.379256	0.200417
636.586114	0.200634
636.792954	0.201027
636.999775	0.200977
637.206579	0.200961
637.413364	0.201163
637.620131	0.201048
637.826880	0.201389
638.033610	0.201607
638.240323	0.201428
638.447017	0.201258
638.653692	0.201444
638.860350	0.201230
639.066990	0.201492
639.273611	0.201752
639.480214	0.201873
639.686798	0.201916
639.893365	0.202236
640.099913	0.202344
640.306443	0.202844
640.512955	0.202736
640.719449	0.203304
640.925924	0.203267
641.132381	0.202993
641.338820	0.203556
641.545241	0.203373
641.751644	0.203707
641.958028	0.203751
642.164394	0.203866
642.370742	0.204260
642.577071	0.204359
642.783383	0.204343
642.989676	0.204602
643.195951	0.204887
643.402207	0.205544
643.608446	0.205658
643.814666	0.206071
644.020868	0.206295
644.227052	0.206057
644.433218	0.206436
644.639365	0.206672
644.845494	0.207003
645.051605	0.206758
645.257698	0.206846
645.463772	0.206795
645.669828	0.206736
645.875866	0.206666
646.081886	0.206798
646.287888	0.206685
646.493871	0.207342
646.699836	0.207235
646.905783	0.207088
647.111712	0.207188
647.317622	0.206957
647.523514	0.207110
647.729388	0.206923
647.935244	0.207342
648.141082	0.207201
648.346901	0.207246
648.552702	0.207853
648.758485	0.208208
648.964250	0.208362
649.169996	0.208775
649.375724	0.209050
649.581434	0.209548
649.787126	0.209696
649.992800	0.209913
650.198455	0.209846
650.404092	0.209888
650.609711	0.210305
650.815311	0.209992
651.020894	0.210687
651.226458	0.210571
651.432004	0.210869
651.637532	0.210839
651.843041	0.211537
652.048532	0.212092
652.254006	0.212034
652.459460	0.212323
652.664897	0.212970
652.870315	0.212840
653.075716	0.213082
653.281097	0.213434
653.486461	0.213636
653.691807	0.213588
653.897134	0.213338
654.102443	0.213452
654.307734	0.213458
654.513006	0.213555
654.718261	0.213633
654.923497	0.214141
655.128715	0.213857
655.333915	0.213884
655.539096	0.213979
655.744259	0.214331
655.949404	0.214601
656.154531	0.214536
656.359640	0.214450
656.564730	0.214686
656.769802	0.214892
656.974856	0.214788
657.179892	0.215392
657.384909	0.215111
657.589908	0.215168
657.794889	0.215530
657.999852	0.215889
658.204797	0.216336
658.409723	0.216629
658.614631	0.216643
658.819521	0.217151
659.024393	0.217265
659.229246	0.217445
659.434081	0.217514
659.638898	0.217590
659.843697	0.217361
660.048478	0.217884
660.253240	0.217620
660.457984	0.217426
660.662710	0.217325
660.867417	0.217418
661.072107	0.217877
661.276778	0.218479
661.481431	0.218252
661.686066	0.218780
661.890682	0.218432
662.095281	0.218806
662.299861	0.219008
662.504422	0.219605
662.708966	0.219626
662.913491	0.219969
663.117999	0.219812
663.322488	0.220340
663.526958	0.220636
663.731411	0.220831
663.935845	0.220986
664.140261	0.221312
664.344659	0.221276
664.549038	0.221794
664.753400	0.222023
664.957743	0.221953
665.162068	0.221748
665.366375	0.221907
665.570663	0.222100
665.774933	0.221937
665.979185	0.222501
666.183419	0.222704
666.387635	0.222745
666.591832	0.222657
666.796011	0.222993
667.000172	0.223566
667.204315	0.223381
667.408439	0.223757
667.612545	0.224511
667.816634	0.224711
668.020703	0.225344
668.224755	0.225446
668.428788	0.225683
668.632803	0.226006
668.836800	0.226003
669.040779	0.226179
669.244739	0.226251
669.448681	0.226036
669.652605	0.225798
669.856511	0.225578
670.060399	0.225600
670.264268	0.225485
670.468119	0.225628
670.671952	0.225802
670.875767	0.226399
671.079563	0.226542
671.283341	0.226758
671.487101	0.226815
671.690843	0.227060
671.894567	0.227518
672.098272	0.228064
672.301959	0.227595
672.505628	0.227790
672.709278	0.227657
672.912911	0.227843
673.116525	0.228038
673.320121	0.228419
673.523699	0.228370
673.727258	0.228651
673.930799	0.228700
674.134322	0.229227
674.337827	0.229602
674.541314	0.229641
674.744782	0.230058
674.948232	0.230272
675.151664	0.230469
675.355078	0.230899
675.558474	0.230804
675.761851	0.231014
675.965210	0.231288
676.168551	0.231194
676.371873	0.231625
676.575178	0.231757
676.778464	0.231948
676.981732	0.232094
677.184981	0.232310
677.388213	0.232132
677.591426	0.232383
677.794621	0.232794
677.997798	0.232868
678.200956	0.232870
678.404097	0.233028
678.607219	0.232905
678.810323	0.232839
679.013408	0.232920
679.216476	0.233068
679.419525	0.232916
679.622556	0.233155
679.825569	0.233570
680.028563	0.233643
680.231540	0.233426
680.434498	0.233635
680.637438	0.233820
680.840359	0.233938
681.043263	0.234203
681.246148	0.234767
681.449015	0.234441
681.651864	0.234365
681.854694	0.234454
682.057506	0.234899
682.260301	0.235101
682.463076	0.234973
682.665834	0.235201
682.868573	0.235340
683.071295	0.235242
683.273998	0.235716
683.476682	0.236043
683.679349	0.236312
683.881997	0.236365
684.084627	0.236549
684.287239	0.237418
684.489833	0.237491
684.692408	0.237644
684.894965	0.237590
685.097504	0.237516
685.300025	0.237404
685.502527	0.237831
685.705012	0.237912
685.907478	0.238380
686.109925	0.238438
686.312355	0.238720
686.514766	0.239125
686.717159	0.239614
686.919534	0.239546
687.121891	0.240202
687.324230	0.240102
687.526550	0.240279
687.728852	0.239977
687.931136	0.240052
688.133401	0.240052
688.335649	0.240211
688.537878	0.239991
688.740089	0.240503
688.942281	0.240396
689.144456	0.240660
689.346612	0.240899
689.548750	0.240987
689.750870	0.240946
689.952971	0.240891
690.155055	0.240638
690.357120	0.241054
690.559167	0.240790
690.761195	0.240856
690.963206	0.240775
691.165198	0.240865
691.367172	0.241104
691.569128	0.241004
691.771065	0.241419
691.972984	0.242045
692.174885	0.242743
692.376768	0.243054
692.578633	0.242988
692.780479	0.243185
692.982308	0.242919
693.184118	0.243152
693.385909	0.243705
693.587683	0.243504
693.789438	0.243564
