sample name	sample
index	66
start time	 02-11-2021  03:25:54 PM


Wavelength (nm)	Absorbance
494.344910	-0.834633
494.563924	-0.834633
494.782919	-0.834633
495.001897	NaN
495.220856	-0.378065
495.439797	-0.292256
495.658719	-0.350143
495.877624	-0.368946
496.096510	-0.855895
496.315378	-0.668289
496.534227	-0.956480
496.753059	-0.617998
496.971872	-0.850819
497.190667	0.137828
497.409444	0.149258
497.628203	0.137732
497.846943	0.144458
498.065665	0.142496
498.284369	0.146472
498.503055	0.150110
498.721723	0.149614
498.940372	0.149025
499.159003	0.151104
499.377616	0.152082
499.596210	0.155822
499.814787	0.154823
500.033345	0.154932
500.251885	0.153021
500.470406	0.153245
500.688910	0.153547
500.907395	0.152881
501.125862	0.152637
501.344311	0.153730
501.562742	0.154449
501.781154	0.155088
501.999548	0.156321
502.217924	0.158196
502.436282	0.155222
502.654621	0.155339
502.872942	0.155624
503.091245	0.158999
503.309530	0.154694
503.527797	0.154681
503.746045	0.151287
503.964275	0.150324
504.182487	0.149302
504.400681	0.151046
504.618856	0.150612
504.837013	0.149790
505.055152	0.146078
505.273273	0.147655
505.491376	0.146856
505.709460	0.150432
505.927526	0.150565
506.145574	0.149309
506.363604	0.150680
506.581615	0.153475
506.799608	0.154207
507.017583	0.156202
507.235540	0.156669
507.453478	0.155984
507.671399	0.155920
507.889301	0.157455
508.107185	0.159143
508.325050	0.156552
508.542898	0.154528
508.760727	0.154423
508.978538	0.154982
509.196330	0.157052
509.414105	0.159424
509.631861	0.159734
509.849599	0.159781
510.067319	0.159339
510.285021	0.159677
510.502704	0.160442
510.720369	0.160634
510.938016	0.158601
511.155645	0.156750
511.373255	0.155474
511.590848	0.155589
511.808422	0.155918
512.025977	0.156162
512.243515	0.157408
512.461034	0.156732
512.678536	0.158132
512.896018	0.160046
513.113483	0.160246
513.330930	0.160129
513.548358	0.160494
513.765768	0.161169
513.983160	0.160419
514.200533	0.159565
514.417889	0.159569
514.635226	0.158390
514.852545	0.159907
515.069845	0.160655
515.287128	0.161303
515.504392	0.163244
515.721638	0.162537
515.938866	0.163120
516.156075	0.166457
516.373267	0.168164
516.590440	0.169509
516.807594	0.167426
517.024731	0.167174
517.241850	0.166127
517.458950	0.163924
517.676032	0.164189
517.893095	0.165081
518.110141	0.162203
518.327168	0.163221
518.544177	0.162778
518.761168	0.163616
518.978141	0.164315
519.195095	0.165762
519.412031	0.166411
519.628949	0.165777
519.845849	0.165886
520.062731	0.167384
520.279594	0.165896
520.496439	0.167204
520.713266	0.166679
520.930074	0.165414
521.146865	0.165354
521.363637	0.165801
521.580391	0.166337
521.797127	0.165124
522.013844	0.164092
522.230543	0.164759
522.447224	0.164073
522.663887	0.165127
522.880532	0.166866
523.097158	0.167118
523.313766	0.168310
523.530356	0.168561
523.746928	0.170264
523.963481	0.171184
524.180017	0.171249
524.396534	0.171556
524.613032	0.170587
524.829513	0.170202
525.045975	0.170965
525.262420	0.169790
525.478845	0.169652
525.695253	0.169824
525.911643	0.170200
526.128014	0.170004
526.344367	0.171007
526.560702	0.172603
526.777018	0.174113
526.993316	0.174488
527.209597	0.175084
527.425858	0.176539
527.642102	0.176851
527.858328	0.177931
528.074535	0.177882
528.290724	0.177286
528.506894	0.176878
528.723047	0.175714
528.939181	0.176461
529.155297	0.176660
529.371395	0.176569
529.587475	0.176344
529.803536	0.176240
530.019579	0.177425
530.235604	0.178635
530.451611	0.180755
530.667600	0.181524
530.883570	0.181341
531.099522	0.182392
531.315456	0.182856
531.531372	0.184175
531.747269	0.183837
531.963148	0.184039
532.179009	0.185542
532.394852	0.184744
532.610676	0.186026
532.826482	0.186568
533.042271	0.186016
533.258040	0.186120
533.473792	0.185624
533.689525	0.186053
533.905240	0.185604
534.120937	0.184689
534.336616	0.184652
534.552277	0.184424
534.767919	0.184673
534.983543	0.185585
535.199149	0.185729
535.414736	0.186975
535.630306	0.187600
535.845857	0.188763
536.061390	0.188701
536.276904	0.189338
536.492401	0.189975
536.707879	0.190030
536.923339	0.190128
537.138781	0.190448
537.354204	0.189917
537.569610	0.190828
537.784997	0.190820
538.000366	0.191662
538.215716	0.191619
538.431049	0.191117
538.646363	0.191326
538.861659	0.190989
539.076937	0.191364
539.292196	0.192274
539.507438	0.191685
539.722661	0.191820
539.937866	0.191874
540.153052	0.192474
540.368221	0.192921
540.583371	0.193235
540.798503	0.194973
541.013617	0.195832
541.228712	0.196246
541.443789	0.196437
541.658848	0.197565
541.873889	0.197751
542.088912	0.198036
542.303916	0.199363
542.518902	0.199699
542.733870	0.199282
542.948820	0.199545
543.163752	0.199394
543.378665	0.200341
543.593560	0.200192
543.808437	0.200850
544.023295	0.201079
544.238136	0.200060
544.452958	0.199779
544.667762	0.199840
544.882548	0.199879
545.097315	0.200117
545.312064	0.200325
545.526795	0.200671
545.741508	0.200087
545.956203	0.200210
546.170879	0.200186
546.385537	0.200979
546.600177	0.201565
546.814799	0.201698
547.029402	0.201760
547.243988	0.201234
547.458555	0.201434
547.673103	0.202294
547.887634	0.202902
548.102146	0.204238
548.316640	0.204752
548.531116	0.204381
548.745574	0.204371
548.960013	0.204433
549.174435	0.205584
549.388838	0.206028
549.603222	0.206805
549.817589	0.206932
550.031937	0.206559
550.246267	0.206268
550.460579	0.206261
550.674873	0.206746
550.889148	0.207440
551.103405	0.207588
551.317644	0.207415
551.531865	0.206820
551.746068	0.207402
551.960252	0.207024
552.174418	0.207007
552.388566	0.207914
552.602696	0.207925
552.816807	0.207480
553.030900	0.208005
553.244975	0.208534
553.459032	0.208803
553.673070	0.208190
553.887091	0.209647
554.101093	0.209644
554.315077	0.209102
554.529042	0.209141
554.742990	0.210615
554.956919	0.210858
555.170830	0.210326
555.384722	0.210337
555.598597	0.211180
555.812453	0.211273
556.026291	0.212573
556.240111	0.213900
556.453913	0.214367
556.667696	0.214464
556.881461	0.214329
557.095208	0.215620
557.308937	0.215721
557.522647	0.215256
557.736339	0.215209
557.950013	0.215411
558.163669	0.214966
558.377307	0.215752
558.590926	0.215626
558.804527	0.215662
559.018110	0.215643
559.231675	0.216152
559.445221	0.215903
559.658749	0.216226
559.872259	0.216150
560.085751	0.216685
560.299225	0.216606
560.512680	0.216666
560.726117	0.217454
560.939536	0.217785
561.152937	0.218069
561.366319	0.219387
561.579683	0.219158
561.793029	0.219902
562.006357	0.219772
562.219667	0.219475
562.432958	0.219606
562.646231	0.219978
562.859486	0.219396
563.072723	0.219081
563.285941	0.219103
563.499141	0.219632
563.712323	0.219040
563.925487	0.220126
564.138632	0.220535
564.351760	0.220972
564.564869	0.219803
564.777960	0.220338
564.991032	0.221112
565.204087	0.221256
565.417123	0.222154
565.630141	0.222367
565.843140	0.222110
566.056122	0.221911
566.269085	0.222350
566.482030	0.223811
566.694957	0.224441
566.907866	0.224820
567.120756	0.225044
567.333628	0.224100
567.546482	0.224209
567.759318	0.224550
567.972135	0.224811
568.184935	0.224419
568.397716	0.224376
568.610478	0.224017
568.823223	0.223344
569.035949	0.223839
569.248657	0.224135
569.461347	0.224103
569.674019	0.223778
569.886672	0.224513
570.099308	0.224504
570.311925	0.223904
570.524523	0.224266
570.737104	0.224930
570.949666	0.224616
571.162210	0.225112
571.374736	0.225584
571.587244	0.225587
571.799733	0.225077
572.012205	0.225337
572.224658	0.226128
572.437092	0.226034
572.649509	0.226277
572.861907	0.226080
573.074287	0.225939
573.286649	0.225947
573.498993	0.225797
573.711318	0.226604
573.923625	0.226399
574.135914	0.226224
574.348185	0.226466
574.560438	0.225948
574.772672	0.227056
574.984888	0.226884
575.197086	0.226864
575.409266	0.227676
575.621427	0.227750
575.833570	0.228420
576.045695	0.228010
576.257802	0.228412
576.469890	0.228787
576.681961	0.228781
576.894013	0.229499
577.106046	0.230253
577.318062	0.229989
577.530059	0.230106
577.742039	0.230175
577.954000	0.231513
578.165942	0.231384
578.377867	0.232526
578.589773	0.232174
578.801661	0.232725
579.013531	0.232183
579.225382	0.232945
579.437216	0.233297
579.649031	0.234050
579.860828	0.234077
580.072606	0.234162
580.284367	0.234324
580.496109	0.234640
580.707833	0.233629
580.919539	0.234532
581.131227	0.234302
581.342896	0.234154
581.554547	0.234398
581.766180	0.234582
581.977795	0.234842
582.189391	0.235284
582.400969	0.236327
582.612529	0.237592
582.824071	0.237263
583.035595	0.238058
583.247100	0.237986
583.458587	0.237970
583.670056	0.237781
583.881506	0.238110
584.092939	0.237980
584.304353	0.237853
584.515749	0.238100
584.727127	0.239402
584.938486	0.239158
585.149828	0.239782
585.361151	0.239838
585.572456	0.239761
585.783742	0.240260
585.995011	0.239889
586.206261	0.239570
586.417493	0.239490
586.628706	0.238987
586.839902	0.239636
587.051079	0.239346
587.262238	0.239535
587.473379	0.240398
587.684502	0.240749
587.895606	0.241215
588.106692	0.241118
588.317760	0.241585
588.528810	0.241592
588.739841	0.241758
588.950855	0.242536
589.161850	0.242198
589.372827	0.242029
589.583785	0.241462
589.794726	0.241264
590.005648	0.242059
590.216552	0.241872
590.427437	0.242572
590.638305	0.242570
590.849154	0.242093
591.059985	0.242862
591.270798	0.242595
591.481592	0.243014
591.692369	0.242936
591.903127	0.242498
592.113867	0.242803
592.324588	0.242939
592.535292	0.242722
592.745977	0.243941
592.956644	0.244030
593.167293	0.244401
593.377923	0.244104
593.588536	0.244563
593.799130	0.244971
594.009706	0.245776
594.220263	0.245636
594.430803	0.246220
594.641324	0.246093
594.851827	0.246033
595.062312	0.246342
595.272778	0.247404
595.483227	0.247800
595.693657	0.248246
595.904069	0.247542
596.114462	0.248004
596.324838	0.247859
596.535195	0.248007
596.745534	0.248105
596.955855	0.249199
597.166157	0.248635
597.376441	0.248566
597.586707	0.248967
597.796955	0.249307
598.007185	0.249273
598.217396	0.249664
598.427589	0.250055
598.637764	0.250564
598.847921	0.249988
599.058060	0.250672
599.268180	0.251398
599.478282	0.251241
599.688366	0.251023
599.898431	0.251317
600.108479	0.250906
600.318508	0.250524
600.528519	0.250082
600.738511	0.250549
600.948486	0.250766
601.158442	0.250597
601.368380	0.250274
601.578300	0.250345
601.788202	0.249924
601.998085	0.250626
602.207950	0.250713
602.417797	0.251381
602.627626	0.251002
602.837436	0.250888
603.047228	0.250764
603.257002	0.251428
603.466758	0.251560
603.676496	0.251441
603.886215	0.251130
604.095916	0.251517
604.305599	0.251762
604.515264	0.252250
604.724910	0.252434
604.934538	0.252657
605.144148	0.252236
605.353740	0.252839
605.563314	0.253811
605.772869	0.254473
605.982406	0.254679
606.191925	0.254518
606.401425	0.254796
606.610908	0.255374
606.820372	0.255918
607.029818	0.256293
607.239246	0.256382
607.448655	0.256003
607.658047	0.255977
607.867420	0.256203
608.076775	0.256541
608.286111	0.256670
608.495430	0.256737
608.704730	0.256553
608.914012	0.257301
609.123275	0.258285
609.332521	0.258735
609.541748	0.258789
609.750957	0.258660
609.960148	0.258699
610.169321	0.258832
610.378475	0.258463
610.587611	0.258788
610.796729	0.258223
611.005829	0.257693
611.214910	0.257276
611.423974	0.257649
611.633019	0.257773
611.842045	0.257994
612.051054	0.258115
612.260044	0.258679
612.469017	0.258709
612.677970	0.259141
612.886906	0.259061
613.095824	0.259356
613.304723	0.259249
613.513604	0.259444
613.722467	0.259094
613.931311	0.259043
614.140138	0.259466
614.348946	0.259909
614.557736	0.260143
614.766507	0.260311
614.975261	0.260489
615.183996	0.260605
615.392713	0.260825
615.601412	0.261528
615.810092	0.261766
616.018754	0.261760
616.227399	0.262256
616.436024	0.262466
616.644632	0.262610
616.853222	0.262967
617.061793	0.263105
617.270346	0.263589
617.478880	0.263580
617.687397	0.263775
617.895895	0.264125
618.104375	0.263890
618.312837	0.264001
618.521281	0.264258
618.729706	0.264697
618.938113	0.264732
619.146502	0.264798
619.354873	0.265106
619.563226	0.265487
619.771560	0.265329
619.979876	0.265591
620.188174	0.266196
620.396453	0.266320
620.604715	0.266703
620.812958	0.267165
621.021183	0.267324
621.229390	0.267749
621.437578	0.267613
621.645748	0.267775
621.853900	0.268022
622.062034	0.268084
622.270150	0.268464
622.478247	0.268160
622.686326	0.268359
622.894387	0.268802
623.102430	0.268682
623.310454	0.269014
623.518461	0.269141
623.726449	0.269490
623.934418	0.269633
624.142370	0.269951
624.350303	0.270515
624.558218	0.271237
624.766115	0.271563
624.973994	0.271570
625.181855	0.271859
625.389697	0.272611
625.597521	0.272733
625.805327	0.272969
626.013114	0.272592
626.220883	0.272920
626.428634	0.272513
626.636367	0.272288
626.844082	0.272963
627.051778	0.272973
627.259457	0.272719
627.467117	0.272617
627.674758	0.272054
627.882382	0.272705
628.089987	0.272443
628.297574	0.272658
628.505143	0.272756
628.712694	0.272842
628.920226	0.272264
629.127740	0.272481
629.335236	0.272787
629.542714	0.273781
629.750174	0.273535
629.957615	0.273823
630.165038	0.273586
630.372443	0.273519
630.579829	0.273307
630.787198	0.274224
630.994548	0.274108
631.201880	0.274186
631.409194	0.274069
631.616489	0.274484
631.823766	0.274581
632.031025	0.275230
632.238266	0.275284
632.445489	0.275734
632.652693	0.276364
632.859879	0.276964
633.067047	0.277489
633.274197	0.277443
633.481329	0.277469
633.688442	0.277915
633.895537	0.278122
634.102614	0.278705
634.309672	0.278912
634.516713	0.279064
634.723735	0.279193
634.930739	0.279060
635.137724	0.279380
635.344692	0.280180
635.551641	0.280245
635.758572	0.280463
635.965485	0.280328
636.172379	0.280572
636.379256	0.280655
636.586114	0.280831
636.792954	0.281173
636.999775	0.281079
637.206579	0.280731
637.413364	0.280768
637.620131	0.280797
637.826880	0.281063
638.033610	0.280629
638.240323	0.280418
638.447017	0.281113
638.653692	0.281842
638.860350	0.282196
639.066990	0.282799
639.273611	0.283161
639.480214	0.283152
639.686798	0.283758
639.893365	0.284528
640.099913	0.284860
640.306443	0.284446
640.512955	0.283967
640.719449	0.284650
640.925924	0.284844
641.132381	0.285083
641.338820	0.285628
641.545241	0.285399
641.751644	0.285665
641.958028	0.285418
642.164394	0.285380
642.370742	0.285611
642.577071	0.285707
642.783383	0.285755
642.989676	0.285561
643.195951	0.285424
643.402207	0.285569
643.608446	0.285259
643.814666	0.285842
644.020868	0.286358
644.227052	0.286532
644.433218	0.286290
644.639365	0.286340
644.845494	0.286658
645.051605	0.286873
645.257698	0.286968
645.463772	0.287617
645.669828	0.287861
645.875866	0.288123
646.081886	0.288607
646.287888	0.289224
646.493871	0.289801
646.699836	0.290288
646.905783	0.290847
647.111712	0.291606
647.317622	0.292370
647.523514	0.292594
647.729388	0.292677
647.935244	0.292670
648.141082	0.292832
648.346901	0.292626
648.552702	0.293418
648.758485	0.293973
648.964250	0.294265
649.169996	0.293635
649.375724	0.293608
649.581434	0.293834
649.787126	0.293945
649.992800	0.294132
650.198455	0.294371
650.404092	0.293784
650.609711	0.293552
650.815311	0.293749
651.020894	0.294252
651.226458	0.294436
651.432004	0.294723
651.637532	0.294885
651.843041	0.294635
652.048532	0.294960
652.254006	0.295677
652.459460	0.296156
652.664897	0.296578
652.870315	0.296877
653.075716	0.297724
653.281097	0.298275
653.486461	0.298702
653.691807	0.299354
653.897134	0.299498
654.102443	0.299700
654.307734	0.299997
654.513006	0.300132
654.718261	0.300203
654.923497	0.300324
655.128715	0.300244
655.333915	0.300544
655.539096	0.301190
655.744259	0.301922
655.949404	0.301819
656.154531	0.302030
656.359640	0.302015
656.564730	0.302314
656.769802	0.302697
656.974856	0.302987
657.179892	0.303184
657.384909	0.302599
657.589908	0.302077
657.794889	0.302581
657.999852	0.302886
658.204797	0.303195
658.409723	0.303058
658.614631	0.302619
658.819521	0.302453
659.024393	0.302496
659.229246	0.302739
659.434081	0.303379
659.638898	0.303927
659.843697	0.304219
660.048478	0.304544
660.253240	0.305133
660.457984	0.305727
660.662710	0.306089
660.867417	0.306431
661.072107	0.307039
661.276778	0.307219
661.481431	0.306921
661.686066	0.306759
661.890682	0.306602
662.095281	0.307135
662.299861	0.307310
662.504422	0.307747
662.708966	0.308224
662.913491	0.308288
663.117999	0.308889
663.322488	0.309020
663.526958	0.309576
663.731411	0.310291
663.935845	0.310559
664.140261	0.310830
664.344659	0.310795
664.549038	0.311193
664.753400	0.311396
664.957743	0.311769
665.162068	0.312470
665.366375	0.312706
665.570663	0.312933
665.774933	0.313140
665.979185	0.313596
666.183419	0.314239
666.387635	0.314153
666.591832	0.314848
666.796011	0.314333
667.000172	0.314469
667.204315	0.314732
667.408439	0.314994
667.612545	0.315199
667.816634	0.315430
668.020703	0.315522
668.224755	0.315600
668.428788	0.316112
668.632803	0.316792
668.836800	0.317132
669.040779	0.317247
669.244739	0.317637
669.448681	0.318140
669.652605	0.318227
669.856511	0.318869
670.060399	0.319273
670.264268	0.319106
670.468119	0.319278
670.671952	0.319612
670.875767	0.319814
671.079563	0.319847
671.283341	0.320162
671.487101	0.320671
671.690843	0.320380
671.894567	0.320695
672.098272	0.320547
672.301959	0.320640
672.505628	0.320907
672.709278	0.321034
672.912911	0.321070
673.116525	0.320819
673.320121	0.321079
673.523699	0.321589
673.727258	0.321701
673.930799	0.322739
674.134322	0.323265
674.337827	0.322831
674.541314	0.323240
674.744782	0.323750
674.948232	0.324401
675.151664	0.324279
675.355078	0.324386
675.558474	0.324762
675.761851	0.324242
675.965210	0.324698
676.168551	0.325230
676.371873	0.325530
676.575178	0.325565
676.778464	0.326151
676.981732	0.326299
677.184981	0.326461
677.388213	0.326807
677.591426	0.327572
677.794621	0.327700
677.997798	0.327923
678.200956	0.328014
678.404097	0.328575
678.607219	0.328288
678.810323	0.328955
679.013408	0.329321
679.216476	0.329042
679.419525	0.329440
679.622556	0.329283
679.825569	0.330006
680.028563	0.330378
680.231540	0.330463
680.434498	0.330689
680.637438	0.331151
680.840359	0.331519
681.043263	0.332138
681.246148	0.332279
681.449015	0.332821
681.651864	0.332467
681.854694	0.332809
682.057506	0.333029
682.260301	0.333259
682.463076	0.332979
682.665834	0.332937
682.868573	0.333359
683.071295	0.333635
683.273998	0.333753
683.476682	0.334244
683.679349	0.334676
683.881997	0.334923
684.084627	0.335039
684.287239	0.335541
684.489833	0.335691
684.692408	0.335848
684.894965	0.335958
685.097504	0.336213
685.300025	0.336647
685.502527	0.336278
685.705012	0.336488
685.907478	0.336351
686.109925	0.336455
686.312355	0.336610
686.514766	0.336857
686.717159	0.336794
686.919534	0.337051
687.121891	0.337152
687.324230	0.337681
687.526550	0.338128
687.728852	0.338974
687.931136	0.339365
688.133401	0.339799
688.335649	0.339631
688.537878	0.340249
688.740089	0.340713
688.942281	0.340396
689.144456	0.340531
689.346612	0.340355
689.548750	0.340082
689.750870	0.340048
689.952971	0.340473
690.155055	0.341214
690.357120	0.341034
690.559167	0.341079
690.761195	0.341260
690.963206	0.341174
691.165198	0.341464
691.367172	0.342020
691.569128	0.342107
691.771065	0.342764
691.972984	0.342883
692.174885	0.343363
692.376768	0.343565
692.578633	0.343927
692.780479	0.344512
692.982308	0.344602
693.184118	0.344504
693.385909	0.345078
