sample name	sample
index	891
start time	 04-08-2021  02:51:37 PM


Wavelength (nm)	Absorbance
494.344910	0.039865
494.563924	0.039865
494.782919	0.039865
495.001897	-0.028990
495.220856	0.018835
495.439797	0.013996
495.658719	0.013788
495.877624	0.009320
496.096510	0.009341
496.315378	0.002674
496.534227	-0.000086
496.753059	-0.001400
496.971872	0.000681
497.190667	0.062754
497.409444	0.107945
497.628203	0.124878
497.846943	0.137776
498.065665	0.148158
498.284369	0.154505
498.503055	0.158595
498.721723	0.161567
498.940372	0.164244
499.159003	0.166471
499.377616	0.167110
499.596210	0.167480
499.814787	0.167200
500.033345	0.166008
500.251885	0.166692
500.470406	0.166207
500.688910	0.166045
500.907395	0.166371
501.125862	0.166023
501.344311	0.166998
501.562742	0.168837
501.781154	0.169303
501.999548	0.171675
502.217924	0.171369
502.436282	0.172342
502.654621	0.173022
502.872942	0.173159
503.091245	0.174139
503.309530	0.173874
503.527797	0.172143
503.746045	0.171805
503.964275	0.170262
504.182487	0.171071
504.400681	0.171184
504.618856	0.171471
504.837013	0.170536
505.055152	0.170242
505.273273	0.169708
505.491376	0.171244
505.709460	0.172257
505.927526	0.173603
506.145574	0.174086
506.363604	0.174877
506.581615	0.174213
506.799608	0.175787
507.017583	0.175370
507.235540	0.175898
507.453478	0.175836
507.671399	0.176060
507.889301	0.176168
508.107185	0.175226
508.325050	0.175591
508.542898	0.176981
508.760727	0.176161
508.978538	0.177121
509.196330	0.177767
509.414105	0.178409
509.631861	0.179385
509.849599	0.178911
510.067319	0.179613
510.285021	0.179402
510.502704	0.179702
510.720369	0.180925
510.938016	0.181460
511.155645	0.182267
511.373255	0.182599
511.590848	0.182252
511.808422	0.183121
512.025977	0.183509
512.243515	0.185101
512.461034	0.184610
512.678536	0.184996
512.896018	0.185181
513.113483	0.184563
513.330930	0.185725
513.548358	0.185555
513.765768	0.185619
513.983160	0.185825
514.200533	0.185200
514.417889	0.186096
514.635226	0.187694
514.852545	0.187984
515.069845	0.188801
515.287128	0.187991
515.504392	0.188836
515.721638	0.189170
515.938866	0.189934
516.156075	0.190087
516.373267	0.190694
516.590440	0.189465
516.807594	0.189931
517.024731	0.190252
517.241850	0.191013
517.458950	0.190793
517.676032	0.191616
517.893095	0.192002
518.110141	0.192137
518.327168	0.192383
518.544177	0.192968
518.761168	0.193246
518.978141	0.193690
519.195095	0.194020
519.412031	0.194991
519.628949	0.194946
519.845849	0.194636
520.062731	0.195028
520.279594	0.195268
520.496439	0.195771
520.713266	0.196394
520.930074	0.196762
521.146865	0.197464
521.363637	0.198171
521.580391	0.198678
521.797127	0.199305
522.013844	0.199971
522.230543	0.199478
522.447224	0.199514
522.663887	0.200106
522.880532	0.199890
523.097158	0.200033
523.313766	0.200022
523.530356	0.200744
523.746928	0.201216
523.963481	0.201236
524.180017	0.202253
524.396534	0.201889
524.613032	0.202096
524.829513	0.203114
525.045975	0.204103
525.262420	0.204972
525.478845	0.204566
525.695253	0.205264
525.911643	0.205942
526.128014	0.205479
526.344367	0.206595
526.560702	0.206463
526.777018	0.207156
526.993316	0.206564
527.209597	0.207372
527.425858	0.208467
527.642102	0.208490
527.858328	0.209252
528.074535	0.209867
528.290724	0.210374
528.506894	0.211021
528.723047	0.211020
528.939181	0.211514
529.155297	0.210761
529.371395	0.211364
529.587475	0.211912
529.803536	0.211701
530.019579	0.212659
530.235604	0.212991
530.451611	0.213294
530.667600	0.213383
530.883570	0.213974
531.099522	0.214937
531.315456	0.214842
531.531372	0.214747
531.747269	0.215819
531.963148	0.216578
532.179009	0.217006
532.394852	0.216769
532.610676	0.218056
532.826482	0.218211
533.042271	0.218565
533.258040	0.218826
533.473792	0.219432
533.689525	0.220035
533.905240	0.220873
534.120937	0.221047
534.336616	0.221812
534.552277	0.221807
534.767919	0.222505
534.983543	0.222995
535.199149	0.223901
535.414736	0.224316
535.630306	0.224305
535.845857	0.224335
536.061390	0.224515
536.276904	0.225168
536.492401	0.225305
536.707879	0.225784
536.923339	0.226597
537.138781	0.226459
537.354204	0.227578
537.569610	0.228018
537.784997	0.228347
538.000366	0.229006
538.215716	0.229443
538.431049	0.230519
538.646363	0.231024
538.861659	0.230172
539.076937	0.231129
539.292196	0.231192
539.507438	0.231703
539.722661	0.232475
539.937866	0.233220
540.153052	0.234170
540.368221	0.234480
540.583371	0.234235
540.798503	0.235189
541.013617	0.235440
541.228712	0.235886
541.443789	0.236416
541.658848	0.236211
541.873889	0.236685
542.088912	0.236344
542.303916	0.236070
542.518902	0.236859
542.733870	0.237592
542.948820	0.237591
543.163752	0.237930
543.378665	0.238185
543.593560	0.238622
543.808437	0.239162
544.023295	0.239274
544.238136	0.239853
544.452958	0.240307
544.667762	0.240784
544.882548	0.241877
545.097315	0.242469
545.312064	0.242519
545.526795	0.243014
545.741508	0.242786
545.956203	0.243470
546.170879	0.243676
546.385537	0.243901
546.600177	0.243980
546.814799	0.244042
547.029402	0.243920
547.243988	0.244685
547.458555	0.244777
547.673103	0.245593
547.887634	0.246382
548.102146	0.247095
548.316640	0.247368
548.531116	0.247539
548.745574	0.248138
548.960013	0.248838
549.174435	0.249000
549.388838	0.249579
549.603222	0.249099
549.817589	0.249054
550.031937	0.249057
550.246267	0.249053
550.460579	0.249478
550.674873	0.249214
550.889148	0.249965
551.103405	0.250034
551.317644	0.250300
551.531865	0.251305
551.746068	0.251745
551.960252	0.252292
552.174418	0.252998
552.388566	0.253291
552.602696	0.253515
552.816807	0.253201
553.030900	0.253399
553.244975	0.253840
553.459032	0.254192
553.673070	0.254633
553.887091	0.254950
554.101093	0.255511
554.315077	0.255713
554.529042	0.256487
554.742990	0.256488
554.956919	0.256907
555.170830	0.256889
555.384722	0.257032
555.598597	0.256904
555.812453	0.257521
556.026291	0.257652
556.240111	0.257846
556.453913	0.257797
556.667696	0.258340
556.881461	0.258783
557.095208	0.258845
557.308937	0.258610
557.522647	0.258644
557.736339	0.258298
557.950013	0.258455
558.163669	0.259145
558.377307	0.259321
558.590926	0.259126
558.804527	0.259148
559.018110	0.259372
559.231675	0.259775
559.445221	0.260510
559.658749	0.260636
559.872259	0.260685
560.085751	0.260479
560.299225	0.260865
560.512680	0.261150
560.726117	0.261174
560.939536	0.261530
561.152937	0.262041
561.366319	0.262159
561.579683	0.262463
561.793029	0.262666
562.006357	0.263203
562.219667	0.263942
562.432958	0.264515
562.646231	0.265171
562.859486	0.265074
563.072723	0.265124
563.285941	0.265194
563.499141	0.265731
563.712323	0.265568
563.925487	0.265545
564.138632	0.265324
564.351760	0.265463
564.564869	0.265834
564.777960	0.266835
564.991032	0.267522
565.204087	0.267720
565.417123	0.267697
565.630141	0.268575
565.843140	0.269232
566.056122	0.269202
566.269085	0.269327
566.482030	0.269470
566.694957	0.269336
566.907866	0.269408
567.120756	0.269416
567.333628	0.269502
567.546482	0.269529
567.759318	0.269265
567.972135	0.269435
568.184935	0.269785
568.397716	0.269605
568.610478	0.269980
568.823223	0.269783
569.035949	0.270728
569.248657	0.271346
569.461347	0.271569
569.674019	0.272107
569.886672	0.272359
570.099308	0.272573
570.311925	0.272908
570.524523	0.273179
570.737104	0.273666
570.949666	0.273315
571.162210	0.273308
571.374736	0.273241
571.587244	0.273515
571.799733	0.273575
572.012205	0.273935
572.224658	0.274040
572.437092	0.274210
572.649509	0.274411
572.861907	0.274640
573.074287	0.274545
573.286649	0.274897
573.498993	0.274959
573.711318	0.275638
573.923625	0.276066
574.135914	0.276092
574.348185	0.275800
574.560438	0.276156
574.772672	0.276569
574.984888	0.277079
575.197086	0.277413
575.409266	0.277061
575.621427	0.276802
575.833570	0.277002
576.045695	0.277298
576.257802	0.277666
576.469890	0.277739
576.681961	0.277879
576.894013	0.277913
577.106046	0.278039
577.318062	0.278792
577.530059	0.279034
577.742039	0.278492
577.954000	0.278619
578.165942	0.278725
578.377867	0.278992
578.589773	0.278922
578.801661	0.278751
579.013531	0.279222
579.225382	0.279351
579.437216	0.279314
579.649031	0.280244
579.860828	0.280736
580.072606	0.281283
580.284367	0.281423
580.496109	0.281904
580.707833	0.282963
580.919539	0.282672
581.131227	0.282768
581.342896	0.283221
581.554547	0.282937
581.766180	0.283197
581.977795	0.283228
582.189391	0.283315
582.400969	0.283324
582.612529	0.283242
582.824071	0.283528
583.035595	0.283869
583.247100	0.284202
583.458587	0.284329
583.670056	0.284303
583.881506	0.284529
584.092939	0.284635
584.304353	0.285013
584.515749	0.285154
584.727127	0.285563
584.938486	0.285293
585.149828	0.285459
585.361151	0.285954
585.572456	0.286356
585.783742	0.286725
585.995011	0.287048
586.206261	0.287652
586.417493	0.288017
586.628706	0.288331
586.839902	0.289092
587.051079	0.289389
587.262238	0.289670
587.473379	0.289820
587.684502	0.289789
587.895606	0.289901
588.106692	0.289499
588.317760	0.289760
588.528810	0.290173
588.739841	0.289939
588.950855	0.290149
589.161850	0.290011
589.372827	0.290364
589.583785	0.290756
589.794726	0.291084
590.005648	0.291347
590.216552	0.291381
590.427437	0.291016
590.638305	0.291234
590.849154	0.291152
591.059985	0.291555
591.270798	0.291309
591.481592	0.291655
591.692369	0.291580
591.903127	0.291449
592.113867	0.291687
592.324588	0.291964
592.535292	0.292669
592.745977	0.293135
592.956644	0.292944
593.167293	0.293624
593.377923	0.293727
593.588536	0.294130
593.799130	0.294774
594.009706	0.294560
594.220263	0.294714
594.430803	0.294553
594.641324	0.294325
594.851827	0.294689
595.062312	0.294547
595.272778	0.294579
595.483227	0.294917
595.693657	0.295222
595.904069	0.295459
596.114462	0.295784
596.324838	0.296193
596.535195	0.296803
596.745534	0.297204
596.955855	0.297351
597.166157	0.297759
597.376441	0.297998
597.586707	0.298225
597.796955	0.298632
598.007185	0.299247
598.217396	0.299414
598.427589	0.299745
598.637764	0.300058
598.847921	0.300230
599.058060	0.300637
599.268180	0.300877
599.478282	0.300838
599.688366	0.301002
599.898431	0.301184
600.108479	0.300579
600.318508	0.300765
600.528519	0.300417
600.738511	0.301006
600.948486	0.300760
601.158442	0.300751
601.368380	0.300878
601.578300	0.301267
601.788202	0.301068
601.998085	0.301679
602.207950	0.301594
602.417797	0.302202
602.627626	0.302116
602.837436	0.302172
603.047228	0.302641
603.257002	0.302718
603.466758	0.302720
603.676496	0.302767
603.886215	0.302994
604.095916	0.303273
604.305599	0.303377
604.515264	0.303588
604.724910	0.303983
604.934538	0.303918
605.144148	0.304308
605.353740	0.304550
605.563314	0.305127
605.772869	0.305248
605.982406	0.305369
606.191925	0.305366
606.401425	0.305793
606.610908	0.305997
606.820372	0.306169
607.029818	0.306440
607.239246	0.306361
607.448655	0.306549
607.658047	0.306899
607.867420	0.306997
608.076775	0.307245
608.286111	0.307311
608.495430	0.307389
608.704730	0.307530
608.914012	0.307079
609.123275	0.307370
609.332521	0.307390
609.541748	0.307812
609.750957	0.308167
609.960148	0.308208
610.169321	0.308307
610.378475	0.308317
610.587611	0.308449
610.796729	0.309268
611.005829	0.309412
611.214910	0.309736
611.423974	0.309835
611.633019	0.310127
611.842045	0.310578
612.051054	0.310603
612.260044	0.310837
612.469017	0.310835
612.677970	0.311243
612.886906	0.311588
613.095824	0.311607
613.304723	0.311820
613.513604	0.311877
613.722467	0.312131
613.931311	0.312442
614.140138	0.312770
614.348946	0.313231
614.557736	0.313097
614.766507	0.313440
614.975261	0.313515
615.183996	0.313455
615.392713	0.313516
615.601412	0.313496
615.810092	0.313467
616.018754	0.313580
616.227399	0.313467
616.436024	0.313897
616.644632	0.313850
616.853222	0.314062
617.061793	0.314411
617.270346	0.314665
617.478880	0.314656
617.687397	0.314611
617.895895	0.314666
618.104375	0.314962
618.312837	0.314485
618.521281	0.314432
618.729706	0.314602
618.938113	0.314861
619.146502	0.314925
619.354873	0.315203
619.563226	0.315882
619.771560	0.316014
619.979876	0.316075
620.188174	0.316436
620.396453	0.316761
620.604715	0.317084
620.812958	0.316693
621.021183	0.316806
621.229390	0.316939
621.437578	0.317071
621.645748	0.317336
621.853900	0.317750
622.062034	0.318019
622.270150	0.318293
622.478247	0.318357
622.686326	0.318905
622.894387	0.319037
623.102430	0.319210
623.310454	0.319192
623.518461	0.319482
623.726449	0.319360
623.934418	0.319470
624.142370	0.319423
624.350303	0.319507
624.558218	0.319583
624.766115	0.319777
624.973994	0.319897
625.181855	0.320006
625.389697	0.320260
625.597521	0.320837
625.805327	0.321177
626.013114	0.321515
626.220883	0.321656
626.428634	0.321595
626.636367	0.321718
626.844082	0.322022
627.051778	0.322610
627.259457	0.322701
627.467117	0.322666
627.674758	0.322663
627.882382	0.322944
628.089987	0.323229
628.297574	0.323650
628.505143	0.324064
628.712694	0.324593
628.920226	0.324410
629.127740	0.324508
629.335236	0.324579
629.542714	0.324965
629.750174	0.324970
629.957615	0.325010
630.165038	0.325486
630.372443	0.325738
630.579829	0.325570
630.787198	0.325999
630.994548	0.326073
631.201880	0.326376
631.409194	0.326367
631.616489	0.326553
631.823766	0.326926
632.031025	0.327130
632.238266	0.327120
632.445489	0.327512
632.652693	0.327672
632.859879	0.328231
633.067047	0.328464
633.274197	0.328726
633.481329	0.328916
633.688442	0.328895
633.895537	0.328815
634.102614	0.328847
634.309672	0.328772
634.516713	0.328849
634.723735	0.328914
634.930739	0.329123
635.137724	0.329298
635.344692	0.329488
635.551641	0.329745
635.758572	0.329898
635.965485	0.330185
636.172379	0.330262
636.379256	0.330582
636.586114	0.330815
636.792954	0.331052
636.999775	0.331377
637.206579	0.331981
637.413364	0.332127
637.620131	0.332161
637.826880	0.332287
638.033610	0.332742
638.240323	0.332680
638.447017	0.332268
638.653692	0.332260
638.860350	0.332269
639.066990	0.332106
639.273611	0.332231
639.480214	0.332500
639.686798	0.333023
639.893365	0.333136
640.099913	0.333496
640.306443	0.334419
640.512955	0.334598
640.719449	0.334934
640.925924	0.335223
641.132381	0.335674
641.338820	0.335754
641.545241	0.335702
641.751644	0.335926
641.958028	0.336112
642.164394	0.336034
642.370742	0.336102
642.577071	0.336099
642.783383	0.336431
642.989676	0.336727
643.195951	0.337260
643.402207	0.337443
643.608446	0.337580
643.814666	0.337757
644.020868	0.338019
644.227052	0.338554
644.433218	0.338730
644.639365	0.338850
644.845494	0.338632
645.051605	0.338865
645.257698	0.339291
645.463772	0.339388
645.669828	0.339626
645.875866	0.339867
646.081886	0.339868
646.287888	0.340061
646.493871	0.340085
646.699836	0.340310
646.905783	0.340270
647.111712	0.340194
647.317622	0.340719
647.523514	0.340876
647.729388	0.340659
647.935244	0.340978
648.141082	0.341648
648.346901	0.342027
648.552702	0.342584
648.758485	0.342804
648.964250	0.343198
649.169996	0.343479
649.375724	0.343929
649.581434	0.344285
649.787126	0.344515
649.992800	0.344446
650.198455	0.344531
650.404092	0.344573
650.609711	0.345093
650.815311	0.345076
651.020894	0.345047
651.226458	0.345002
651.432004	0.345389
651.637532	0.345515
651.843041	0.345628
652.048532	0.345491
652.254006	0.345773
652.459460	0.345749
652.664897	0.346207
652.870315	0.346562
653.075716	0.346687
653.281097	0.346793
653.486461	0.347333
653.691807	0.347641
653.897134	0.348209
654.102443	0.348471
654.307734	0.348585
654.513006	0.348600
654.718261	0.348807
654.923497	0.349442
655.128715	0.349588
655.333915	0.349419
655.539096	0.349406
655.744259	0.349501
655.949404	0.349717
656.154531	0.350019
656.359640	0.350563
656.564730	0.350649
656.769802	0.350621
656.974856	0.351130
657.179892	0.351571
657.384909	0.352070
657.589908	0.352413
657.794889	0.352445
657.999852	0.352871
658.204797	0.352878
658.409723	0.353489
658.614631	0.353926
658.819521	0.354009
659.024393	0.354112
659.229246	0.354408
659.434081	0.354724
659.638898	0.355077
659.843697	0.355026
660.048478	0.355249
660.253240	0.355121
660.457984	0.355074
660.662710	0.355261
660.867417	0.355663
661.072107	0.355516
661.276778	0.355865
661.481431	0.356092
661.686066	0.356233
661.890682	0.356482
662.095281	0.356732
662.299861	0.357019
662.504422	0.357545
662.708966	0.357783
662.913491	0.358480
663.117999	0.358374
663.322488	0.358775
663.526958	0.359350
663.731411	0.359586
663.935845	0.360098
664.140261	0.360484
664.344659	0.360815
664.549038	0.361104
664.753400	0.361252
664.957743	0.361649
665.162068	0.361700
665.366375	0.361842
665.570663	0.361993
665.774933	0.362102
665.979185	0.362500
666.183419	0.362772
666.387635	0.362775
666.591832	0.363058
666.796011	0.363359
667.000172	0.363650
667.204315	0.363838
667.408439	0.364335
667.612545	0.364556
667.816634	0.364559
668.020703	0.364438
668.224755	0.364719
668.428788	0.365005
668.632803	0.365310
668.836800	0.365653
669.040779	0.366090
669.244739	0.366301
669.448681	0.366506
669.652605	0.366751
669.856511	0.366785
670.060399	0.367156
670.264268	0.367236
670.468119	0.367499
670.671952	0.367563
670.875767	0.367577
671.079563	0.368072
671.283341	0.368469
671.487101	0.368732
671.690843	0.369276
671.894567	0.369453
672.098272	0.369534
672.301959	0.369770
672.505628	0.370008
672.709278	0.370401
672.912911	0.370434
673.116525	0.370492
673.320121	0.370626
673.523699	0.371047
673.727258	0.371371
673.930799	0.371761
674.134322	0.371888
674.337827	0.372051
674.541314	0.372407
674.744782	0.372967
674.948232	0.373232
675.151664	0.373689
675.355078	0.373712
675.558474	0.373809
675.761851	0.374375
675.965210	0.374844
676.168551	0.375491
676.371873	0.375725
676.575178	0.375652
676.778464	0.375967
676.981732	0.376287
677.184981	0.376744
677.388213	0.377068
677.591426	0.377087
677.794621	0.377273
677.997798	0.377512
678.200956	0.377492
678.404097	0.377808
678.607219	0.378132
678.810323	0.378020
679.013408	0.378225
679.216476	0.378336
679.419525	0.378450
679.622556	0.378686
679.825569	0.378921
680.028563	0.379259
680.231540	0.379425
680.434498	0.379780
680.637438	0.380228
680.840359	0.380386
681.043263	0.380886
681.246148	0.381380
681.449015	0.381598
681.651864	0.381640
681.854694	0.381852
682.057506	0.381905
682.260301	0.382127
682.463076	0.382411
682.665834	0.382738
682.868573	0.382969
683.071295	0.382928
683.273998	0.383178
683.476682	0.383404
683.679349	0.383641
683.881997	0.383938
684.084627	0.383999
684.287239	0.384314
684.489833	0.384701
684.692408	0.384721
684.894965	0.384942
685.097504	0.385228
685.300025	0.385561
685.502527	0.385747
685.705012	0.386001
685.907478	0.386340
686.109925	0.386327
686.312355	0.386266
686.514766	0.386413
686.717159	0.386591
686.919534	0.386618
687.121891	0.387042
687.324230	0.387361
687.526550	0.387824
687.728852	0.387846
687.931136	0.388195
688.133401	0.388543
688.335649	0.389032
688.537878	0.389544
688.740089	0.389861
688.942281	0.389848
689.144456	0.389879
689.346612	0.389915
689.548750	0.389886
689.750870	0.390186
689.952971	0.390400
690.155055	0.390699
690.357120	0.390768
690.559167	0.390877
690.761195	0.391132
690.963206	0.391805
691.165198	0.392268
691.367172	0.392916
691.569128	0.392941
691.771065	0.393099
691.972984	0.393125
692.174885	0.393619
692.376768	0.393659
692.578633	0.393830
692.780479	0.393824
692.982308	0.394112
693.184118	0.394236
693.385909	0.394580
