sample name	sample
index	1405
start time	 05-10-2021  11:23:23 AM


Wavelength (nm)	Absorbance
494.344910	0.006792
494.563924	0.006792
494.782919	0.006792
495.001897	0.014930
495.220856	0.004058
495.439797	0.003718
495.658719	0.001454
495.877624	0.002027
496.096510	0.016486
496.315378	0.008014
496.534227	0.009667
496.753059	0.012637
496.971872	0.012443
497.190667	0.108439
497.409444	0.145131
497.628203	0.155682
497.846943	0.161037
498.065665	0.162959
498.284369	0.165452
498.503055	0.166557
498.721723	0.168558
498.940372	0.169254
499.159003	0.169133
499.377616	0.168717
499.596210	0.168511
499.814787	0.168538
500.033345	0.169651
500.251885	0.169303
500.470406	0.170406
500.688910	0.170649
500.907395	0.172139
501.125862	0.172804
501.344311	0.173315
501.562742	0.173526
501.781154	0.174210
501.999548	0.172914
502.217924	0.174049
502.436282	0.173902
502.654621	0.172600
502.872942	0.171193
503.091245	0.171163
503.309530	0.171468
503.527797	0.171778
503.746045	0.171307
503.964275	0.171998
504.182487	0.172185
504.400681	0.172493
504.618856	0.173600
504.837013	0.175058
505.055152	0.174999
505.273273	0.175288
505.491376	0.175633
505.709460	0.176290
505.927526	0.175742
506.145574	0.175245
506.363604	0.175392
506.581615	0.176194
506.799608	0.176380
507.017583	0.177165
507.235540	0.176169
507.453478	0.176143
507.671399	0.176287
507.889301	0.177606
508.107185	0.179014
508.325050	0.179136
508.542898	0.178264
508.760727	0.178631
508.978538	0.178366
509.196330	0.178992
509.414105	0.179351
509.631861	0.178437
509.849599	0.177357
510.067319	0.177854
510.285021	0.178569
510.502704	0.178242
510.720369	0.177283
510.938016	0.178407
511.155645	0.179016
511.373255	0.178895
511.590848	0.180027
511.808422	0.180589
512.025977	0.179818
512.243515	0.180394
512.461034	0.181700
512.678536	0.182841
512.896018	0.182758
513.113483	0.182802
513.330930	0.183338
513.548358	0.183659
513.765768	0.184521
513.983160	0.185152
514.200533	0.184951
514.417889	0.185432
514.635226	0.185630
514.852545	0.185807
515.069845	0.186162
515.287128	0.185639
515.504392	0.186617
515.721638	0.186780
515.938866	0.187184
516.156075	0.186361
516.373267	0.186153
516.590440	0.186631
516.807594	0.186935
517.024731	0.187420
517.241850	0.188552
517.458950	0.189005
517.676032	0.189466
517.893095	0.190311
518.110141	0.191047
518.327168	0.191909
518.544177	0.192103
518.761168	0.192375
518.978141	0.192079
519.195095	0.191922
519.412031	0.191165
519.628949	0.191681
519.845849	0.191110
520.062731	0.192223
520.279594	0.192438
520.496439	0.192464
520.713266	0.192382
520.930074	0.193539
521.146865	0.194093
521.363637	0.195167
521.580391	0.195410
521.797127	0.195756
522.013844	0.195239
522.230543	0.194831
522.447224	0.195350
522.663887	0.196176
522.880532	0.195850
523.097158	0.196495
523.313766	0.196551
523.530356	0.196139
523.746928	0.196188
523.963481	0.196955
524.180017	0.197766
524.396534	0.198325
524.613032	0.197720
524.829513	0.197782
525.045975	0.197829
525.262420	0.198132
525.478845	0.199111
525.695253	0.199467
525.911643	0.199615
526.128014	0.199815
526.344367	0.200184
526.560702	0.200576
526.777018	0.201315
526.993316	0.202167
527.209597	0.201765
527.425858	0.201797
527.642102	0.202409
527.858328	0.202635
528.074535	0.202421
528.290724	0.202373
528.506894	0.203094
528.723047	0.203289
528.939181	0.203450
529.155297	0.204919
529.371395	0.205443
529.587475	0.205274
529.803536	0.206233
530.019579	0.207564
530.235604	0.208375
530.451611	0.209222
530.667600	0.210166
530.883570	0.210196
531.099522	0.209997
531.315456	0.210358
531.531372	0.211041
531.747269	0.211482
531.963148	0.211296
532.179009	0.211744
532.394852	0.211643
532.610676	0.211234
532.826482	0.211665
533.042271	0.212163
533.258040	0.212305
533.473792	0.212776
533.689525	0.212246
533.905240	0.212453
534.120937	0.212467
534.336616	0.213486
534.552277	0.214080
534.767919	0.214880
534.983543	0.215202
535.199149	0.215507
535.414736	0.215691
535.630306	0.216419
535.845857	0.217127
536.061390	0.218007
536.276904	0.218201
536.492401	0.218723
536.707879	0.218625
536.923339	0.218596
537.138781	0.219240
537.354204	0.219674
537.569610	0.220110
537.784997	0.220191
538.000366	0.220280
538.215716	0.220697
538.431049	0.220926
538.646363	0.221763
538.861659	0.222447
539.076937	0.222420
539.292196	0.223233
539.507438	0.223583
539.722661	0.223876
539.937866	0.223707
540.153052	0.223674
540.368221	0.224564
540.583371	0.224853
540.798503	0.224982
541.013617	0.225462
541.228712	0.225231
541.443789	0.225115
541.658848	0.225927
541.873889	0.226642
542.088912	0.226796
542.303916	0.226530
542.518902	0.226786
542.733870	0.227276
542.948820	0.227599
543.163752	0.228108
543.378665	0.229089
543.593560	0.229428
543.808437	0.229592
544.023295	0.230503
544.238136	0.231241
544.452958	0.231688
544.667762	0.232350
544.882548	0.233369
545.097315	0.234255
545.312064	0.234742
545.526795	0.235251
545.741508	0.236055
545.956203	0.236105
546.170879	0.236544
546.385537	0.236503
546.600177	0.236710
546.814799	0.236938
547.029402	0.236566
547.243988	0.236236
547.458555	0.236250
547.673103	0.236573
547.887634	0.236536
548.102146	0.236381
548.316640	0.237169
548.531116	0.237317
548.745574	0.236778
548.960013	0.236815
549.174435	0.237200
549.388838	0.237257
549.603222	0.237043
549.817589	0.237295
550.031937	0.237666
550.246267	0.237744
550.460579	0.238209
550.674873	0.239289
550.889148	0.239930
551.103405	0.240242
551.317644	0.240173
551.531865	0.240553
551.746068	0.241143
551.960252	0.241840
552.174418	0.242054
552.388566	0.242292
552.602696	0.242506
552.816807	0.242940
553.030900	0.242836
553.244975	0.243639
553.459032	0.243777
553.673070	0.243830
553.887091	0.243390
554.101093	0.243533
554.315077	0.243473
554.529042	0.243102
554.742990	0.243036
554.956919	0.243679
555.170830	0.243875
555.384722	0.244421
555.598597	0.244813
555.812453	0.245717
556.026291	0.245637
556.240111	0.246005
556.453913	0.246807
556.667696	0.247414
556.881461	0.247748
557.095208	0.247815
557.308937	0.247748
557.522647	0.248016
557.736339	0.247690
557.950013	0.247989
558.163669	0.248394
558.377307	0.248334
558.590926	0.248448
558.804527	0.248555
559.018110	0.248856
559.231675	0.249123
559.445221	0.249258
559.658749	0.249439
559.872259	0.249611
560.085751	0.249663
560.299225	0.249633
560.512680	0.249708
560.726117	0.250041
560.939536	0.250307
561.152937	0.250221
561.366319	0.250250
561.579683	0.250538
561.793029	0.250858
562.006357	0.250920
562.219667	0.251326
562.432958	0.251460
562.646231	0.251305
562.859486	0.251416
563.072723	0.252016
563.285941	0.252521
563.499141	0.252793
563.712323	0.253257
563.925487	0.253661
564.138632	0.253215
564.351760	0.253472
564.564869	0.253538
564.777960	0.253713
564.991032	0.253943
565.204087	0.253854
565.417123	0.253892
565.630141	0.253825
565.843140	0.253808
566.056122	0.254762
566.269085	0.254637
566.482030	0.255018
566.694957	0.255573
566.907866	0.255994
567.120756	0.256307
567.333628	0.256338
567.546482	0.256708
567.759318	0.257040
567.972135	0.257434
568.184935	0.257719
568.397716	0.257992
568.610478	0.257683
568.823223	0.256983
569.035949	0.256765
569.248657	0.257192
569.461347	0.256840
569.674019	0.256357
569.886672	0.255792
570.099308	0.255577
570.311925	0.255326
570.524523	0.255239
570.737104	0.255668
570.949666	0.256321
571.162210	0.256155
571.374736	0.256621
571.587244	0.257233
571.799733	0.257302
572.012205	0.257829
572.224658	0.258472
572.437092	0.258839
572.649509	0.258949
572.861907	0.258512
573.074287	0.258667
573.286649	0.258817
573.498993	0.258629
573.711318	0.258863
573.923625	0.258996
574.135914	0.259273
574.348185	0.259258
574.560438	0.259274
574.772672	0.259968
574.984888	0.259980
575.197086	0.259717
575.409266	0.260250
575.621427	0.260153
575.833570	0.260024
576.045695	0.259443
576.257802	0.259760
576.469890	0.259815
576.681961	0.259661
576.894013	0.260005
577.106046	0.260046
577.318062	0.259695
577.530059	0.260137
577.742039	0.260238
577.954000	0.260596
578.165942	0.260598
578.377867	0.260534
578.589773	0.260437
578.801661	0.260484
579.013531	0.260969
579.225382	0.261253
579.437216	0.261357
579.649031	0.261751
579.860828	0.261987
580.072606	0.262050
580.284367	0.262171
580.496109	0.262293
580.707833	0.262512
580.919539	0.262738
581.131227	0.263411
581.342896	0.263423
581.554547	0.263570
581.766180	0.263603
581.977795	0.263808
582.189391	0.264217
582.400969	0.264257
582.612529	0.264418
582.824071	0.264145
583.035595	0.263635
583.247100	0.263606
583.458587	0.263646
583.670056	0.263699
583.881506	0.263969
584.092939	0.264254
584.304353	0.264699
584.515749	0.264709
584.727127	0.264851
584.938486	0.264892
585.149828	0.265119
585.361151	0.265250
585.572456	0.265401
585.783742	0.265323
585.995011	0.265665
586.206261	0.265697
586.417493	0.266206
586.628706	0.266528
586.839902	0.267033
587.051079	0.267150
587.262238	0.267333
587.473379	0.267547
587.684502	0.267828
587.895606	0.267832
588.106692	0.267456
588.317760	0.267301
588.528810	0.267717
588.739841	0.267967
588.950855	0.268383
589.161850	0.268686
589.372827	0.268995
589.583785	0.269456
589.794726	0.269715
590.005648	0.270770
590.216552	0.271080
590.427437	0.271372
590.638305	0.271212
590.849154	0.271571
591.059985	0.271521
591.270798	0.271380
591.481592	0.271243
591.692369	0.271159
591.903127	0.270450
592.113867	0.270308
592.324588	0.270240
592.535292	0.270558
592.745977	0.270425
592.956644	0.270226
593.167293	0.270881
593.377923	0.271042
593.588536	0.271247
593.799130	0.271875
594.009706	0.272416
594.220263	0.272660
594.430803	0.273155
594.641324	0.273669
594.851827	0.274508
595.062312	0.274579
595.272778	0.274767
595.483227	0.275153
595.693657	0.275386
595.904069	0.275039
596.114462	0.274805
596.324838	0.274836
596.535195	0.274900
596.745534	0.274789
596.955855	0.274862
597.166157	0.274837
597.376441	0.274694
597.586707	0.274911
597.796955	0.275509
598.007185	0.276000
598.217396	0.276135
598.427589	0.276167
598.637764	0.276361
598.847921	0.276546
599.058060	0.276697
599.268180	0.277202
599.478282	0.277416
599.688366	0.277497
599.898431	0.277662
600.108479	0.277676
600.318508	0.277995
600.528519	0.278214
600.738511	0.278378
600.948486	0.278719
601.158442	0.278688
601.368380	0.278571
601.578300	0.278561
601.788202	0.278574
601.998085	0.278660
602.207950	0.278583
602.417797	0.278634
602.627626	0.278476
602.837436	0.278392
603.047228	0.278716
603.257002	0.278995
603.466758	0.279218
603.676496	0.279094
603.886215	0.279643
604.095916	0.279776
604.305599	0.279840
604.515264	0.280059
604.724910	0.280556
604.934538	0.280683
605.144148	0.281062
605.353740	0.281583
605.563314	0.282149
605.772869	0.282249
605.982406	0.282731
606.191925	0.282949
606.401425	0.283176
606.610908	0.283083
606.820372	0.283254
607.029818	0.283358
607.239246	0.283129
607.448655	0.283197
607.658047	0.282901
607.867420	0.282673
608.076775	0.283167
608.286111	0.283274
608.495430	0.283509
608.704730	0.283208
608.914012	0.283442
609.123275	0.283776
609.332521	0.284003
609.541748	0.284297
609.750957	0.284667
609.960148	0.284588
610.169321	0.284697
610.378475	0.284620
610.587611	0.284940
610.796729	0.285160
611.005829	0.285222
611.214910	0.285138
611.423974	0.285403
611.633019	0.285038
611.842045	0.285398
612.051054	0.285742
612.260044	0.286032
612.469017	0.286121
612.677970	0.285785
612.886906	0.285748
613.095824	0.285943
613.304723	0.286114
613.513604	0.286633
613.722467	0.286509
613.931311	0.286435
614.140138	0.287078
614.348946	0.287567
614.557736	0.287948
614.766507	0.288346
614.975261	0.288566
615.183996	0.288535
615.392713	0.288511
615.601412	0.288735
615.810092	0.288827
616.018754	0.288809
616.227399	0.288651
616.436024	0.288835
616.644632	0.288754
616.853222	0.288854
617.061793	0.289244
617.270346	0.289518
617.478880	0.289306
617.687397	0.289674
617.895895	0.289552
618.104375	0.289898
618.312837	0.290150
618.521281	0.290561
618.729706	0.290480
618.938113	0.290378
619.146502	0.290716
619.354873	0.290923
619.563226	0.291199
619.771560	0.291392
619.979876	0.291233
620.188174	0.291123
620.396453	0.290879
620.604715	0.291236
620.812958	0.291729
621.021183	0.291751
621.229390	0.292047
621.437578	0.291993
621.645748	0.292047
621.853900	0.292241
622.062034	0.292328
622.270150	0.292697
622.478247	0.292973
622.686326	0.292809
622.894387	0.293100
623.102430	0.293216
623.310454	0.293510
623.518461	0.293857
623.726449	0.294165
623.934418	0.294407
624.142370	0.294770
624.350303	0.294630
624.558218	0.294897
624.766115	0.294804
624.973994	0.295181
625.181855	0.295208
625.389697	0.295246
625.597521	0.295161
625.805327	0.295393
626.013114	0.295219
626.220883	0.295389
626.428634	0.295411
626.636367	0.295586
626.844082	0.295674
627.051778	0.295775
627.259457	0.295970
627.467117	0.296758
627.674758	0.296494
627.882382	0.296497
628.089987	0.297185
628.297574	0.297556
628.505143	0.297684
628.712694	0.297857
628.920226	0.298027
629.127740	0.298135
629.335236	0.297673
629.542714	0.298201
629.750174	0.298498
629.957615	0.298127
630.165038	0.298122
630.372443	0.298339
630.579829	0.298327
630.787198	0.298497
630.994548	0.298727
631.201880	0.298986
631.409194	0.299068
631.616489	0.299339
631.823766	0.299829
632.031025	0.299925
632.238266	0.299906
632.445489	0.300287
632.652693	0.300262
632.859879	0.300446
633.067047	0.300599
633.274197	0.300836
633.481329	0.300904
633.688442	0.300970
633.895537	0.301058
634.102614	0.301417
634.309672	0.301215
634.516713	0.301699
634.723735	0.301817
634.930739	0.302221
635.137724	0.302256
635.344692	0.302577
635.551641	0.302617
635.758572	0.302866
635.965485	0.302992
636.172379	0.303476
636.379256	0.303607
636.586114	0.303717
636.792954	0.303737
636.999775	0.303955
637.206579	0.304035
637.413364	0.304263
637.620131	0.304496
637.826880	0.304537
638.033610	0.304530
638.240323	0.304823
638.447017	0.304690
638.653692	0.304790
638.860350	0.305059
639.066990	0.305066
639.273611	0.305207
639.480214	0.305367
639.686798	0.305455
639.893365	0.305687
640.099913	0.305661
640.306443	0.306178
640.512955	0.306312
640.719449	0.306260
640.925924	0.306456
641.132381	0.306592
641.338820	0.306853
641.545241	0.307310
641.751644	0.307173
641.958028	0.307333
642.164394	0.307427
642.370742	0.307680
642.577071	0.308001
642.783383	0.308360
642.989676	0.308825
643.195951	0.308543
643.402207	0.308596
643.608446	0.308966
643.814666	0.309013
644.020868	0.309225
644.227052	0.309336
644.433218	0.309301
644.639365	0.309238
644.845494	0.309276
645.051605	0.309563
645.257698	0.309696
645.463772	0.310149
645.669828	0.310349
645.875866	0.310344
646.081886	0.310434
646.287888	0.310466
646.493871	0.310696
646.699836	0.310580
646.905783	0.310917
647.111712	0.311073
647.317622	0.311135
647.523514	0.311262
647.729388	0.311576
647.935244	0.311858
648.141082	0.312297
648.346901	0.312554
648.552702	0.312825
648.758485	0.313144
648.964250	0.313578
649.169996	0.313663
649.375724	0.313851
649.581434	0.314081
649.787126	0.314226
649.992800	0.314422
650.198455	0.314563
650.404092	0.314626
650.609711	0.314483
650.815311	0.314438
651.020894	0.314300
651.226458	0.314623
651.432004	0.314562
651.637532	0.314685
651.843041	0.314625
652.048532	0.314794
652.254006	0.314806
652.459460	0.315017
652.664897	0.314893
652.870315	0.315223
653.075716	0.315114
653.281097	0.315206
653.486461	0.315238
653.691807	0.315670
653.897134	0.315751
654.102443	0.316296
654.307734	0.316408
654.513006	0.316753
654.718261	0.316971
654.923497	0.317260
655.128715	0.317625
655.333915	0.317913
655.539096	0.318063
655.744259	0.318281
655.949404	0.318550
656.154531	0.319165
656.359640	0.319633
656.564730	0.319941
656.769802	0.320201
656.974856	0.320407
657.179892	0.320815
657.384909	0.321065
657.589908	0.321388
657.794889	0.321307
657.999852	0.321188
658.204797	0.321393
658.409723	0.321513
658.614631	0.321714
658.819521	0.321905
659.024393	0.321847
659.229246	0.321995
659.434081	0.322085
659.638898	0.322297
659.843697	0.322387
660.048478	0.322544
660.253240	0.322702
660.457984	0.322819
660.662710	0.323036
660.867417	0.323333
661.072107	0.323266
661.276778	0.323679
661.481431	0.323785
661.686066	0.324098
661.890682	0.324096
662.095281	0.324205
662.299861	0.324234
662.504422	0.324234
662.708966	0.324240
662.913491	0.324587
663.117999	0.324434
663.322488	0.324668
663.526958	0.324647
663.731411	0.324673
663.935845	0.324977
664.140261	0.325468
664.344659	0.325798
664.549038	0.325926
664.753400	0.326266
664.957743	0.326416
665.162068	0.326742
665.366375	0.327120
665.570663	0.327499
665.774933	0.327730
665.979185	0.327745
666.183419	0.327952
666.387635	0.328240
666.591832	0.328214
666.796011	0.328558
667.000172	0.328515
667.204315	0.328588
667.408439	0.328918
667.612545	0.328960
667.816634	0.329191
668.020703	0.329298
668.224755	0.329573
668.428788	0.329758
668.632803	0.329879
668.836800	0.330087
669.040779	0.330531
669.244739	0.330542
669.448681	0.330736
669.652605	0.330727
669.856511	0.330961
670.060399	0.331254
670.264268	0.331483
670.468119	0.331587
670.671952	0.331741
670.875767	0.331656
671.079563	0.331771
671.283341	0.332065
671.487101	0.332336
671.690843	0.332398
671.894567	0.332436
672.098272	0.332700
672.301959	0.332917
672.505628	0.333294
672.709278	0.333551
672.912911	0.333624
673.116525	0.333546
673.320121	0.333797
673.523699	0.333967
673.727258	0.334112
673.930799	0.333965
674.134322	0.334167
674.337827	0.334206
674.541314	0.334214
674.744782	0.334380
674.948232	0.334482
675.151664	0.334470
675.355078	0.334569
675.558474	0.334445
675.761851	0.334784
675.965210	0.334950
676.168551	0.334979
676.371873	0.335484
676.575178	0.335475
676.778464	0.335760
676.981732	0.335941
677.184981	0.336252
677.388213	0.336579
677.591426	0.336660
677.794621	0.336830
677.997798	0.337429
678.200956	0.337643
678.404097	0.338227
678.607219	0.338459
678.810323	0.338800
679.013408	0.339250
679.216476	0.339746
679.419525	0.340024
679.622556	0.340316
679.825569	0.340412
680.028563	0.340479
680.231540	0.340509
680.434498	0.340749
680.637438	0.340967
680.840359	0.340938
681.043263	0.340928
681.246148	0.341244
681.449015	0.341297
681.651864	0.341277
681.854694	0.341369
682.057506	0.341517
682.260301	0.341484
682.463076	0.341656
682.665834	0.341722
682.868573	0.342143
683.071295	0.342281
683.273998	0.342450
683.476682	0.342590
683.679349	0.342760
683.881997	0.343153
684.084627	0.343705
684.287239	0.343785
684.489833	0.344025
684.692408	0.343985
684.894965	0.343974
685.097504	0.344162
685.300025	0.344578
685.502527	0.344601
685.705012	0.344551
685.907478	0.344430
686.109925	0.344413
686.312355	0.344482
686.514766	0.344695
686.717159	0.344834
686.919534	0.344842
687.121891	0.344754
687.324230	0.344806
687.526550	0.345059
687.728852	0.345324
687.931136	0.345492
688.133401	0.345551
688.335649	0.345606
688.537878	0.345649
688.740089	0.346084
688.942281	0.346233
689.144456	0.346684
689.346612	0.346685
689.548750	0.346762
689.750870	0.347322
689.952971	0.347661
690.155055	0.348111
690.357120	0.348871
690.559167	0.348999
690.761195	0.349376
690.963206	0.349820
691.165198	0.350264
691.367172	0.350483
691.569128	0.350616
691.771065	0.350731
691.972984	0.350728
692.174885	0.350803
692.376768	0.351034
692.578633	0.350957
692.780479	0.350722
692.982308	0.350564
693.184118	0.350807
693.385909	0.350542
