sample name	sample
index	366
start time	 03-04-2021  11:39:03 AM
880	0.335530
Peak Time (s)	92.535
Peak Height 	0.3355
calc peak height	90,93
Baseline Time (s)	8.537
Baseline Value 	-0.004386
subtract baseline	10,4
Abs	0.257537
Peak Time (s)	91.538
Peak Height 	0.2575
calc peak height	90,93
Baseline Time (s)	9.537
Baseline Value 	0.003157
subtract baseline	10,3
PK_550	0.146323
Peak Time (s)	92.535
Peak Height 	0.1463
calc peak height	90,93
Baseline Time (s)	10.036
Baseline Value 	5.6905E-4
subtract baseline	10,2
PK_880	0.244994
Peak Time (s)	92.535
Peak Height 	0.245
calc peak height	90,93
Baseline Time (s)	9.037
Baseline Value 	0.002313
subtract baseline	10,1


Time (s)	A880-A510	A880-A775	A880-A975	A880	I510	I775	I975	I880	
0.038500	-0.002978	-0.000934	-0.000779	0.001980	6876.725271	47504.757843	3968.520987	25087.143678
0.535500	-0.002827	-0.000612	-0.000707	0.005387	6846.533199	47188.724726	3959.638510	24913.169626
1.036000	-0.003233	-0.000358	-0.002648	0.004606	6850.008046	47294.459775	3956.563476	24952.948010
1.538000	-0.004719	-0.001481	-0.007288	0.006482	6819.046783	46988.653172	3939.449788	24857.551365
2.036000	-0.000100	0.000250	-0.003180	0.001807	6905.216359	47644.487912	3962.578897	25096.040833
2.542000	-0.002167	-0.000289	-0.002241	0.001330	6890.338140	47638.053027	3966.352362	25120.489198
3.036500	0.001351	0.000537	-0.001015	-0.000280	6938.505254	47889.890975	3973.945476	25203.310641
3.686000	-0.001544	-0.000228	0.003540	0.000207	6906.680529	47760.368597	3984.927379	25178.243490
4.037500	0.001129	0.000749	0.000764	0.001365	6920.909076	47741.602660	3974.307396	25118.713357
4.538000	-0.000568	-0.000429	0.006767	0.000259	6915.346722	47734.134192	3993.568382	25175.573053
5.035500	-0.000156	0.000082	-0.000874	0.000498	6916.973051	47762.275599	3972.236442	25163.251849
5.535000	-0.000970	0.000143	-0.004465	0.000735	6907.113050	47744.099010	3962.013752	25151.090943
6.036000	0.000502	-0.000856	-0.002622	-0.000344	6931.097988	47752.411015	3969.808904	25206.633530
6.539000	0.000733	-0.000030	0.000520	0.000360	6926.637443	47764.898769	3976.351979	25170.344528
7.036500	-0.001357	-0.000488	0.002668	-0.000371	6913.855575	47793.189280	3984.127903	25208.010350
7.537000	-0.000709	-0.000112	-0.001908	0.000008	6916.383756	47792.977865	3970.778418	25188.504808
8.036500	-0.000444	0.000372	-0.000506	0.000708	6912.295700	47770.545745	3972.659591	25152.473837
8.537500	0.001145	0.000114	-0.000032	0.000000	6933.914566	47817.060344	3975.836116	25188.895642
9.037500	0.000000	-0.000412	-0.006537	-0.000024	6923.353856	47765.204063	3958.526776	25190.148533
9.537500	-0.000315	0.000003	0.000000	-0.000014	6920.297597	47807.164941	3975.961432	25189.640318
10.035500	-0.001935	0.000000	0.000326	0.000058	6904.405813	47799.290068	3976.644097	25185.901598
10.538500	0.000714	0.000539	0.001630	0.000580	6924.390692	47801.150451	3978.752387	25159.066037
11.553000	0.001476	-0.000248	-0.001044	0.000302	6934.185967	47748.363494	3972.304591	25173.322632
12.157500	-0.001280	-0.000770	0.002903	-0.000837	6918.956800	47812.178698	3986.031385	25232.036890
12.268500	-0.001882	-0.000160	-0.001601	-0.000131	6906.678898	47802.296718	3971.974379	25195.653434
12.537000	-0.000916	-0.000121	0.000998	-0.000206	6916.444874	47814.057319	3979.164795	25199.490404
13.037000	0.002193	0.000106	0.004643	-0.001401	6957.101311	47961.560362	3992.303153	25261.184537
13.538000	-0.003128	-0.000437	-0.001796	0.000224	6891.692574	47736.970059	3970.497800	25177.359961
14.100500	-0.002859	0.000253	-0.001067	0.005145	6848.480189	47301.779725	3959.325357	24925.475585
14.538000	-0.003620	-0.000823	-0.004543	0.002785	6863.280293	47433.400031	3956.367463	25045.917459
15.038500	-0.001346	-0.000444	-0.002528	0.002594	6886.206901	47491.994715	3962.221332	25055.705963
15.546500	-0.001453	-0.000779	0.001397	-0.000090	6910.320400	47734.128113	3979.931066	25193.555284
16.036500	0.000293	0.000382	0.005504	0.000646	6919.800350	47777.945640	3989.068995	25155.629690
16.536500	-0.000809	-0.000428	-0.001037	0.001018	6905.967614	47655.921741	3970.405465	25136.526743
17.037000	0.000269	-0.000578	0.004625	0.000187	6923.901252	47726.280138	3987.927877	25179.283468
17.537000	0.000049	0.000389	0.001401	0.000854	6915.549988	47757.156574	3977.395718	25144.940626
18.043000	0.002609	0.000172	0.001630	-0.002161	6968.273204	48047.412944	3986.169026	25300.481805
18.543500	-0.002285	-0.000676	0.000492	0.001238	6890.097768	47607.703169	3973.918589	25125.241905
19.038000	-0.000435	0.000845	0.001950	0.002654	6894.148569	47618.436834	3974.028877	25052.608109
19.571000	-0.000760	0.000366	0.000334	0.002157	6895.760174	47620.298773	3971.026056	25078.075602
20.351000	-0.000184	0.000312	-0.000005	0.001876	6903.780401	47643.697935	3970.870753	25092.495742
21.431500	-0.002192	0.000184	0.003068	0.001559	6887.972216	47663.231583	3979.989747	25108.737838
21.525000	-0.000249	0.000878	0.003530	0.002511	6897.233386	47636.668740	3978.667936	25059.953197
21.653500	-0.000382	-0.000614	-0.005789	0.000789	6912.112099	47660.251905	3958.353898	25148.274345
22.037000	-0.000504	0.000644	-0.001939	0.002249	6897.301915	47639.507572	3964.706433	25073.388257
22.537000	-0.002172	0.000015	-0.000337	0.001954	6884.471479	47605.066615	3969.774047	25088.473726
23.038000	-0.001031	-0.000968	-0.002056	0.000691	6906.952177	47633.996974	3968.552919	25153.342869
23.538000	-0.001033	0.000027	0.004287	0.001481	6899.529693	47655.045666	3983.498516	25112.757394
24.038000	-0.000920	-0.000439	-0.001156	0.001394	6901.403755	47616.026691	3969.080573	25117.233664
24.538500	-0.001456	0.000294	0.002986	0.002067	6890.097570	47622.145974	3978.396406	25082.676886
25.039000	-0.001160	0.000612	0.000622	0.001836	6895.019640	47678.784783	3972.660486	25094.524052
25.539000	-0.001813	-0.000320	0.000466	0.001739	6889.828146	47592.762113	3972.503083	25099.537074
26.036500	-0.002012	0.000081	0.002848	0.001705	6888.288331	47637.581674	3979.002814	25101.258137
26.536500	0.000311	-0.000173	0.003120	0.001823	6908.909591	47599.135438	3979.416340	25095.183417
27.037000	-0.000718	-0.000103	-0.001235	0.001771	6899.763049	47611.768744	3967.860874	25097.878431
27.540000	-0.001837	0.000456	0.000367	0.002185	6885.441071	47626.645877	3971.039810	25076.627851
28.038000	0.000025	0.000499	0.004200	-0.000777	6930.676880	47937.545871	3989.393940	25228.945321
28.538000	0.001703	-0.000463	-0.000421	-0.001136	6949.933182	47875.016058	3977.847718	25247.488376
29.038000	-0.001575	-0.000177	0.000953	0.000073	6907.648193	47779.486099	3978.293486	25185.147267
29.536500	0.000039	0.000327	0.000194	0.000895	6915.074975	47746.573552	3974.036916	25142.858234
30.035500	0.000141	0.000385	-0.000697	0.000626	6918.558123	47780.282485	3972.367697	25156.656792
30.537000	0.000985	0.000663	0.002022	0.000877	6924.144144	47783.142375	3979.007013	25143.765439
31.036000	0.000015	-0.000678	0.001094	0.000181	6921.565961	47716.487166	3978.382894	25179.595166
31.566000	-0.000268	-0.000515	-0.001328	0.000426	6916.602339	47708.116128	3971.213582	25166.987743
32.037000	-0.001387	0.000629	-0.002812	0.003938	6873.303044	47464.070582	3957.898370	24986.981175
32.534500	-0.000351	0.000436	0.000661	0.001879	6902.184804	47656.235824	3972.648092	25092.329248
33.092500	-0.002115	-0.000159	-0.003682	0.004038	6865.621413	47373.084437	3955.331763	24981.902631
33.535500	0.000874	0.000819	0.003364	0.001402	6918.159842	47745.068798	3981.213956	25116.814817
34.035500	0.001014	0.001025	0.002373	0.000920	6924.010691	47816.203495	3979.840005	25141.590096
34.535500	-0.000671	-0.000097	-0.001046	0.000555	6911.600277	47737.903995	3971.621635	25160.322657
35.036000	-0.002918	0.000850	-0.000599	0.001752	6879.400690	47712.032178	3969.612202	25098.834968
35.536000	-0.001474	0.000487	0.002338	0.003206	6879.309333	47524.844218	3973.589582	25024.400211
36.036500	-0.000439	0.000327	-0.000013	0.002820	6892.559396	47548.058808	3968.323236	25044.129856
36.536500	-0.001289	0.001500	0.001695	0.003706	6876.378720	47577.577123	3970.523568	24998.851384
37.036500	-0.001633	0.000526	-0.003340	0.003017	6879.595211	47548.253248	3958.942265	25034.075677
37.537500	0.001265	0.000651	-0.001625	0.003117	6905.730799	47550.831740	3963.231575	25028.961251
38.035000	-0.000429	0.000021	-0.000987	0.002437	6896.238893	47555.888472	3966.742822	25063.722872
38.538000	-0.000649	0.000424	-0.001392	0.002948	6889.412225	47544.831990	3964.302736	25037.602148
39.035500	-0.000590	0.000118	0.002323	0.002837	6890.996063	47524.748160	3974.538801	25043.253965
39.539000	-0.000343	0.000537	0.001750	0.003160	6890.288237	47534.709298	3972.135535	25026.751914
40.036500	-0.001029	0.000074	0.001152	0.002306	6891.856708	47574.940092	3972.823448	25070.470529
40.536500	0.000303	0.000667	0.002599	0.002963	6898.166563	47568.344110	3974.943238	25036.833168
41.037000	-0.001215	0.000252	0.000016	0.002456	6888.718926	47577.823768	3969.375840	25062.788117
41.537000	-0.001090	0.000865	-0.002236	0.003225	6882.708289	47561.685065	3961.318936	25023.423793
42.037000	-0.002191	0.000019	0.006200	0.002308	6880.998608	47569.049419	3986.442656	25070.362479
42.535000	-0.001721	0.000281	-0.002352	0.002771	6881.060715	47548.268977	3962.215704	25046.625765
43.035000	-0.000986	0.000532	0.004724	0.002893	6886.775889	47561.609442	3980.860833	25040.387944
43.535500	-0.000226	-0.000761	-0.001401	0.001861	6903.530641	47534.786990	3967.176712	25093.246528
44.038500	-0.002493	0.000497	0.000465	0.002907	6872.612462	47556.584681	3969.368628	25039.680569
44.536000	0.000338	-0.000042	0.002119	0.002672	6901.222081	47525.311855	3974.436172	25051.720341
45.036000	-0.001350	-0.000161	-0.001664	0.002817	6884.094245	47498.238803	3963.925806	25044.307630
45.538000	-0.000818	0.000315	0.001879	-0.000239	6917.679838	47862.634853	3981.636589	25201.202410
46.036500	0.000437	0.000436	0.003774	0.000543	6922.129811	47794.206419	3984.648189	25160.945987
46.537000	0.000128	0.000434	0.003127	0.001587	6909.415632	47686.169407	3980.074646	25107.316199
47.036000	-0.000993	0.000650	0.001000	0.004601	6870.805447	47398.279710	3966.270838	24953.189771
47.535000	0.000926	0.000202	0.000587	0.000535	6926.805036	47770.828993	3976.061066	25161.335438
48.035000	-0.003333	0.000004	0.002041	0.000038	6891.524140	47801.774681	3981.325450	25186.945425
48.568500	-0.001096	0.000171	0.002391	0.000816	6905.166160	47738.604580	3980.168340	25146.911028
49.035500	-0.002244	0.000088	-0.000760	0.003949	6865.252975	47407.529624	3963.320157	24986.446281
49.536000	-0.001448	-0.000582	-0.002942	0.001674	6893.844460	47572.444969	3963.565539	25102.832565
50.066000	0.000002	0.000420	-0.001181	0.002852	6896.387068	47554.369253	3965.119512	25042.512298
50.537000	0.000091	0.000084	-0.002975	0.000300	6921.149448	47782.907339	3967.142681	25173.427825
51.036500	-0.002725	-0.000055	-0.002515	0.004190	6858.554177	47368.049696	3958.015492	24974.123512
51.537500	0.003041	0.001085	0.001491	-0.001296	6964.150513	48052.438090	3983.447202	25255.750080
52.034500	0.000314	0.000177	0.001944	0.000011	6925.976160	47822.465180	3981.135737	25188.315540
52.535000	-0.002836	-0.003047	0.000946	0.002867	6869.793809	47197.337044	3970.763769	25041.707520
53.035500	-0.006268	-0.008865	0.001823	0.330641	4717.196955	23426.559799	3355.355082	13268.613273
53.538500	-0.031481	-0.024084	-0.011049	0.010953	6542.610546	44321.582541	3918.189371	24631.864801
54.036000	-0.031746	-0.056449	-0.015959	-0.179915	8585.167712	62584.738046	4511.963775	36668.798702
54.539000	-0.021287	-0.195359	-0.001034	-0.339765	11345.999607	65535.000000	5356.600608	51728.409850
55.036000	-0.108013	-0.303352	-0.092388	-0.447758	11773.119320	65535.000000	5456.167273	65535.000000
55.765000	0.002183	-0.097210	0.014024	-0.241616	10001.458172	65535.000000	4912.662566	41835.720408
56.075500	0.004922	-0.081964	0.012201	-0.226334	9797.458728	65529.776165	4831.348230	40486.800137
56.765500	0.008300	-0.032512	0.011176	-0.158930	8843.140554	62991.998278	4536.274799	35072.205284
57.077500	0.005001	-0.027538	0.010655	-0.151832	8701.020156	62698.565280	4506.207422	34549.397772
57.538000	0.026073	-0.024880	0.020866	-0.156125	9053.811622	63664.120660	4563.908632	34864.617669
58.035500	0.036496	-0.013033	0.029660	-0.139935	8971.788651	63059.103051	4534.243747	33692.105023
58.538500	0.049979	0.008251	0.041413	-0.096948	8568.757435	60124.613659	4414.398797	30782.943737
59.036500	0.056509	0.019842	0.051555	-0.062504	8211.842586	57189.128716	4326.936356	28651.062505
59.538500	0.072008	0.028183	0.069611	-0.038761	8110.740690	55296.114750	4307.166273	27276.891468
60.130500	0.082964	0.038902	0.084080	0.008789	7684.453706	51032.419575	4197.156479	24740.827063
60.537000	0.087872	0.043302	0.087134	0.028561	7521.304280	49357.145651	4144.669837	23765.330258
61.037000	0.094849	0.050160	0.095479	0.060627	7258.261389	46734.986792	4073.574438	22274.702707
61.540500	0.105039	0.056319	0.110213	0.075307	7212.779081	45882.549895	4073.732959	21628.186032
62.035000	0.112097	0.061906	0.116817	0.094761	7089.602921	44530.499306	4036.809354	20804.393656
62.537500	0.121894	0.069218	0.126247	0.131272	6835.802869	41820.809161	3962.479126	19354.441819
63.038500	0.121322	0.070139	0.128901	0.127819	6862.428392	42215.237452	3978.838491	19486.404932
63.535000	0.136929	0.080199	0.134430	0.119424	7091.255090	43923.711805	4017.011402	19811.677680
64.036000	0.138776	0.086654	0.137767	0.091957	7388.434577	47259.808629	4105.935998	20920.860762
64.536000	0.141955	0.087331	0.138587	0.090785	7434.275541	47449.267222	4111.904752	20969.750840
65.037000	0.147232	0.090440	0.145376	0.092950	7467.350201	47546.346210	4125.871212	20879.532450
65.675500	0.151864	0.093671	0.149349	0.097451	7468.744607	47415.814895	4124.270143	20693.354325
66.054500	0.153590	0.094362	0.155327	0.100220	7457.627458	47203.125031	4134.035720	20579.762207
66.537500	0.155767	0.096178	0.150530	0.104979	7430.231459	46903.598734	4105.160776	20386.238306
67.035000	0.157703	0.098624	0.154921	0.110980	7387.426595	46544.572070	4100.358064	20145.230178
67.541000	0.161728	0.100493	0.162201	0.117271	7363.742258	46102.005939	4103.306198	19896.098450
68.167500	0.163393	0.102500	0.160236	0.131503	7234.574730	44901.636561	4055.859076	19345.643176
68.536000	0.165345	0.104586	0.163922	0.131996	7249.386100	45056.170850	4065.073331	19326.904268
69.036000	0.168169	0.104906	0.165043	0.138006	7217.122875	44506.913999	4050.993036	19100.080123
69.536500	0.172626	0.107440	0.175739	0.145711	7184.468088	44013.963528	4059.586029	18813.832056
70.037000	0.171100	0.108276	0.174051	0.152386	7103.115984	43464.379117	4035.700925	18569.923735
70.537500	0.175545	0.110290	0.173638	0.159340	7078.524657	43005.033226	4015.037448	18319.777807
71.037000	0.177392	0.111158	0.180499	0.164559	7045.717247	42604.889531	4019.615570	18134.676304
71.534500	0.181743	0.113126	0.178421	0.171859	7017.223096	42119.913855	3993.713994	17879.439948
72.035000	0.182459	0.114829	0.181105	0.178196	6963.453607	41703.280936	3983.779359	17661.353414
72.535000	0.183414	0.116344	0.183846	0.184427	6913.598651	41283.686888	3974.358555	17449.948290
73.035500	0.183637	0.117058	0.190830	0.195354	6814.312811	40390.602299	3963.809871	17086.507713
73.536500	0.189072	0.118366	0.191566	0.194696	6870.530291	40560.918323	3967.529612	17108.140886
74.036500	0.192081	0.119728	0.195228	0.201219	6838.019530	40115.517534	3959.911314	16895.193234
74.536500	0.194432	0.120661	0.193732	0.205778	6817.712705	39805.700196	3943.953082	16748.228339
75.034000	0.193505	0.121715	0.199385	0.215727	6719.229407	39056.738297	3932.762307	16432.840237
75.534000	0.197072	0.121578	0.202216	0.213430	6772.026390	39237.148010	3946.131777	16505.012866
76.034500	0.199587	0.124088	0.199352	0.219598	6739.047829	38932.055120	3922.691907	16312.067057
76.535000	0.200531	0.123877	0.201649	0.223497	6712.574138	38592.318261	3918.582688	16191.500353
77.038000	0.200731	0.125618	0.201137	0.233523	6625.837601	37917.020185	3891.941058	15886.393657
77.535000	0.203276	0.126607	0.207622	0.232351	6658.421635	38091.977637	3911.236454	15921.715743
78.036000	0.206713	0.127597	0.212563	0.237276	6645.346478	37774.174298	3911.275822	15774.004490
78.536000	0.207328	0.128423	0.217420	0.241346	6615.162855	37514.315376	3913.278334	15653.195726
79.037000	0.207965	0.129021	0.208683	0.251269	6535.194930	36778.159544	3866.763079	15363.355099
79.542000	0.211658	0.129961	0.218367	0.250026	6577.486835	36949.032158	3893.759262	15399.286591
80.036500	0.211693	0.131059	0.216408	0.254647	6538.182214	36673.650724	3877.420778	15266.180835
80.537500	0.213041	0.131426	0.216960	0.258431	6517.468412	36408.648369	3869.486779	15158.241825
81.035000	0.210323	0.131207	0.215862	0.267127	6421.951449	35726.895742	3845.797482	14913.675522
81.535000	0.214746	0.132372	0.226973	0.266756	6461.764484	35843.382565	3873.620872	14924.008940
82.041000	0.215970	0.132790	0.226336	0.271864	6429.481495	35489.089760	3859.608571	14782.523625
82.535500	0.217927	0.134513	0.227442	0.275588	6414.889302	35339.098205	3853.285576	14680.406569
83.035500	0.218073	0.135413	0.223782	0.285413	6335.988945	34678.397474	3821.302150	14415.147110
83.536000	0.222188	0.135188	0.227415	0.283786	6382.580473	34781.261409	3833.657936	14458.657325
84.036500	0.220712	0.135640	0.232961	0.287489	6340.538623	34543.203089	3838.025086	14359.874530
84.537000	0.222049	0.136432	0.232238	0.291022	6322.853461	34343.872696	3827.971677	14266.380268
85.037000	0.222511	0.136574	0.231409	0.298556	6266.530148	33812.518323	3808.503161	14069.581671
85.537500	0.224972	0.137702	0.236453	0.298084	6289.781469	33926.776260	3821.303734	14081.812636
86.035000	0.224637	0.138352	0.235587	0.302391	6253.047075	33666.195458	3809.295442	13970.695096
86.538000	0.228059	0.138538	0.240416	0.304834	6260.768332	33506.555621	3814.817378	13908.175761
87.035500	0.226140	0.137983	0.234651	0.311787	6191.497830	32981.233994	3785.736798	13732.090774
87.536000	0.230429	0.140445	0.239846	0.310672	6233.515865	33230.382928	3800.057139	13760.139695
88.036000	0.229778	0.140985	0.240858	0.314831	6196.095287	32978.362971	3792.889343	13655.906831
88.536000	0.233306	0.139565	0.243343	0.315898	6215.187503	32806.326274	3796.110951	13629.305027
89.036500	0.234475	0.140948	0.245573	0.319104	6199.370178	32680.901844	3793.893715	13549.828791
89.536500	0.232505	0.141664	0.252071	0.321425	6166.299174	32570.850364	3803.428559	13492.646298
90.144000	0.233941	0.142281	0.247170	0.330759	6106.275266	31980.460240	3771.306150	13265.778054
90.546000	0.235599	0.142366	0.245872	0.325973	6155.169920	32308.948354	3779.079149	13381.499071
91.111500	0.240145	0.144437	0.255983	0.329875	6160.096486	32185.064236	3793.071912	13287.050441
91.538000	0.240979	0.144685	0.257537	0.331460	6154.353989	32094.899508	3793.002489	13248.939221
92.035000	0.242134	0.145298	0.255546	0.333342	6148.796625	32009.576764	3784.250527	13203.848598
92.535500	0.244994	0.146323	0.254757	0.335530	6153.927791	31931.586915	3777.575750	13151.667883
93.050000	0.245508	0.146255	0.258912	0.336833	6147.905741	31840.035629	3783.971337	13120.740606
93.555000	0.245351	0.147729	0.260281	0.338866	6131.244025	31802.711233	3782.477921	13072.643276
94.036500	0.247901	0.147023	0.263515	0.340507	6138.146732	31646.687114	3786.060245	13033.972043
94.534000	0.248963	0.148791	0.262554	0.341968	6135.117401	31667.052580	3780.616287	12999.679976
95.034000	0.247988	0.149384	0.260938	0.345881	6098.186510	31447.689243	3768.304534	12908.395679
95.535000	0.250675	0.149475	0.259039	0.343930	6133.216361	31582.430201	3768.419419	12953.807832
96.061500	0.249828	0.149997	0.260575	0.348353	6093.447399	31325.585473	3762.051098	12851.163465
96.535500	0.253578	0.151430	0.264663	0.347324	6129.491903	31487.423745	3773.366897	12874.943614
97.060500	0.251779	0.151566	0.267498	0.350297	6093.494436	31300.963653	3773.059012	12806.356655
97.535500	0.255549	0.152337	0.265330	0.349669	6126.660304	31392.795880	3769.642422	12820.819512
