sample name	sample
index	1301
start time	 04-29-2021  03:47:44 PM


Wavelength (nm)	Absorbance
494.344910	-0.493487
494.563924	-0.493487
494.782919	-0.493487
495.001897	NaN
495.220856	0.094169
495.439797	0.542196
495.658719	0.600296
495.877624	NaN
496.096510	NaN
496.315378	NaN
496.534227	NaN
496.753059	0.910301
496.971872	0.233079
497.190667	0.132327
497.409444	0.121505
497.628203	0.126192
497.846943	0.126764
498.065665	0.127825
498.284369	0.127006
498.503055	0.127283
498.721723	0.127625
498.940372	0.127986
499.159003	0.128200
499.377616	0.130769
499.596210	0.130591
499.814787	0.129923
500.033345	0.129828
500.251885	0.130497
500.470406	0.130144
500.688910	0.130561
500.907395	0.130747
501.125862	0.130970
501.344311	0.129879
501.562742	0.130019
501.781154	0.130292
501.999548	0.130135
502.217924	0.130101
502.436282	0.130702
502.654621	0.130435
502.872942	0.130470
503.091245	0.131207
503.309530	0.130928
503.527797	0.130782
503.746045	0.130643
503.964275	0.131126
504.182487	0.130831
504.400681	0.130371
504.618856	0.129879
504.837013	0.130047
505.055152	0.129582
505.273273	0.129816
505.491376	0.130477
505.709460	0.131124
505.927526	0.130735
506.145574	0.131118
506.363604	0.130122
506.581615	0.130035
506.799608	0.129524
507.017583	0.129092
507.235540	0.128834
507.453478	0.128247
507.671399	0.128571
507.889301	0.128045
508.107185	0.127324
508.325050	0.128031
508.542898	0.128738
508.760727	0.129135
508.978538	0.129100
509.196330	0.129027
509.414105	0.129858
509.631861	0.129138
509.849599	0.129626
510.067319	0.130916
510.285021	0.131177
510.502704	0.131455
510.720369	0.132065
510.938016	0.133260
511.155645	0.133426
511.373255	0.131743
511.590848	0.132191
511.808422	0.132448
512.025977	0.131218
512.243515	0.131154
512.461034	0.131733
512.678536	0.130963
512.896018	0.130606
513.113483	0.130689
513.330930	0.131261
513.548358	0.131400
513.765768	0.131177
513.983160	0.131393
514.200533	0.131293
514.417889	0.130802
514.635226	0.131350
514.852545	0.131354
515.069845	0.131264
515.287128	0.131096
515.504392	0.130594
515.721638	0.130873
515.938866	0.131146
516.156075	0.130931
516.373267	0.129792
516.590440	0.129356
516.807594	0.128875
517.024731	0.128500
517.241850	0.128308
517.458950	0.128905
517.676032	0.129031
517.893095	0.129852
518.110141	0.130195
518.327168	0.131269
518.544177	0.132222
518.761168	0.132586
518.978141	0.132756
519.195095	0.133217
519.412031	0.133431
519.628949	0.133686
519.845849	0.133380
520.062731	0.133485
520.279594	0.134741
520.496439	0.134425
520.713266	0.134665
520.930074	0.134577
521.146865	0.135148
521.363637	0.135171
521.580391	0.135861
521.797127	0.136487
522.013844	0.136983
522.230543	0.136040
522.447224	0.136506
522.663887	0.136668
522.880532	0.137174
523.097158	0.137608
523.313766	0.137022
523.530356	0.136643
523.746928	0.136543
523.963481	0.136127
524.180017	0.136637
524.396534	0.135862
524.613032	0.136293
524.829513	0.136427
525.045975	0.135949
525.262420	0.136699
525.478845	0.136276
525.695253	0.135997
525.911643	0.136101
526.128014	0.135941
526.344367	0.135829
526.560702	0.136161
526.777018	0.136646
526.993316	0.137058
527.209597	0.137067
527.425858	0.137050
527.642102	0.137185
527.858328	0.137160
528.074535	0.137329
528.290724	0.137905
528.506894	0.137810
528.723047	0.138030
528.939181	0.137608
529.155297	0.137836
529.371395	0.138532
529.587475	0.138966
529.803536	0.139404
530.019579	0.139590
530.235604	0.139555
530.451611	0.139077
530.667600	0.139522
530.883570	0.140091
531.099522	0.139916
531.315456	0.140413
531.531372	0.140655
531.747269	0.141026
531.963148	0.141168
532.179009	0.142469
532.394852	0.143323
532.610676	0.142759
532.826482	0.142862
533.042271	0.143073
533.258040	0.142837
533.473792	0.142558
533.689525	0.142967
533.905240	0.142800
534.120937	0.141872
534.336616	0.141829
534.552277	0.142092
534.767919	0.141718
534.983543	0.141879
535.199149	0.141830
535.414736	0.141932
535.630306	0.141978
535.845857	0.142515
536.061390	0.143008
536.276904	0.143073
536.492401	0.143376
536.707879	0.144077
536.923339	0.144596
537.138781	0.144235
537.354204	0.144562
537.569610	0.144230
537.784997	0.144211
538.000366	0.144332
538.215716	0.144222
538.431049	0.144485
538.646363	0.144450
538.861659	0.144282
539.076937	0.145707
539.292196	0.145634
539.507438	0.145711
539.722661	0.145518
539.937866	0.145818
540.153052	0.145987
540.368221	0.145834
540.583371	0.146129
540.798503	0.145921
541.013617	0.145692
541.228712	0.146207
541.443789	0.146255
541.658848	0.146737
541.873889	0.146906
542.088912	0.147254
542.303916	0.147560
542.518902	0.147522
542.733870	0.147896
542.948820	0.147558
543.163752	0.147310
543.378665	0.148063
543.593560	0.148152
543.808437	0.148122
544.023295	0.148216
544.238136	0.148011
544.452958	0.148118
544.667762	0.148069
544.882548	0.148072
545.097315	0.148119
545.312064	0.147630
545.526795	0.147461
545.741508	0.146970
545.956203	0.147149
546.170879	0.146998
546.385537	0.147687
546.600177	0.148057
546.814799	0.148218
547.029402	0.148107
547.243988	0.148626
547.458555	0.149043
547.673103	0.149524
547.887634	0.149100
548.102146	0.149940
548.316640	0.149889
548.531116	0.150090
548.745574	0.150609
548.960013	0.151134
549.174435	0.150762
549.388838	0.150746
549.603222	0.151237
549.817589	0.151771
550.031937	0.151545
550.246267	0.151263
550.460579	0.151179
550.674873	0.151062
550.889148	0.151081
551.103405	0.151737
551.317644	0.151713
551.531865	0.151477
551.746068	0.151315
551.960252	0.151661
552.174418	0.151622
552.388566	0.151407
552.602696	0.151264
552.816807	0.151207
553.030900	0.151144
553.244975	0.151453
553.459032	0.151681
553.673070	0.152029
553.887091	0.151874
554.101093	0.152289
554.315077	0.152749
554.529042	0.152855
554.742990	0.153161
554.956919	0.153287
555.170830	0.153574
555.384722	0.153496
555.598597	0.153713
555.812453	0.153822
556.026291	0.153523
556.240111	0.153644
556.453913	0.154075
556.667696	0.153962
556.881461	0.153600
557.095208	0.153187
557.308937	0.153152
557.522647	0.153187
557.736339	0.153118
557.950013	0.153202
558.163669	0.152887
558.377307	0.153059
558.590926	0.153229
558.804527	0.153717
559.018110	0.153783
559.231675	0.153799
559.445221	0.153584
559.658749	0.153331
559.872259	0.153505
560.085751	0.153832
560.299225	0.153568
560.512680	0.154081
560.726117	0.153929
560.939536	0.154033
561.152937	0.154508
561.366319	0.154946
561.579683	0.155523
561.793029	0.155868
562.006357	0.156087
562.219667	0.156040
562.432958	0.155724
562.646231	0.156008
562.859486	0.156448
563.072723	0.156365
563.285941	0.156270
563.499141	0.156584
563.712323	0.156655
563.925487	0.156681
564.138632	0.157376
564.351760	0.157370
564.564869	0.157367
564.777960	0.157402
564.991032	0.157409
565.204087	0.157061
565.417123	0.156871
565.630141	0.156803
565.843140	0.156800
566.056122	0.156491
566.269085	0.156689
566.482030	0.156943
566.694957	0.156970
566.907866	0.157190
567.120756	0.157634
567.333628	0.157689
567.546482	0.157944
567.759318	0.157888
567.972135	0.157812
568.184935	0.157834
568.397716	0.157558
568.610478	0.157426
568.823223	0.157227
569.035949	0.157233
569.248657	0.157046
569.461347	0.156975
569.674019	0.157293
569.886672	0.157507
570.099308	0.157794
570.311925	0.158027
570.524523	0.158052
570.737104	0.158288
570.949666	0.158262
571.162210	0.158485
571.374736	0.158368
571.587244	0.158401
571.799733	0.158510
572.012205	0.158335
572.224658	0.158412
572.437092	0.158575
572.649509	0.158596
572.861907	0.158748
573.074287	0.158795
573.286649	0.159018
573.498993	0.158551
573.711318	0.159054
573.923625	0.159339
574.135914	0.159566
574.348185	0.159656
574.560438	0.159565
574.772672	0.159378
574.984888	0.159540
575.197086	0.159843
575.409266	0.160642
575.621427	0.160284
575.833570	0.160329
576.045695	0.160211
576.257802	0.160185
576.469890	0.160251
576.681961	0.160730
576.894013	0.160897
577.106046	0.160579
577.318062	0.160160
577.530059	0.159983
577.742039	0.159697
577.954000	0.159597
578.165942	0.159722
578.377867	0.160052
578.589773	0.159744
578.801661	0.159670
579.013531	0.160133
579.225382	0.160270
579.437216	0.160177
579.649031	0.160409
579.860828	0.160495
580.072606	0.160647
580.284367	0.160714
580.496109	0.161053
580.707833	0.161243
580.919539	0.161539
581.131227	0.161668
581.342896	0.161971
581.554547	0.162110
581.766180	0.162563
581.977795	0.162431
582.189391	0.162487
582.400969	0.162633
582.612529	0.162531
582.824071	0.162078
583.035595	0.162372
583.247100	0.162811
583.458587	0.162991
583.670056	0.162990
583.881506	0.163156
584.092939	0.163313
584.304353	0.163015
584.515749	0.163066
584.727127	0.162943
584.938486	0.162970
585.149828	0.162969
585.361151	0.163179
585.572456	0.163103
585.783742	0.163331
585.995011	0.163232
586.206261	0.163631
586.417493	0.163690
586.628706	0.164095
586.839902	0.164427
587.051079	0.164557
587.262238	0.163774
587.473379	0.163801
587.684502	0.163317
587.895606	0.163193
588.106692	0.162936
588.317760	0.163340
588.528810	0.163598
588.739841	0.163164
588.950855	0.163277
589.161850	0.164122
589.372827	0.164361
589.583785	0.165516
589.794726	0.165811
590.005648	0.166236
590.216552	0.166663
590.427437	0.166419
590.638305	0.166975
590.849154	0.167055
591.059985	0.167430
591.270798	0.167247
591.481592	0.166991
591.692369	0.167137
591.903127	0.167042
592.113867	0.166700
592.324588	0.166659
592.535292	0.166310
592.745977	0.166297
592.956644	0.165911
593.167293	0.165910
593.377923	0.165523
593.588536	0.165630
593.799130	0.166103
594.009706	0.166382
594.220263	0.166714
594.430803	0.166855
594.641324	0.167112
594.851827	0.167043
595.062312	0.167627
595.272778	0.167637
595.483227	0.167641
595.693657	0.167509
595.904069	0.167288
596.114462	0.167391
596.324838	0.167328
596.535195	0.166635
596.745534	0.166707
596.955855	0.166520
597.166157	0.167084
597.376441	0.167298
597.586707	0.167216
597.796955	0.166821
598.007185	0.166628
598.217396	0.166658
598.427589	0.167193
598.637764	0.167544
598.847921	0.167777
599.058060	0.167837
599.268180	0.167868
599.478282	0.168143
599.688366	0.168750
599.898431	0.168651
600.108479	0.168826
600.318508	0.168830
600.528519	0.168739
600.738511	0.168524
600.948486	0.168320
601.158442	0.168170
601.368380	0.168155
601.578300	0.167675
601.788202	0.168052
601.998085	0.168250
602.207950	0.168256
602.417797	0.168169
602.627626	0.168561
602.837436	0.168464
603.047228	0.168575
603.257002	0.168150
603.466758	0.168621
603.676496	0.168677
603.886215	0.168499
604.095916	0.168428
604.305599	0.168493
604.515264	0.168197
604.724910	0.168236
604.934538	0.168425
605.144148	0.168684
605.353740	0.168424
605.563314	0.168375
605.772869	0.168304
605.982406	0.168401
606.191925	0.168284
606.401425	0.168362
606.610908	0.168617
606.820372	0.168250
607.029818	0.168578
607.239246	0.169097
607.448655	0.169000
607.658047	0.169372
607.867420	0.168990
608.076775	0.169118
608.286111	0.169336
608.495430	0.169250
608.704730	0.169612
608.914012	0.169394
609.123275	0.169041
609.332521	0.169111
609.541748	0.168786
609.750957	0.169151
609.960148	0.169515
610.169321	0.169251
610.378475	0.169566
610.587611	0.169292
610.796729	0.169525
611.005829	0.169811
611.214910	0.170098
611.423974	0.170248
611.633019	0.170321
611.842045	0.170120
612.051054	0.170182
612.260044	0.169928
612.469017	0.170160
612.677970	0.169876
612.886906	0.169745
613.095824	0.169633
613.304723	0.169828
613.513604	0.169758
613.722467	0.169981
613.931311	0.170095
614.140138	0.170265
614.348946	0.170457
614.557736	0.170819
614.766507	0.170996
614.975261	0.170994
615.183996	0.170964
615.392713	0.171109
615.601412	0.170994
615.810092	0.171302
616.018754	0.171341
616.227399	0.171404
616.436024	0.171597
616.644632	0.171639
616.853222	0.171739
617.061793	0.171888
617.270346	0.171765
617.478880	0.171848
617.687397	0.171580
617.895895	0.171610
618.104375	0.171749
618.312837	0.171641
618.521281	0.171482
618.729706	0.171482
618.938113	0.171477
619.146502	0.171706
619.354873	0.171628
619.563226	0.171601
619.771560	0.171629
619.979876	0.171362
620.188174	0.171347
620.396453	0.171641
620.604715	0.171892
620.812958	0.171851
621.021183	0.171795
621.229390	0.171734
621.437578	0.171952
621.645748	0.171983
621.853900	0.172261
622.062034	0.172238
622.270150	0.172029
622.478247	0.171819
622.686326	0.171673
622.894387	0.171839
623.102430	0.171892
623.310454	0.171671
623.518461	0.171538
623.726449	0.171535
623.934418	0.171355
624.142370	0.171438
624.350303	0.171311
624.558218	0.171674
624.766115	0.171695
624.973994	0.171934
625.181855	0.172287
625.389697	0.172248
625.597521	0.172130
625.805327	0.172134
626.013114	0.172384
626.220883	0.172539
626.428634	0.172444
626.636367	0.172707
626.844082	0.172864
627.051778	0.172924
627.259457	0.173270
627.467117	0.173846
627.674758	0.174040
627.882382	0.173916
628.089987	0.173978
628.297574	0.173997
628.505143	0.173661
628.712694	0.173412
628.920226	0.173117
629.127740	0.173161
629.335236	0.172730
629.542714	0.172915
629.750174	0.173151
629.957615	0.173277
630.165038	0.173270
630.372443	0.173279
630.579829	0.173627
630.787198	0.173970
630.994548	0.173941
631.201880	0.173976
631.409194	0.174084
631.616489	0.173923
631.823766	0.173841
632.031025	0.174150
632.238266	0.174404
632.445489	0.174183
632.652693	0.174097
632.859879	0.174093
633.067047	0.174170
633.274197	0.174217
633.481329	0.174268
633.688442	0.174466
633.895537	0.174623
634.102614	0.174802
634.309672	0.175066
634.516713	0.175195
634.723735	0.175530
634.930739	0.175646
635.137724	0.175608
635.344692	0.176001
635.551641	0.176207
635.758572	0.176144
635.965485	0.176028
636.172379	0.176062
636.379256	0.176130
636.586114	0.175905
636.792954	0.176150
636.999775	0.176338
637.206579	0.176291
637.413364	0.176510
637.620131	0.176467
637.826880	0.176720
638.033610	0.176993
638.240323	0.176882
638.447017	0.177090
638.653692	0.177076
638.860350	0.177091
639.066990	0.176899
639.273611	0.176574
639.480214	0.176693
639.686798	0.176589
639.893365	0.176374
640.099913	0.176813
640.306443	0.176816
640.512955	0.176726
640.719449	0.176893
640.925924	0.176966
641.132381	0.177019
641.338820	0.177011
641.545241	0.177181
641.751644	0.177268
641.958028	0.177049
642.164394	0.177478
642.370742	0.177464
642.577071	0.177347
642.783383	0.177600
642.989676	0.178088
643.195951	0.178262
643.402207	0.178336
643.608446	0.178484
643.814666	0.178837
644.020868	0.178549
644.227052	0.178698
644.433218	0.178807
644.639365	0.178911
644.845494	0.178601
645.051605	0.178522
645.257698	0.178759
645.463772	0.178932
645.669828	0.178810
645.875866	0.179186
646.081886	0.179370
646.287888	0.179436
646.493871	0.179489
646.699836	0.179621
646.905783	0.179726
647.111712	0.179754
647.317622	0.179699
647.523514	0.179917
647.729388	0.179532
647.935244	0.179385
648.141082	0.179553
648.346901	0.179613
648.552702	0.179681
648.758485	0.180223
648.964250	0.180501
649.169996	0.180455
649.375724	0.180372
649.581434	0.180852
649.787126	0.181321
649.992800	0.181562
650.198455	0.181725
650.404092	0.182143
650.609711	0.182113
650.815311	0.181882
651.020894	0.182099
651.226458	0.182387
651.432004	0.182343
651.637532	0.182333
651.843041	0.182374
652.048532	0.182228
652.254006	0.182138
652.459460	0.181816
652.664897	0.182074
652.870315	0.182355
653.075716	0.182324
653.281097	0.182481
653.486461	0.182467
653.691807	0.182347
653.897134	0.182672
654.102443	0.182652
654.307734	0.182942
654.513006	0.182979
654.718261	0.182812
654.923497	0.183068
655.128715	0.182887
655.333915	0.182792
655.539096	0.182975
655.744259	0.182789
655.949404	0.182793
656.154531	0.183120
656.359640	0.183431
656.564730	0.183901
656.769802	0.184092
656.974856	0.184434
657.179892	0.184976
657.384909	0.185090
657.589908	0.185767
657.794889	0.186002
657.999852	0.185976
658.204797	0.186007
658.409723	0.185985
658.614631	0.185886
658.819521	0.185926
659.024393	0.186074
659.229246	0.186276
659.434081	0.186262
659.638898	0.186867
659.843697	0.187121
660.048478	0.187175
660.253240	0.187295
660.457984	0.187154
660.662710	0.187504
660.867417	0.187474
661.072107	0.187538
661.276778	0.187653
661.481431	0.187278
661.686066	0.187269
661.890682	0.187391
662.095281	0.187298
662.299861	0.187605
662.504422	0.187474
662.708966	0.187312
662.913491	0.187369
663.117999	0.187157
663.322488	0.187297
663.526958	0.187189
663.731411	0.187119
663.935845	0.187196
664.140261	0.187399
664.344659	0.187556
664.549038	0.187948
664.753400	0.188029
664.957743	0.188277
665.162068	0.188472
665.366375	0.188662
665.570663	0.188726
665.774933	0.188911
665.979185	0.189050
666.183419	0.189013
666.387635	0.188876
666.591832	0.188890
666.796011	0.188956
667.000172	0.188802
667.204315	0.188819
667.408439	0.188902
667.612545	0.188907
667.816634	0.188816
668.020703	0.189134
668.224755	0.189159
668.428788	0.189110
668.632803	0.189061
668.836800	0.189166
669.040779	0.189218
669.244739	0.189278
669.448681	0.189390
669.652605	0.189573
669.856511	0.189474
670.060399	0.189640
670.264268	0.189880
670.468119	0.189859
670.671952	0.190115
670.875767	0.190200
671.079563	0.190412
671.283341	0.190716
671.487101	0.190911
671.690843	0.191195
671.894567	0.191455
672.098272	0.191559
672.301959	0.191953
672.505628	0.191990
672.709278	0.192190
672.912911	0.192314
673.116525	0.192245
673.320121	0.192211
673.523699	0.192202
673.727258	0.192193
673.930799	0.192442
674.134322	0.192415
674.337827	0.192418
674.541314	0.192547
674.744782	0.192538
674.948232	0.192536
675.151664	0.192583
675.355078	0.192577
675.558474	0.192825
675.761851	0.192945
675.965210	0.193125
676.168551	0.193321
676.371873	0.193361
676.575178	0.193638
676.778464	0.193843
676.981732	0.193992
677.184981	0.193914
677.388213	0.193883
677.591426	0.193950
677.794621	0.194001
677.997798	0.194187
678.200956	0.194302
678.404097	0.194366
678.607219	0.194536
678.810323	0.194624
679.013408	0.195073
679.216476	0.195127
679.419525	0.195096
679.622556	0.195302
679.825569	0.195361
680.028563	0.195535
680.231540	0.195659
680.434498	0.195881
680.637438	0.196179
680.840359	0.196390
681.043263	0.196550
681.246148	0.196827
681.449015	0.196944
681.651864	0.197068
681.854694	0.196922
682.057506	0.196978
682.260301	0.197088
682.463076	0.197085
682.665834	0.196901
682.868573	0.197096
683.071295	0.197192
683.273998	0.197107
683.476682	0.197134
683.679349	0.197475
683.881997	0.197439
684.084627	0.197382
684.287239	0.197411
684.489833	0.197630
684.692408	0.197530
684.894965	0.197505
685.097504	0.198018
685.300025	0.198361
685.502527	0.198558
685.705012	0.198711
685.907478	0.198843
686.109925	0.199053
686.312355	0.199336
686.514766	0.199466
686.717159	0.199686
686.919534	0.199520
687.121891	0.199414
687.324230	0.199269
687.526550	0.199187
687.728852	0.199133
687.931136	0.199138
688.133401	0.198954
688.335649	0.199089
688.537878	0.199127
688.740089	0.199384
688.942281	0.199435
689.144456	0.199780
689.346612	0.200264
689.548750	0.200329
689.750870	0.200378
689.952971	0.200481
690.155055	0.200670
690.357120	0.200661
690.559167	0.200524
690.761195	0.200679
690.963206	0.200781
691.165198	0.200543
691.367172	0.201016
691.569128	0.201120
691.771065	0.201244
691.972984	0.201185
692.174885	0.201295
692.376768	0.201358
692.578633	0.201273
692.780479	0.201114
692.982308	0.201361
693.184118	0.201039
693.385909	0.201096
693.587683	0.201073
