sample name	sample
index	647
start time	 03-19-2021  03:58:05 PM
880	0.026247
Peak Time (s)	91.037
Peak Height 	0.02625
calc peak height	90,93
Baseline Time (s)	8.536
Baseline Value 	-0.005065
subtract baseline	10,4
Abs	0.013232
Peak Time (s)	91.537
Peak Height 	0.01323
calc peak height	90,93
Baseline Time (s)	9.036
Baseline Value 	0.003155
subtract baseline	10,3
PK_550	0.006575
Peak Time (s)	90.587
Peak Height 	0.006575
calc peak height	90,93
Baseline Time (s)	10.537
Baseline Value 	5.1902E-4
subtract baseline	10,2
PK_880	0.010874
Peak Time (s)	90.488
Peak Height 	0.01087
calc peak height	90,93
Baseline Time (s)	9.036
Baseline Value 	0.00339
subtract baseline	10,1


Time (s)	A880-A510	A880-A775	A880-A975	A880	I510	I775	I975	I880	
0.036500	-0.000717	-0.000097	-0.000744	0.002752	7395.748559	45413.244936	4061.292361	24165.729977
0.536000	-0.002030	-0.000399	-0.002483	0.004318	7366.685965	45231.413894	4052.954528	24089.557979
1.037000	-0.002776	0.000082	-0.004313	0.004069	7361.684594	45302.303721	4048.984447	24101.627889
1.539000	-0.004342	-0.000567	-0.001216	0.006248	7324.207690	45028.244868	4051.287408	23996.054245
2.037500	-0.000934	0.000277	0.007467	0.002057	7400.583473	45517.591541	4084.084356	24199.616256
2.535000	-0.000877	0.000381	0.001124	0.001642	7405.379502	45568.332757	4068.862271	24219.892527
3.038000	0.001668	-0.000311	0.003867	-0.001042	7458.770868	45763.689147	4082.788917	24351.396969
3.536000	-0.000230	-0.000920	-0.000393	0.000050	7428.158972	45596.814688	4069.054756	24297.812091
4.036000	-0.000856	0.000391	0.001867	0.000036	7421.928122	45726.729775	4074.869722	24298.501899
4.536000	-0.000424	-0.000139	-0.001153	-0.000137	7428.086737	45691.710914	4067.593582	24306.972484
5.036500	-0.001602	-0.000203	-0.002309	0.000059	7414.092485	45666.230927	4064.154839	24297.372553
5.536500	-0.000939	-0.000190	0.003839	0.000364	7417.729639	45637.484920	4079.091571	24282.385060
6.037000	-0.000042	-0.000183	-0.002273	0.000226	7428.275774	45651.686627	4063.818620	24289.146854
6.534500	-0.000361	0.000172	0.001472	0.000297	7424.298690	45679.590801	4073.186973	24285.681172
7.035000	-0.001120	-0.000192	0.001982	0.000129	7418.280988	45660.376509	4074.924341	24293.902120
7.535000	-0.001043	0.000098	0.002087	0.000071	7419.657705	45694.486135	4075.343583	24296.759359
8.034500	-0.001155	0.000426	-0.002392	0.000048	7418.752492	45728.971332	4063.968586	24297.870054
8.536000	-0.000477	-0.000077	0.002432	0.000000	7426.148691	45684.336196	4076.410836	24300.247870
9.036000	0.000000	0.000203	0.000000	0.000215	7428.826283	45690.698315	4069.635531	24289.723588
9.536000	-0.001581	-0.000440	0.000248	-0.000669	7421.720557	45714.423973	4072.527685	24333.092307
10.036500	0.001262	0.000742	-0.000182	0.000831	7435.416679	45683.118921	4067.598608	24259.511299
10.537000	-0.000627	0.000000	-0.001892	-0.000198	7426.638229	45711.291474	4065.866507	24309.946768
11.037500	0.000909	-0.000162	-0.009287	-0.000046	7440.779521	45680.564673	4046.836478	24302.514536
11.537500	0.002354	0.000683	0.005562	0.000746	7447.468586	45685.727899	4082.550300	24263.715938
12.035000	-0.000376	-0.000791	0.004696	-0.000245	7429.684557	45638.348433	4082.872610	24312.283488
12.538000	0.000068	0.000861	0.001020	0.000525	7426.350870	45724.854047	4071.447883	24274.500656
13.035500	0.000785	-0.000194	0.002327	0.000796	7430.907564	45594.803333	4074.098855	24261.243522
13.536500	0.001031	0.000305	0.003761	0.001748	7423.706036	45550.500463	4075.335991	24214.714266
14.036500	-0.000571	0.000136	-0.001026	0.003589	7388.746739	45354.387769	4058.463244	24124.977978
14.536500	-0.001167	-0.000018	0.001155	0.002959	7389.095959	45400.716880	4065.587094	24155.634531
15.036500	0.000917	-0.000335	0.002277	0.001505	7425.023858	45511.736904	4072.156608	24226.586186
15.534000	-0.000816	-0.000030	-0.003198	0.001617	7406.241383	45530.546456	4057.955352	24221.085464
16.037000	0.000072	0.000265	-0.000293	0.001275	7418.752295	45592.885985	4066.188215	24237.825183
16.534500	-0.002497	-0.000656	0.003194	0.000394	7401.603362	45589.043983	4077.357284	24280.958159
17.034500	0.001191	0.000898	0.002463	-0.000472	7448.025963	45826.541576	4077.701542	24323.387512
17.535500	-0.001237	0.000273	0.001958	0.001887	7399.234869	45533.742201	4070.363570	24207.887254
18.035500	-0.001140	-0.000307	0.002936	0.001689	7402.228774	45496.385469	4073.371418	24217.572344
18.535500	0.000526	0.001042	0.003711	0.003406	7401.718879	45460.536401	4070.963126	24133.888911
19.036500	0.000309	0.000495	0.001154	0.002660	7407.088145	45479.922887	4066.345102	24170.221469
19.536500	-0.000748	-0.000193	0.003254	0.002187	7401.163034	45458.965180	4072.911535	24193.286392
20.036500	-0.000732	-0.000078	0.002282	0.002164	7401.550742	45472.392895	4070.484910	24194.372120
20.537000	-0.001677	-0.000063	0.003048	0.002084	7392.790673	45481.720355	4072.646994	24198.296107
21.037500	-0.000094	-0.000009	-0.001791	0.002476	7404.851573	45448.664399	4059.339510	24179.146241
21.535000	-0.000552	-0.000262	0.000150	0.002028	7404.759772	45467.765201	4065.399033	24201.034679
22.038000	-0.002035	-0.000391	-0.000704	0.001881	7391.225364	45469.480435	4063.603964	24208.217841
22.535500	-0.001544	0.000313	0.003865	0.002590	7389.012063	45468.897460	4073.443475	24173.592094
23.036500	-0.001274	-0.000037	-0.000811	0.002105	7396.651548	45482.177243	4062.763157	24197.262719
23.535500	-0.000835	0.000106	0.001825	0.002601	7396.083005	45447.778198	4068.205084	24173.098650
24.036500	-0.000562	0.000225	-0.000860	0.002703	7397.814277	45449.381261	4061.123012	24168.121839
24.536500	-0.001152	-0.000095	0.001729	0.002212	7396.809310	45466.050534	4068.950027	24192.052663
25.036500	-0.003189	-0.000013	-0.003885	0.002358	7374.741222	45459.784107	4054.356882	24184.910981
25.537500	-0.000598	-0.000562	0.003484	0.001891	7405.675706	45451.735209	4074.259115	24207.701148
26.034500	0.000132	0.000811	-0.002865	0.003155	7400.259600	45462.379975	4054.916536	24146.062242
26.535000	-0.001357	-0.000025	0.004970	0.002239	7394.454601	45470.241537	4077.178846	24190.724663
27.035000	-0.001288	0.000071	-0.001923	0.003206	7385.380245	45385.294858	4057.164207	24143.623637
27.535500	0.001463	0.000464	0.005585	0.001699	7428.613283	45570.882500	4080.151544	24217.115301
28.036000	0.000850	-0.000109	0.005346	0.001674	7422.614059	45517.186747	4079.599240	24218.303998
28.536000	0.000491	0.000270	0.001576	0.001934	7416.310331	45528.836751	4069.269635	24205.611056
29.036500	0.001008	0.000510	0.002968	0.002216	7418.693894	45524.725125	4072.105139	24191.837557
29.536500	0.000304	0.000781	0.002213	0.002718	7406.431704	45502.158459	4068.893824	24167.353371
30.037000	0.001214	0.000389	0.000135	0.002010	7422.892278	45533.044289	4065.404369	24201.890024
30.537000	-0.000151	0.000325	0.008283	0.002268	7406.390794	45501.632467	4085.647934	24189.307927
31.035000	-0.001630	0.000643	-0.002555	0.004959	7364.256749	45270.407564	4051.163590	24058.456892
31.537500	-0.000994	0.000446	0.001191	0.002170	7398.831449	45522.997256	4067.684712	24194.083891
32.035500	0.000640	-0.000513	0.005737	0.001969	7417.468218	45448.970205	4079.845448	24203.888610
32.535500	0.000208	-0.000054	0.002309	0.001935	7413.423593	45497.086658	4071.138793	24205.566865
33.036000	-0.002408	0.000580	-0.001106	0.003755	7368.545995	45381.458130	4057.841224	24116.917122
33.536500	-0.000348	0.000311	0.002362	0.001542	7411.760900	45571.259462	4072.278998	24224.757889
34.036500	-0.000153	0.000655	0.000265	0.003924	7389.592464	45372.197193	4060.880711	24108.677675
34.537000	-0.001404	0.000104	0.000065	0.003273	7383.522092	45381.971304	4062.023550	24140.349239
35.037000	-0.001801	0.000074	0.000944	0.004040	7371.785361	45304.428969	4062.305753	24103.049497
35.534500	-0.001354	0.000148	0.002244	0.003590	7380.830221	45355.375777	4066.751037	24124.920253
36.038000	0.000133	0.000611	0.003272	0.004110	7390.603015	45349.909526	4068.045513	24099.658273
36.535500	-0.000902	0.000690	-0.000880	0.003930	7381.960291	45375.122525	4057.971429	24108.404454
37.035500	-0.000685	0.001092	0.002486	0.004641	7376.974484	45344.974945	4064.693544	24073.845544
37.535500	0.000046	0.001385	-0.000223	0.004314	7387.656592	45405.326483	4058.658741	24089.727061
38.035500	-0.000791	0.000155	-0.004140	0.003693	7385.474517	45346.065035	4050.362822	24119.926570
38.536500	-0.001098	0.000339	0.002877	0.004099	7378.269875	45324.383141	4067.065997	24100.157163
39.036500	-0.001166	0.000782	0.000960	0.004295	7375.617629	45348.495649	4061.702582	24090.674540
39.533500	-0.001474	0.000054	-0.000475	0.003913	7376.359349	45314.827457	4059.036807	24109.218435
40.037500	-0.000488	0.000639	0.001980	0.004276	7382.643017	45336.397985	4064.337184	24091.572717
40.537500	-0.002266	-0.000122	-0.000008	0.003596	7371.570632	45328.574601	4061.020452	24124.630458
41.035000	-0.000677	0.000813	0.007940	0.004304	7380.453432	45350.600168	4079.505321	24090.202396
41.535500	0.000355	-0.000343	0.001527	0.003630	7397.709729	45303.736825	4064.826296	24122.977194
42.035500	-0.000713	0.000432	0.006567	0.003897	7384.200075	45353.208415	4077.022941	24110.009136
42.536000	-0.000586	0.000011	0.005331	0.003744	7387.033650	45327.072814	4074.242969	24117.426628
43.036000	0.002704	0.000620	0.006046	0.003842	7419.419951	45376.812454	4075.825998	24112.685652
43.536500	0.002616	0.001319	0.004596	0.001212	7445.371592	45702.363096	4078.856930	24240.883237
44.037000	0.001167	0.002161	0.006090	0.002217	7420.304461	45686.406658	4080.115928	24191.796016
44.537000	-0.001893	0.000604	0.004077	0.002691	7384.466535	45487.524437	4073.727330	24168.683235
45.034500	-0.000109	0.000322	-0.002562	0.006397	7365.083994	45099.722066	4047.542054	23988.824181
45.537500	0.000478	0.000102	0.003953	0.003221	7403.097079	45386.854817	4072.054048	24142.867710
46.035000	-0.001059	-0.000191	0.000521	0.002523	7394.599912	45426.393120	4065.082730	24176.889924
46.535500	-0.001760	-0.000119	0.001943	0.002779	7384.916942	45408.383286	4068.049713	24164.391993
47.035500	-0.002406	0.000859	-0.001241	0.006842	7337.605434	45108.703619	4049.735243	23967.361893
47.536500	0.000229	0.000261	0.004163	0.005138	7381.181614	45215.942853	4067.696211	24049.777762
48.036500	0.000625	0.000388	0.004108	0.003500	7401.763792	45387.569813	4071.736317	24129.299152
48.536500	-0.000685	-0.000334	0.003240	0.002756	7396.020405	45389.597995	4071.418809	24165.498212
49.037000	-0.001924	0.000146	0.000854	0.005724	7353.618862	45147.892023	4057.818537	24021.385170
49.537000	0.001119	0.000188	0.008268	-0.000033	7442.791335	45713.595873	4091.582588	24301.864405
50.035000	0.001802	0.000941	0.003407	0.001742	7431.635746	45613.392590	4074.445076	24215.012065
50.538000	0.003945	0.000617	0.005874	0.005666	7413.479721	45199.222293	4070.714060	24024.200112
51.035500	-0.056449	-0.017762	-0.006838	0.044358	6512.566056	40010.881089	3946.868974	22232.308755
51.535500	-0.046744	-0.019394	0.014752	-0.026484	7228.931544	46393.489234	4180.637681	25639.453600
52.036000	-0.014697	-0.009218	0.019064	-0.036353	7657.720868	48440.133765	4221.110249	26159.762644
52.536500	-0.018944	-0.016137	-0.010165	-0.121680	8614.336732	57417.889460	4394.826982	31187.304982
53.036500	-0.002328	-0.013454	-0.013516	-0.128846	8930.484717	58664.436244	4407.473147	31656.164387
53.536500	0.022404	-0.011195	0.002420	-0.133525	9346.216869	59559.659063	4477.775525	31966.538413
54.036500	0.014537	-0.005599	0.002614	-0.091150	8652.629320	54972.601061	4337.412020	29273.989017
54.537500	-0.006084	-0.006903	-0.000024	-0.042739	7821.483898	49358.230705	4184.793791	26502.753666
55.037500	-0.003338	-0.006704	-0.006390	-0.068227	8145.533578	52178.779538	4239.871829	27923.244743
55.535000	-0.000575	-0.005191	0.001613	-0.060981	8092.661594	51534.768075	4242.104696	27510.913698
56.035000	0.002798	-0.002263	0.004666	-0.046565	7964.729079	50269.463447	4209.023514	26710.704206
56.535500	-0.001198	-0.001639	0.006832	-0.025812	7689.575732	48131.739514	4156.751080	25604.472694
57.036000	-0.008747	-0.001925	0.002556	-0.005031	7393.247603	45997.871774	4089.728235	24548.419486
57.536500	-0.006895	-0.002006	0.002123	-0.001730	7378.601109	45664.810971	4080.064838	24385.252988
58.036500	-0.005593	-0.001279	0.005365	0.006032	7313.905929	44980.351531	4068.481727	24006.473870
58.537000	-0.004202	0.000297	0.008843	0.011227	7276.264446	44632.500186	4064.113371	23756.734423
59.037500	-0.006482	0.000863	0.001729	0.017835	7189.582109	44058.266983	4029.811286	23443.337506
59.535000	-0.000901	0.001416	0.011655	0.014781	7273.766305	44400.059361	4062.229031	23587.571109
60.035000	0.000834	0.003457	0.006989	0.017567	7263.433763	44329.310764	4043.500364	23455.953531
60.535000	-0.000462	0.002525	0.006666	0.019110	7235.638099	44094.874387	4038.861460	23383.430823
61.035500	0.000427	0.002748	0.008983	0.022971	7206.733413	43752.567387	4035.037059	23203.038708
61.535500	0.002710	0.004552	0.007328	0.020260	7255.421243	44177.762928	4037.650695	23329.520499
62.036500	0.009064	0.005672	0.007449	0.015894	7361.825655	44700.295491	4048.826889	23534.870807
62.536500	0.006275	0.005295	0.010110	0.013869	7354.164924	44858.686228	4060.628495	23630.869464
63.036500	0.003627	0.005009	0.009873	0.015088	7315.532801	44713.999953	4056.946849	23573.012957
63.536500	0.007901	0.005233	0.009140	0.009354	7416.204350	45289.302298	4069.636512	23846.407632
64.034500	0.008974	0.005566	0.008637	0.009228	7428.433733	45334.067494	4068.676018	23852.499590
64.540500	0.010952	0.006991	0.013330	0.010518	7435.452549	45347.086972	4077.387563	23790.629394
65.035000	0.007329	0.005459	0.005879	0.015140	7351.986456	44752.260500	4046.787643	23570.577027
65.535000	0.009661	0.007845	0.011119	0.011654	7410.720506	45319.723641	4068.819288	23736.335576
66.035500	0.010972	0.007249	0.010067	0.011815	7422.418995	45246.145951	4065.730295	23728.654456
66.536000	0.010566	0.007225	0.008234	0.011968	7416.726005	45228.848183	4060.687693	23721.326996
67.036500	0.009595	0.008207	0.013704	0.018717	7338.857346	44672.770366	4057.456617	23401.865524
67.536000	0.011953	0.007330	0.012907	0.013573	7414.512951	45083.537184	4068.485703	23644.923165
68.037000	0.012204	0.007308	0.007831	0.013726	7415.507246	45066.599935	4055.230894	23637.630265
68.537000	0.010668	0.007412	0.013488	0.014720	7389.835059	44980.576496	4067.041502	23590.453796
69.040500	0.005652	0.007138	0.008514	0.020006	7286.860335	44447.435916	4041.224153	23341.380237
69.535000	0.011622	0.008101	0.009296	0.015997	7386.567728	44923.904342	4053.204110	23530.003344
70.035000	0.010929	0.007966	0.013582	0.016339	7376.130538	44877.980446	4063.166390	23513.856359
70.535500	0.011432	0.008021	0.016424	0.016442	7380.163849	44873.373168	4070.136968	23509.006974
71.036000	0.008839	0.007930	0.009915	0.017641	7342.059903	44749.435053	4050.632252	23452.483037
71.536000	0.008031	0.008083	0.006120	0.016939	7340.999449	44831.437521	4042.898777	23485.532475
72.036500	0.011973	0.008525	0.006959	0.017690	7373.026946	44801.809067	4043.117340	23450.147700
72.537000	0.011287	0.008090	0.009684	0.017150	7371.562480	44811.860403	4051.282898	23475.597535
73.037000	0.010938	0.006822	0.010687	0.017632	7363.203706	44644.003558	4052.591403	23452.909284
73.537000	0.010098	0.008567	0.010564	0.018443	7346.637003	44733.521279	4050.246148	23414.734376
74.037500	0.011693	0.008136	0.010992	0.017740	7369.704574	44759.592499	4053.086454	23447.787153
74.535000	0.009974	0.007840	0.009689	0.017842	7351.409415	44721.364069	4049.558836	23442.984961
75.035000	0.010788	0.008304	0.011305	0.019278	7345.189928	44628.364462	4050.011885	23375.538507
75.535500	0.010128	0.008061	0.010140	0.018552	7345.840291	44674.598596	4048.912390	23409.619920
76.035500	0.011683	0.008344	0.010229	0.019153	7355.405669	44644.039557	4047.628828	23381.382930
76.536500	0.010842	0.007526	0.010199	0.018317	7355.362486	44645.800806	4049.648089	23420.663990
77.036500	0.008586	0.008233	0.009612	0.023402	7282.310805	44228.770564	4035.524811	23182.975863
77.537000	0.009746	0.007249	0.007985	0.018440	7343.133894	44607.490106	4043.805633	23414.862131
78.037000	0.013895	0.008044	0.011184	0.019233	7376.847109	44607.689308	4049.820520	23377.620418
78.537500	0.011675	0.008014	0.012652	0.019752	7349.321068	44555.242434	4052.201546	23353.297615
79.035000	0.008806	0.007789	0.009304	0.023658	7281.950914	44162.408930	4034.130358	23171.067153
79.535000	0.013452	0.007351	0.011551	0.019753	7367.149268	44491.829754	4049.436739	23353.250025
80.035500	0.009859	0.007320	0.004264	0.019140	7337.274694	44547.500075	4032.842286	23382.023048
80.536000	0.009556	0.008061	0.010896	0.019962	7326.041485	44539.716316	4047.273295	23343.456496
81.036500	0.005644	0.007356	0.001163	0.025346	7234.365486	43962.267172	4010.121969	23092.836980
81.536500	0.010866	0.007173	0.010268	0.019816	7340.580367	44468.889770	4046.070879	23350.314517
82.036000	0.010504	0.007369	0.007297	0.020059	7334.527485	44464.347641	4038.070762	23338.899190
82.537000	0.011132	0.007186	0.007048	0.020206	7339.332260	44432.928860	4037.088631	23332.018096
83.037000	0.008934	0.006545	0.006397	0.025008	7269.919363	43917.781562	4023.667846	23108.506607
83.537000	0.013278	0.007255	0.015216	0.021133	7351.544053	44351.392838	4055.179424	23288.709118
84.035000	0.013229	0.007997	0.009943	0.021402	7348.349697	44396.308547	4041.304920	23276.106123
84.535000	0.013567	0.008087	0.012898	0.022104	7344.704095	44338.105346	4046.923408	23243.368170
85.036000	0.008953	0.007061	0.010162	0.026054	7259.816125	43867.878280	4030.336392	23060.106008
85.536000	0.010601	0.005857	0.012511	0.020580	7330.297183	44271.022546	4049.768672	23314.529492
86.036500	0.010780	0.006943	0.010591	0.021435	7323.559649	44293.010851	4042.836790	23274.604977
86.536500	0.011372	0.007701	0.007915	0.021998	7323.851949	44311.496213	4034.800834	23248.334364
87.036500	0.009524	0.006468	0.008211	0.025528	7270.602089	43861.693043	4026.837762	23084.444063
87.537000	0.011477	0.006623	0.012050	0.021605	7328.811669	44246.517603	4046.053596	23266.664353
88.062000	0.011639	0.007172	0.014210	0.022468	7321.834652	44216.733454	4049.296619	23226.437350
88.535000	0.009436	0.006985	0.010696	0.022052	7304.072511	44238.492784	4041.564125	23245.818628
89.038000	0.008982	0.006852	0.007247	0.025394	7266.590913	43910.404062	4024.801373	23090.643468
89.964500	0.011249	0.005729	0.008632	0.021775	7324.839822	44145.678902	4037.126191	23258.705108
90.488000	0.010874	0.006098	0.006348	0.022241	7316.477886	44136.581187	4030.336908	23237.005037
90.587000	0.010412	0.006575	0.011288	0.022394	7310.361910	44167.242272	4042.185541	23229.869068
91.036500	0.008561	0.005601	0.011998	0.026247	7254.086622	43712.992866	4034.391439	23051.219135
91.537000	0.010182	0.005942	0.013232	0.022852	7303.532229	44064.027101	4045.888757	23208.535916
92.037000	0.009657	0.006278	0.007452	0.023157	7295.307550	44067.035491	4030.798685	23194.360991
92.537500	0.009676	0.006447	0.009935	0.023106	7296.005099	44087.741316	4037.055649	23196.718950
93.035000	0.008698	0.005380	0.006501	0.023391	7283.522498	43960.379982	4027.885564	23183.507901
93.535000	0.009573	0.006056	0.011407	0.023004	7295.993092	44060.512385	4040.961935	23201.463270
94.035000	0.010783	0.005928	0.007464	0.022749	7310.519671	44072.547389	4031.833852	23213.358355
94.536000	0.011549	0.006046	0.010739	0.023295	7312.712715	44032.130064	4038.583164	23187.968018
95.036000	0.010499	0.006042	0.004507	0.023548	7299.783857	44007.907417	4022.614484	23176.202368
95.536000	0.009961	0.006194	0.010316	0.023671	7293.239263	44010.695419	4036.602221	23170.502602
96.036000	0.011266	0.005987	0.012561	0.023824	7304.641696	43976.702103	4041.794100	23163.386666
