sample name	sample
index	589
start time	 03-16-2021  04:22:51 PM


Wavelength (nm)	Absorbance
494.344910	0.629943
494.563924	0.629943
494.782919	0.629943
495.001897	NaN
495.220856	0.209958
495.439797	0.186442
495.658719	0.094548
495.877624	-0.007139
496.096510	-0.057204
496.315378	-0.009532
496.534227	-0.054222
496.753059	0.023898
496.971872	-0.011187
497.190667	0.076001
497.409444	0.078925
497.628203	0.079686
497.846943	0.078278
498.065665	0.078275
498.284369	0.074240
498.503055	0.075482
498.721723	0.076285
498.940372	0.077043
499.159003	0.076998
499.377616	0.075851
499.596210	0.074442
499.814787	0.075040
500.033345	0.073711
500.251885	0.075543
500.470406	0.075372
500.688910	0.074932
500.907395	0.074689
501.125862	0.073879
501.344311	0.073507
501.562742	0.073867
501.781154	0.073501
501.999548	0.075335
502.217924	0.075046
502.436282	0.075119
502.654621	0.073816
502.872942	0.073411
503.091245	0.074263
503.309530	0.074919
503.527797	0.076658
503.746045	0.077284
503.964275	0.075611
504.182487	0.075904
504.400681	0.076789
504.618856	0.077287
504.837013	0.077477
505.055152	0.077251
505.273273	0.077685
505.491376	0.076636
505.709460	0.075712
505.927526	0.075817
506.145574	0.075448
506.363604	0.074875
506.581615	0.074831
506.799608	0.074539
507.017583	0.074589
507.235540	0.074448
507.453478	0.074733
507.671399	0.075051
507.889301	0.076429
508.107185	0.077191
508.325050	0.076070
508.542898	0.075940
508.760727	0.075854
508.978538	0.075292
509.196330	0.075211
509.414105	0.074889
509.631861	0.075617
509.849599	0.075637
510.067319	0.074930
510.285021	0.075603
510.502704	0.075389
510.720369	0.076679
510.938016	0.076987
511.155645	0.077733
511.373255	0.077526
511.590848	0.076894
511.808422	0.077039
512.025977	0.077530
512.243515	0.077088
512.461034	0.077262
512.678536	0.076176
512.896018	0.077000
513.113483	0.076201
513.330930	0.076423
513.548358	0.076679
513.765768	0.075828
513.983160	0.076005
514.200533	0.076500
514.417889	0.076728
514.635226	0.077455
514.852545	0.076868
515.069845	0.077404
515.287128	0.077081
515.504392	0.077482
515.721638	0.077369
515.938866	0.076853
516.156075	0.076475
516.373267	0.076943
516.590440	0.076306
516.807594	0.076105
517.024731	0.075726
517.241850	0.076409
517.458950	0.076582
517.676032	0.077674
517.893095	0.077798
518.110141	0.078071
518.327168	0.079585
518.544177	0.079667
518.761168	0.080094
518.978141	0.079703
519.195095	0.080024
519.412031	0.079600
519.628949	0.079284
519.845849	0.080090
520.062731	0.081253
520.279594	0.079220
520.496439	0.079657
520.713266	0.078942
520.930074	0.079457
521.146865	0.078877
521.363637	0.078308
521.580391	0.078097
521.797127	0.077972
522.013844	0.078077
522.230543	0.078850
522.447224	0.079016
522.663887	0.080080
522.880532	0.080417
523.097158	0.080960
523.313766	0.081875
523.530356	0.082469
523.746928	0.082774
523.963481	0.081869
524.180017	0.080887
524.396534	0.080762
524.613032	0.080778
524.829513	0.080690
525.045975	0.080734
525.262420	0.080311
525.478845	0.080059
525.695253	0.079762
525.911643	0.079768
526.128014	0.080720
526.344367	0.081071
526.560702	0.080453
526.777018	0.080312
526.993316	0.080052
527.209597	0.080857
527.425858	0.080621
527.642102	0.080402
527.858328	0.081123
528.074535	0.081467
528.290724	0.081566
528.506894	0.082471
528.723047	0.082608
528.939181	0.082591
529.155297	0.082093
529.371395	0.082155
529.587475	0.082214
529.803536	0.082185
530.019579	0.082389
530.235604	0.082339
530.451611	0.082229
530.667600	0.082202
530.883570	0.082491
531.099522	0.082706
531.315456	0.083016
531.531372	0.083316
531.747269	0.082588
531.963148	0.082603
532.179009	0.082258
532.394852	0.082306
532.610676	0.083081
532.826482	0.083649
533.042271	0.082945
533.258040	0.082450
533.473792	0.082982
533.689525	0.083968
533.905240	0.083261
534.120937	0.083864
534.336616	0.083774
534.552277	0.083649
534.767919	0.082977
534.983543	0.083587
535.199149	0.084513
535.414736	0.083536
535.630306	0.083437
535.845857	0.084195
536.061390	0.083899
536.276904	0.084184
536.492401	0.083555
536.707879	0.083469
536.923339	0.083404
537.138781	0.083242
537.354204	0.084116
537.569610	0.084405
537.784997	0.084610
538.000366	0.085577
538.215716	0.085691
538.431049	0.086027
538.646363	0.086669
538.861659	0.087198
539.076937	0.087764
539.292196	0.087872
539.507438	0.088207
539.722661	0.087815
539.937866	0.086697
540.153052	0.086554
540.368221	0.087056
540.583371	0.087394
540.798503	0.087542
541.013617	0.087145
541.228712	0.087023
541.443789	0.086966
541.658848	0.087019
541.873889	0.088027
542.088912	0.088891
542.303916	0.088961
542.518902	0.088763
542.733870	0.089180
542.948820	0.089507
543.163752	0.089623
543.378665	0.089577
543.593560	0.089945
543.808437	0.090295
544.023295	0.089959
544.238136	0.089736
544.452958	0.090305
544.667762	0.090477
544.882548	0.090494
545.097315	0.090623
545.312064	0.091076
545.526795	0.091689
545.741508	0.091105
545.956203	0.090971
546.170879	0.091177
546.385537	0.091055
546.600177	0.091114
546.814799	0.091237
547.029402	0.091306
547.243988	0.091211
547.458555	0.090943
547.673103	0.091190
547.887634	0.091551
548.102146	0.091569
548.316640	0.091309
548.531116	0.091458
548.745574	0.091526
548.960013	0.091759
549.174435	0.091964
549.388838	0.091962
549.603222	0.092140
549.817589	0.091989
550.031937	0.092249
550.246267	0.092395
550.460579	0.092194
550.674873	0.092600
550.889148	0.092538
551.103405	0.092587
551.317644	0.092692
551.531865	0.092766
551.746068	0.092768
551.960252	0.092665
552.174418	0.093109
552.388566	0.093013
552.602696	0.092630
552.816807	0.092655
553.030900	0.092651
553.244975	0.092312
553.459032	0.092457
553.673070	0.093139
553.887091	0.093150
554.101093	0.093241
554.315077	0.092989
554.529042	0.093147
554.742990	0.092850
554.956919	0.092858
555.170830	0.093622
555.384722	0.093554
555.598597	0.092881
555.812453	0.092880
556.026291	0.092209
556.240111	0.092846
556.453913	0.092746
556.667696	0.093220
556.881461	0.093483
557.095208	0.093084
557.308937	0.093147
557.522647	0.093459
557.736339	0.093546
557.950013	0.093948
558.163669	0.093620
558.377307	0.093877
558.590926	0.094154
558.804527	0.093492
559.018110	0.093959
559.231675	0.093716
559.445221	0.093706
559.658749	0.093733
559.872259	0.093941
560.085751	0.094106
560.299225	0.093947
560.512680	0.094084
560.726117	0.094841
560.939536	0.094778
561.152937	0.095215
561.366319	0.095486
561.579683	0.095663
561.793029	0.095398
562.006357	0.095629
562.219667	0.095842
562.432958	0.095125
562.646231	0.094873
562.859486	0.095084
563.072723	0.094506
563.285941	0.094227
563.499141	0.094677
563.712323	0.095260
563.925487	0.095413
564.138632	0.095822
564.351760	0.096628
564.564869	0.096647
564.777960	0.096604
564.991032	0.097126
565.204087	0.097485
565.417123	0.097394
565.630141	0.097204
565.843140	0.097087
566.056122	0.097018
566.269085	0.096921
566.482030	0.097197
566.694957	0.097129
566.907866	0.097424
567.120756	0.097440
567.333628	0.097777
567.546482	0.097910
567.759318	0.098071
567.972135	0.097710
568.184935	0.097654
568.397716	0.097672
568.610478	0.097954
568.823223	0.097902
569.035949	0.098099
569.248657	0.097882
569.461347	0.098001
569.674019	0.097918
569.886672	0.098019
570.099308	0.098184
570.311925	0.098137
570.524523	0.097865
570.737104	0.097998
570.949666	0.098171
571.162210	0.098191
571.374736	0.098372
571.587244	0.098717
571.799733	0.099069
572.012205	0.099419
572.224658	0.099694
572.437092	0.099684
572.649509	0.099787
572.861907	0.099906
573.074287	0.100323
573.286649	0.100085
573.498993	0.099545
573.711318	0.099655
573.923625	0.099618
574.135914	0.099687
574.348185	0.099913
574.560438	0.099493
574.772672	0.099345
574.984888	0.098721
575.197086	0.098756
575.409266	0.099106
575.621427	0.099196
575.833570	0.099072
576.045695	0.099148
576.257802	0.099213
576.469890	0.099857
576.681961	0.099670
576.894013	0.100116
577.106046	0.100180
577.318062	0.100364
577.530059	0.100229
577.742039	0.100160
577.954000	0.100196
578.165942	0.100148
578.377867	0.100057
578.589773	0.100124
578.801661	0.099928
579.013531	0.100045
579.225382	0.099918
579.437216	0.099753
579.649031	0.100046
579.860828	0.099767
580.072606	0.099778
580.284367	0.099468
580.496109	0.099348
580.707833	0.099434
580.919539	0.099875
581.131227	0.100083
581.342896	0.100206
581.554547	0.099924
581.766180	0.100418
581.977795	0.100522
582.189391	0.101059
582.400969	0.101426
582.612529	0.101434
582.824071	0.101158
583.035595	0.101216
583.247100	0.101562
583.458587	0.101932
583.670056	0.101882
583.881506	0.102107
584.092939	0.102006
584.304353	0.102270
584.515749	0.102591
584.727127	0.102438
584.938486	0.102286
585.149828	0.102119
585.361151	0.102290
585.572456	0.102333
585.783742	0.102666
585.995011	0.102897
586.206261	0.102817
586.417493	0.102727
586.628706	0.103061
586.839902	0.103363
587.051079	0.103407
587.262238	0.103444
587.473379	0.103265
587.684502	0.102790
587.895606	0.102562
588.106692	0.102275
588.317760	0.102350
588.528810	0.102443
588.739841	0.102285
588.950855	0.102580
589.161850	0.102321
589.372827	0.102666
589.583785	0.102752
589.794726	0.102958
590.005648	0.103264
590.216552	0.103341
590.427437	0.103177
590.638305	0.103318
590.849154	0.103317
591.059985	0.103281
591.270798	0.102685
591.481592	0.102743
591.692369	0.103063
591.903127	0.103147
592.113867	0.103371
592.324588	0.103642
592.535292	0.103702
592.745977	0.103359
592.956644	0.103544
593.167293	0.103669
593.377923	0.104185
593.588536	0.103981
593.799130	0.104178
594.009706	0.104144
594.220263	0.104182
594.430803	0.104398
594.641324	0.105040
594.851827	0.105270
595.062312	0.105609
595.272778	0.105364
595.483227	0.105472
595.693657	0.105456
595.904069	0.105511
596.114462	0.105835
596.324838	0.105914
596.535195	0.105768
596.745534	0.105691
596.955855	0.105781
597.166157	0.105952
597.376441	0.105814
597.586707	0.105812
597.796955	0.105994
598.007185	0.105483
598.217396	0.105606
598.427589	0.105744
598.637764	0.105950
598.847921	0.105938
599.058060	0.105831
599.268180	0.106065
599.478282	0.106290
599.688366	0.106178
599.898431	0.106360
600.108479	0.106439
600.318508	0.106043
600.528519	0.105928
600.738511	0.106068
600.948486	0.106053
601.158442	0.105921
601.368380	0.105837
601.578300	0.106044
601.788202	0.105988
601.998085	0.105800
602.207950	0.106340
602.417797	0.106258
602.627626	0.106368
602.837436	0.106655
603.047228	0.106906
603.257002	0.106721
603.466758	0.106858
603.676496	0.107413
603.886215	0.107733
604.095916	0.107566
604.305599	0.107924
604.515264	0.107903
604.724910	0.107983
604.934538	0.107719
605.144148	0.108171
605.353740	0.108006
605.563314	0.107955
605.772869	0.107703
605.982406	0.107866
606.191925	0.107895
606.401425	0.108071
606.610908	0.108080
606.820372	0.108464
607.029818	0.108155
607.239246	0.108087
607.448655	0.107668
607.658047	0.107969
607.867420	0.108191
608.076775	0.108033
608.286111	0.107890
608.495430	0.108010
608.704730	0.107798
608.914012	0.107840
609.123275	0.108148
609.332521	0.108657
609.541748	0.108505
609.750957	0.108355
609.960148	0.108668
610.169321	0.108570
610.378475	0.108286
610.587611	0.108579
610.796729	0.109062
611.005829	0.108985
611.214910	0.108796
611.423974	0.108832
611.633019	0.109207
611.842045	0.109199
612.051054	0.109714
612.260044	0.109917
612.469017	0.110205
612.677970	0.109997
612.886906	0.110412
613.095824	0.110566
613.304723	0.110755
613.513604	0.110674
613.722467	0.110606
613.931311	0.110711
614.140138	0.110852
614.348946	0.110610
614.557736	0.110895
614.766507	0.110692
614.975261	0.110793
615.183996	0.110803
615.392713	0.110706
615.601412	0.110973
615.810092	0.110613
616.018754	0.110449
616.227399	0.110419
616.436024	0.110129
616.644632	0.110190
616.853222	0.110177
617.061793	0.110093
617.270346	0.110110
617.478880	0.110077
617.687397	0.110372
617.895895	0.110455
618.104375	0.110809
618.312837	0.111063
618.521281	0.111092
618.729706	0.111205
618.938113	0.111268
619.146502	0.111227
619.354873	0.111486
619.563226	0.111451
619.771560	0.111582
619.979876	0.111348
620.188174	0.111359
620.396453	0.111110
620.604715	0.111209
620.812958	0.111266
621.021183	0.111630
621.229390	0.111469
621.437578	0.111367
621.645748	0.111397
621.853900	0.111523
622.062034	0.111535
622.270150	0.111788
622.478247	0.111759
622.686326	0.112020
622.894387	0.112108
623.102430	0.111930
623.310454	0.112046
623.518461	0.112187
623.726449	0.112073
623.934418	0.112224
624.142370	0.112441
624.350303	0.112452
624.558218	0.112441
624.766115	0.112290
624.973994	0.112666
625.181855	0.112779
625.389697	0.113085
625.597521	0.113311
625.805327	0.113345
626.013114	0.113614
626.220883	0.113616
626.428634	0.113693
626.636367	0.113686
626.844082	0.113484
627.051778	0.113681
627.259457	0.113256
627.467117	0.113146
627.674758	0.113244
627.882382	0.112728
628.089987	0.112889
628.297574	0.112897
628.505143	0.113220
628.712694	0.113444
628.920226	0.113510
629.127740	0.113929
629.335236	0.114559
629.542714	0.114769
629.750174	0.115218
629.957615	0.115195
630.165038	0.115100
630.372443	0.114872
630.579829	0.114858
630.787198	0.114836
630.994548	0.114756
631.201880	0.114458
631.409194	0.114417
631.616489	0.114414
631.823766	0.114477
632.031025	0.115068
632.238266	0.115350
632.445489	0.115446
632.652693	0.115884
632.859879	0.116182
633.067047	0.116299
633.274197	0.116196
633.481329	0.116304
633.688442	0.116494
633.895537	0.116176
634.102614	0.116068
634.309672	0.116328
634.516713	0.116103
634.723735	0.115911
634.930739	0.115994
635.137724	0.116072
635.344692	0.115996
635.551641	0.116231
635.758572	0.116345
635.965485	0.116562
636.172379	0.116544
636.379256	0.116563
636.586114	0.116664
636.792954	0.116794
636.999775	0.117036
637.206579	0.116992
637.413364	0.116718
637.620131	0.116925
637.826880	0.116917
638.033610	0.116846
638.240323	0.116958
638.447017	0.117183
638.653692	0.117332
638.860350	0.117257
639.066990	0.117361
639.273611	0.117564
639.480214	0.117646
639.686798	0.117996
639.893365	0.118241
640.099913	0.118204
640.306443	0.118121
640.512955	0.117958
640.719449	0.118174
640.925924	0.118420
641.132381	0.118621
641.338820	0.118293
641.545241	0.118222
641.751644	0.118212
641.958028	0.118294
642.164394	0.118196
642.370742	0.118156
642.577071	0.117803
642.783383	0.117621
642.989676	0.117857
643.195951	0.118227
643.402207	0.117864
643.608446	0.117855
643.814666	0.118084
644.020868	0.118400
644.227052	0.118703
644.433218	0.118997
644.639365	0.119195
644.845494	0.118850
645.051605	0.119031
645.257698	0.119390
645.463772	0.119438
645.669828	0.119339
645.875866	0.119352
646.081886	0.119357
646.287888	0.119538
646.493871	0.119750
646.699836	0.120092
646.905783	0.119815
647.111712	0.120059
647.317622	0.120195
647.523514	0.120189
647.729388	0.120261
647.935244	0.120256
648.141082	0.120294
648.346901	0.120043
648.552702	0.119914
648.758485	0.120113
648.964250	0.120103
649.169996	0.120185
649.375724	0.120425
649.581434	0.120582
649.787126	0.120617
649.992800	0.120812
650.198455	0.120890
650.404092	0.121123
650.609711	0.121386
650.815311	0.121312
651.020894	0.121547
651.226458	0.121600
651.432004	0.121492
651.637532	0.121735
651.843041	0.121650
652.048532	0.121943
652.254006	0.121884
652.459460	0.121834
652.664897	0.121860
652.870315	0.121809
653.075716	0.121629
653.281097	0.121951
653.486461	0.121918
653.691807	0.122157
653.897134	0.122234
654.102443	0.122269
654.307734	0.122416
654.513006	0.122416
654.718261	0.122656
654.923497	0.122817
655.128715	0.122674
655.333915	0.122686
655.539096	0.122700
655.744259	0.122706
655.949404	0.122642
656.154531	0.122497
656.359640	0.122722
656.564730	0.122543
656.769802	0.122640
656.974856	0.122606
657.179892	0.122779
657.384909	0.122683
657.589908	0.122650
657.794889	0.123060
657.999852	0.123202
658.204797	0.123320
658.409723	0.123667
658.614631	0.123736
658.819521	0.123911
659.024393	0.123953
659.229246	0.124206
659.434081	0.124370
659.638898	0.124369
659.843697	0.124508
660.048478	0.124725
660.253240	0.124739
660.457984	0.124910
660.662710	0.125042
660.867417	0.125334
661.072107	0.125468
661.276778	0.125492
661.481431	0.125407
661.686066	0.125551
661.890682	0.125806
662.095281	0.125827
662.299861	0.125922
662.504422	0.126210
662.708966	0.126068
662.913491	0.125835
663.117999	0.126337
663.322488	0.126644
663.526958	0.126791
663.731411	0.126208
663.935845	0.126352
664.140261	0.126574
664.344659	0.126599
664.549038	0.126609
664.753400	0.127052
664.957743	0.126920
665.162068	0.127151
665.366375	0.127384
665.570663	0.127848
665.774933	0.127806
665.979185	0.128004
666.183419	0.128230
666.387635	0.128418
666.591832	0.128359
666.796011	0.128480
667.000172	0.128350
667.204315	0.128142
667.408439	0.128315
667.612545	0.128374
667.816634	0.128118
668.020703	0.127851
668.224755	0.127777
668.428788	0.127686
668.632803	0.127811
668.836800	0.127893
669.040779	0.128048
669.244739	0.128097
669.448681	0.128305
669.652605	0.128513
669.856511	0.128747
670.060399	0.129095
670.264268	0.129581
670.468119	0.129829
670.671952	0.129942
670.875767	0.130022
671.079563	0.129868
671.283341	0.129933
671.487101	0.129983
671.690843	0.130154
671.894567	0.130132
672.098272	0.129907
672.301959	0.129979
672.505628	0.130261
672.709278	0.130453
672.912911	0.130827
673.116525	0.131106
673.320121	0.131347
673.523699	0.131338
673.727258	0.131457
673.930799	0.131859
674.134322	0.131884
674.337827	0.131751
674.541314	0.131758
674.744782	0.131690
674.948232	0.131457
675.151664	0.131626
675.355078	0.131680
675.558474	0.131632
675.761851	0.131407
675.965210	0.131374
676.168551	0.131670
676.371873	0.131873
676.575178	0.131956
676.778464	0.132144
676.981732	0.132094
677.184981	0.132310
677.388213	0.132432
677.591426	0.132725
677.794621	0.132904
677.997798	0.132744
678.200956	0.132582
678.404097	0.132771
678.607219	0.132876
678.810323	0.132908
679.013408	0.132838
679.216476	0.133185
679.419525	0.133033
679.622556	0.132979
679.825569	0.133177
680.028563	0.133437
680.231540	0.133416
680.434498	0.133662
680.637438	0.133793
680.840359	0.133967
681.043263	0.133910
681.246148	0.134237
681.449015	0.134275
681.651864	0.134295
681.854694	0.134247
682.057506	0.134514
682.260301	0.134423
682.463076	0.134289
682.665834	0.134262
682.868573	0.134319
683.071295	0.134297
683.273998	0.134592
683.476682	0.134641
683.679349	0.134827
683.881997	0.134825
684.084627	0.134973
684.287239	0.134997
684.489833	0.135287
684.692408	0.135258
684.894965	0.135191
685.097504	0.135016
685.300025	0.135095
685.502527	0.135418
685.705012	0.135650
685.907478	0.135625
686.109925	0.135948
686.312355	0.136083
686.514766	0.136313
686.717159	0.136530
686.919534	0.136837
687.121891	0.137059
687.324230	0.136993
687.526550	0.136929
687.728852	0.136918
687.931136	0.136837
688.133401	0.136918
688.335649	0.137014
688.537878	0.137231
688.740089	0.137347
688.942281	0.137506
689.144456	0.137504
689.346612	0.137431
689.548750	0.137439
689.750870	0.137634
689.952971	0.137595
690.155055	0.137644
690.357120	0.137599
690.559167	0.137622
690.761195	0.137621
690.963206	0.137440
691.165198	0.137705
691.367172	0.137935
691.569128	0.138019
691.771065	0.138280
691.972984	0.138482
692.174885	0.138642
692.376768	0.138645
692.578633	0.138682
692.780479	0.139092
692.982308	0.139146
693.184118	0.139289
693.385909	0.139278
