sample name	sample
index	1015
start time	 04-19-2021  11:45:31 AM


Wavelength (nm)	Absorbance
494.344910	0.111691
494.563924	0.111691
494.782919	0.111691
495.001897	0.030167
495.220856	0.043390
495.439797	0.018553
495.658719	-0.007793
495.877624	-0.019955
496.096510	-0.028082
496.315378	-0.013288
496.534227	-0.002243
496.753059	-0.004598
496.971872	-0.010556
497.190667	0.048158
497.409444	0.077134
497.628203	0.083563
497.846943	0.089063
498.065665	0.091253
498.284369	0.092812
498.503055	0.092770
498.721723	0.094298
498.940372	0.095103
499.159003	0.096214
499.377616	0.096754
499.596210	0.098533
499.814787	0.098577
500.033345	0.098790
500.251885	0.098124
500.470406	0.097730
500.688910	0.098103
500.907395	0.097465
501.125862	0.097482
501.344311	0.096978
501.562742	0.097173
501.781154	0.096125
501.999548	0.095516
502.217924	0.096839
502.436282	0.097971
502.654621	0.098244
502.872942	0.098926
503.091245	0.099577
503.309530	0.099836
503.527797	0.099531
503.746045	0.099712
503.964275	0.100872
504.182487	0.100347
504.400681	0.100975
504.618856	0.100373
504.837013	0.100390
505.055152	0.100610
505.273273	0.100988
505.491376	0.101230
505.709460	0.100815
505.927526	0.101072
506.145574	0.101154
506.363604	0.099444
506.581615	0.099567
506.799608	0.100352
507.017583	0.099320
507.235540	0.099512
507.453478	0.098603
507.671399	0.099772
507.889301	0.099364
508.107185	0.099910
508.325050	0.101022
508.542898	0.101275
508.760727	0.101006
508.978538	0.101471
509.196330	0.101353
509.414105	0.101678
509.631861	0.101774
509.849599	0.101646
510.067319	0.101055
510.285021	0.101066
510.502704	0.101250
510.720369	0.101272
510.938016	0.101039
511.155645	0.101109
511.373255	0.101812
511.590848	0.102343
511.808422	0.103419
512.025977	0.103702
512.243515	0.104096
512.461034	0.103421
512.678536	0.102576
512.896018	0.102853
513.113483	0.102339
513.330930	0.102180
513.548358	0.101483
513.765768	0.100764
513.983160	0.100862
514.200533	0.100468
514.417889	0.101095
514.635226	0.101587
514.852545	0.101504
515.069845	0.102049
515.287128	0.102078
515.504392	0.102481
515.721638	0.102386
515.938866	0.102046
516.156075	0.102398
516.373267	0.102434
516.590440	0.102658
516.807594	0.102345
517.024731	0.102439
517.241850	0.102720
517.458950	0.103111
517.676032	0.103657
517.893095	0.103995
518.110141	0.103206
518.327168	0.103426
518.544177	0.103544
518.761168	0.103760
518.978141	0.103924
519.195095	0.104428
519.412031	0.104371
519.628949	0.104106
519.845849	0.104112
520.062731	0.104479
520.279594	0.104249
520.496439	0.104758
520.713266	0.105834
520.930074	0.105715
521.146865	0.105336
521.363637	0.105477
521.580391	0.105824
521.797127	0.106557
522.013844	0.106663
522.230543	0.106643
522.447224	0.106234
522.663887	0.105758
522.880532	0.105966
523.097158	0.106222
523.313766	0.106492
523.530356	0.106874
523.746928	0.106534
523.963481	0.106747
524.180017	0.107046
524.396534	0.107647
524.613032	0.107589
524.829513	0.107890
525.045975	0.107758
525.262420	0.107724
525.478845	0.106894
525.695253	0.107261
525.911643	0.108365
526.128014	0.108254
526.344367	0.108518
526.560702	0.108383
526.777018	0.108324
526.993316	0.108547
527.209597	0.107713
527.425858	0.108881
527.642102	0.108192
527.858328	0.107165
528.074535	0.107522
528.290724	0.107621
528.506894	0.108079
528.723047	0.108349
528.939181	0.108155
529.155297	0.109253
529.371395	0.108690
529.587475	0.109492
529.803536	0.109955
530.019579	0.110262
530.235604	0.110103
530.451611	0.110332
530.667600	0.110289
530.883570	0.110422
531.099522	0.110646
531.315456	0.111201
531.531372	0.111163
531.747269	0.111948
531.963148	0.112352
532.179009	0.112220
532.394852	0.112485
532.610676	0.112478
532.826482	0.113236
533.042271	0.112716
533.258040	0.112472
533.473792	0.112425
533.689525	0.112045
533.905240	0.111669
534.120937	0.112046
534.336616	0.112121
534.552277	0.112042
534.767919	0.111894
534.983543	0.112595
535.199149	0.113152
535.414736	0.113402
535.630306	0.113801
535.845857	0.114119
536.061390	0.114384
536.276904	0.114813
536.492401	0.115455
536.707879	0.116114
536.923339	0.116178
537.138781	0.116358
537.354204	0.116821
537.569610	0.116837
537.784997	0.116901
538.000366	0.116969
538.215716	0.117290
538.431049	0.117313
538.646363	0.116687
538.861659	0.116705
539.076937	0.116840
539.292196	0.116274
539.507438	0.116535
539.722661	0.116920
539.937866	0.116967
540.153052	0.116825
540.368221	0.117036
540.583371	0.117780
540.798503	0.117849
541.013617	0.118010
541.228712	0.119118
541.443789	0.119490
541.658848	0.119887
541.873889	0.120233
542.088912	0.120765
542.303916	0.121472
542.518902	0.121302
542.733870	0.121648
542.948820	0.121564
543.163752	0.121155
543.378665	0.120869
543.593560	0.121038
543.808437	0.121412
544.023295	0.121288
544.238136	0.120798
544.452958	0.120796
544.667762	0.121206
544.882548	0.121484
545.097315	0.121793
545.312064	0.122045
545.526795	0.121526
545.741508	0.121562
545.956203	0.121646
546.170879	0.121732
546.385537	0.122207
546.600177	0.121870
546.814799	0.122437
547.029402	0.122332
547.243988	0.122470
547.458555	0.123021
547.673103	0.122998
547.887634	0.123137
548.102146	0.123359
548.316640	0.123551
548.531116	0.123938
548.745574	0.123615
548.960013	0.124012
549.174435	0.124458
549.388838	0.124454
549.603222	0.124634
549.817589	0.124747
550.031937	0.125232
550.246267	0.125292
550.460579	0.125318
550.674873	0.125235
550.889148	0.125361
551.103405	0.125619
551.317644	0.125805
551.531865	0.126171
551.746068	0.126178
551.960252	0.126361
552.174418	0.126608
552.388566	0.127503
552.602696	0.127936
552.816807	0.128102
553.030900	0.127449
553.244975	0.127707
553.459032	0.127865
553.673070	0.127990
553.887091	0.127911
554.101093	0.127829
554.315077	0.127534
554.529042	0.127373
554.742990	0.127089
554.956919	0.127433
555.170830	0.127656
555.384722	0.127487
555.598597	0.127195
555.812453	0.127260
556.026291	0.127478
556.240111	0.127254
556.453913	0.127538
556.667696	0.128234
556.881461	0.128251
557.095208	0.128175
557.308937	0.128129
557.522647	0.129125
557.736339	0.129452
557.950013	0.129221
558.163669	0.129254
558.377307	0.129592
558.590926	0.129140
558.804527	0.129670
559.018110	0.129970
559.231675	0.130045
559.445221	0.129943
559.658749	0.129569
559.872259	0.130067
560.085751	0.130192
560.299225	0.129965
560.512680	0.130397
560.726117	0.130031
560.939536	0.130107
561.152937	0.130602
561.366319	0.130452
561.579683	0.130600
561.793029	0.130479
562.006357	0.130735
562.219667	0.131002
562.432958	0.131027
562.646231	0.131276
562.859486	0.131538
563.072723	0.131523
563.285941	0.131422
563.499141	0.131940
563.712323	0.131965
563.925487	0.132322
564.138632	0.132237
564.351760	0.132210
564.564869	0.132460
564.777960	0.132018
564.991032	0.132215
565.204087	0.132425
565.417123	0.132424
565.630141	0.132677
565.843140	0.132565
566.056122	0.132819
566.269085	0.132961
566.482030	0.133066
566.694957	0.133301
566.907866	0.133087
567.120756	0.132968
567.333628	0.133012
567.546482	0.132902
567.759318	0.132745
567.972135	0.132779
568.184935	0.133257
568.397716	0.133240
568.610478	0.133538
568.823223	0.133608
569.035949	0.134157
569.248657	0.134256
569.461347	0.134339
569.674019	0.134111
569.886672	0.134312
570.099308	0.134332
570.311925	0.134580
570.524523	0.134690
570.737104	0.134946
570.949666	0.134854
571.162210	0.134835
571.374736	0.135143
571.587244	0.135719
571.799733	0.135850
572.012205	0.135610
572.224658	0.135552
572.437092	0.135414
572.649509	0.135579
572.861907	0.135807
573.074287	0.135522
573.286649	0.135419
573.498993	0.135135
573.711318	0.134853
573.923625	0.135089
574.135914	0.135474
574.348185	0.135730
574.560438	0.135873
574.772672	0.136107
574.984888	0.136433
575.197086	0.136543
575.409266	0.136835
575.621427	0.137168
575.833570	0.136793
576.045695	0.136432
576.257802	0.136151
576.469890	0.136016
576.681961	0.135861
576.894013	0.136047
577.106046	0.136206
577.318062	0.136359
577.530059	0.136448
577.742039	0.137175
577.954000	0.137293
578.165942	0.137469
578.377867	0.137646
578.589773	0.137542
578.801661	0.137548
579.013531	0.137975
579.225382	0.138181
579.437216	0.138515
579.649031	0.138374
579.860828	0.138494
580.072606	0.138631
580.284367	0.138475
580.496109	0.138785
580.707833	0.138954
580.919539	0.138769
581.131227	0.139100
581.342896	0.138987
581.554547	0.139329
581.766180	0.139097
581.977795	0.139161
582.189391	0.139432
582.400969	0.139650
582.612529	0.139814
582.824071	0.139849
583.035595	0.139536
583.247100	0.139661
583.458587	0.139804
583.670056	0.140229
583.881506	0.140625
584.092939	0.140695
584.304353	0.140476
584.515749	0.140528
584.727127	0.140851
584.938486	0.140873
585.149828	0.140681
585.361151	0.140756
585.572456	0.140931
585.783742	0.140777
585.995011	0.140906
586.206261	0.140996
586.417493	0.140974
586.628706	0.140703
586.839902	0.141079
587.051079	0.141537
587.262238	0.141126
587.473379	0.141157
587.684502	0.141327
587.895606	0.141497
588.106692	0.141660
588.317760	0.141871
588.528810	0.142104
588.739841	0.141962
588.950855	0.142026
589.161850	0.142106
589.372827	0.142489
589.583785	0.142471
589.794726	0.142430
590.005648	0.142650
590.216552	0.142583
590.427437	0.142746
590.638305	0.142873
590.849154	0.143126
591.059985	0.143342
591.270798	0.143414
591.481592	0.143725
591.692369	0.143769
591.903127	0.144077
592.113867	0.144179
592.324588	0.144093
592.535292	0.144204
592.745977	0.143807
592.956644	0.144119
593.167293	0.144019
593.377923	0.143882
593.588536	0.144280
593.799130	0.143767
594.009706	0.143847
594.220263	0.143768
594.430803	0.143972
594.641324	0.144154
594.851827	0.144051
595.062312	0.143949
595.272778	0.144158
595.483227	0.143842
595.693657	0.144291
595.904069	0.144124
596.114462	0.144319
596.324838	0.143992
596.535195	0.144340
596.745534	0.144371
596.955855	0.144276
597.166157	0.144477
597.376441	0.144589
597.586707	0.144785
597.796955	0.145220
598.007185	0.145347
598.217396	0.145875
598.427589	0.146046
598.637764	0.146253
598.847921	0.146643
599.058060	0.146687
599.268180	0.146799
599.478282	0.146631
599.688366	0.146621
599.898431	0.147026
600.108479	0.146870
600.318508	0.146569
600.528519	0.146573
600.738511	0.146590
600.948486	0.146425
601.158442	0.146516
601.368380	0.146435
601.578300	0.146524
601.788202	0.146122
601.998085	0.145968
602.207950	0.146156
602.417797	0.146323
602.627626	0.146301
602.837436	0.146308
603.047228	0.146472
603.257002	0.146750
603.466758	0.146870
603.676496	0.147369
603.886215	0.147696
604.095916	0.147871
604.305599	0.147937
604.515264	0.148262
604.724910	0.148610
604.934538	0.148615
605.144148	0.148862
605.353740	0.148910
605.563314	0.148792
605.772869	0.149133
605.982406	0.148902
606.191925	0.148776
606.401425	0.149011
606.610908	0.148814
606.820372	0.149044
607.029818	0.149352
607.239246	0.149787
607.448655	0.149945
607.658047	0.149881
607.867420	0.150298
608.076775	0.150508
608.286111	0.150296
608.495430	0.150519
608.704730	0.150466
608.914012	0.149992
609.123275	0.149848
609.332521	0.149622
609.541748	0.149908
609.750957	0.149849
609.960148	0.150132
610.169321	0.150302
610.378475	0.150204
610.587611	0.150624
610.796729	0.150959
611.005829	0.150816
611.214910	0.151038
611.423974	0.150970
611.633019	0.150913
611.842045	0.151044
612.051054	0.150874
612.260044	0.151082
612.469017	0.150929
612.677970	0.150844
612.886906	0.151139
613.095824	0.151438
613.304723	0.151353
613.513604	0.151676
613.722467	0.151436
613.931311	0.151753
614.140138	0.151926
614.348946	0.152048
614.557736	0.152303
614.766507	0.152309
614.975261	0.152271
615.183996	0.152270
615.392713	0.152153
615.601412	0.152316
615.810092	0.152379
616.018754	0.152434
616.227399	0.152427
616.436024	0.152491
616.644632	0.152733
616.853222	0.152620
617.061793	0.152970
617.270346	0.152851
617.478880	0.153028
617.687397	0.152876
617.895895	0.153040
618.104375	0.153000
618.312837	0.152954
618.521281	0.153100
618.729706	0.153613
618.938113	0.153624
619.146502	0.153997
619.354873	0.153974
619.563226	0.154223
619.771560	0.154035
619.979876	0.154581
620.188174	0.154433
620.396453	0.154238
620.604715	0.153814
620.812958	0.153806
621.021183	0.153479
621.229390	0.153351
621.437578	0.153596
621.645748	0.154016
621.853900	0.153853
622.062034	0.154072
622.270150	0.154258
622.478247	0.154427
622.686326	0.154478
622.894387	0.154812
623.102430	0.155144
623.310454	0.155070
623.518461	0.155230
623.726449	0.155157
623.934418	0.155362
624.142370	0.155156
624.350303	0.155486
624.558218	0.155601
624.766115	0.155843
624.973994	0.155915
625.181855	0.156013
625.389697	0.155799
625.597521	0.155968
625.805327	0.155744
626.013114	0.156237
626.220883	0.156304
626.428634	0.156365
626.636367	0.156386
626.844082	0.156200
627.051778	0.156164
627.259457	0.156022
627.467117	0.156002
627.674758	0.156245
627.882382	0.156211
628.089987	0.156000
628.297574	0.156128
628.505143	0.156167
628.712694	0.156441
628.920226	0.156401
629.127740	0.156522
629.335236	0.156555
629.542714	0.156800
629.750174	0.156543
629.957615	0.156855
630.165038	0.156614
630.372443	0.156809
630.579829	0.156944
630.787198	0.157085
630.994548	0.157205
631.201880	0.157261
631.409194	0.157346
631.616489	0.157332
631.823766	0.157126
632.031025	0.157301
632.238266	0.157226
632.445489	0.157342
632.652693	0.157571
632.859879	0.158080
633.067047	0.158255
633.274197	0.158211
633.481329	0.158479
633.688442	0.158676
633.895537	0.159114
634.102614	0.159199
634.309672	0.159353
634.516713	0.159557
634.723735	0.159416
634.930739	0.159609
635.137724	0.159615
635.344692	0.159612
635.551641	0.159780
635.758572	0.159741
635.965485	0.159901
636.172379	0.159707
636.379256	0.159527
636.586114	0.159478
636.792954	0.159341
636.999775	0.159769
637.206579	0.160052
637.413364	0.160097
637.620131	0.160183
637.826880	0.160060
638.033610	0.160272
638.240323	0.160342
638.447017	0.160380
638.653692	0.160549
638.860350	0.160416
639.066990	0.160285
639.273611	0.160421
639.480214	0.160464
639.686798	0.160551
639.893365	0.160349
640.099913	0.160511
640.306443	0.160610
640.512955	0.160715
640.719449	0.160711
640.925924	0.160876
641.132381	0.160929
641.338820	0.160773
641.545241	0.160986
641.751644	0.161387
641.958028	0.161477
642.164394	0.161699
642.370742	0.161727
642.577071	0.161746
642.783383	0.162055
642.989676	0.161981
643.195951	0.162396
643.402207	0.162574
643.608446	0.162554
643.814666	0.162512
644.020868	0.162581
644.227052	0.162485
644.433218	0.162765
644.639365	0.162732
644.845494	0.162909
645.051605	0.162829
645.257698	0.162757
645.463772	0.162793
645.669828	0.162840
645.875866	0.162909
646.081886	0.162932
646.287888	0.162836
646.493871	0.162998
646.699836	0.163049
646.905783	0.162904
647.111712	0.162973
647.317622	0.163010
647.523514	0.163304
647.729388	0.163209
647.935244	0.163582
648.141082	0.163775
648.346901	0.163622
648.552702	0.163603
648.758485	0.163980
648.964250	0.164131
649.169996	0.164286
649.375724	0.164509
649.581434	0.164850
649.787126	0.164925
649.992800	0.165069
650.198455	0.165372
650.404092	0.165458
650.609711	0.165411
650.815311	0.165529
651.020894	0.165653
651.226458	0.165342
651.432004	0.165293
651.637532	0.165259
651.843041	0.165181
652.048532	0.165130
652.254006	0.165301
652.459460	0.165632
652.664897	0.165610
652.870315	0.165693
653.075716	0.165965
653.281097	0.166162
653.486461	0.166329
653.691807	0.166362
653.897134	0.166442
654.102443	0.166788
654.307734	0.166822
654.513006	0.167052
654.718261	0.167328
654.923497	0.167419
655.128715	0.167274
655.333915	0.167428
655.539096	0.167977
655.744259	0.168186
655.949404	0.168065
656.154531	0.167815
656.359640	0.167698
656.564730	0.167538
656.769802	0.167561
656.974856	0.167771
657.179892	0.167862
657.384909	0.167552
657.589908	0.167499
657.794889	0.167721
657.999852	0.168136
658.204797	0.168480
658.409723	0.168576
658.614631	0.168931
658.819521	0.169340
659.024393	0.169527
659.229246	0.169717
659.434081	0.169978
659.638898	0.170243
659.843697	0.170258
660.048478	0.170168
660.253240	0.170318
660.457984	0.170448
660.662710	0.170229
660.867417	0.170250
661.072107	0.170292
661.276778	0.170308
661.481431	0.169954
661.686066	0.170007
661.890682	0.169956
662.095281	0.170236
662.299861	0.170180
662.504422	0.170249
662.708966	0.170125
662.913491	0.170265
663.117999	0.170258
663.322488	0.170509
663.526958	0.170587
663.731411	0.171004
663.935845	0.170932
664.140261	0.171109
664.344659	0.171298
664.549038	0.171784
664.753400	0.171962
664.957743	0.172205
665.162068	0.172529
665.366375	0.172812
665.570663	0.172933
665.774933	0.173073
665.979185	0.172962
666.183419	0.173043
666.387635	0.172816
666.591832	0.172727
666.796011	0.172966
667.000172	0.172878
667.204315	0.172899
667.408439	0.172898
667.612545	0.173008
667.816634	0.173243
668.020703	0.173427
668.224755	0.173633
668.428788	0.173990
668.632803	0.173849
668.836800	0.174082
669.040779	0.174021
669.244739	0.174014
669.448681	0.174037
669.652605	0.174282
669.856511	0.174168
670.060399	0.174487
670.264268	0.174556
670.468119	0.174801
670.671952	0.174647
670.875767	0.175063
671.079563	0.175289
671.283341	0.175235
671.487101	0.175287
671.690843	0.175614
671.894567	0.175489
672.098272	0.175459
672.301959	0.175461
672.505628	0.175782
672.709278	0.175624
672.912911	0.175688
673.116525	0.175884
673.320121	0.175896
673.523699	0.175923
673.727258	0.176063
673.930799	0.176131
674.134322	0.176388
674.337827	0.176548
674.541314	0.176725
674.744782	0.176730
674.948232	0.177135
675.151664	0.177127
675.355078	0.177223
675.558474	0.177336
675.761851	0.177549
675.965210	0.177651
676.168551	0.177594
676.371873	0.177843
676.575178	0.178042
676.778464	0.178076
676.981732	0.178206
677.184981	0.178423
677.388213	0.178371
677.591426	0.178500
677.794621	0.178576
677.997798	0.178897
678.200956	0.178798
678.404097	0.178990
678.607219	0.179092
678.810323	0.179325
679.013408	0.179156
679.216476	0.179415
679.419525	0.179423
679.622556	0.179514
679.825569	0.179495
680.028563	0.179570
680.231540	0.179564
680.434498	0.179246
680.637438	0.179297
680.840359	0.179465
681.043263	0.179466
681.246148	0.179633
681.449015	0.179568
681.651864	0.179438
681.854694	0.179700
682.057506	0.179972
682.260301	0.180411
682.463076	0.180594
682.665834	0.180685
682.868573	0.180943
683.071295	0.181083
683.273998	0.181187
683.476682	0.181478
683.679349	0.181555
683.881997	0.181847
684.084627	0.181923
684.287239	0.181777
684.489833	0.181880
684.692408	0.181913
684.894965	0.182012
685.097504	0.182290
685.300025	0.182367
685.502527	0.182402
685.705012	0.182106
685.907478	0.182264
686.109925	0.182368
686.312355	0.182470
686.514766	0.182680
686.717159	0.182929
686.919534	0.182767
687.121891	0.182887
687.324230	0.182940
687.526550	0.183099
687.728852	0.183085
687.931136	0.183131
688.133401	0.183362
688.335649	0.183361
688.537878	0.183083
688.740089	0.183239
688.942281	0.183302
689.144456	0.183303
689.346612	0.183346
689.548750	0.183383
689.750870	0.183720
689.952971	0.183703
690.155055	0.183810
690.357120	0.184108
690.559167	0.184233
690.761195	0.184305
690.963206	0.184552
691.165198	0.184901
691.367172	0.185221
691.569128	0.185112
691.771065	0.185261
691.972984	0.185453
692.174885	0.185606
692.376768	0.185660
692.578633	0.185732
692.780479	0.185656
692.982308	0.185491
693.184118	0.185460
693.385909	0.185540
