sample name	sample
index	590
start time	 03-16-2021  04:23:41 PM
880	0.207914
Peak Time (s)	181.036
Peak Height 	0.2079
calc peak height	180,183
Baseline Time (s)	11.535
Baseline Value 	-0.001975
subtract baseline	10,4
Abs	0.125478
Peak Time (s)	180.036
Peak Height 	0.1255
calc peak height	180,183
Baseline Time (s)	8.536
Baseline Value 	3.8875E-4
subtract baseline	10,3
PK_550	0.075975
Peak Time (s)	180.036
Peak Height 	0.07598
calc peak height	180,183
Baseline Time (s)	9.537
Baseline Value 	8.5511E-4
subtract baseline	10,2
PK_880	0.123157
Peak Time (s)	182.534
Peak Height 	0.1232
calc peak height	180,183
Baseline Time (s)	11.037
Baseline Value 	6.9847E-4
subtract baseline	10,1


Time (s)	A880-A510	A880-A775	A880-A975	A880	I510	I775	I975	I880	
0.037000	-0.002831	-0.000842	-0.000403	0.006461	5545.931838	33356.898125	3631.655588	18117.864899
0.537000	-0.003312	-0.000418	-0.002703	0.004379	5555.826473	33533.188942	3631.260687	18191.215487
1.040000	-0.002913	-0.001587	-0.008121	0.001804	5574.289770	33632.505677	3626.112978	18282.359489
1.538500	-0.000629	0.000275	-0.002236	0.000641	5595.853891	33847.433271	3638.933828	18323.745381
2.035000	-0.002914	-0.000982	-0.002332	0.003082	5566.336096	33584.955171	3634.294769	18237.066636
2.535000	0.001315	-0.000403	-0.005117	0.000395	5609.641665	33816.652892	3634.116778	18332.498749
3.036000	-0.001840	-0.001695	0.005098	-0.003397	5613.665094	33995.138428	3660.062990	18468.181426
3.536000	0.000682	-0.001269	-0.001666	-0.000521	5611.427830	33820.192566	3642.115914	18365.154162
4.036000	-0.002171	0.000337	-0.000401	0.001021	5583.807270	33824.730648	3641.605990	18310.198384
4.536500	-0.000303	-0.000906	0.003495	-0.000438	5604.688814	33840.156553	3651.520864	18362.210260
5.037000	-0.002831	-0.000705	0.002926	-0.000189	5587.251286	33836.739029	3649.998151	18353.322340
5.537000	-0.000618	-0.001947	0.004391	-0.000953	5605.943541	33802.626931	3654.151782	18380.575748
6.040500	-0.001549	-0.000167	-0.000026	0.000730	5589.523680	33809.557651	3642.833057	18320.570670
6.535000	-0.002012	0.000837	0.003885	0.001072	5584.483919	33856.755952	3649.437894	18308.408290
7.035000	-0.003102	-0.000683	0.004393	-0.000179	5585.487948	33837.521738	3652.711041	18352.946630
7.535500	-0.001421	0.000126	0.001550	0.000825	5589.729911	33823.695417	3645.565777	18317.186718
8.036000	-0.000722	-0.000614	0.004090	0.000088	5598.742013	33823.476934	3651.647316	18343.432218
8.536000	0.000935	-0.000281	0.000000	0.000335	5607.620464	33829.591822	3643.609105	18334.642089
9.036000	0.000305	-0.000228	0.005398	-0.000078	5606.251998	33862.757148	3654.399643	18349.348747
9.536500	-0.000675	0.000000	-0.000690	-0.000071	5600.035279	33878.547270	3643.084291	18349.100311
10.037000	-0.000062	0.000021	0.002512	0.000036	5603.227411	33872.474717	3648.811433	18345.304316
10.537000	-0.001199	-0.000394	0.000846	-0.000388	5598.730797	33873.044563	3646.507646	18360.396910
11.037500	0.000000	0.000484	-0.000727	0.000440	5601.071571	33876.651840	3642.076701	18330.904477
11.535000	0.000179	0.000030	-0.000311	0.000000	5604.967033	33875.633968	3643.652157	18346.572033
12.035000	-0.001252	-0.000929	0.002839	0.002179	5582.309156	33652.549462	3645.446245	18269.053352
12.535500	-0.000669	-0.001224	0.001833	-0.000405	5602.176196	33815.117945	3648.368007	18361.019577
13.036000	-0.000189	-0.000734	0.001533	-0.001404	5611.505253	33921.329548	3649.668094	18396.733319
13.536000	-0.002185	0.000354	0.002858	-0.000391	5592.558742	33926.624904	3650.245341	18360.507725
14.036500	-0.001551	-0.000233	-0.001947	0.002960	5575.574043	33646.510545	3635.218597	18241.369250
14.536500	-0.000136	-0.000526	0.002651	0.002232	5588.964179	33677.358654	3645.000184	18267.175571
15.034000	-0.001757	-0.000021	0.006737	-0.000055	5593.140626	33875.931846	3656.863243	18348.541625
15.540000	-0.000132	0.000424	0.002486	-0.000215	5604.359062	33919.094290	3649.227525	18354.223344
16.035000	-0.005536	-0.001040	0.006298	0.004734	5539.914778	33464.364339	3647.118993	18178.691298
16.537000	-0.001269	-0.000288	0.003506	-0.000375	5598.210526	33879.650653	3651.422366	18359.943686
17.035500	0.003048	0.000652	0.008193	-0.003042	5642.467603	34138.120308	3665.237673	18455.447844
17.535500	-0.001301	-0.000263	0.003985	0.000302	5593.765988	33833.268002	3651.054284	18335.820920
18.036000	-0.002687	-0.000443	0.003506	0.001709	5576.291257	33720.379374	3647.551764	18285.757067
18.536500	-0.003876	-0.000933	-0.001933	0.000759	5574.801789	33753.037915	3639.271700	18319.525910
19.036500	0.001004	-0.000066	-0.000900	0.001492	5600.766672	33762.580415	3639.823557	18293.461589
19.537000	-0.000097	0.000468	-0.001412	0.001808	5591.862775	33778.030197	3638.304149	18282.220278
20.037500	-0.001444	-0.000447	-0.000080	0.000869	5589.310137	33779.734610	3642.476473	18315.619131
20.537000	0.000365	-0.000211	0.001131	0.001335	5597.734920	33763.365980	3643.849599	18299.027254
21.035000	0.000491	-0.000264	0.003968	0.001476	5597.641439	33749.634381	3648.839457	18294.033779
21.535500	-0.002007	0.000202	-0.003499	0.001657	5580.854473	33769.830638	3634.765101	18287.586960
22.035500	-0.000832	0.000110	0.007433	0.002303	5584.161282	33717.418537	3653.752078	18264.663234
22.535500	0.003695	0.000495	0.009270	0.001796	5615.825479	33780.769877	3658.142829	18282.647031
23.036000	-0.000838	0.000117	0.001742	0.001566	5588.741742	33770.294155	3644.551869	18290.830975
23.536500	0.001962	0.001545	0.000209	0.002979	5597.443855	33771.398930	3639.129549	18240.711536
24.036500	-0.002593	0.000453	0.003290	0.002338	5572.956878	33739.328069	3645.985397	18263.420698
24.537000	-0.000273	0.000313	-0.001169	0.001622	5591.934565	33780.283198	3639.091678	18288.856724
25.042500	-0.000946	0.000799	0.000743	0.002001	5585.335622	33787.842779	3641.906749	18275.363518
25.534500	-0.002398	0.000386	0.004480	0.002043	5576.011160	33755.521172	3648.738619	18273.902141
26.035000	-0.001386	-0.000413	0.000306	0.001574	5585.261065	33732.093630	3641.889467	18290.553813
26.535500	0.002070	0.001436	0.004829	0.003074	5597.519598	33756.816726	3647.472495	18237.325507
27.035500	0.000397	0.000994	0.006416	0.000623	5602.418001	33900.014838	3654.991607	18324.382459
27.536000	0.002726	0.001494	0.006091	0.000254	5619.450923	33962.044586	3655.074405	18337.520293
28.036000	0.000014	0.000139	0.006726	0.000531	5600.586381	33845.524072	3655.743918	18327.656643
28.536000	-0.000626	0.000283	0.001965	0.000227	5598.475009	33877.481333	3647.441768	18338.494725
29.037000	-0.000143	0.000672	0.004546	0.000328	5600.871912	33897.978086	3652.049946	18334.862519
29.540000	-0.000391	0.001072	0.005606	0.000955	5595.374876	33881.866154	3652.859200	18312.567088
30.034500	0.001192	0.000447	0.004200	0.003561	5588.959287	33652.168746	3645.407479	18220.104082
30.535000	-0.001992	0.001473	-0.001446	0.004168	5565.313736	33681.833985	3633.929320	18198.636378
31.035500	-0.001269	0.000528	-0.004146	0.003374	5574.747984	33671.088309	3630.463982	18226.705425
31.534500	-0.001839	0.000435	0.008118	0.001423	5583.372673	33803.100683	3656.681569	18295.908405
32.036000	0.000254	0.000515	0.004804	0.001332	5597.062965	33815.308760	3650.662551	18299.161776
32.536000	0.001841	0.000794	0.003963	0.000961	5609.389336	33861.599584	3649.787626	18312.352432
33.041500	0.004079	0.001607	-0.005301	0.001823	5618.082259	33858.094023	3631.182175	18281.692541
33.536500	-0.000038	0.000790	0.007156	0.002177	5589.918256	33774.709995	3653.468980	18269.120823
34.037000	0.000598	0.000555	0.005208	0.003774	5583.907026	33644.698758	3646.876847	18212.561363
34.537000	-0.002874	0.000900	0.003411	0.003457	5564.252344	33691.579515	3644.141493	18223.772925
35.037500	0.000399	0.001567	0.003842	0.004173	5580.171154	33688.123923	3643.614665	18198.459293
35.535000	0.001329	0.000946	0.000591	0.003695	5588.979940	33678.027232	3638.518047	18215.383979
36.035000	0.000513	0.001574	0.006901	0.004647	5577.924799	33655.056102	3648.398957	18181.742525
36.536000	-0.000879	-0.000168	0.005995	0.002692	5581.438975	33670.149008	3650.347590	18250.878728
37.036000	0.000678	0.001759	0.008228	0.004100	5582.369633	33706.972936	3651.884436	18201.067345
37.536500	0.000979	0.000661	0.000405	0.003410	5588.569356	33677.957725	3638.697242	18225.434248
38.036500	-0.001219	0.000701	0.000720	0.003785	5572.497972	33654.262480	3638.588520	18212.168811
38.537000	0.000373	0.000442	0.006407	0.003728	5582.791679	33639.950250	3649.187021	18214.199734
39.040000	-0.001975	-0.000615	0.004612	0.001958	5579.176908	33690.517477	3649.140888	18276.904188
39.534500	-0.000289	0.001328	0.008230	0.004921	5571.219825	33618.299667	3650.358039	18172.093263
40.035000	-0.001779	0.000850	0.000829	0.003552	5570.466395	33681.327329	3639.216255	18220.416438
40.535500	-0.000751	0.000276	0.004843	0.003378	5577.956964	33653.039071	3646.934995	18226.584620
41.035500	-0.001750	-0.000323	0.004619	0.003228	5572.664380	33621.228277	3646.799609	18231.906423
41.535500	-0.001642	0.000605	0.005177	0.003491	5571.701508	33668.314278	3647.345974	18222.599930
42.036000	0.000289	0.001347	0.006349	0.004335	5578.474517	33661.036369	3647.951915	18192.748849
42.536000	-0.000246	0.000580	0.008005	0.004121	5576.474068	33621.931150	3651.429579	18200.317223
43.036500	0.000533	0.001281	0.001787	0.004551	5578.646162	33641.122389	3639.141116	18185.136972
43.537000	-0.000026	0.000805	0.003712	0.004137	5577.742976	33636.720173	3643.444111	18199.761875
44.037000	-0.001841	0.000087	-0.000633	0.001444	5583.221879	33776.809094	3640.401543	18295.154256
44.535000	0.002977	0.000851	0.002874	0.001660	5612.148749	33815.828711	3646.471807	18287.497500
45.035000	0.000047	0.000067	0.003554	0.000527	5600.813659	33840.712465	3649.833380	18327.783404
45.535500	-0.000763	0.000373	0.001272	0.005064	5567.383456	33540.665265	3637.256794	18167.038815
46.035500	-0.002880	0.001250	0.003342	0.007413	5539.770802	33436.988025	3636.747628	18084.477900
46.536000	0.000918	0.000700	0.008890	0.001657	5599.186392	33805.296042	3657.689469	18287.599355
47.036000	0.002430	0.001947	0.009284	0.002836	5601.287388	33810.190157	3656.219207	18245.784695
47.536000	-0.000219	0.001020	0.004005	0.005875	5565.727087	33529.129208	3640.782845	18138.489652
48.036500	0.000883	0.001858	0.009010	0.006995	5565.611620	33509.222938	3647.954773	18099.136791
48.540000	0.000701	0.001422	0.007482	0.002159	5594.672930	33821.019110	3654.113395	18269.789788
49.034500	0.002031	0.000522	0.007120	0.001867	5604.871971	33777.697199	3653.983104	18280.144714
49.535000	0.000242	0.000933	0.005929	0.005660	5569.928733	33538.122333	3644.723542	18146.056613
50.035000	0.001132	0.000804	0.001308	0.007032	5566.931764	33432.411125	3633.729692	18097.835232
50.535500	0.000886	0.000404	0.004073	0.001433	5600.391761	33800.153616	3649.114448	18295.546808
51.035500	0.003248	0.000119	0.013499	0.011521	5552.223807	33070.726391	3647.886021	17941.131225
51.535000	0.016952	0.008295	0.009863	-0.004415	5741.783038	34793.558641	3671.021001	18504.809432
52.036500	0.002211	-0.009759	0.005466	0.102094	5041.828865	26839.332864	3484.307148	15102.194185
52.536500	-0.005734	-0.011942	0.003585	-0.068872	6031.873895	38212.735023	3789.783893	21008.002057
53.036500	-0.000955	-0.027711	0.003832	-0.297064	8277.589178	60494.770542	4445.414275	33551.839086
53.537500	0.006229	-0.016752	0.012656	-0.243570	7730.487067	55120.675618	4288.743391	29994.914550
54.037500	-0.005226	-0.015127	0.000160	-0.223799	7393.187522	52983.569158	4185.191619	28787.332739
54.535000	-0.013781	-0.011905	-0.006283	-0.189344	6966.546131	49507.740507	4064.523369	26809.812594
55.035500	-0.013443	-0.010119	-0.008269	-0.197838	7050.747027	50624.260234	4082.971038	27282.854770
55.535500	-0.007300	-0.003898	-0.009800	-0.214590	7277.143966	53217.051694	4127.217742	28243.321846
56.035500	0.004051	-0.001002	-0.000459	-0.214751	7395.558683	53572.447460	4155.634010	28252.712597
56.536000	0.006644	0.001557	-0.001931	-0.185860	7129.576582	50591.123308	4066.969755	26618.474774
57.036500	0.004915	0.002830	-0.000463	-0.154909	6820.697816	47440.559305	3986.604569	24984.179914
57.536500	0.003476	0.003986	0.002481	-0.109260	6414.585884	43102.805529	3879.460937	22776.693548
58.039000	0.008381	0.003518	0.011633	-0.077043	6198.444658	40187.722270	3825.827839	21352.683937
58.536500	0.009852	0.004603	0.012449	-0.051035	6015.519104	38107.756791	3770.411258	20277.702225
59.035000	0.012031	0.004894	0.014700	-0.027216	5862.546386	36250.774652	3725.457482	19348.131654
59.535000	0.010601	0.006234	0.012140	0.000064	5671.016548	34316.792740	3666.830704	18344.291413
60.035500	0.012072	0.008293	0.013947	0.020237	5552.894032	33033.062974	3632.699552	17641.480373
60.535500	0.018150	0.010161	0.019962	0.028740	5537.941997	32576.148760	3628.184758	17354.881867
61.036000	0.019347	0.010609	0.021781	0.043633	5455.073548	31605.168273	3604.887953	16866.246945
61.536500	0.016213	0.010112	0.021276	0.044325	5432.386670	31526.621725	3602.787924	16843.931450
62.037000	0.021680	0.014404	0.022998	0.056324	5394.110386	31022.970622	3585.010352	16462.855589
62.539500	0.020995	0.017245	0.022804	0.039876	5487.465680	32300.477779	3613.324662	16987.936412
63.037500	0.020798	0.016964	0.023941	0.037424	5501.100239	32447.840782	3619.720180	17067.911806
63.537000	0.023483	0.018116	0.026452	0.038203	5512.676145	32473.210996	3622.825630	17042.448735
64.038500	0.026388	0.019456	0.028301	0.042854	5502.072252	32248.657644	3617.808952	16891.395583
64.537500	0.026342	0.017996	0.030484	0.045709	5484.534524	31958.361741	3616.609462	16799.441991
65.035500	0.027440	0.019317	0.034245	0.049894	5466.004576	31767.341649	3615.854449	16665.757845
65.536000	0.028016	0.019477	0.028719	0.052012	5456.795581	31637.444671	3602.360489	16598.580525
66.036000	0.026087	0.019186	0.033290	0.056149	5420.898315	31345.929479	3603.123007	16468.356433
66.536500	0.028099	0.019750	0.036606	0.055556	5436.253968	31421.741675	3609.996896	16486.921477
67.037000	0.028390	0.019512	0.034352	0.056767	5430.822250	31326.772957	3603.899503	16449.001955
67.537000	0.030993	0.021308	0.032694	0.058750	5434.478574	31314.513024	3597.544042	16387.082726
68.037500	0.030583	0.020624	0.028991	0.062784	5408.359636	31007.425185	3584.211100	16262.008199
68.535000	0.031458	0.021883	0.036443	0.060930	5424.366838	31209.672103	3600.275265	16319.343200
69.035000	0.033694	0.022186	0.037589	0.061946	5431.555422	31163.172722	3600.501712	16287.884909
69.535500	0.027445	0.022840	0.026455	0.069014	5354.156489	30748.807324	3569.392471	16071.134733
70.035500	0.034565	0.023808	0.034012	0.068900	5395.905445	30818.241453	3582.342992	16074.587179
70.536000	0.035758	0.023726	0.034341	0.065676	5421.742113	31021.004879	3588.421071	16173.049919
71.036000	0.038902	0.024227	0.036842	0.066921	5432.933275	30972.895531	3590.582484	16134.952020
71.539000	0.034275	0.023797	0.037552	0.074054	5364.420452	30488.121162	3579.600047	15918.684367
72.040000	0.036102	0.024949	0.038265	0.071835	5387.782300	30703.171401	3584.593366	15985.590512
72.537000	0.039819	0.025597	0.041332	0.070902	5414.908183	30804.608348	3591.459955	16013.828220
73.034500	0.038611	0.026202	0.039078	0.071022	5407.130551	30835.785042	3587.376126	16010.195953
73.534500	0.036768	0.025658	0.041138	0.077936	5356.456008	30360.080374	3579.098920	15802.493972
74.038000	0.039121	0.026126	0.042587	0.075668	5383.068684	30533.653447	3585.430041	15870.268211
74.535500	0.040120	0.027333	0.042693	0.073685	5400.394104	30737.399497	3589.010488	15929.792990
75.035500	0.044080	0.029027	0.053469	0.075804	5411.147508	30710.160623	3604.039933	15866.173309
75.536000	0.041139	0.027974	0.043717	0.082063	5357.849672	30245.709752	3576.476643	15680.068704
76.036500	0.042912	0.027528	0.039866	0.080016	5379.842856	30346.727733	3573.434677	15740.641885
76.536500	0.045694	0.029161	0.050636	0.078451	5405.107522	30549.670328	3594.491559	15787.151168
77.037000	0.047462	0.029368	0.045033	0.079219	5410.959163	30513.952878	3583.542258	15764.316360
77.537000	0.045331	0.029320	0.044080	0.085667	5361.224467	30103.894006	3571.020067	15574.123017
78.037500	0.042613	0.029600	0.050509	0.084242	5353.815175	30210.932610	3584.313952	15615.912740
78.535000	0.048161	0.030309	0.048203	0.082580	5395.416647	30360.470080	3583.215662	15664.817345
79.035500	0.050647	0.031783	0.050452	0.084456	5398.973413	30335.095179	3583.851951	15609.630643
79.535500	0.048132	0.031022	0.048151	0.090348	5350.457871	29917.876629	3569.997208	15437.817047
80.035500	0.050172	0.032210	0.044149	0.086608	5383.710006	30226.296716	3569.560391	15546.616421
80.536000	0.054298	0.032354	0.050873	0.087461	5402.734582	30181.708585	3579.453093	15521.703825
81.036500	0.053430	0.033345	0.045941	0.089533	5385.642371	30113.855363	3567.665551	15461.455335
81.539000	0.051280	0.032391	0.052781	0.088613	5378.524144	30111.729768	3580.737791	15488.182487
82.036500	0.049249	0.032959	0.053088	0.092326	5345.540989	29915.365228	3574.972263	15380.671405
82.534500	0.052811	0.034190	0.053223	0.092096	5367.266676	30006.414436	3575.587827	15387.300542
83.035000	0.057204	0.034732	0.047230	0.093172	5386.421394	29973.125531	3563.752035	15356.306756
83.535000	0.052058	0.035590	0.049789	0.101441	5309.835576	29514.921714	3554.333125	15120.624043
84.035500	0.052900	0.034906	0.055144	0.095219	5349.865859	29856.529979	3573.560217	15297.527555
84.536000	0.054974	0.035568	0.055438	0.096859	5352.351746	29795.872671	3571.299034	15250.657906
85.036000	0.054756	0.035018	0.058615	0.097233	5348.963957	29738.743537	3576.018412	15239.994863
85.536000	0.053196	0.035849	0.053381	0.104592	5298.538481	29338.179722	3555.054313	15031.964043
86.036500	0.056113	0.036619	0.056114	0.103647	5320.253002	29442.879046	3561.115109	15058.504631
86.536500	0.059073	0.037988	0.065917	0.101627	5348.523678	29650.849589	3580.945458	15115.352595
87.037000	0.058396	0.037246	0.062880	0.101940	5342.882616	29585.970809	3575.272196	15106.544748
87.537500	0.054794	0.036792	0.058144	0.108241	5287.093458	29173.978878	3556.884463	14930.134047
88.035000	0.058910	0.038182	0.060505	0.107415	5314.771282	29308.387845	3562.146076	14953.097748
88.535500	0.059048	0.037312	0.061706	0.104449	5332.320720	29436.179718	3569.084276	15035.984768
89.035500	0.061115	0.038517	0.063203	0.106130	5334.507983	29407.107524	3568.774583	14988.933403
89.535500	0.056705	0.038231	0.056597	0.112730	5272.778594	28990.055328	3547.025346	14806.019723
90.036000	0.061929	0.038776	0.060856	0.107911	5329.025818	29314.372160	3561.905204	14939.306713
90.536000	0.060725	0.039845	0.062244	0.108627	5318.170337	29335.835296	3563.018901	14919.395864
91.039000	0.062152	0.039478	0.063836	0.109493	5321.337073	29260.843766	3564.224398	14895.377536
91.537000	0.059493	0.039336	0.060776	0.115521	5272.765797	28888.928600	3549.281211	14729.489192
92.037000	0.063204	0.040204	0.063634	0.112343	5311.204536	29132.243074	3559.170831	14816.661137
92.537500	0.062623	0.041807	0.066706	0.112690	5305.993624	29208.277324	3563.682388	14807.116281
93.035500	0.065757	0.042174	0.065017	0.114069	5315.862172	29146.990293	3558.606357	14769.232107
93.535500	0.063425	0.042009	0.063759	0.119918	5270.188257	28785.931565	3546.982828	14609.906031
94.035500	0.065325	0.041879	0.066275	0.118226	5290.136821	28879.237051	3553.841224	14655.778956
94.536000	0.064324	0.042531	0.068531	0.116252	5295.567008	29036.846600	3560.805038	14709.531326
95.039000	0.068404	0.043345	0.066710	0.117526	5311.299103	29009.146004	3555.702859	14674.807482
95.539000	0.065577	0.042189	0.068230	0.122154	5269.724757	28663.666716	3550.617361	14549.566035
96.037000	0.072112	0.043857	0.073620	0.120500	5315.433059	28861.537474	3562.196495	14594.175969
96.537500	0.068372	0.043821	0.069322	0.120261	5295.788506	28873.724621	3555.502026	14600.647846
97.037500	0.067962	0.043476	0.068642	0.119737	5296.420193	28884.396762	3555.244921	14614.807581
97.535000	0.069537	0.044313	0.071853	0.121802	5293.685781	28811.041292	3557.128727	14559.061047
