sample name	sample
index	2
start time	 02-11-2021  11:07:54 AM
880	-0.024422
Peak Time (s)	81.037
Peak Height 	-0.02442
calc peak height	80,83
Baseline Time (s)	9.037
Baseline Value 	-0.003263
subtract baseline	10,4
Abs	-0.017077
Peak Time (s)	82.535
Peak Height 	-0.01708
calc peak height	80,83
Baseline Time (s)	8.537
Baseline Value 	0.0158
subtract baseline	10,3
PK_550	-0.002351
Peak Time (s)	82.038
Peak Height 	-0.002351
calc peak height	80,83
Baseline Time (s)	11.536
Baseline Value 	0.001384
subtract baseline	10,2
PK_880	-0.020335
Peak Time (s)	82.038
Peak Height 	-0.02034
calc peak height	80,83
Baseline Time (s)	11.035
Baseline Value 	0.002251
subtract baseline	10,1


Time (s)	A880-A510	A880-A775	A880-A975	A880	I510	I775	I975	I880	
0.037000	-0.004063	-0.001661	0.004210	0.002474	4243.073548	17657.146703	3113.970039	9573.487504
0.537000	-0.001521	-0.001700	-0.005698	0.003329	4248.641732	17626.730579	3105.307932	9560.157003
1.043000	0.001692	-0.001009	0.002781	-0.000310	4271.481333	17774.665296	3115.075765	9617.068016
1.538000	-0.003797	-0.002000	-0.011298	0.005424	4234.259130	17545.500289	3099.244657	9527.603476
2.035500	0.001467	-0.001582	-0.009629	-0.000521	4271.434444	17762.202371	3105.243312	9620.375111
2.537500	-0.003177	-0.001340	0.006215	0.001565	4248.997572	17699.090425	3116.351667	9587.682853
3.035500	0.002402	-0.003062	-0.008618	0.001469	4267.894477	17643.645489	3104.465697	9589.179875
3.536500	0.001947	0.000904	0.002193	0.004920	4254.864678	17661.188328	3110.352032	9535.429192
4.036500	-0.001228	-0.001150	-0.002952	0.001895	4254.365059	17694.328879	3108.646371	9582.528536
4.537000	-0.000287	-0.002252	-0.019094	0.002156	4256.623865	17647.832592	3095.727626	9578.444190
5.040000	-0.000045	-0.001578	-0.017249	0.001785	4258.666114	17683.482366	3097.444407	9584.247523
5.537500	-0.001236	0.000591	-0.008498	-0.000740	4263.112924	17844.517202	3106.318312	9623.825747
6.035000	-0.000562	-0.001924	-0.004270	-0.001989	4269.549611	17800.920630	3110.711386	9643.485906
6.535000	-0.002773	-0.001864	-0.008052	0.000918	4252.479435	17703.299610	3105.352637	9597.802547
7.035500	-0.004355	-0.001077	-0.006274	0.001641	4244.857539	17705.488249	3106.192685	9586.496110
7.535500	0.000755	0.000646	-0.005653	0.000438	4265.833996	17805.821721	3107.649435	9605.333261
8.036500	0.003824	-0.000059	-0.003800	-0.000868	4280.544226	17826.513081	3110.185832	9625.828639
8.536500	0.002410	0.000498	0.000000	0.000190	4272.213813	17809.254314	3112.403827	9609.217631
9.036500	-0.000842	0.000773	0.002091	0.000000	4261.958891	17825.295586	3114.258920	9612.199797
9.540000	-0.002187	-0.001187	-0.012463	-0.001665	4263.026114	17815.103239	3103.902273	9638.371808
10.037500	0.000827	0.000561	0.004473	-0.000133	4267.985438	17822.576450	3116.315983	9614.287873
10.537500	-0.004660	-0.000825	0.000082	0.000661	4247.084674	17747.667391	3112.088419	9601.837562
11.035000	0.000000	-0.001863	-0.000199	-0.000302	4265.781623	17745.092049	3112.641618	9616.942278
11.535500	0.003083	0.000000	-0.011846	0.001582	4269.798777	17744.373117	3101.827790	9587.421631
12.036000	0.000282	-0.002108	-0.001527	-0.000731	4268.161332	17751.379460	3111.912305	9623.678746
12.535500	-0.001477	-0.001358	0.000717	-0.000172	4260.416458	17757.939847	3113.280851	9614.907055
13.036000	-0.003193	-0.001976	-0.005543	-0.000639	4256.256217	17752.755361	3108.600840	9622.236318
13.536500	0.001033	-0.001135	-0.011279	-0.000399	4269.567743	17773.358189	3103.837739	9618.456690
14.037000	-0.003560	-0.001883	-0.008166	-0.000007	4252.935376	17734.281205	3105.997791	9612.302974
14.537000	0.003791	-0.000715	-0.004305	-0.000023	4277.580016	17774.887771	3109.100022	9612.558086
15.035000	-0.001141	-0.000598	-0.005206	-0.000035	4261.078680	17779.343748	3108.386340	9612.754274
15.534500	0.001293	-0.001253	0.004229	-0.000418	4270.504627	17769.987595	3116.349859	9618.763059
16.035000	-0.002565	-0.001469	-0.000292	-0.000732	4258.653762	17773.349839	3112.914732	9623.690806
16.535000	-0.000712	-0.001118	-0.008641	-0.000161	4262.928483	17765.796959	3105.742649	9614.722148
17.035500	0.003408	-0.000718	-0.003887	0.000283	4275.259004	17764.298706	3109.190481	9607.764587
17.536000	0.006119	-0.000443	0.008496	0.000584	4283.401270	17763.404119	3119.038186	9603.046683
18.036500	0.004345	-0.002142	-0.003772	-0.000980	4282.689838	17758.752420	3110.299736	9627.598882
18.537000	0.000904	0.000354	0.001115	0.000486	4266.169035	17794.147821	3113.068898	9604.580373
19.039500	-0.001997	-0.000537	-0.001424	0.000110	4257.742671	17776.421620	3111.315607	9610.472959
19.537000	-0.000215	-0.001043	0.001142	0.000278	4263.126265	17753.320007	3113.260487	9607.845385
20.037500	0.002676	-0.000695	-0.005373	-0.002117	4280.888999	17847.669147	3109.925354	9645.501308
20.535500	0.000536	0.001594	-0.003987	-0.000376	4267.824267	17866.577157	3109.639399	9618.099058
21.038000	0.000597	-0.001286	-0.009037	-0.002281	4274.424990	17832.911345	3107.117495	9648.085746
21.535500	0.000913	-0.001433	-0.004397	-0.001865	4274.091581	17813.548571	3110.508987	9641.531749
22.036000	0.001309	0.000483	-0.014078	-0.001113	4272.895502	17853.662690	3102.191878	9629.692014
22.536000	0.003070	-0.001655	-0.012256	-0.002835	4284.652687	17839.306715	3104.994177	9656.828802
23.036500	-0.001336	-0.001256	0.011628	-0.001608	4265.680336	17810.775273	3123.465292	9637.482895
23.558500	-0.001852	0.000378	-0.002804	0.003894	4245.682364	17678.265049	3107.164454	9551.366692
24.037000	-0.001073	0.000329	-0.001382	0.001727	4255.434505	17750.648772	3110.043389	9585.144288
24.563500	-0.000284	0.000125	-0.004880	-0.001113	4267.546246	17841.296885	3109.513704	9629.687530
25.059500	0.002246	-0.000850	-0.006602	-0.001337	4276.800548	17815.438545	3108.310754	9633.209823
25.535500	-0.002746	-0.001190	-0.005830	-0.002104	4262.623287	17830.131765	3109.546909	9645.292458
26.035500	-0.000233	-0.001332	-0.007784	-0.002685	4272.993973	17845.284346	3108.444488	9654.471654
26.535500	-0.002056	-0.000257	-0.009574	-0.002451	4266.092402	17874.297579	3106.824483	9650.766471
27.036000	-0.001192	0.000347	0.000650	-0.001211	4264.835748	17852.357120	3114.071617	9631.232593
27.536000	0.001976	-0.000927	-0.004066	0.000491	4269.745960	17749.995521	3108.879583	9604.505746
28.036500	-0.000778	-0.001535	-0.004437	0.000167	4261.612983	17740.238822	3108.841110	9609.578271
28.539500	-0.000188	0.000009	-0.006525	0.000929	4261.037374	17767.063765	3106.559631	9597.628318
29.037500	0.000217	-0.001002	-0.013809	-0.000008	4265.523662	17764.522389	3101.533641	9612.324360
29.537500	-0.001834	-0.001396	-0.004960	0.000330	4257.554227	17739.455162	3108.291663	9607.030594
30.035000	0.000203	-0.002012	-0.007579	0.000061	4265.243961	17727.558165	3106.411851	9611.240075
30.535500	-0.002212	-0.000522	-0.018103	0.001107	4253.715980	17742.744474	3097.307816	9594.851397
31.035000	-0.000976	-0.003282	0.000700	-0.001585	4266.810060	17740.435845	3114.417304	9637.123193
31.535500	0.000710	-0.000783	-0.008195	0.000729	4264.709657	17746.756636	3105.389594	9600.773311
32.036000	-0.000446	0.000230	0.000200	0.001153	4259.432687	17766.977576	3111.785715	9594.131718
32.536000	-0.001993	-0.000297	-0.004513	0.000912	4255.090079	17757.152286	3108.183183	9597.905091
33.036500	-0.000374	-0.001793	-0.014186	-0.000494	4265.171923	17754.050970	3101.619452	9619.956118
33.537000	-0.000116	0.000588	-0.008882	0.003110	4254.020732	17712.193766	3102.959130	9563.562219
34.037000	-0.002860	-0.000707	-0.007895	0.000383	4253.968359	17761.243038	3105.904183	9606.199643
34.540000	0.000055	0.000864	0.003799	0.002136	4257.826665	17754.975256	3113.909636	9578.756004
35.035000	-0.003703	-0.001847	-0.012173	0.000211	4251.740433	17728.055757	3102.649593	9608.892252
35.535000	0.000411	-0.001310	-0.008750	0.000799	4263.472915	17726.314137	3104.893493	9599.674615
36.036000	-0.002767	-0.001803	-0.006799	-0.000059	4255.743555	17738.815204	3107.130268	9613.130641
36.536000	0.001947	-0.001639	-0.008106	0.000312	4270.249827	17731.753269	3105.792689	9607.312659
37.036000	0.001891	-0.002864	-0.006173	-0.004162	4285.156160	17843.382709	3110.929949	9677.834765
37.537000	0.001080	-0.000382	-0.016376	0.001338	4263.909240	17739.626257	3098.471243	9591.232305
38.039500	0.001557	0.000087	-0.000565	-0.000838	4272.801971	17830.517114	3112.779346	9625.355801
38.537000	-0.000170	-0.000155	0.006427	-0.001446	4269.045150	17843.149651	3119.006099	9634.931697
39.037500	0.000389	-0.000047	-0.002138	-0.001492	4271.074207	17848.443140	3112.034247	9635.655256
39.535000	-0.000076	-0.000691	0.005195	-0.000083	4264.794096	17777.774816	3116.867530	9613.499791
40.034500	0.003749	-0.000877	-0.011918	-0.001773	4283.356852	17829.529783	3104.420769	9640.086464
40.549500	0.003100	-0.000492	-0.008212	-0.001945	4281.739862	17848.747555	3107.508489	9642.793600
41.035500	-0.001285	-0.000361	-0.002572	0.001937	4254.035999	17719.849296	3108.917677	9581.869592
41.536000	0.001243	-0.000990	-0.005169	0.001244	4264.768305	17722.040828	3107.391883	9592.705444
42.036500	0.004212	-0.000506	-0.005086	-0.001499	4283.994913	17832.877433	3109.659229	9635.768178
42.539000	0.002615	-0.001210	-0.004764	-0.002349	4281.469350	17837.900199	3110.603576	9649.167533
43.036500	0.000795	-0.000102	-0.005137	0.000584	4265.477761	17775.098124	3107.945908	9603.041719
43.537500	-0.000146	0.000127	-0.006739	0.000595	4262.295264	17782.591147	3106.656184	9602.865717
44.037500	0.003983	-0.000245	-0.001517	-0.011277	4316.710571	18182.958781	3120.568404	9791.494476
44.535000	0.003880	-0.002363	-0.006234	-0.018784	4342.574759	18374.243096	3122.891282	9913.450878
45.035000	-0.035358	-0.020174	0.005321	0.194739	3667.429261	11968.438178	2987.972785	7149.360968
45.535500	-0.043667	-0.026459	0.010462	0.189668	3661.076668	11943.001240	2993.394123	7200.481220
46.036000	-0.021944	-0.024907	-0.003492	-0.044145	4340.946355	18475.196879	3147.144381	10341.429957
46.536000	-0.025303	-0.015812	-0.008289	-0.194300	4955.656967	25390.823014	3300.999368	13457.756198
47.036500	-0.032646	-0.016720	-0.017944	-0.147210	4703.182198	23033.634778	3234.748061	12362.240941
47.536500	-0.040410	-0.011884	-0.024838	-0.136209	4623.226427	22749.314364	3215.588498	12122.984259
48.037000	-0.034955	-0.013280	-0.017624	-0.135743	4644.143989	22664.226326	3222.720387	12112.972523
48.537000	-0.043315	-0.016507	-0.031357	-0.117929	4537.013026	21727.727283	3190.307668	11738.564123
49.035000	-0.037922	-0.013064	-0.008765	-0.123342	4580.463017	22116.374307	3218.963757	11850.723383
49.535000	-0.033307	-0.012405	-0.017746	-0.122573	4596.192840	22111.498668	3208.776993	11834.710232
50.035500	-0.030863	-0.009026	-0.026157	-0.122118	4604.376905	22241.569725	3199.709984	11825.244549
50.535500	-0.030622	-0.009321	-0.025658	-0.106751	4543.038782	21555.130187	3184.914129	11511.353408
51.035500	-0.028562	-0.007621	-0.013698	-0.084470	4464.306216	20689.922030	3174.937648	11075.527045
51.536000	-0.032407	-0.009815	-0.015574	-0.058370	4354.244739	19565.508936	3149.058157	10592.637883
52.039500	-0.028393	-0.009202	-0.013666	-0.051928	4345.650929	19342.826696	3145.019100	10477.863054
52.539000	-0.026095	-0.006519	-0.025573	-0.054308	4362.251379	19536.075710	3136.667066	10520.060039
53.037000	-0.030208	-0.006041	-0.030775	-0.053445	4344.596701	19521.301098	3131.444528	10504.725324
53.557000	-0.026151	-0.006071	-0.013153	-0.059511	4380.730881	19754.438296	3152.261209	10613.153051
54.035500	-0.024118	-0.003825	-0.023074	-0.059666	4388.649919	19848.086667	3143.541023	10615.937976
54.540000	-0.022799	-0.005124	-0.007511	-0.060185	4395.337699	19817.629711	3158.006218	10625.295428
55.038500	-0.024700	-0.003624	-0.022947	-0.054605	4368.300851	19659.061011	3139.209625	10525.341081
55.535500	-0.024270	-0.005227	-0.022635	-0.059836	4388.715880	19799.954010	3144.078971	10618.996695
56.036500	-0.020847	-0.002011	-0.029821	-0.056691	4389.723763	19802.746626	3135.053292	10562.554610
56.536500	-0.020348	-0.003217	-0.024093	-0.057746	4395.380586	19796.841011	3140.955256	10581.448401
57.037000	-0.022383	-0.002888	-0.019538	-0.050858	4363.190633	19543.052280	3138.915029	10458.956685
57.537000	-0.021936	-0.001373	-0.017595	-0.053407	4373.922693	19699.846088	3142.853109	10504.051998
58.037500	-0.020550	-0.000777	-0.020863	-0.051616	4372.467317	19653.582402	3138.420133	10472.330530
58.535000	-0.018467	-0.002718	-0.025598	-0.051963	4381.222742	19592.091628	3134.617973	10478.476937
59.035000	-0.024656	-0.004161	-0.025138	-0.047452	4343.040730	19364.262934	3131.140533	10399.094613
59.535500	-0.021013	-0.001153	-0.017787	-0.046278	4351.767202	19434.106417	3136.455646	10378.570600
60.035500	-0.022779	-0.001813	-0.020504	-0.047971	4351.507264	19473.569060	3135.568930	10408.177338
60.535500	-0.020728	-0.002695	-0.029791	-0.047443	4356.916600	19419.721218	3127.178267	10398.934734
61.036500	-0.024807	-0.002824	-0.022550	-0.041175	4320.555438	19177.663992	3128.002257	10290.012058
61.539000	-0.026999	-0.004686	-0.016680	-0.043964	4322.625899	19212.465890	3135.410701	10338.272094
62.036500	-0.025019	-0.003687	-0.024085	-0.045186	4333.801992	19296.318122	3130.105658	10359.526646
62.537000	-0.025093	-0.001902	-0.026007	-0.042032	4322.536223	19244.598256	3125.806123	10304.799935
63.037500	-0.026914	-0.003908	-0.025476	-0.036800	4298.210614	18973.839335	3121.868422	10214.891044
63.535000	-0.022509	-0.002467	-0.020176	-0.035448	4308.692024	18977.146408	3125.172760	10191.836531
64.035500	-0.022530	-0.001752	-0.019288	-0.037134	4314.438968	19066.455021	3127.342212	10220.599235
64.535000	-0.019741	-0.001717	-0.024723	-0.036222	4320.948186	19033.815339	3122.015083	10205.033260
65.035500	-0.021808	-0.002897	-0.029010	-0.030687	4294.768623	18785.656501	3113.921135	10111.204324
65.536000	-0.021789	-0.003789	-0.019465	-0.033145	4303.248596	18843.189623	3123.836834	10152.727953
66.037000	-0.021013	-0.003046	-0.018496	-0.035635	4314.502013	18962.604946	3126.745737	10195.027061
66.537000	-0.020570	-0.002788	-0.025652	-0.035158	4314.385162	18954.507634	3120.357966	10186.907127
67.036500	-0.021105	-0.004304	-0.015847	-0.036251	4316.313574	18938.811648	3129.512265	10205.518104
67.534500	-0.019660	-0.002293	-0.021558	-0.030041	4299.905818	18784.125307	3119.510239	10100.332491
68.034500	-0.020965	-0.003614	-0.016136	-0.033597	4307.635128	18866.295483	3127.017939	10160.389307
68.534500	-0.021329	-0.003915	-0.009702	-0.033624	4306.475511	18856.175282	3132.516584	10160.844067
69.035500	-0.020501	-0.002729	-0.015611	-0.027374	4287.937954	18670.763275	3122.234249	10055.618242
69.536000	-0.019345	-0.004449	-0.019083	-0.029890	4300.466455	18699.783795	3121.438147	10097.797538
70.036000	-0.019655	-0.003839	-0.023606	-0.032954	4309.933164	18834.315261	3120.226556	10149.491338
70.536500	-0.020883	-0.003300	-0.023383	-0.032826	4305.266832	18849.463777	3120.305670	10147.326466
71.039500	-0.023662	-0.004111	-0.017917	-0.026483	4274.237040	18588.264256	3119.579215	10040.750438
71.537000	-0.020577	-0.003979	-0.018260	-0.029373	4294.485266	18698.082697	3121.693444	10089.112779
72.037000	-0.020377	-0.004562	-0.015704	-0.032661	4306.435787	18796.978030	3126.591863	10144.526740
72.537500	-0.021044	-0.002994	-0.015177	-0.031919	4301.600132	18827.357478	3126.410947	10131.994638
73.035000	-0.022738	-0.004421	-0.020473	-0.026598	4277.737332	18581.204300	3117.563930	10042.658845
73.535000	-0.019798	-0.002752	-0.020497	-0.031860	4305.674403	18834.086945	3121.901714	10130.999875
74.035500	-0.020145	-0.003942	-0.018562	-0.031869	4304.513600	18790.698658	3123.524421	10131.148954
74.535500	-0.018473	-0.002590	-0.021677	-0.032147	4311.226628	18850.575931	3121.158131	10135.835665
75.036500	-0.022995	-0.005017	-0.025761	-0.027357	4279.434068	18587.094406	3113.855843	10055.343638
75.539000	-0.022975	-0.004318	-0.022457	-0.032554	4297.162067	18802.018282	3120.848351	10142.721814
76.037000	-0.021142	-0.005156	-0.020946	-0.032662	4303.814026	18775.259148	3122.196000	10144.551677
76.537000	-0.016376	-0.002237	-0.010136	-0.030361	4312.300471	18797.920499	3129.360268	10105.719542
77.037000	-0.021741	-0.004448	-0.033202	-0.026153	4279.599784	18564.104708	3106.883612	10035.241925
77.537500	-0.019823	-0.002554	-0.015512	-0.031239	4303.453740	18818.536437	3125.555113	10120.512986
78.035000	-0.019564	-0.003567	-0.028769	-0.031629	4305.683593	18795.627141	3114.886878	10127.090324
78.535000	-0.020140	-0.001780	-0.010696	-0.031583	4303.548999	18859.660133	3129.923468	10126.319778
79.035500	-0.021404	-0.003580	-0.010791	-0.025670	4279.105452	18578.018498	3124.841722	10027.189371
79.536000	-0.026489	-0.005337	-0.022372	-0.028736	4272.304774	18625.466996	3117.760029	10078.415084
80.036500	-0.020452	-0.003288	-0.024658	-0.031367	4301.734672	18796.267814	3118.045226	10122.667149
80.535500	-0.022500	-0.003935	-0.022205	-0.031101	4293.819437	18762.802742	3119.851795	10118.183600
81.036500	-0.024583	-0.002382	-0.018312	-0.024422	4264.234002	18576.250492	3117.551691	10006.453499
81.537000	-0.025364	-0.004402	-0.018657	-0.027787	4272.895205	18624.987823	3120.045863	10062.527129
82.037500	-0.020335	-0.002351	-0.022752	-0.029575	4296.001611	18764.934215	3118.139076	10092.502865
82.535000	-0.020758	-0.003221	-0.017077	-0.030199	4296.686709	18755.896906	3123.369721	10102.986897
83.035000	-0.018825	-0.001666	-0.006287	-0.028223	4296.540707	18740.536883	3130.817241	10069.826193
83.535000	-0.022791	-0.003363	-0.011424	-0.025392	4273.497148	18575.848133	3124.078378	10022.570070
84.041000	-0.020759	-0.003949	-0.011047	-0.029077	4292.856417	18688.347861	3127.497583	10084.135579
84.563500	-0.021877	-0.003116	-0.017696	-0.029096	4289.113134	18719.419141	3121.932216	10084.454824
85.039000	-0.019465	-0.001953	-0.011742	-0.027745	4292.726967	18712.595777	3125.787567	10061.826613
85.536000	-0.023383	-0.003172	-0.030381	-0.023876	4266.419338	18527.986382	3107.318552	9997.390898
86.036500	-0.021793	-0.002554	-0.020561	-0.027582	4284.261768	18684.748348	3118.302487	10059.102812
86.537500	-0.018518	-0.002175	-0.024485	-0.027670	4295.701356	18701.730165	3115.152246	10060.565212
87.035000	-0.020486	-0.002539	-0.021088	-0.026625	4285.444063	18650.445306	3117.079775	10043.107167
