sample name	sample
index	890
start time	 04-08-2021  02:46:29 PM


Wavelength (nm)	Absorbance
494.344910	0.000789
494.563924	0.000789
494.782919	0.000789
495.001897	0.011745
495.220856	0.010712
495.439797	0.012764
495.658719	0.010095
495.877624	0.009637
496.096510	0.006591
496.315378	0.008394
496.534227	0.009906
496.753059	0.011493
496.971872	0.010318
497.190667	0.059309
497.409444	0.093980
497.628203	0.109030
497.846943	0.119971
498.065665	0.125775
498.284369	0.128770
498.503055	0.130989
498.721723	0.132445
498.940372	0.132498
499.159003	0.131962
499.377616	0.131972
499.596210	0.131751
499.814787	0.130965
500.033345	0.130456
500.251885	0.130171
500.470406	0.130758
500.688910	0.130742
500.907395	0.131734
501.125862	0.132259
501.344311	0.131498
501.562742	0.132267
501.781154	0.132732
501.999548	0.132450
502.217924	0.132314
502.436282	0.132142
502.654621	0.132135
502.872942	0.132226
503.091245	0.133351
503.309530	0.132889
503.527797	0.132855
503.746045	0.132354
503.964275	0.133634
504.182487	0.134536
504.400681	0.135545
504.618856	0.136545
504.837013	0.137045
505.055152	0.136441
505.273273	0.137350
505.491376	0.138060
505.709460	0.138453
505.927526	0.138554
506.145574	0.139601
506.363604	0.139304
506.581615	0.138450
506.799608	0.138700
507.017583	0.139282
507.235540	0.139582
507.453478	0.138806
507.671399	0.139620
507.889301	0.139149
508.107185	0.139016
508.325050	0.139247
508.542898	0.140249
508.760727	0.141346
508.978538	0.141420
509.196330	0.141763
509.414105	0.141904
509.631861	0.141357
509.849599	0.141685
510.067319	0.141009
510.285021	0.140557
510.502704	0.140019
510.720369	0.139718
510.938016	0.140237
511.155645	0.140361
511.373255	0.140900
511.590848	0.141390
511.808422	0.141730
512.025977	0.142447
512.243515	0.142748
512.461034	0.143802
512.678536	0.143810
512.896018	0.144708
513.113483	0.144175
513.330930	0.144581
513.548358	0.144789
513.765768	0.145702
513.983160	0.146343
514.200533	0.147116
514.417889	0.146730
514.635226	0.146910
514.852545	0.146111
515.069845	0.147061
515.287128	0.146724
515.504392	0.146850
515.721638	0.146684
515.938866	0.146812
516.156075	0.146041
516.373267	0.146425
516.590440	0.146646
516.807594	0.147013
517.024731	0.147524
517.241850	0.148095
517.458950	0.148786
517.676032	0.148794
517.893095	0.149258
518.110141	0.149833
518.327168	0.150374
518.544177	0.150529
518.761168	0.150205
518.978141	0.150085
519.195095	0.149914
519.412031	0.149225
519.628949	0.150026
519.845849	0.149991
520.062731	0.150532
520.279594	0.150760
520.496439	0.151331
520.713266	0.152435
520.930074	0.153356
521.146865	0.154348
521.363637	0.154997
521.580391	0.154726
521.797127	0.155132
522.013844	0.155096
522.230543	0.155588
522.447224	0.155777
522.663887	0.155712
522.880532	0.155493
523.097158	0.155800
523.313766	0.156325
523.530356	0.156765
523.746928	0.156735
523.963481	0.157413
524.180017	0.157292
524.396534	0.157459
524.613032	0.157744
524.829513	0.157926
525.045975	0.157670
525.262420	0.157881
525.478845	0.157902
525.695253	0.158011
525.911643	0.158287
526.128014	0.159095
526.344367	0.159697
526.560702	0.160086
526.777018	0.160843
526.993316	0.162054
527.209597	0.162109
527.425858	0.162145
527.642102	0.162352
527.858328	0.162060
528.074535	0.161095
528.290724	0.161198
528.506894	0.161331
528.723047	0.161981
528.939181	0.162097
529.155297	0.162844
529.371395	0.164091
529.587475	0.164297
529.803536	0.164711
530.019579	0.165359
530.235604	0.165547
530.451611	0.165785
530.667600	0.165387
530.883570	0.165410
531.099522	0.165610
531.315456	0.165626
531.531372	0.166440
531.747269	0.167442
531.963148	0.168032
532.179009	0.168586
532.394852	0.168959
532.610676	0.169415
532.826482	0.170038
533.042271	0.169898
533.258040	0.169520
533.473792	0.169920
533.689525	0.170096
533.905240	0.170432
534.120937	0.170672
534.336616	0.171301
534.552277	0.171845
534.767919	0.171979
534.983543	0.172455
535.199149	0.173615
535.414736	0.173655
535.630306	0.173502
535.845857	0.173922
536.061390	0.173946
536.276904	0.174218
536.492401	0.174603
536.707879	0.174822
536.923339	0.175420
537.138781	0.174858
537.354204	0.175502
537.569610	0.176262
537.784997	0.176630
538.000366	0.176988
538.215716	0.177165
538.431049	0.177610
538.646363	0.177613
538.861659	0.177569
539.076937	0.178884
539.292196	0.179163
539.507438	0.179274
539.722661	0.179662
539.937866	0.180236
540.153052	0.180671
540.368221	0.180959
540.583371	0.181451
540.798503	0.181831
541.013617	0.182171
541.228712	0.182553
541.443789	0.182743
541.658848	0.182951
541.873889	0.182983
542.088912	0.183172
542.303916	0.182628
542.518902	0.182918
542.733870	0.183176
542.948820	0.183057
543.163752	0.182822
543.378665	0.183062
543.593560	0.183408
543.808437	0.183652
544.023295	0.184304
544.238136	0.185448
544.452958	0.185674
544.667762	0.186233
544.882548	0.186176
545.097315	0.186603
545.312064	0.186939
545.526795	0.187354
545.741508	0.187982
545.956203	0.188107
546.170879	0.187927
546.385537	0.188152
546.600177	0.188080
546.814799	0.188623
547.029402	0.188551
547.243988	0.189044
547.458555	0.189341
547.673103	0.189052
547.887634	0.189150
548.102146	0.189168
548.316640	0.189468
548.531116	0.189845
548.745574	0.190084
548.960013	0.190704
549.174435	0.190922
549.388838	0.191618
549.603222	0.191832
549.817589	0.192434
550.031937	0.192664
550.246267	0.192779
550.460579	0.193258
550.674873	0.193439
550.889148	0.193858
551.103405	0.194267
551.317644	0.193712
551.531865	0.194063
551.746068	0.193816
551.960252	0.194626
552.174418	0.195151
552.388566	0.195307
552.602696	0.196081
552.816807	0.195703
553.030900	0.195635
553.244975	0.196003
553.459032	0.196282
553.673070	0.196170
553.887091	0.196269
554.101093	0.196267
554.315077	0.196083
554.529042	0.196150
554.742990	0.196719
554.956919	0.196776
555.170830	0.196819
555.384722	0.197165
555.598597	0.197330
555.812453	0.197369
556.026291	0.197695
556.240111	0.198038
556.453913	0.197719
556.667696	0.197713
556.881461	0.198347
557.095208	0.198355
557.308937	0.197928
557.522647	0.198631
557.736339	0.198657
557.950013	0.198695
558.163669	0.199090
558.377307	0.199693
558.590926	0.200056
558.804527	0.199869
559.018110	0.200300
559.231675	0.201009
559.445221	0.201035
559.658749	0.201636
559.872259	0.201744
560.085751	0.201859
560.299225	0.201384
560.512680	0.201569
560.726117	0.201840
560.939536	0.201800
561.152937	0.201916
561.366319	0.202354
561.579683	0.202431
561.793029	0.202755
562.006357	0.202634
562.219667	0.203286
562.432958	0.203603
562.646231	0.204172
562.859486	0.204774
563.072723	0.204837
563.285941	0.204780
563.499141	0.204644
563.712323	0.204909
563.925487	0.205213
564.138632	0.204979
564.351760	0.204801
564.564869	0.204516
564.777960	0.204686
564.991032	0.204873
565.204087	0.205160
565.417123	0.205583
565.630141	0.205626
565.843140	0.205952
566.056122	0.206275
566.269085	0.206622
566.482030	0.207056
566.694957	0.206748
566.907866	0.206876
567.120756	0.206901
567.333628	0.207007
567.546482	0.206967
567.759318	0.207094
567.972135	0.207117
568.184935	0.207504
568.397716	0.207911
568.610478	0.208396
568.823223	0.209034
569.035949	0.209568
569.248657	0.209645
569.461347	0.210516
569.674019	0.210654
569.886672	0.211030
570.099308	0.210890
570.311925	0.210850
570.524523	0.210873
570.737104	0.210695
570.949666	0.210550
571.162210	0.210819
571.374736	0.210621
571.587244	0.210654
571.799733	0.210758
572.012205	0.210905
572.224658	0.210942
572.437092	0.211525
572.649509	0.211716
572.861907	0.212011
573.074287	0.212080
573.286649	0.211753
573.498993	0.211625
573.711318	0.211842
573.923625	0.211876
574.135914	0.211939
574.348185	0.211622
574.560438	0.212087
574.772672	0.212141
574.984888	0.212002
575.197086	0.212529
575.409266	0.213097
575.621427	0.213349
575.833570	0.213421
576.045695	0.213194
576.257802	0.213330
576.469890	0.212840
576.681961	0.213145
576.894013	0.213519
577.106046	0.213547
577.318062	0.213929
577.530059	0.214063
577.742039	0.214540
577.954000	0.215138
578.165942	0.215719
578.377867	0.216388
578.589773	0.216311
578.801661	0.216215
579.013531	0.216644
579.225382	0.216548
579.437216	0.216375
579.649031	0.216593
579.860828	0.216255
580.072606	0.216135
580.284367	0.215928
580.496109	0.216022
580.707833	0.216224
580.919539	0.215998
581.131227	0.216229
581.342896	0.216655
581.554547	0.216536
581.766180	0.216639
581.977795	0.216920
582.189391	0.217646
582.400969	0.217661
582.612529	0.218156
582.824071	0.218504
583.035595	0.218738
583.247100	0.218754
583.458587	0.218762
583.670056	0.219252
583.881506	0.219092
584.092939	0.218667
584.304353	0.219226
584.515749	0.219427
584.727127	0.219118
584.938486	0.219227
585.149828	0.219372
585.361151	0.219713
585.572456	0.219995
585.783742	0.220235
585.995011	0.220479
586.206261	0.220392
586.417493	0.220475
586.628706	0.221283
586.839902	0.221392
587.051079	0.221275
587.262238	0.221659
587.473379	0.221700
587.684502	0.222183
587.895606	0.222118
588.106692	0.222280
588.317760	0.222382
588.528810	0.222381
588.739841	0.222698
588.950855	0.223129
589.161850	0.223103
589.372827	0.223492
589.583785	0.223338
589.794726	0.223823
590.005648	0.224156
590.216552	0.224435
590.427437	0.224818
590.638305	0.224663
590.849154	0.224821
591.059985	0.225000
591.270798	0.224970
591.481592	0.225281
591.692369	0.225489
591.903127	0.225597
592.113867	0.225519
592.324588	0.225621
592.535292	0.225954
592.745977	0.226239
592.956644	0.226093
593.167293	0.226166
593.377923	0.226067
593.588536	0.225976
593.799130	0.225719
594.009706	0.226135
594.220263	0.226271
594.430803	0.226092
594.641324	0.226209
594.851827	0.226700
595.062312	0.226716
595.272778	0.227332
595.483227	0.227755
595.693657	0.228275
595.904069	0.228408
596.114462	0.228712
596.324838	0.229029
596.535195	0.228967
596.745534	0.228743
596.955855	0.229210
597.166157	0.229055
597.376441	0.228884
597.586707	0.229026
597.796955	0.228784
598.007185	0.228501
598.217396	0.228538
598.427589	0.228855
598.637764	0.229224
598.847921	0.229256
599.058060	0.229342
599.268180	0.229673
599.478282	0.229468
599.688366	0.229976
599.898431	0.230352
600.108479	0.230668
600.318508	0.230898
600.528519	0.231287
600.738511	0.231709
600.948486	0.231766
601.158442	0.232072
601.368380	0.232643
601.578300	0.232249
601.788202	0.232434
601.998085	0.232491
602.207950	0.232981
602.417797	0.233280
602.627626	0.233127
602.837436	0.233472
603.047228	0.233410
603.257002	0.233618
603.466758	0.234198
603.676496	0.234118
603.886215	0.234339
604.095916	0.234037
604.305599	0.234010
604.515264	0.234415
604.724910	0.234642
604.934538	0.234930
605.144148	0.234436
605.353740	0.234441
605.563314	0.234626
605.772869	0.234903
605.982406	0.234990
606.191925	0.235121
606.401425	0.235141
606.610908	0.235421
606.820372	0.235315
607.029818	0.236092
607.239246	0.236308
607.448655	0.236356
607.658047	0.236308
607.867420	0.236582
608.076775	0.236485
608.286111	0.236693
608.495430	0.236483
608.704730	0.236600
608.914012	0.236587
609.123275	0.236799
609.332521	0.237025
609.541748	0.237183
609.750957	0.237053
609.960148	0.237195
610.169321	0.237350
610.378475	0.237790
610.587611	0.238242
610.796729	0.238248
611.005829	0.238216
611.214910	0.238254
611.423974	0.238498
611.633019	0.238908
611.842045	0.239232
612.051054	0.239470
612.260044	0.239513
612.469017	0.239481
612.677970	0.239982
612.886906	0.240247
613.095824	0.240692
613.304723	0.240764
613.513604	0.240882
613.722467	0.241135
613.931311	0.240996
614.140138	0.241175
614.348946	0.241397
614.557736	0.241183
614.766507	0.241163
614.975261	0.241489
615.183996	0.241591
615.392713	0.241735
615.601412	0.241578
615.810092	0.241809
616.018754	0.241770
616.227399	0.241730
616.436024	0.241790
616.644632	0.242083
616.853222	0.241710
617.061793	0.241614
617.270346	0.241908
617.478880	0.242087
617.687397	0.242182
617.895895	0.242454
618.104375	0.242566
618.312837	0.242482
618.521281	0.242638
618.729706	0.243039
618.938113	0.243223
619.146502	0.243223
619.354873	0.243204
619.563226	0.243502
619.771560	0.243478
619.979876	0.243915
620.188174	0.244578
620.396453	0.244742
620.604715	0.244516
620.812958	0.245056
621.021183	0.245017
621.229390	0.245451
621.437578	0.245387
621.645748	0.245500
621.853900	0.245183
622.062034	0.245265
622.270150	0.245203
622.478247	0.245331
622.686326	0.245343
622.894387	0.245575
623.102430	0.245741
623.310454	0.246039
623.518461	0.246085
623.726449	0.246509
623.934418	0.246404
624.142370	0.246554
624.350303	0.247039
624.558218	0.247392
624.766115	0.247523
624.973994	0.247400
625.181855	0.247295
625.389697	0.247716
625.597521	0.247966
625.805327	0.248138
626.013114	0.248307
626.220883	0.248390
626.428634	0.248384
626.636367	0.248134
626.844082	0.248659
627.051778	0.248974
627.259457	0.249139
627.467117	0.249130
627.674758	0.249495
627.882382	0.249412
628.089987	0.249213
628.297574	0.249267
628.505143	0.249635
628.712694	0.249348
628.920226	0.249298
629.127740	0.249208
629.335236	0.249057
629.542714	0.249049
629.750174	0.249407
629.957615	0.249515
630.165038	0.249378
630.372443	0.249747
630.579829	0.250084
630.787198	0.250138
630.994548	0.250445
631.201880	0.251044
631.409194	0.251145
631.616489	0.251276
631.823766	0.251791
632.031025	0.252035
632.238266	0.252270
632.445489	0.252317
632.652693	0.252472
632.859879	0.252605
633.067047	0.252754
633.274197	0.252917
633.481329	0.253028
633.688442	0.253177
633.895537	0.253552
634.102614	0.253739
634.309672	0.253817
634.516713	0.254037
634.723735	0.253929
634.930739	0.254213
635.137724	0.254345
635.344692	0.254434
635.551641	0.254470
635.758572	0.254431
635.965485	0.254518
636.172379	0.254797
636.379256	0.255065
636.586114	0.255342
636.792954	0.255133
636.999775	0.255280
637.206579	0.255617
637.413364	0.255748
637.620131	0.256066
637.826880	0.256343
638.033610	0.256349
638.240323	0.256484
638.447017	0.256813
638.653692	0.257157
638.860350	0.257396
639.066990	0.257665
639.273611	0.257917
639.480214	0.258136
639.686798	0.257840
639.893365	0.258404
640.099913	0.258435
640.306443	0.258563
640.512955	0.258795
640.719449	0.259097
640.925924	0.259113
641.132381	0.259322
641.338820	0.259363
641.545241	0.259582
641.751644	0.259401
641.958028	0.259896
642.164394	0.260073
642.370742	0.260094
642.577071	0.260338
642.783383	0.260569
642.989676	0.260654
643.195951	0.260626
643.402207	0.260899
643.608446	0.261140
643.814666	0.261220
644.020868	0.261164
644.227052	0.261267
644.433218	0.261223
644.639365	0.261329
644.845494	0.261437
645.051605	0.261862
645.257698	0.262016
645.463772	0.261979
645.669828	0.262090
645.875866	0.262332
646.081886	0.262552
646.287888	0.262494
646.493871	0.262601
646.699836	0.263011
646.905783	0.263071
647.111712	0.263339
647.317622	0.263833
647.523514	0.264026
647.729388	0.264193
647.935244	0.264248
648.141082	0.264503
648.346901	0.264720
648.552702	0.264734
648.758485	0.264960
648.964250	0.265041
649.169996	0.265278
649.375724	0.265385
649.581434	0.265636
649.787126	0.265947
649.992800	0.265984
650.198455	0.265960
650.404092	0.266025
650.609711	0.266081
650.815311	0.266239
651.020894	0.266061
651.226458	0.266153
651.432004	0.266117
651.637532	0.265982
651.843041	0.266097
652.048532	0.266136
652.254006	0.266201
652.459460	0.266474
652.664897	0.266575
652.870315	0.266865
653.075716	0.267005
653.281097	0.267057
653.486461	0.267696
653.691807	0.268052
653.897134	0.268331
654.102443	0.268643
654.307734	0.268650
654.513006	0.268672
654.718261	0.268648
654.923497	0.268968
655.128715	0.269294
655.333915	0.269266
655.539096	0.269449
655.744259	0.270053
655.949404	0.270134
656.154531	0.270419
656.359640	0.270787
656.564730	0.271355
656.769802	0.271338
656.974856	0.271483
657.179892	0.271607
657.384909	0.271806
657.589908	0.271762
657.794889	0.271947
657.999852	0.271996
658.204797	0.272048
658.409723	0.272140
658.614631	0.272336
658.819521	0.272568
659.024393	0.272611
659.229246	0.272617
659.434081	0.272711
659.638898	0.273102
659.843697	0.273410
660.048478	0.273869
660.253240	0.274013
660.457984	0.274207
660.662710	0.274422
660.867417	0.274640
661.072107	0.274934
661.276778	0.275252
661.481431	0.275204
661.686066	0.275503
661.890682	0.275566
662.095281	0.275594
662.299861	0.275853
662.504422	0.276212
662.708966	0.276719
662.913491	0.277018
663.117999	0.277263
663.322488	0.277472
663.526958	0.277392
663.731411	0.277808
663.935845	0.278238
664.140261	0.278506
664.344659	0.278654
664.549038	0.278723
664.753400	0.279085
664.957743	0.279532
665.162068	0.279796
665.366375	0.280222
665.570663	0.280393
665.774933	0.280734
665.979185	0.280874
666.183419	0.281018
666.387635	0.281126
666.591832	0.281232
666.796011	0.280900
667.000172	0.281161
667.204315	0.281461
667.408439	0.281646
667.612545	0.281573
667.816634	0.281786
668.020703	0.281863
668.224755	0.281867
668.428788	0.281812
668.632803	0.282495
668.836800	0.282772
669.040779	0.282747
669.244739	0.282883
669.448681	0.283122
669.652605	0.283389
669.856511	0.283667
670.060399	0.283938
670.264268	0.284307
670.468119	0.284262
670.671952	0.284458
670.875767	0.284939
671.079563	0.285282
671.283341	0.285516
671.487101	0.285714
671.690843	0.285828
671.894567	0.286321
672.098272	0.286499
672.301959	0.286544
672.505628	0.286929
672.709278	0.286959
672.912911	0.287285
673.116525	0.287466
673.320121	0.287515
673.523699	0.287979
673.727258	0.288090
673.930799	0.288313
674.134322	0.288568
674.337827	0.288553
674.541314	0.288840
674.744782	0.288913
674.948232	0.289167
675.151664	0.289560
675.355078	0.289657
675.558474	0.289828
675.761851	0.290051
675.965210	0.290544
676.168551	0.290804
676.371873	0.291051
676.575178	0.291078
676.778464	0.291246
676.981732	0.291430
677.184981	0.291710
677.388213	0.291917
677.591426	0.292087
677.794621	0.291973
677.997798	0.292051
678.200956	0.292096
678.404097	0.292427
678.607219	0.292786
678.810323	0.292948
679.013408	0.293033
679.216476	0.293275
679.419525	0.293389
679.622556	0.293802
679.825569	0.293912
680.028563	0.294035
680.231540	0.293871
680.434498	0.294015
680.637438	0.294032
680.840359	0.294176
681.043263	0.294463
681.246148	0.294777
681.449015	0.294777
681.651864	0.295133
681.854694	0.295244
682.057506	0.295556
682.260301	0.295693
682.463076	0.296059
682.665834	0.296324
682.868573	0.296357
683.071295	0.296367
683.273998	0.296829
683.476682	0.296951
683.679349	0.297193
683.881997	0.297566
684.084627	0.297769
684.287239	0.297888
684.489833	0.298066
684.692408	0.298215
684.894965	0.298567
685.097504	0.298514
685.300025	0.298845
685.502527	0.299053
685.705012	0.299125
685.907478	0.299165
686.109925	0.299401
686.312355	0.299636
686.514766	0.300048
686.717159	0.300293
686.919534	0.300508
687.121891	0.300557
687.324230	0.300905
687.526550	0.301060
687.728852	0.301169
687.931136	0.301360
688.133401	0.301290
688.335649	0.301388
688.537878	0.301256
688.740089	0.301516
688.942281	0.301625
689.144456	0.301662
689.346612	0.302051
689.548750	0.302413
689.750870	0.302614
689.952971	0.303106
690.155055	0.303245
690.357120	0.303750
690.559167	0.303673
690.761195	0.303884
690.963206	0.303962
691.165198	0.303711
691.367172	0.303905
691.569128	0.303929
691.771065	0.303992
691.972984	0.304004
692.174885	0.303956
692.376768	0.304576
692.578633	0.304408
692.780479	0.304927
692.982308	0.305284
693.184118	0.305376
693.385909	0.305619
