sample name	sample
index	420
start time	 03-08-2021  11:33:40 AM


Wavelength (nm)	Absorbance
494.344910	NaN
494.563924	NaN
494.782919	NaN
495.001897	0.140378
495.220856	0.276275
495.439797	0.141299
495.658719	0.089243
495.877624	0.032074
496.096510	0.008790
496.315378	-0.043086
496.534227	-0.065173
496.753059	0.002644
496.971872	-0.030099
497.190667	0.130154
497.409444	0.139517
497.628203	0.138478
497.846943	0.138297
498.065665	0.139990
498.284369	0.142982
498.503055	0.143808
498.721723	0.142562
498.940372	0.144625
499.159003	0.143648
499.377616	0.144689
499.596210	0.146214
499.814787	0.147612
500.033345	0.147495
500.251885	0.147226
500.470406	0.146305
500.688910	0.146899
500.907395	0.145332
501.125862	0.145679
501.344311	0.145550
501.562742	0.145411
501.781154	0.145121
501.999548	0.145768
502.217924	0.146250
502.436282	0.147498
502.654621	0.147944
502.872942	0.148101
503.091245	0.148615
503.309530	0.148173
503.527797	0.147770
503.746045	0.147399
503.964275	0.147070
504.182487	0.146982
504.400681	0.147443
504.618856	0.147961
504.837013	0.147518
505.055152	0.147014
505.273273	0.148145
505.491376	0.148787
505.709460	0.148756
505.927526	0.148934
506.145574	0.149074
506.363604	0.148599
506.581615	0.148223
506.799608	0.149022
507.017583	0.148626
507.235540	0.148237
507.453478	0.148460
507.671399	0.148659
507.889301	0.149251
508.107185	0.148911
508.325050	0.149683
508.542898	0.150347
508.760727	0.151085
508.978538	0.151530
509.196330	0.152006
509.414105	0.151783
509.631861	0.152788
509.849599	0.152418
510.067319	0.153123
510.285021	0.152365
510.502704	0.152148
510.720369	0.152791
510.938016	0.153451
511.155645	0.152922
511.373255	0.153424
511.590848	0.153335
511.808422	0.153794
512.025977	0.154019
512.243515	0.154491
512.461034	0.154075
512.678536	0.152982
512.896018	0.152966
513.113483	0.153988
513.330930	0.153571
513.548358	0.153215
513.765768	0.153236
513.983160	0.153313
514.200533	0.153614
514.417889	0.154400
514.635226	0.155248
514.852545	0.155276
515.069845	0.155046
515.287128	0.155625
515.504392	0.156260
515.721638	0.155808
515.938866	0.155868
516.156075	0.155378
516.373267	0.156120
516.590440	0.156704
516.807594	0.156853
517.024731	0.156632
517.241850	0.156844
517.458950	0.157562
517.676032	0.159004
517.893095	0.159950
518.110141	0.161173
518.327168	0.161163
518.544177	0.160539
518.761168	0.160624
518.978141	0.160957
519.195095	0.161224
519.412031	0.161283
519.628949	0.161125
519.845849	0.160737
520.062731	0.160433
520.279594	0.161311
520.496439	0.161957
520.713266	0.162826
520.930074	0.163084
521.146865	0.162648
521.363637	0.162558
521.580391	0.163168
521.797127	0.162909
522.013844	0.163203
522.230543	0.162932
522.447224	0.162594
522.663887	0.162277
522.880532	0.162639
523.097158	0.163792
523.313766	0.164041
523.530356	0.163884
523.746928	0.165045
523.963481	0.165145
524.180017	0.165890
524.396534	0.166461
524.613032	0.167202
524.829513	0.167636
525.045975	0.167512
525.262420	0.168491
525.478845	0.168705
525.695253	0.168614
525.911643	0.169475
526.128014	0.168869
526.344367	0.169472
526.560702	0.169935
526.777018	0.170010
526.993316	0.170551
527.209597	0.170143
527.425858	0.170696
527.642102	0.171049
527.858328	0.171103
528.074535	0.171725
528.290724	0.172324
528.506894	0.171878
528.723047	0.172967
528.939181	0.173037
529.155297	0.173522
529.371395	0.173881
529.587475	0.174080
529.803536	0.174745
530.019579	0.174930
530.235604	0.174754
530.451611	0.175440
530.667600	0.175031
530.883570	0.176289
531.099522	0.176794
531.315456	0.177107
531.531372	0.177620
531.747269	0.178096
531.963148	0.178662
532.179009	0.179116
532.394852	0.179726
532.610676	0.180884
532.826482	0.181117
533.042271	0.180897
533.258040	0.181061
533.473792	0.181532
533.689525	0.181871
533.905240	0.182489
534.120937	0.182872
534.336616	0.182994
534.552277	0.182666
534.767919	0.182502
534.983543	0.183405
535.199149	0.183817
535.414736	0.184051
535.630306	0.183820
535.845857	0.183591
536.061390	0.184274
536.276904	0.184832
536.492401	0.185138
536.707879	0.185611
536.923339	0.185983
537.138781	0.186295
537.354204	0.186400
537.569610	0.187198
537.784997	0.187612
538.000366	0.187771
538.215716	0.188216
538.431049	0.188727
538.646363	0.189333
538.861659	0.189843
539.076937	0.189912
539.292196	0.190561
539.507438	0.190245
539.722661	0.190429
539.937866	0.190327
540.153052	0.189866
540.368221	0.190283
540.583371	0.190221
540.798503	0.189912
541.013617	0.190614
541.228712	0.189878
541.443789	0.190325
541.658848	0.191029
541.873889	0.191620
542.088912	0.192133
542.303916	0.192359
542.518902	0.192676
542.733870	0.192963
542.948820	0.193505
543.163752	0.194231
543.378665	0.195008
543.593560	0.195196
543.808437	0.195514
544.023295	0.196108
544.238136	0.196699
544.452958	0.196859
544.667762	0.197314
544.882548	0.197357
545.097315	0.197700
545.312064	0.197530
545.526795	0.197508
545.741508	0.198015
545.956203	0.198304
546.170879	0.198370
546.385537	0.198609
546.600177	0.199050
546.814799	0.198998
547.029402	0.199815
547.243988	0.200295
547.458555	0.200345
547.673103	0.200178
547.887634	0.200655
548.102146	0.200942
548.316640	0.201051
548.531116	0.201560
548.745574	0.202175
548.960013	0.202116
549.174435	0.202158
549.388838	0.202989
549.603222	0.203347
549.817589	0.203569
550.031937	0.203685
550.246267	0.204368
550.460579	0.204417
550.674873	0.204719
550.889148	0.205427
551.103405	0.206170
551.317644	0.206229
551.531865	0.206538
551.746068	0.206878
551.960252	0.206918
552.174418	0.206774
552.388566	0.206776
552.602696	0.206766
552.816807	0.206688
553.030900	0.206727
553.244975	0.207054
553.459032	0.206819
553.673070	0.206659
553.887091	0.206791
554.101093	0.207087
554.315077	0.207490
554.529042	0.208001
554.742990	0.207894
554.956919	0.207731
555.170830	0.207872
555.384722	0.208873
555.598597	0.209243
555.812453	0.209906
556.026291	0.210719
556.240111	0.211157
556.453913	0.211328
556.667696	0.211917
556.881461	0.212578
557.095208	0.212871
557.308937	0.213038
557.522647	0.213084
557.736339	0.212923
557.950013	0.212743
558.163669	0.213124
558.377307	0.213232
558.590926	0.213596
558.804527	0.213705
559.018110	0.213983
559.231675	0.214022
559.445221	0.214327
559.658749	0.214699
559.872259	0.214717
560.085751	0.214602
560.299225	0.214771
560.512680	0.214676
560.726117	0.215035
560.939536	0.215020
561.152937	0.215441
561.366319	0.215828
561.579683	0.215959
561.793029	0.216299
562.006357	0.216416
562.219667	0.216670
562.432958	0.216813
562.646231	0.216611
562.859486	0.216879
563.072723	0.216840
563.285941	0.217214
563.499141	0.217869
563.712323	0.218382
563.925487	0.218938
564.138632	0.219254
564.351760	0.219614
564.564869	0.220166
564.777960	0.220075
564.991032	0.220381
565.204087	0.220549
565.417123	0.220451
565.630141	0.220740
565.843140	0.220652
566.056122	0.221219
566.269085	0.221649
566.482030	0.221744
566.694957	0.222213
566.907866	0.222728
567.120756	0.222730
567.333628	0.223051
567.546482	0.222900
567.759318	0.223193
567.972135	0.223106
568.184935	0.223312
568.397716	0.223755
568.610478	0.223997
568.823223	0.223633
569.035949	0.223921
569.248657	0.223833
569.461347	0.224286
569.674019	0.224336
569.886672	0.224278
570.099308	0.224492
570.311925	0.224161
570.524523	0.225184
570.737104	0.225450
570.949666	0.225247
571.162210	0.225517
571.374736	0.225580
571.587244	0.225884
571.799733	0.226101
572.012205	0.226321
572.224658	0.226811
572.437092	0.226441
572.649509	0.226618
572.861907	0.227029
573.074287	0.227350
573.286649	0.227459
573.498993	0.227962
573.711318	0.228125
573.923625	0.228156
574.135914	0.228758
574.348185	0.229010
574.560438	0.229464
574.772672	0.229919
574.984888	0.230191
575.197086	0.230738
575.409266	0.230730
575.621427	0.230844
575.833570	0.231007
576.045695	0.230763
576.257802	0.230768
576.469890	0.230980
576.681961	0.230938
576.894013	0.230920
577.106046	0.230776
577.318062	0.230782
577.530059	0.230895
577.742039	0.230980
577.954000	0.231348
578.165942	0.231401
578.377867	0.231561
578.589773	0.231947
578.801661	0.232303
579.013531	0.232655
579.225382	0.232973
579.437216	0.233827
579.649031	0.233812
579.860828	0.234118
580.072606	0.234462
580.284367	0.234856
580.496109	0.235183
580.707833	0.235534
580.919539	0.235616
581.131227	0.236371
581.342896	0.236439
581.554547	0.237169
581.766180	0.237368
581.977795	0.237241
582.189391	0.237477
582.400969	0.237891
582.612529	0.238257
582.824071	0.238546
583.035595	0.238608
583.247100	0.238621
583.458587	0.238482
583.670056	0.238706
583.881506	0.239662
584.092939	0.239881
584.304353	0.239905
584.515749	0.239926
584.727127	0.240156
584.938486	0.240419
585.149828	0.240735
585.361151	0.241220
585.572456	0.241383
585.783742	0.241084
585.995011	0.240821
586.206261	0.241357
586.417493	0.241706
586.628706	0.242067
586.839902	0.241792
587.051079	0.241807
587.262238	0.242055
587.473379	0.241951
587.684502	0.242365
587.895606	0.242863
588.106692	0.242457
588.317760	0.242442
588.528810	0.242555
588.739841	0.242712
588.950855	0.243164
589.161850	0.243659
589.372827	0.243893
589.583785	0.243925
589.794726	0.244325
590.005648	0.245074
590.216552	0.244847
590.427437	0.244959
590.638305	0.245153
590.849154	0.245461
591.059985	0.245446
591.270798	0.245668
591.481592	0.246327
591.692369	0.246534
591.903127	0.246388
592.113867	0.247215
592.324588	0.247935
592.535292	0.248144
592.745977	0.248293
592.956644	0.248520
593.167293	0.248924
593.377923	0.249042
593.588536	0.249068
593.799130	0.249311
594.009706	0.249353
594.220263	0.249206
594.430803	0.249807
594.641324	0.250303
594.851827	0.250537
595.062312	0.250653
595.272778	0.250704
595.483227	0.250823
595.693657	0.250717
595.904069	0.251042
596.114462	0.251125
596.324838	0.251510
596.535195	0.251615
596.745534	0.251607
596.955855	0.251789
597.166157	0.252227
597.376441	0.252174
597.586707	0.252647
597.796955	0.252850
598.007185	0.253007
598.217396	0.252712
598.427589	0.252632
598.637764	0.253022
598.847921	0.253347
599.058060	0.253346
599.268180	0.253799
599.478282	0.253969
599.688366	0.254328
599.898431	0.254852
600.108479	0.255342
600.318508	0.255754
600.528519	0.256013
600.738511	0.256154
600.948486	0.256595
601.158442	0.257020
601.368380	0.257342
601.578300	0.257356
601.788202	0.256912
601.998085	0.256892
602.207950	0.256940
602.417797	0.256830
602.627626	0.257218
602.837436	0.257272
603.047228	0.257191
603.257002	0.257582
603.466758	0.257800
603.676496	0.258441
603.886215	0.258997
604.095916	0.259140
604.305599	0.259741
604.515264	0.260114
604.724910	0.260016
604.934538	0.260398
605.144148	0.260310
605.353740	0.260514
605.563314	0.260525
605.772869	0.260414
605.982406	0.260402
606.191925	0.260258
606.401425	0.260016
606.610908	0.260530
606.820372	0.260532
607.029818	0.260384
607.239246	0.260409
607.448655	0.260866
607.658047	0.260899
607.867420	0.261316
608.076775	0.261849
608.286111	0.261959
608.495430	0.262328
608.704730	0.262817
608.914012	0.263431
609.123275	0.263887
609.332521	0.263834
609.541748	0.264278
609.750957	0.264267
609.960148	0.264299
610.169321	0.264843
610.378475	0.264787
610.587611	0.264685
610.796729	0.264814
611.005829	0.264594
611.214910	0.264654
611.423974	0.264783
611.633019	0.265199
611.842045	0.265064
612.051054	0.265116
612.260044	0.265060
612.469017	0.265171
612.677970	0.265403
612.886906	0.265763
613.095824	0.266409
613.304723	0.266466
613.513604	0.266499
613.722467	0.266604
613.931311	0.266742
614.140138	0.266816
614.348946	0.266888
614.557736	0.266913
614.766507	0.267098
614.975261	0.266924
615.183996	0.267315
615.392713	0.267541
615.601412	0.268045
615.810092	0.268319
616.018754	0.268820
616.227399	0.269441
616.436024	0.269969
616.644632	0.270204
616.853222	0.270451
617.061793	0.270495
617.270346	0.270536
617.478880	0.270720
617.687397	0.270894
617.895895	0.271026
618.104375	0.271067
618.312837	0.270691
618.521281	0.271014
618.729706	0.271438
618.938113	0.271562
619.146502	0.271895
619.354873	0.272074
619.563226	0.272169
619.771560	0.272382
619.979876	0.272632
620.188174	0.273223
620.396453	0.273187
620.604715	0.272865
620.812958	0.273222
621.021183	0.273135
621.229390	0.273208
621.437578	0.273357
621.645748	0.273507
621.853900	0.273416
622.062034	0.273415
622.270150	0.273470
622.478247	0.273999
622.686326	0.273750
622.894387	0.274251
623.102430	0.274380
623.310454	0.274763
623.518461	0.275038
623.726449	0.275540
623.934418	0.275670
624.142370	0.275849
624.350303	0.275874
624.558218	0.276180
624.766115	0.276459
624.973994	0.276855
625.181855	0.276819
625.389697	0.276525
625.597521	0.276109
625.805327	0.276102
626.013114	0.276277
626.220883	0.276536
626.428634	0.276737
626.636367	0.276782
626.844082	0.276651
627.051778	0.276785
627.259457	0.277330
627.467117	0.277813
627.674758	0.278153
627.882382	0.278379
628.089987	0.278709
628.297574	0.279187
628.505143	0.279206
628.712694	0.279573
628.920226	0.279702
629.127740	0.279945
629.335236	0.280076
629.542714	0.280568
629.750174	0.280886
629.957615	0.280837
630.165038	0.280667
630.372443	0.281135
630.579829	0.281295
630.787198	0.281659
630.994548	0.281700
631.201880	0.282129
631.409194	0.282177
631.616489	0.282300
631.823766	0.282476
632.031025	0.282676
632.238266	0.282827
632.445489	0.283070
632.652693	0.282986
632.859879	0.283167
633.067047	0.283030
633.274197	0.283075
633.481329	0.283229
633.688442	0.283558
633.895537	0.283648
634.102614	0.283704
634.309672	0.283596
634.516713	0.284131
634.723735	0.284636
634.930739	0.284950
635.137724	0.285317
635.344692	0.285430
635.551641	0.285436
635.758572	0.285690
635.965485	0.285861
636.172379	0.286068
636.379256	0.285952
636.586114	0.285822
636.792954	0.286085
636.999775	0.286226
637.206579	0.286421
637.413364	0.286791
637.620131	0.287372
637.826880	0.287461
638.033610	0.287849
638.240323	0.288357
638.447017	0.288498
638.653692	0.288704
638.860350	0.288888
639.066990	0.289191
639.273611	0.289277
639.480214	0.289105
639.686798	0.289288
639.893365	0.289531
640.099913	0.289397
640.306443	0.289832
640.512955	0.290135
640.719449	0.290338
640.925924	0.290404
641.132381	0.290450
641.338820	0.290761
641.545241	0.291051
641.751644	0.291390
641.958028	0.291845
642.164394	0.291957
642.370742	0.292218
642.577071	0.292277
642.783383	0.292827
642.989676	0.292991
643.195951	0.293277
643.402207	0.293655
643.608446	0.293664
643.814666	0.293450
644.020868	0.293453
644.227052	0.293538
644.433218	0.293807
644.639365	0.293643
644.845494	0.293914
645.051605	0.293967
645.257698	0.293930
645.463772	0.294063
645.669828	0.294559
645.875866	0.294859
646.081886	0.295037
646.287888	0.295094
646.493871	0.295611
646.699836	0.295930
646.905783	0.296192
647.111712	0.296565
647.317622	0.296840
647.523514	0.297109
647.729388	0.297279
647.935244	0.297253
648.141082	0.297509
648.346901	0.297502
648.552702	0.297573
648.758485	0.298019
648.964250	0.297904
649.169996	0.297969
649.375724	0.297953
649.581434	0.298206
649.787126	0.298563
649.992800	0.298747
650.198455	0.299154
650.404092	0.299346
650.609711	0.299367
650.815311	0.299648
651.020894	0.299856
651.226458	0.300075
651.432004	0.300166
651.637532	0.300476
651.843041	0.300894
652.048532	0.300894
652.254006	0.301265
652.459460	0.301481
652.664897	0.301854
652.870315	0.302188
653.075716	0.302253
653.281097	0.302579
653.486461	0.302697
653.691807	0.302670
653.897134	0.302655
654.102443	0.302964
654.307734	0.302913
654.513006	0.303016
654.718261	0.303138
654.923497	0.303667
655.128715	0.303913
655.333915	0.303949
655.539096	0.304345
655.744259	0.304846
655.949404	0.304687
656.154531	0.305135
656.359640	0.305445
656.564730	0.305733
656.769802	0.305922
656.974856	0.305868
657.179892	0.306226
657.384909	0.306241
657.589908	0.306347
657.794889	0.306638
657.999852	0.306800
658.204797	0.306930
658.409723	0.307353
658.614631	0.307655
658.819521	0.307925
659.024393	0.308293
659.229246	0.308631
659.434081	0.308982
659.638898	0.309457
659.843697	0.309588
660.048478	0.309669
660.253240	0.309561
660.457984	0.309798
660.662710	0.310103
660.867417	0.310315
661.072107	0.310538
661.276778	0.310697
661.481431	0.310833
661.686066	0.311069
661.890682	0.311466
662.095281	0.311795
662.299861	0.312040
662.504422	0.312362
662.708966	0.312352
662.913491	0.312544
663.117999	0.312837
663.322488	0.313043
663.526958	0.313489
663.731411	0.313788
663.935845	0.313867
664.140261	0.313875
664.344659	0.314050
664.549038	0.314257
664.753400	0.314531
664.957743	0.314813
665.162068	0.314948
665.366375	0.314958
665.570663	0.314923
665.774933	0.315425
665.979185	0.315726
666.183419	0.316126
666.387635	0.316778
666.591832	0.317182
666.796011	0.317439
667.000172	0.317978
667.204315	0.318454
667.408439	0.319106
667.612545	0.319469
667.816634	0.319913
668.020703	0.320020
668.224755	0.320018
668.428788	0.320281
668.632803	0.320349
668.836800	0.320461
669.040779	0.320622
669.244739	0.320523
669.448681	0.320565
669.652605	0.320625
669.856511	0.320883
670.060399	0.321079
670.264268	0.321322
670.468119	0.321596
670.671952	0.321805
670.875767	0.321926
671.079563	0.322480
671.283341	0.322788
671.487101	0.322956
671.690843	0.323223
671.894567	0.323360
672.098272	0.323391
672.301959	0.323582
672.505628	0.323808
672.709278	0.324103
672.912911	0.324004
673.116525	0.324038
673.320121	0.324273
673.523699	0.324390
673.727258	0.324493
673.930799	0.324697
674.134322	0.325073
674.337827	0.325491
674.541314	0.325697
674.744782	0.326209
674.948232	0.326506
675.151664	0.326554
675.355078	0.326858
675.558474	0.327235
675.761851	0.327758
675.965210	0.327917
676.168551	0.327797
676.371873	0.328059
676.575178	0.328308
676.778464	0.328568
676.981732	0.328962
677.184981	0.329124
677.388213	0.329547
677.591426	0.329333
677.794621	0.329606
677.997798	0.329907
678.200956	0.330251
678.404097	0.330438
678.607219	0.330817
678.810323	0.331071
679.013408	0.331312
679.216476	0.331301
679.419525	0.331507
679.622556	0.331708
679.825569	0.332175
680.028563	0.332338
680.231540	0.332184
680.434498	0.332203
680.637438	0.332694
680.840359	0.332900
681.043263	0.333515
681.246148	0.334084
681.449015	0.334499
681.651864	0.334542
681.854694	0.334862
682.057506	0.335368
682.260301	0.335659
682.463076	0.335957
682.665834	0.336059
682.868573	0.336205
683.071295	0.336277
683.273998	0.336378
683.476682	0.336532
683.679349	0.336542
683.881997	0.336825
684.084627	0.336962
684.287239	0.336987
684.489833	0.337563
684.692408	0.337577
684.894965	0.337647
685.097504	0.337943
685.300025	0.338502
685.502527	0.338893
685.705012	0.338945
685.907478	0.339195
686.109925	0.339374
686.312355	0.339364
686.514766	0.339570
686.717159	0.340063
686.919534	0.340221
687.121891	0.340209
687.324230	0.340357
687.526550	0.340663
687.728852	0.341027
687.931136	0.341344
688.133401	0.341478
688.335649	0.341721
688.537878	0.341804
688.740089	0.341873
688.942281	0.342186
689.144456	0.342298
689.346612	0.342557
689.548750	0.342614
689.750870	0.342926
689.952971	0.343049
690.155055	0.343448
690.357120	0.343646
690.559167	0.343928
690.761195	0.344115
690.963206	0.344250
691.165198	0.344309
691.367172	0.344349
691.569128	0.344023
691.771065	0.344409
691.972984	0.344374
692.174885	0.344530
692.376768	0.344668
692.578633	0.344676
692.780479	0.344966
692.982308	0.345333
693.184118	0.345723
693.385909	0.346054
693.587683	0.346133
