sample name	sample
index	865
start time	 04-08-2021  12:41:48 PM
880	0.474552
Peak Time (s)	102.535
Peak Height 	0.4746
calc peak height	100,103
Baseline Time (s)	10.037
Baseline Value 	-0.003686
subtract baseline	10,4
Abs	0.361043
Peak Time (s)	101.535
Peak Height 	0.361
calc peak height	100,103
Baseline Time (s)	11.539
Baseline Value 	0.002403
subtract baseline	10,3
PK_550	0.185299
Peak Time (s)	102.535
Peak Height 	0.1853
calc peak height	100,103
Baseline Time (s)	10.037
Baseline Value 	3.7271E-4
subtract baseline	10,2
PK_880	0.332464
Peak Time (s)	102.535
Peak Height 	0.3325
calc peak height	100,103
Baseline Time (s)	10.535
Baseline Value 	0.001813
subtract baseline	10,1


Time (s)	A880-A510	A880-A775	A880-A975	A880	I510	I775	I975	I880	
0.037000	-0.004544	-0.001022	-0.006407	0.007799	6788.051576	41937.178906	3876.495228	22490.839689
0.537500	-0.001387	0.000761	-0.002099	0.005669	6838.141964	42292.102513	3894.520506	22588.212845
1.035000	-0.002546	-0.000488	-0.002204	0.004288	6840.258276	42304.114245	3898.124846	22651.600669
1.535500	-0.001055	0.000111	0.000293	0.001741	6878.964413	42591.918045	3912.481474	22769.075178
2.036000	-0.001249	-0.001269	-0.001642	0.002391	6870.835142	42405.986290	3905.102103	22739.011305
2.538500	-0.000949	-0.000576	0.000006	0.001114	6886.011886	42586.340704	3913.451728	22798.055486
3.036000	-0.000670	-0.000520	0.000044	-0.001222	6911.312275	42806.594270	3920.270619	22906.546506
3.536500	-0.000078	0.000190	0.000400	0.000933	6896.176440	42673.428342	3915.101651	22806.468528
4.039500	-0.000175	-0.000439	0.001102	0.001146	6893.181942	42596.049576	3916.504900	22796.600547
4.536500	-0.001165	-0.000697	-0.005032	0.000351	6891.300073	42645.455027	3901.268838	22833.464595
5.037000	-0.000891	0.000517	-0.003850	0.000917	6888.479888	42705.031877	3903.016277	22807.193317
5.535000	0.000090	-0.000428	-0.005251	0.000080	6906.054326	42695.100586	3901.415568	22846.026750
6.035000	0.000937	0.000359	-0.001901	0.000372	6911.431300	42740.578397	3910.119228	22832.450096
6.535500	-0.000251	-0.000072	-0.001833	0.000047	6903.075490	42730.860535	3911.243064	22847.556048
7.038500	-0.001855	-0.000248	-0.000992	-0.000418	6892.061259	42757.574112	3914.984442	22869.173457
7.535500	-0.001015	0.000185	-0.000934	0.000135	6894.825712	42746.416207	3913.564358	22843.450761
8.036500	-0.000824	-0.000813	-0.000663	-0.000275	6900.643162	42692.270982	3915.515246	22862.494477
8.537000	0.000542	-0.000358	-0.004072	-0.000190	6913.058863	42726.386010	3905.533515	22858.577258
9.037000	-0.001985	0.000185	-0.001383	-0.000129	6888.018709	42770.835951	3913.036549	22855.734998
9.544000	0.000058	-0.000604	0.000398	-0.000467	6911.052139	42729.302590	3919.117709	22871.444125
10.037500	-0.000282	0.000000	0.000314	0.000000	6903.223321	42741.851337	3917.531512	22849.733614
10.535000	0.000000	0.000193	0.000562	0.000915	6897.100180	42675.304747	3915.617135	22807.281394
11.035500	0.000748	-0.000192	-0.004734	0.000076	6912.476338	42717.203956	3902.894179	22846.216377
11.538500	-0.003879	0.000025	0.000000	0.004151	6828.877089	42363.469444	3904.768363	22657.934748
12.035500	0.000034	0.000321	0.002437	0.000261	6903.758809	42747.366110	3922.893498	22837.607300
12.536500	0.001427	0.000754	-0.000730	0.000608	6913.893372	42755.313531	3912.792596	22821.505621
13.036500	-0.001062	0.000184	-0.001533	-0.000116	6896.807534	42769.522581	3912.569833	22855.143104
13.536500	-0.004503	0.000113	-0.001607	0.005442	6810.705302	42253.735068	3896.553211	22598.629589
14.037000	-0.003912	-0.000826	-0.003303	0.001900	6850.031120	42491.454751	3901.780792	22761.720704
14.537500	-0.001633	-0.000333	-0.004937	0.001981	6871.092609	42529.195806	3896.922275	22757.956742
15.035000	-0.000052	0.000392	0.000487	0.000332	6902.235448	42747.380741	3917.073953	22834.316901
15.535500	-0.002465	-0.000460	-0.003649	0.004613	6837.936721	42277.105609	3893.128601	22636.673551
16.035500	-0.000666	0.000712	0.000164	0.000317	6896.445864	42778.266625	3916.189716	22835.008183
16.536000	0.000078	0.000096	-0.004089	0.000384	6902.997227	42715.379278	3903.851747	22831.920976
17.038500	0.002190	0.000193	0.001700	-0.003071	6957.239802	43043.731692	3930.406603	22992.826979
17.535500	-0.000505	-0.000029	0.000452	0.002599	6875.993779	42500.459155	3910.482646	22729.438748
18.036500	-0.001477	-0.000323	-0.000832	0.000819	6883.773387	42636.769228	3911.899270	22811.757184
18.537000	-0.002467	-0.000240	-0.005249	0.001385	6868.803021	42592.390150	3897.724161	22785.532473
19.037000	-0.002457	-0.000522	-0.003221	0.001151	6871.143648	42587.939447	3904.137254	22796.359389
19.537500	-0.002185	-0.000073	0.000075	0.003193	6854.182319	42442.053401	3907.709955	22702.041042
20.035000	-0.002775	-0.000689	-0.001768	0.000929	6870.227566	42593.098773	3908.911476	22806.665946
20.535500	-0.002506	-0.000008	-0.001854	0.001669	6865.705210	42587.582809	3906.555617	22772.393554
21.036500	-0.002072	0.000012	-0.002986	0.001878	6867.857096	42570.252851	3902.740460	22762.710900
21.536000	-0.003536	0.000123	0.002492	0.003117	6842.000023	42466.905221	3914.838452	22705.547869
22.036000	-0.003070	-0.000505	-0.006464	0.001263	6864.188025	42579.284813	3894.636734	22791.178272
22.536500	-0.001207	-0.000256	-0.000402	0.001542	6879.405976	42576.447390	3911.060495	22778.242369
23.037000	-0.002105	0.000025	-0.000458	0.001801	6868.283837	42578.444755	3910.158975	22766.266462
23.537000	-0.000876	-0.000049	-0.003909	0.002319	6875.122066	42524.271771	3898.874144	22742.362828
24.037500	-0.003751	-0.000176	0.000041	0.001310	6857.203004	42605.143079	3912.991553	22788.989968
24.537500	-0.002777	-0.000119	-0.006018	0.001602	6863.749377	42583.598955	3894.941848	22775.501963
25.035000	0.000236	-0.000020	-0.001684	0.001812	6890.712359	42573.360924	3906.630221	22765.764594
25.538000	-0.001179	-0.000684	-0.001730	0.001366	6881.365911	42553.349769	3907.771563	22786.385650
26.035500	-0.001321	-0.000253	-0.001168	0.001357	6880.090975	42593.799120	3909.400812	22786.822507
26.536000	-0.003408	-0.000287	0.001932	0.001140	6862.124777	42610.573642	3918.906135	22796.871363
27.036500	-0.000709	-0.000028	-0.000797	-0.000191	6900.947271	42756.849211	3914.892848	22858.606709
27.536000	-0.004803	-0.000238	-0.001473	0.005866	6803.856352	42183.330949	3895.733216	22579.218586
28.037000	-0.000823	-0.000809	-0.000060	-0.000336	6901.244957	42698.311162	3917.424063	22865.362905
28.536500	-0.001649	-0.000674	-0.002200	-0.000587	6895.682948	42733.902306	3912.007837	22877.026730
29.034500	-0.001902	-0.000113	-0.002268	0.000090	6886.697577	42723.092724	3909.877375	22845.540286
29.535000	-0.003157	-0.000344	-0.002784	0.005080	6826.906630	42245.124984	3894.251679	22615.234573
30.038000	-0.000037	0.000395	-0.000442	0.000233	6903.342642	42756.709354	3914.692927	22838.901702
30.535500	-0.001735	0.000038	-0.003153	0.002734	6862.876725	42494.128549	3899.838012	22723.172231
31.035500	-0.001605	-0.000661	-0.004436	0.002747	6864.005115	42428.940666	3896.170945	22722.568453
31.536500	-0.001908	-0.000386	-0.002112	0.005379	6835.947833	42214.070733	3895.304060	22601.516485
32.036500	-0.000913	-0.000324	-0.001043	-0.000375	6900.750378	42746.577982	3914.713739	22867.153517
32.536500	-0.001270	-0.000209	0.001100	-0.000271	6896.288498	42747.570842	3920.572428	22862.313183
33.037000	-0.002208	-0.000760	0.001497	-0.000604	6890.448667	42727.562178	3922.680047	22877.818966
33.537500	-0.002828	-0.000382	-0.000957	0.004018	6840.155457	42338.473500	3902.427307	22664.052064
34.035000	-0.002702	-0.001360	-0.002020	0.001107	6869.207331	42515.070362	3907.681328	22798.377740
34.535500	-0.003301	-0.000733	-0.000112	0.001661	6858.153869	42521.867359	3911.548247	22772.762161
35.035500	-0.003070	0.000183	-0.000641	0.002094	6856.219133	42566.143770	3908.799983	22752.732823
35.535500	-0.003760	-0.000567	-0.003254	0.003049	6840.501119	42409.993563	3898.659557	22708.651381
36.036000	-0.002145	0.000760	0.002223	0.002813	6858.199177	42553.160803	3914.938757	22719.560388
36.536500	-0.003127	-0.000429	-0.003108	0.001557	6860.822173	42559.315534	3903.306879	22777.591513
37.036500	-0.001925	-0.000589	0.000933	0.002003	6868.071974	42503.688609	3913.559177	22756.924317
37.536000	-0.001416	0.000529	-0.003062	0.002344	6869.688124	42574.914438	3901.202204	22741.179637
38.037000	-0.000575	0.000337	-0.002301	0.002361	6877.614525	42555.784632	3903.317173	22740.426445
38.540000	-0.001506	0.000033	0.000164	0.001881	6873.270830	42571.917987	3911.711588	22762.599421
39.035000	-0.001491	0.000035	0.004015	0.002019	6872.086608	42559.420821	3922.375604	22756.195374
39.535500	-0.004365	-0.000629	-0.002355	0.003147	6833.806718	42395.480905	3900.930966	22704.165663
40.035000	-0.001661	-0.000497	0.002352	0.001887	6871.725185	42522.785091	3917.968329	22762.325445
40.536000	-0.002741	-0.000278	-0.001055	0.002027	6860.014888	42529.997191	3907.812428	22755.843974
41.035000	-0.002527	0.000256	-0.001405	0.002537	6857.177707	42532.156917	3905.361239	22732.267650
41.536500	-0.001985	0.000543	0.006024	0.004653	6842.132043	42364.906466	3920.573702	22634.841910
42.037000	0.000103	-0.000002	-0.004019	0.002696	6880.913675	42494.004421	3897.496199	22724.941152
42.537000	-0.003802	0.000540	-0.002512	0.002336	6846.903268	42576.643168	3902.784338	22741.549992
43.037000	-0.001158	0.000299	0.002257	0.002414	6871.491335	42547.387831	3916.179422	22737.943229
43.535000	-0.002880	0.000115	-0.001696	0.004474	6835.304585	42342.127121	3899.035592	22643.050493
44.037500	-0.000222	-0.000909	0.001269	-0.000556	6909.194628	42709.273601	3921.880709	22875.545709
44.536000	0.000580	0.000092	0.000423	0.000042	6911.173536	42746.442740	3917.724599	22847.783367
45.035500	-0.001650	-0.000114	-0.000405	0.000136	6888.687947	42718.875995	3915.077827	22843.425647
45.535500	-0.002728	0.000066	-0.000232	0.004397	6837.493033	42344.716599	3903.407631	22646.603795
46.036000	-0.001177	-0.000449	0.003606	-0.000118	6895.710321	42711.369953	3927.370266	22855.215539
46.536500	-0.000747	0.000729	-0.002120	0.000707	6891.893864	42743.883237	3908.538212	22816.939050
47.037000	-0.000491	0.000479	-0.000603	0.000766	6893.796534	42715.404913	3912.705287	22814.175846
47.537000	-0.004134	-0.000438	-0.002343	0.004456	6823.551599	42293.366792	3897.257737	22643.889471
48.034500	-0.000522	0.000556	-0.003052	0.001672	6884.755034	42639.205574	3903.138666	22772.258941
48.537500	-0.000985	0.000533	0.000004	0.000614	6890.491059	42734.371828	3914.879404	22821.237090
49.035000	0.001196	0.000348	0.000974	0.000909	6908.746494	42690.211543	3916.817382	22807.587556
49.535500	-0.002187	0.000548	-0.000672	0.005393	6833.155465	42297.835184	3899.335525	22600.881362
50.036000	0.001602	0.000229	0.002878	0.000217	6919.403156	42742.953988	3924.295697	22839.670621
50.536000	-0.000053	0.000400	0.002046	0.005855	6849.107429	42242.251965	3905.740579	22579.688629
51.035500	-0.038151	-0.013441	0.027595	0.146914	5446.046624	30386.029590	3617.033730	17062.310672
51.536500	-0.034960	-0.016044	0.028795	0.171849	5311.860532	28686.324441	3566.641642	16260.094858
52.037000	-0.022540	-0.008146	0.008386	0.017343	6536.765032	40460.637256	3891.172824	22060.347310
52.537000	-0.027093	-0.014942	-0.004115	-0.081431	7466.763377	49362.851643	4159.639327	27008.376652
53.037000	-0.029695	-0.016921	-0.002506	-0.077685	7397.574399	48751.997797	4152.325471	26799.491144
53.535000	-0.031629	-0.015756	-0.009608	-0.066386	7256.539110	47690.328641	4090.809174	26180.157039
54.035000	-0.018916	-0.014365	-0.015470	-0.126232	8085.412435	54500.056852	4278.931904	29651.536690
54.535500	0.000027	-0.010982	-0.011785	-0.138317	8484.372493	56377.369594	4338.446292	30412.456041
55.035000	0.012186	-0.007741	-0.008903	-0.130072	8536.749948	55762.735491	4317.962594	29891.016689
55.536000	0.007265	-0.004332	-0.007680	-0.089734	7958.941818	51438.903544	4175.983060	27477.870187
56.036500	0.013083	-0.004003	-0.002048	-0.090457	8038.766854	51556.933152	4198.187980	27519.143186
56.536500	0.012881	-0.000731	0.003974	-0.056555	7635.444969	48231.396901	4103.138278	25654.292495
57.037000	0.012808	0.000761	0.011856	-0.018834	7223.971726	44588.949903	4007.948232	23743.475181
57.537500	0.017457	0.002019	0.015270	0.002950	7048.881512	42656.144948	3952.515418	22713.226400
58.038000	0.022750	0.005501	0.024193	0.016560	6966.363617	41735.610105	3938.742647	22095.322479
58.537000	0.027161	0.007030	0.028532	0.023405	6942.497308	41260.968701	3931.437346	21791.756722
59.035500	0.030033	0.007921	0.032635	0.034058	6867.143589	40404.351366	3912.551724	21328.819049
59.536000	0.035972	0.011447	0.040528	0.059295	6685.955878	38566.814160	3863.886624	20276.283741
60.036000	0.044026	0.013736	0.045973	0.072389	6639.950137	37685.962385	3843.034930	19753.817561
60.536000	0.050247	0.017331	0.056264	0.084102	6590.417521	37038.538124	3839.200167	19299.634134
61.036000	0.058315	0.020908	0.063949	0.090996	6600.948340	36777.356492	3841.331077	19037.938143
61.537000	0.066410	0.025689	0.070477	0.099233	6599.669452	36507.427649	3836.727926	18730.708721
62.037000	0.075326	0.031140	0.082373	0.115326	6535.732099	35689.588394	3825.502293	18147.008606
62.537500	0.086866	0.038544	0.101520	0.142998	6395.807412	34186.373926	3803.033968	17192.561833
63.035000	0.097728	0.043197	0.110614	0.159322	6349.593513	33351.976288	3784.319571	16657.356327
63.535500	0.105349	0.049587	0.117731	0.176470	6270.367257	32602.553399	3758.866534	16116.420307
64.035500	0.120633	0.057260	0.139189	0.189026	6292.883776	32268.510393	3781.427193	15733.678159
64.536000	0.130791	0.063307	0.148506	0.204548	6248.753827	31630.861342	3765.651909	15275.531878
65.035500	0.143030	0.070239	0.165017	0.212722	6282.136993	31548.257678	3786.896920	15040.763436
65.536500	0.151130	0.076693	0.173220	0.235865	6160.128700	30461.528875	3749.111766	14399.583365
66.036500	0.162269	0.082157	0.178986	0.243731	6186.317996	30308.521001	3743.906132	14189.317638
66.536500	0.171208	0.087298	0.189838	0.247112	6231.240012	30420.484043	3762.546304	14100.090107
67.040000	0.180819	0.094028	0.202008	0.247431	6307.650826	30832.500491	3792.784459	14091.730307
67.537500	0.183245	0.097951	0.201875	0.241536	6377.471837	31475.239233	3807.785657	14247.607007
68.035000	0.191896	0.102564	0.210047	0.250661	6373.453694	31178.027516	3805.292157	14007.203741
68.535500	0.197749	0.106184	0.213713	0.261567	6330.941871	30704.559661	3786.514723	13726.411790
69.035500	0.202135	0.110156	0.222334	0.267871	6314.938227	30554.772929	3792.489639	13567.311231
69.535000	0.205178	0.110303	0.225829	0.274956	6281.432033	30113.654055	3783.246602	13391.212886
70.036500	0.212225	0.114149	0.225735	0.276764	6324.919426	30242.434576	3778.378841	13346.727850
70.537000	0.217433	0.116652	0.234649	0.282412	6321.247834	30043.896742	3786.748761	13208.977344
71.037000	0.221429	0.118744	0.237383	0.287116	6315.339571	29880.018112	3781.690684	13095.591366
71.540000	0.223497	0.120114	0.240970	0.294006	6275.407265	29537.065935	3773.266368	12931.741254
72.037500	0.225463	0.123718	0.243398	0.294661	6286.219910	29719.719987	3777.780783	12916.284864
72.535000	0.230683	0.125485	0.249241	0.297190	6308.526887	29672.434455	3786.271440	12856.893010
73.034500	0.235647	0.128370	0.251237	0.301518	6313.819422	29583.049432	3780.291635	12756.035223
73.535500	0.234689	0.128913	0.255629	0.308107	6251.529989	29211.684264	3774.686229	12604.386656
74.036000	0.239422	0.130561	0.253449	0.305297	6313.775646	29484.940908	3776.287678	12668.760583
74.539000	0.243533	0.132367	0.255917	0.307701	6328.018423	29448.138312	3776.453790	12613.665569
75.036500	0.246558	0.135711	0.257701	0.311821	6318.874055	29400.404516	3770.512234	12519.904999
75.536500	0.246072	0.135834	0.263085	0.315602	6283.482929	29176.639182	3774.585838	12434.661495
76.037000	0.250780	0.137748	0.262485	0.317273	6308.640428	29191.445306	3768.822204	12397.219416
76.537000	0.254876	0.140006	0.269683	0.321375	6308.582916	29079.278393	3776.684232	12305.908287
77.034500	0.257797	0.140410	0.272404	0.324138	6309.901233	28936.506188	3776.578435	12244.897615
77.535500	0.258086	0.141760	0.272671	0.332547	6243.006092	28513.873080	3756.018102	12061.583983
78.035000	0.261897	0.141694	0.276637	0.331542	6282.523664	28569.679487	3768.524078	12083.296480
78.535500	0.263111	0.144089	0.281462	0.336126	6254.824989	28439.729756	3769.137009	11984.625913
79.036000	0.264444	0.145124	0.281168	0.339212	6240.499947	28318.584330	3760.610202	11918.780443
79.536000	0.266438	0.145978	0.286363	0.342836	6227.230862	28155.846637	3764.566615	11842.053334
80.036500	0.267617	0.147318	0.287204	0.347551	6198.611066	27958.932704	3754.840784	11743.169707
80.536500	0.273108	0.149633	0.286815	0.351057	6214.648852	27889.772265	3745.150705	11670.333559
81.037000	0.273786	0.149598	0.289383	0.354686	6190.837832	27678.324835	3742.525726	11595.561180
81.534500	0.278171	0.151861	0.293264	0.358655	6194.182537	27580.509136	3742.308970	11514.505619
82.037500	0.278970	0.153029	0.293535	0.362370	6170.795145	27435.145585	3733.835888	11439.301553
82.535000	0.280168	0.155443	0.299373	0.366458	6147.761765	27340.112505	3738.133702	11357.291082
83.035500	0.280589	0.153785	0.297538	0.368715	6133.212754	27119.177910	3728.112361	11312.335224
83.535500	0.283210	0.156235	0.301275	0.372707	6122.377629	27032.661566	3727.487708	11233.384976
84.036000	0.285096	0.156573	0.304590	0.376272	6109.168131	26852.702132	3726.880269	11163.501781
84.539000	0.287821	0.157928	0.307370	0.379337	6106.500816	26757.862943	3726.186795	11103.881135
85.037000	0.289622	0.160582	0.303806	0.383777	6085.856581	26659.190762	3706.891690	11018.246821
85.537000	0.287093	0.158557	0.305779	0.389143	6024.831115	26255.267871	3698.817572	10915.921340
86.037500	0.292724	0.160714	0.314971	0.389618	6064.562032	26346.594467	3719.688269	10906.927295
86.537500	0.294413	0.161396	0.313017	0.391964	6059.473407	26256.282594	3709.341400	10862.631764
87.034500	0.295149	0.162882	0.316744	0.396051	6033.629822	26115.689616	3708.477372	10786.029668
87.535500	0.295138	0.164227	0.318676	0.405761	5959.806430	25669.409952	3690.037052	10606.909937
88.035500	0.297869	0.163941	0.317760	0.401839	6010.156953	25862.339756	3697.125063	10678.783269
88.536000	0.300879	0.166555	0.323354	0.407086	5993.139546	25722.463714	3697.944679	10582.779197
89.036000	0.302881	0.166527	0.326533	0.408767	5995.578199	25632.138236	3701.498307	10552.270523
89.536000	0.302642	0.167929	0.323415	0.416137	5938.314149	25319.478275	3676.877056	10419.895185
90.039500	0.307031	0.170104	0.331179	0.416469	5968.724557	25415.596739	3694.265219	10413.987170
90.537000	0.308857	0.170233	0.325510	0.418937	5963.892608	25293.689241	3675.243676	10370.186016
91.037500	0.308223	0.170743	0.332380	0.421455	5940.273342	25189.552549	3685.372224	10325.757169
91.537500	0.309557	0.171914	0.332374	0.426922	5909.564655	24968.371547	3672.650249	10230.165476
92.035000	0.311945	0.172768	0.334295	0.428025	5919.084725	24955.601369	3674.542008	10211.032482
92.535500	0.312001	0.173563	0.334014	0.430534	5900.941991	24868.047981	3668.105109	10167.680130
93.035500	0.312444	0.173886	0.336623	0.432518	5889.592721	24783.472880	3669.541563	10133.565630
93.536000	0.313577	0.175025	0.336213	0.436787	5866.640914	24625.078462	3658.826835	10060.717781
94.036500	0.314453	0.174479	0.338616	0.437170	5870.237850	24578.302003	3663.441175	10054.217416
94.539000	0.318248	0.176250	0.340205	0.441128	5869.042165	24468.436212	3658.030733	9987.350406
95.036500	0.318004	0.177021	0.340697	0.443820	5847.688573	24372.509003	3653.038016	9942.238007
95.537000	0.314711	0.176110	0.342603	0.449415	5783.882795	24050.568622	3644.719118	9849.336517
96.034500	0.320891	0.178188	0.346730	0.447948	5838.697371	24225.411211	3657.361065	9873.582883
96.537500	0.321014	0.178195	0.346795	0.449650	5827.296223	24141.608400	3653.644406	9845.460357
97.035000	0.322866	0.181817	0.350574	0.453915	5809.955091	24109.896319	3652.542965	9775.476300
