sample name	sample
index	1071
start time	 04-22-2021  10:34:12 AM
880	0.220693
Peak Time (s)	102.537
Peak Height 	0.2207
calc peak height	100,103
Baseline Time (s)	11.037
Baseline Value 	-0.005453
subtract baseline	10,4
Abs	0.155024
Peak Time (s)	101.537
Peak Height 	0.155
calc peak height	100,103
Baseline Time (s)	8.535
Baseline Value 	0.003288
subtract baseline	10,3
PK_550	0.096260
Peak Time (s)	101.036
Peak Height 	0.09626
calc peak height	100,103
Baseline Time (s)	9.536
Baseline Value 	3.2378E-4
subtract baseline	10,2
PK_880	0.145408
Peak Time (s)	102.043
Peak Height 	0.1454
calc peak height	100,103
Baseline Time (s)	9.536
Baseline Value 	0.001487
subtract baseline	10,1


Time (s)	A880-A510	A880-A775	A880-A975	A880	I510	I775	I975	I880	
0.035500	-0.000704	0.000037	-0.000048	0.003141	6239.389887	43360.671426	3856.468711	22732.902322
0.536500	-0.000401	-0.000394	-0.001927	0.005819	6220.255427	43071.004751	3844.515797	22609.883052
1.037000	-0.002655	0.000058	-0.004273	0.006681	6195.307123	43032.920957	3836.174882	22570.459322
1.537000	0.002090	0.000719	0.002280	0.002470	6267.489808	43487.329007	3864.401505	22763.793168
2.037000	-0.000050	0.000269	0.001083	0.001766	6255.827190	43511.213401	3863.096529	22796.345794
2.537500	-0.001290	0.000030	0.000767	0.001644	6246.757527	43500.212089	3862.581045	22801.978334
3.040500	-0.000707	-0.000223	0.000275	0.001847	6249.835822	43457.371858	3860.737967	22792.570406
3.535500	-0.000068	-0.000223	-0.000443	0.001254	6259.832684	43512.982176	3860.409115	22819.986129
4.035500	-0.000465	0.000351	-0.003549	0.001429	6255.185967	43550.539886	3851.760005	22811.904636
4.536000	0.000784	-0.000426	0.000262	0.000700	6271.279140	43546.028519	3863.745230	22845.660097
5.036000	-0.001548	-0.000033	-0.000732	0.001148	6248.684902	43540.832059	3859.924427	22824.889274
5.536000	0.000948	0.000780	-0.001678	0.001319	6267.568170	43601.164810	3856.974727	22817.000052
6.036500	0.000800	0.000545	0.003831	0.000868	6270.044867	43621.502883	3872.806145	22837.888914
6.537000	0.002735	0.001118	-0.000529	0.001617	6279.720475	43605.000531	3859.223224	22803.225865
7.037500	-0.001191	-0.000438	-0.002593	0.000366	6257.923838	43576.264723	3857.074429	22861.112875
7.537500	0.000100	0.000916	0.001331	0.001056	6262.801736	43638.689176	3865.637367	22829.142191
8.035000	0.002377	-0.000233	-0.004576	0.000588	6285.203133	43574.567616	3851.270514	22850.816851
8.535000	-0.001425	-0.000194	0.000000	-0.000311	6261.525961	43662.959138	3865.734436	22892.543763
9.035500	0.000097	-0.000200	0.003769	0.000279	6269.112134	43606.864063	3874.216073	22865.180892
9.536000	0.000000	0.000000	0.000391	0.000030	6270.350458	43649.110113	3865.868996	22876.732543
10.036500	0.000565	-0.000448	-0.001753	-0.000040	6275.526290	43613.508038	3860.367337	22879.962811
10.536500	-0.000252	0.000065	-0.000590	-0.000109	6269.420592	43668.189547	3863.630724	22883.139386
11.037000	0.000111	0.000287	0.001543	0.000000	6271.492930	43678.886243	3869.014416	22878.102925
11.536500	-0.000439	0.000330	-0.001571	0.000669	6261.575270	43619.995310	3858.974227	22847.088388
12.037500	-0.001052	-0.000121	-0.000652	0.000028	6261.795583	43637.853990	3863.101934	22876.798540
12.538000	0.000683	0.000032	0.007371	0.000412	6272.800723	43616.199873	3883.543113	22859.011113
13.035000	0.000171	0.000215	0.002017	-0.000009	6272.055841	43672.966620	3870.301593	22878.509224
13.538000	0.000151	-0.000201	0.001515	0.000112	6270.911096	43622.406442	3868.640189	22872.918470
14.035500	-0.002026	-0.000183	-0.000804	0.002666	6232.550621	43384.498471	3855.726849	22754.767419
14.536000	-0.001166	0.000357	0.002470	0.004243	6226.778528	43287.573513	3860.207232	22682.176638
15.036000	0.001162	0.000289	0.002492	0.000451	6276.390889	43636.673592	3870.342166	22857.201881
15.536500	-0.000331	0.000507	-0.000798	0.000601	6263.006040	43643.045854	3861.198918	22850.241707
16.037000	-0.000392	0.000580	0.000628	0.000347	6264.568336	43673.836359	3865.654942	22862.002118
16.537000	-0.003021	-0.000390	-0.002708	0.002752	6223.840455	43357.023829	3850.495447	22750.786639
17.037500	0.001589	0.000489	0.003581	-0.002087	6300.679639	43895.166959	3880.061921	22975.190349
17.535000	-0.001200	0.000135	-0.001578	0.002036	6244.310179	43473.262616	3855.348783	22783.850995
18.035000	-0.001910	0.000093	0.000989	0.001708	6241.218939	43500.121616	3862.999529	22798.996953
18.536000	-0.000937	-0.000115	-0.001387	0.002500	6242.685678	43406.415968	3854.629764	22762.440475
19.036000	-0.000987	0.000728	0.002495	0.002577	6241.655709	43478.075486	3864.687907	22758.859014
19.536000	0.000057	0.000383	-0.001986	0.002267	6252.620829	43474.802599	3853.666189	22773.174082
20.036000	0.000507	0.000555	0.000010	0.002699	6252.767176	43450.532051	3857.787286	22753.248165
20.536500	0.000817	0.000329	0.000126	0.002941	6253.327320	43406.747849	3857.455732	22742.116109
21.037000	0.000028	-0.000197	-0.003276	0.001606	6257.755108	43482.497625	3852.013426	22803.717141
21.537500	-0.001095	-0.000479	-0.004475	0.001634	6248.422148	43453.427024	3848.795278	22802.432009
22.037500	-0.001716	-0.000387	-0.003390	0.001505	6244.437356	43474.199225	3851.980289	22808.407799
22.535000	-0.001718	0.000053	0.000601	0.002773	6234.171416	43396.532889	3859.152372	22749.836602
23.035500	-0.001093	0.000773	0.002582	0.002567	6240.880145	43483.239848	3864.947646	22759.321686
23.535500	-0.000814	-0.000320	-0.001086	0.001540	6251.450342	43477.090976	3857.953330	22806.748577
24.036000	-0.000374	0.000514	-0.000400	0.002134	6250.205793	43499.627612	3858.197283	22779.324911
24.536000	-0.000850	0.000557	0.000627	0.003096	6238.571090	43413.537101	3858.368061	22734.953821
25.037000	0.000094	0.000017	0.001126	0.001731	6257.273474	43490.829734	3863.302612	22797.942448
25.537000	-0.001277	-0.000256	-0.003356	0.001523	6247.843772	43484.736306	3852.021241	22807.551820
26.037000	0.000968	0.000039	-0.000197	0.002091	6261.452243	43459.124593	3858.847861	22781.326353
26.540000	-0.000344	0.000214	-0.000547	0.002640	6246.349364	43424.028644	3856.471861	22755.953077
27.035000	0.002415	0.000670	0.007779	-0.000554	6294.875579	43767.332111	3887.254350	22903.819635
27.535000	0.001749	0.000648	0.003480	0.000199	6283.242408	43694.182306	3873.654835	22868.859329
28.035500	0.001383	0.000137	-0.000849	0.000320	6279.267301	43634.652075	3861.805307	22863.246311
28.535500	-0.001729	-0.000897	-0.002168	0.003105	6231.413832	43276.861327	3850.986435	22734.561933
29.036000	-0.000425	-0.000225	0.001326	0.000701	6261.425069	43564.759244	3866.567427	22845.587815
29.536000	-0.001065	0.000058	0.002684	0.001056	6253.348318	43558.076927	3869.240794	22829.167822
30.036500	0.000590	-0.000078	0.003491	0.001104	6266.408306	43540.795529	3871.267423	22826.961976
30.537000	-0.001718	-0.000644	0.001853	0.003988	6224.384837	43218.094285	3859.250491	22693.910668
31.034500	-0.000114	-0.000063	-0.000763	0.001852	6254.604578	43471.963052	3857.982783	22792.372324
31.535000	0.000477	-0.000371	-0.001024	0.000152	6273.238975	43602.627632	3861.786148	22871.033434
32.034500	0.002223	0.000446	0.001196	0.000624	6283.650028	43635.201175	3866.428357	22849.190150
32.535500	-0.000952	0.000471	-0.003210	0.003799	6232.080154	43339.703080	3846.440468	22702.594617
33.036000	0.002096	-0.000241	-0.001244	0.000063	6287.206745	43623.280301	3861.443387	22875.193889
33.541000	-0.000172	0.000766	-0.000689	0.000320	6266.586374	43693.876536	3862.231761	22863.258164
34.036500	-0.000262	-0.000360	0.001197	0.001595	6255.489236	43468.211560	3863.851387	22804.223699
34.536500	-0.002421	-0.000486	0.000423	0.002173	6233.341354	43402.248989	3860.267945	22777.502809
35.037500	-0.001060	-0.000819	-0.002712	0.001183	6252.353578	43463.804985	3854.606095	22823.265911
35.537000	0.000013	0.000108	0.006954	0.001724	6256.676077	43500.032864	3878.885411	22798.277213
36.040000	-0.002195	-0.000622	0.003327	0.001516	6240.474897	43451.042681	3869.727806	22807.889144
36.535000	-0.000213	-0.000183	0.000283	0.002387	6249.460960	43410.590565	3859.333513	22767.659253
37.035000	-0.000900	0.000277	-0.000001	0.002109	6246.148716	43479.696274	3859.315404	22780.462018
37.535500	-0.000907	-0.000181	0.004538	0.001895	6247.824750	43456.830302	3871.948572	22790.363329
38.036000	0.000048	0.000245	-0.000903	0.002342	6251.939585	43454.858077	3856.320466	22769.704856
38.536500	-0.002595	-0.000466	-0.001481	0.003117	6224.341950	43315.932963	3852.759953	22734.006281
39.036000	0.000868	0.000359	0.003121	0.002391	6258.202995	43461.038150	3866.847443	22767.465173
39.536500	-0.001286	0.001009	0.004814	0.002968	6236.081794	43467.800412	3869.821054	22740.839876
40.037000	-0.000149	0.000549	0.003635	0.002655	6247.815066	43454.059713	3867.513427	22755.298372
40.536500	-0.000373	0.000240	0.000740	0.003090	6242.479694	43384.464559	3858.683469	22735.242562
41.034500	-0.001030	0.000183	0.001720	0.002299	6243.559170	43453.175124	3863.372121	22771.720831
41.534500	0.000211	0.000251	0.002727	0.002608	6251.105916	43430.579802	3865.224667	22757.446968
42.035500	0.001005	0.000419	0.000813	0.002608	6257.551693	43446.279524	3860.151631	22757.468116
42.535000	0.000260	-0.000428	-0.001693	0.003132	6247.257838	43317.944593	3852.161809	22733.272586
43.035500	-0.001419	0.000153	0.000455	0.002515	6238.671735	43430.052326	3859.450274	22761.747207
43.536000	0.001111	0.000741	0.004089	0.000580	6274.923063	43667.104493	3874.267095	22851.228802
44.037000	0.000817	0.000026	0.002995	0.000079	6276.617377	43646.948775	3872.681345	22874.458958
44.536500	-0.000185	-0.000476	0.001419	0.003283	6242.432855	43299.473477	3859.966584	22726.340413
45.037000	0.001365	-0.000852	0.001888	-0.000510	6285.907401	43619.691207	3871.295155	22901.795211
45.537500	0.001625	0.000653	0.004926	0.000288	6281.498240	43686.249424	3877.293138	22864.721679
46.038000	0.000702	0.000219	0.001951	0.000565	6271.703262	43619.252721	3868.593230	22851.891206
46.535500	-0.002120	-0.000050	0.004005	0.004092	6220.319411	43263.679579	3864.676116	22689.117412
47.035500	-0.002575	0.000576	-0.002938	0.002815	6226.934313	43441.597794	3849.726990	22747.913576
47.535500	-0.001423	0.000578	-0.001197	0.002657	6237.489490	43456.641592	3854.716091	22755.194324
48.036000	0.000280	0.000479	0.004194	0.000074	6272.273090	43690.122883	3875.905880	22874.691302
48.536500	-0.002828	-0.000215	0.001652	0.004422	6211.993790	43217.619635	3857.575488	22673.971332
49.036500	0.000161	0.000438	0.006111	0.000040	6271.578703	43689.388240	3881.146681	22876.249448
49.536500	0.002434	0.000606	-0.002613	-0.002178	6308.388543	43914.913853	3863.753940	22979.439837
50.040000	-0.002753	-0.000152	0.000576	0.000443	6244.634545	43595.828895	3865.260351	22857.541343
50.534000	-0.001644	-0.000503	0.006360	0.033568	5994.903872	40566.156678	3794.853761	21379.147820
51.035000	0.061578	-0.022656	0.105500	0.570333	3827.786269	13196.201356	3106.896385	8145.905093
51.535000	0.006441	-0.021040	-0.014753	0.020494	6157.878689	39922.043738	3774.983821	21949.239126
52.035500	-0.014364	-0.078375	-0.047146	-0.257771	8930.765554	64568.050390	4584.903079	39209.012877
52.535000	-0.006173	-0.091448	-0.033060	-0.276313	9324.392168	65351.386907	4731.084029	40800.360538
53.035500	-0.005745	-0.085559	-0.035102	-0.268847	9218.399822	65124.554003	4687.344546	40151.383782
53.536500	-0.006461	-0.092008	-0.031431	-0.278121	9347.503860	65531.606537	4747.130774	40959.200662
54.036500	-0.006231	-0.054229	-0.026088	-0.226897	8614.463119	63617.938602	4543.029604	36705.467500
54.537000	-0.017141	-0.042825	-0.031383	-0.209020	8237.113182	62717.645373	4447.863966	35335.202194
55.034000	-0.014366	-0.048755	-0.032201	-0.221714	8436.772489	63658.768101	4496.004339	36302.366267
55.535000	-0.006957	-0.069010	-0.026651	-0.251376	8945.218663	64992.278450	4646.726298	38675.704223
56.034500	-0.006525	-0.042572	-0.021029	-0.211934	8411.354756	63156.339327	4501.735749	35554.718461
56.535000	-0.005585	-0.018565	-0.023161	-0.151643	7685.731310	58315.132258	4262.028206	31299.437259
57.035500	0.002472	-0.011192	-0.009827	-0.118722	7410.020092	55141.113960	4193.645834	29213.554628
57.535500	0.004662	-0.007008	-0.004151	-0.091098	7143.857206	52388.814518	4120.595106	27581.236790
58.036000	0.009642	-0.001713	-0.002509	-0.072519	7007.817950	50893.716955	4066.697622	26540.397042
58.536500	0.011536	0.001960	0.004282	-0.047474	6785.783580	48582.187697	4010.910635	25205.917097
59.036500	0.022899	0.008533	0.015313	-0.031717	6744.966912	47623.236740	3996.844455	24404.911069
59.539500	0.030792	0.012623	0.023707	-0.001781	6546.302098	45031.012106	3934.635441	22960.930807
60.035000	0.036806	0.018593	0.034310	0.014932	6453.449239	43998.155315	3917.546006	22197.029112
60.534500	0.044051	0.022865	0.035400	0.046932	6247.186986	41447.230672	3834.677559	20813.899827
61.035500	0.051790	0.025918	0.049617	0.057243	6226.422046	40806.106126	3844.828950	20389.550724
61.535500	0.058410	0.030639	0.054365	0.066854	6202.428264	40380.017115	3832.207056	20002.920174
62.035500	0.061011	0.035297	0.058079	0.093591	6014.754904	38515.067084	3774.333553	18971.370169
62.536000	0.068847	0.039808	0.069683	0.135281	5768.478326	35581.254327	3703.186909	17484.411638
63.039000	0.073676	0.039710	0.069387	0.111707	5973.792579	37404.479870	3757.800330	18307.670350
63.537000	0.078141	0.045266	0.085392	0.144763	5767.163666	35278.556418	3717.511313	17165.697577
64.037000	0.077519	0.047377	0.083762	0.148361	5737.802545	35167.401042	3705.471693	17046.570054
64.534500	0.079135	0.049926	0.085062	0.149159	5743.473104	35298.360387	3706.623776	17020.287733
65.037500	0.085019	0.051628	0.089959	0.143867	5822.007542	35826.604215	3730.247712	17195.520506
65.535000	0.087858	0.053123	0.092413	0.142082	5855.092924	36077.273356	3740.240942	17255.103339
66.044000	0.088848	0.054293	0.094175	0.142000	5862.820504	36173.491943	3744.619299	17257.845492
66.536000	0.087002	0.056263	0.089179	0.149856	5793.627525	35723.707193	3714.490830	16997.364672
67.036000	0.088678	0.055831	0.093295	0.143460	5851.092124	36179.545380	3739.069253	17209.096527
67.536500	0.092407	0.059096	0.096128	0.143901	5874.802103	36397.606023	3744.744013	17194.391129
68.036500	0.094293	0.059567	0.100440	0.141685	5904.635273	36606.307070	3760.393757	17268.396904
68.537000	0.093469	0.059398	0.097936	0.148088	5852.251641	36097.926502	3739.098327	17055.557119
69.039500	0.096458	0.061653	0.101929	0.142876	5911.763727	36676.148667	3761.113894	17228.572137
69.534500	0.099109	0.064276	0.106840	0.142739	5932.250496	36892.422480	3773.386727	17233.141083
70.035000	0.099450	0.065026	0.106418	0.141564	5943.443042	37044.058189	3775.231458	17272.457580
70.535000	0.099449	0.066833	0.110739	0.149578	5884.692243	36557.479669	3766.221788	17006.480094
71.035000	0.102512	0.067100	0.102500	0.143744	5949.976273	37035.691509	3760.396838	17199.626451
71.536000	0.104361	0.068101	0.104635	0.143556	5965.115665	37129.677639	3766.023813	17205.893693
72.036500	0.104536	0.068431	0.111773	0.143410	5967.499178	37167.342650	3783.862546	17210.749425
72.536500	0.102994	0.069750	0.109493	0.149409	5911.787196	36798.579557	3763.609426	17012.054366
73.037000	0.109253	0.072468	0.117414	0.146164	5982.167658	37269.164817	3791.015314	17119.196809
73.542500	0.111175	0.072092	0.119089	0.146909	5990.989982	37180.174041	3793.328414	17094.508316
74.034500	0.112753	0.073345	0.117389	0.148196	5993.175120	37177.465434	3785.913204	17052.000266
74.535000	0.109414	0.073313	0.119432	0.154879	5918.752107	36649.394935	3774.492677	16833.234297
75.035000	0.117264	0.076667	0.120869	0.152416	5995.365347	37106.398889	3784.084104	16913.480269
75.538000	0.117308	0.077547	0.122230	0.154040	5983.502674	37047.540092	3783.433905	16860.505607
76.035500	0.122034	0.078022	0.121674	0.156353	6001.632019	36902.762795	3776.376105	16785.439370
76.538500	0.118705	0.079201	0.121051	0.165434	5909.486689	36287.126750	3752.840595	16494.507326
77.036000	0.119299	0.080731	0.123919	0.160562	5949.747907	36785.048058	3771.570554	16649.849467
77.539500	0.121653	0.081790	0.131920	0.162777	5950.776443	36694.590267	3785.789386	16578.999722
78.034000	0.120819	0.082930	0.130023	0.164469	5932.100295	36651.515751	3776.946431	16525.145320
78.537000	0.119087	0.082907	0.128328	0.172059	5864.118168	36062.567245	3754.408391	16286.087561
79.040000	0.122590	0.084195	0.129331	0.167161	5925.320764	36540.332671	3768.677108	16439.886113
79.534500	0.123901	0.084771	0.130194	0.169370	5918.724537	36413.497971	3765.405322	16370.302069
80.035000	0.121497	0.083511	0.127001	0.169523	5900.005256	36304.169359	3757.314144	16365.491423
80.535000	0.118714	0.082994	0.124899	0.177085	5825.400766	35685.880426	3734.295168	16130.039763
81.036000	0.122286	0.084258	0.127991	0.173686	5875.479049	36041.342275	3749.700580	16235.369636
81.536000	0.123168	0.084739	0.134145	0.175235	5870.651349	35959.581324	3760.767381	16187.264637
82.036500	0.123210	0.086401	0.132552	0.177359	5855.637899	35924.281834	3751.826464	16121.605305
82.536500	0.122610	0.085623	0.130541	0.182338	5815.754705	35487.504294	3735.214126	15968.907044
83.039500	0.127707	0.085733	0.134190	0.178804	5877.672735	35763.271919	3752.286949	16077.103061
83.536500	0.127134	0.086821	0.134370	0.180794	5859.159684	35694.849124	3747.959235	16016.064954
84.037500	0.130618	0.087319	0.137734	0.182827	5869.628347	35578.632164	3751.140271	15953.999448
84.534500	0.130126	0.087036	0.132263	0.184857	5851.451076	35404.220187	3733.335363	15892.303298
85.035500	0.133643	0.088442	0.137564	0.187739	5856.019036	35293.489527	3739.042881	15805.224693
85.535500	0.131428	0.087347	0.138405	0.189086	5830.490232	35111.041342	3737.845939	15764.720795
86.036000	0.132030	0.088169	0.140753	0.190730	5823.060535	35049.892684	3739.513505	15715.466234
86.536000	0.133224	0.089478	0.141023	0.192852	5816.458578	34989.506155	3735.137714	15652.147415
87.036500	0.134683	0.089335	0.141742	0.194294	5816.582247	34872.069428	3733.432432	15609.291394
87.536000	0.134128	0.089603	0.139495	0.196188	5799.228763	34752.065747	3723.736569	15553.249048
88.037000	0.132562	0.088188	0.139589	0.195942	5789.914430	34666.034196	3724.526664	15560.504134
88.540000	0.133038	0.088786	0.142336	0.197481	5782.434583	34596.950295	3727.348190	15515.099442
89.035000	0.135964	0.088884	0.144311	0.198420	5796.432344	34535.390453	3729.776846	15487.489608
89.535000	0.136611	0.090282	0.143035	0.199887	5790.651901	34530.347930	3723.366163	15444.463750
90.037500	0.136678	0.090549	0.138285	0.200811	5784.622785	34482.346908	3710.228253	15417.434231
90.538000	0.133162	0.090302	0.142880	0.206985	5717.228520	34016.664882	3706.602051	15238.263365
91.036000	0.136594	0.091017	0.144382	0.202757	5770.371312	34374.492947	3719.820505	15360.674794
91.536000	0.136068	0.090339	0.142139	0.202284	5770.011026	34359.645294	3715.720220	15374.462912
92.036000	0.138471	0.092450	0.146401	0.204312	5772.631156	34365.578576	3720.898655	15315.515951
92.539500	0.131741	0.090939	0.138940	0.209823	5688.091269	33858.710049	3691.190719	15156.786764
93.037000	0.140726	0.094546	0.150416	0.206465	5773.344762	34361.477003	3725.238694	15253.274650
93.540000	0.137941	0.092650	0.141654	0.204509	5767.544408	34365.848421	3709.473550	15309.822921
94.035000	0.142297	0.092532	0.144822	0.205516	5791.052554	34284.039441	3714.449878	15280.662671
94.540500	0.140263	0.093643	0.142596	0.207479	5763.017655	34222.309878	3704.820960	15224.052070
95.035000	0.139161	0.093198	0.142368	0.206608	5761.402591	34253.186296	3706.293340	15249.140430
95.536000	0.141973	0.094401	0.146651	0.207327	5776.041673	34288.247509	3714.490606	15228.415899
96.036000	0.139927	0.093837	0.145625	0.207262	5762.183195	34252.033767	3712.274643	15230.293022
96.536000	0.137193	0.093655	0.143376	0.213447	5700.560776	33793.710528	3693.024175	15053.480925
97.039500	0.143283	0.095038	0.147043	0.209752	5768.230889	34158.734030	3709.806017	15158.803580
97.536000	0.143594	0.094519	0.142600	0.208818	5776.956520	34188.808001	3701.774416	15185.589206
