sample name	sample
index	397
start time	 03-08-2021  10:13:38 AM


Wavelength (nm)	Absorbance
494.344910	-0.032955
494.563924	-0.032955
494.782919	-0.032955
495.001897	-0.071323
495.220856	-0.043441
495.439797	-0.054958
495.658719	-0.046026
495.877624	-0.045639
496.096510	-0.024715
496.315378	0.007119
496.534227	0.010023
496.753059	0.029006
496.971872	-0.000689
497.190667	0.088460
497.409444	0.122044
497.628203	0.129624
497.846943	0.134573
498.065665	0.135051
498.284369	0.135115
498.503055	0.136336
498.721723	0.136886
498.940372	0.139171
499.159003	0.139556
499.377616	0.140498
499.596210	0.139890
499.814787	0.139934
500.033345	0.140482
500.251885	0.140496
500.470406	0.140513
500.688910	0.140445
500.907395	0.139673
501.125862	0.139999
501.344311	0.139260
501.562742	0.139719
501.781154	0.139475
501.999548	0.139206
502.217924	0.139096
502.436282	0.139014
502.654621	0.140286
502.872942	0.140972
503.091245	0.141306
503.309530	0.140735
503.527797	0.141613
503.746045	0.142008
503.964275	0.141842
504.182487	0.142289
504.400681	0.143008
504.618856	0.142963
504.837013	0.143148
505.055152	0.143577
505.273273	0.144434
505.491376	0.143793
505.709460	0.143885
505.927526	0.145108
506.145574	0.146069
506.363604	0.145932
506.581615	0.145726
506.799608	0.146774
507.017583	0.146193
507.235540	0.146469
507.453478	0.147399
507.671399	0.147336
507.889301	0.147750
508.107185	0.147250
508.325050	0.146952
508.542898	0.147029
508.760727	0.146381
508.978538	0.147303
509.196330	0.147281
509.414105	0.147649
509.631861	0.148100
509.849599	0.147520
510.067319	0.148181
510.285021	0.148840
510.502704	0.149831
510.720369	0.150191
510.938016	0.149618
511.155645	0.149852
511.373255	0.149754
511.590848	0.150395
511.808422	0.151367
512.025977	0.150768
512.243515	0.150619
512.461034	0.150292
512.678536	0.150827
512.896018	0.151908
513.113483	0.152375
513.330930	0.152580
513.548358	0.152077
513.765768	0.151580
513.983160	0.152880
514.200533	0.153633
514.417889	0.154645
514.635226	0.154311
514.852545	0.154309
515.069845	0.154743
515.287128	0.154917
515.504392	0.155506
515.721638	0.155756
515.938866	0.156295
516.156075	0.156614
516.373267	0.156437
516.590440	0.157317
516.807594	0.157803
517.024731	0.157647
517.241850	0.158006
517.458950	0.158315
517.676032	0.158791
517.893095	0.158146
518.110141	0.158438
518.327168	0.158146
518.544177	0.158580
518.761168	0.158696
518.978141	0.159351
519.195095	0.159041
519.412031	0.159464
519.628949	0.160078
519.845849	0.160466
520.062731	0.160914
520.279594	0.161766
520.496439	0.161689
520.713266	0.162083
520.930074	0.162788
521.146865	0.163775
521.363637	0.163967
521.580391	0.164150
521.797127	0.164588
522.013844	0.164115
522.230543	0.164339
522.447224	0.164704
522.663887	0.164398
522.880532	0.164436
523.097158	0.163999
523.313766	0.164236
523.530356	0.164491
523.746928	0.164782
523.963481	0.165481
524.180017	0.165453
524.396534	0.165048
524.613032	0.166085
524.829513	0.165884
525.045975	0.166456
525.262420	0.166978
525.478845	0.167686
525.695253	0.168445
525.911643	0.168668
526.128014	0.169620
526.344367	0.170122
526.560702	0.169933
526.777018	0.170540
526.993316	0.171337
527.209597	0.171476
527.425858	0.171679
527.642102	0.172009
527.858328	0.172359
528.074535	0.171641
528.290724	0.172366
528.506894	0.172477
528.723047	0.172654
528.939181	0.172654
529.155297	0.172978
529.371395	0.172808
529.587475	0.172304
529.803536	0.173456
530.019579	0.174717
530.235604	0.174648
530.451611	0.175155
530.667600	0.175506
530.883570	0.175839
531.099522	0.175896
531.315456	0.176458
531.531372	0.176951
531.747269	0.176376
531.963148	0.176201
532.179009	0.177347
532.394852	0.178237
532.610676	0.178521
532.826482	0.178568
533.042271	0.178831
533.258040	0.179213
533.473792	0.180502
533.689525	0.181113
533.905240	0.181672
534.120937	0.181511
534.336616	0.181348
534.552277	0.182030
534.767919	0.182666
534.983543	0.183133
535.199149	0.182953
535.414736	0.182303
535.630306	0.182737
535.845857	0.182708
536.061390	0.183031
536.276904	0.183480
536.492401	0.183329
536.707879	0.183479
536.923339	0.183838
537.138781	0.183944
537.354204	0.184709
537.569610	0.184601
537.784997	0.184978
538.000366	0.185107
538.215716	0.185389
538.431049	0.185875
538.646363	0.186384
538.861659	0.186705
539.076937	0.187378
539.292196	0.187438
539.507438	0.188168
539.722661	0.188332
539.937866	0.188897
540.153052	0.188707
540.368221	0.188995
540.583371	0.189455
540.798503	0.190065
541.013617	0.190402
541.228712	0.190846
541.443789	0.191211
541.658848	0.191360
541.873889	0.191703
542.088912	0.192544
542.303916	0.192748
542.518902	0.193192
542.733870	0.193148
542.948820	0.193151
543.163752	0.193361
543.378665	0.193602
543.593560	0.194279
543.808437	0.194285
544.023295	0.194657
544.238136	0.194857
544.452958	0.194763
544.667762	0.195562
544.882548	0.195971
545.097315	0.196426
545.312064	0.196723
545.526795	0.197441
545.741508	0.197807
545.956203	0.198410
546.170879	0.198768
546.385537	0.198863
546.600177	0.199103
546.814799	0.199565
547.029402	0.199644
547.243988	0.199551
547.458555	0.199393
547.673103	0.199746
547.887634	0.198905
548.102146	0.199564
548.316640	0.200088
548.531116	0.199846
548.745574	0.199997
548.960013	0.200480
549.174435	0.200839
549.388838	0.201666
549.603222	0.202141
549.817589	0.203051
550.031937	0.203058
550.246267	0.203300
550.460579	0.203464
550.674873	0.203846
550.889148	0.203835
551.103405	0.204404
551.317644	0.203974
551.531865	0.203870
551.746068	0.203849
551.960252	0.204022
552.174418	0.204017
552.388566	0.204752
552.602696	0.204856
552.816807	0.205116
553.030900	0.205071
553.244975	0.205658
553.459032	0.206358
553.673070	0.207050
553.887091	0.207566
554.101093	0.207570
554.315077	0.207256
554.529042	0.207811
554.742990	0.207884
554.956919	0.208104
555.170830	0.207857
555.384722	0.207576
555.598597	0.207284
555.812453	0.206805
556.026291	0.207291
556.240111	0.207866
556.453913	0.207803
556.667696	0.208105
556.881461	0.208328
557.095208	0.209038
557.308937	0.209601
557.522647	0.210415
557.736339	0.210851
557.950013	0.211473
558.163669	0.211294
558.377307	0.211637
558.590926	0.211666
558.804527	0.212287
559.018110	0.212167
559.231675	0.212400
559.445221	0.212319
559.658749	0.212831
559.872259	0.212799
560.085751	0.213159
560.299225	0.213328
560.512680	0.214114
560.726117	0.213786
560.939536	0.214063
561.152937	0.214299
561.366319	0.214402
561.579683	0.214140
561.793029	0.214406
562.006357	0.214671
562.219667	0.215197
562.432958	0.214838
562.646231	0.215128
562.859486	0.215153
563.072723	0.215196
563.285941	0.215662
563.499141	0.216343
563.712323	0.216425
563.925487	0.216463
564.138632	0.216424
564.351760	0.216712
564.564869	0.216900
564.777960	0.217414
564.991032	0.217427
565.204087	0.217568
565.417123	0.217754
565.630141	0.217657
565.843140	0.218122
566.056122	0.218148
566.269085	0.218637
566.482030	0.218530
566.694957	0.218466
566.907866	0.218923
567.120756	0.218646
567.333628	0.218954
567.546482	0.219248
567.759318	0.219387
567.972135	0.219484
568.184935	0.219265
568.397716	0.220119
568.610478	0.220643
568.823223	0.220536
569.035949	0.221229
569.248657	0.221292
569.461347	0.221803
569.674019	0.221730
569.886672	0.221813
570.099308	0.222398
570.311925	0.222427
570.524523	0.222453
570.737104	0.222784
570.949666	0.222723
571.162210	0.222608
571.374736	0.223008
571.587244	0.223616
571.799733	0.223927
572.012205	0.223808
572.224658	0.223878
572.437092	0.223846
572.649509	0.224306
572.861907	0.224450
573.074287	0.224827
573.286649	0.224698
573.498993	0.224736
573.711318	0.224999
573.923625	0.224905
574.135914	0.224817
574.348185	0.225032
574.560438	0.224822
574.772672	0.225211
574.984888	0.225547
575.197086	0.225932
575.409266	0.226104
575.621427	0.226435
575.833570	0.226814
576.045695	0.227066
576.257802	0.227461
576.469890	0.227436
576.681961	0.227336
576.894013	0.227375
577.106046	0.227095
577.318062	0.227361
577.530059	0.227259
577.742039	0.227411
577.954000	0.227554
578.165942	0.227616
578.377867	0.228241
578.589773	0.228632
578.801661	0.228984
579.013531	0.229516
579.225382	0.229567
579.437216	0.229728
579.649031	0.230088
579.860828	0.229826
580.072606	0.229963
580.284367	0.230073
580.496109	0.230279
580.707833	0.230081
580.919539	0.230220
581.131227	0.230385
581.342896	0.230504
581.554547	0.230774
581.766180	0.231493
581.977795	0.231948
582.189391	0.231991
582.400969	0.231993
582.612529	0.232373
582.824071	0.232554
583.035595	0.232978
583.247100	0.233423
583.458587	0.233404
583.670056	0.233535
583.881506	0.233468
584.092939	0.233724
584.304353	0.234145
584.515749	0.234133
584.727127	0.234188
584.938486	0.234318
585.149828	0.234699
585.361151	0.234985
585.572456	0.235156
585.783742	0.235361
585.995011	0.235981
586.206261	0.235943
586.417493	0.236408
586.628706	0.236900
586.839902	0.237133
587.051079	0.237227
587.262238	0.237722
587.473379	0.237979
587.684502	0.238131
587.895606	0.238176
588.106692	0.238528
588.317760	0.238636
588.528810	0.238758
588.739841	0.238633
588.950855	0.238791
589.161850	0.239081
589.372827	0.239161
589.583785	0.239543
589.794726	0.239385
590.005648	0.239459
590.216552	0.239492
590.427437	0.239195
590.638305	0.239142
590.849154	0.239079
591.059985	0.238807
591.270798	0.239009
591.481592	0.238866
591.692369	0.239078
591.903127	0.238926
592.113867	0.239117
592.324588	0.239822
592.535292	0.240449
592.745977	0.240448
592.956644	0.240871
593.167293	0.241331
593.377923	0.241323
593.588536	0.241585
593.799130	0.242017
594.009706	0.242261
594.220263	0.242177
594.430803	0.242517
594.641324	0.242892
594.851827	0.242659
595.062312	0.242344
595.272778	0.243140
595.483227	0.243006
595.693657	0.243158
595.904069	0.242948
596.114462	0.243115
596.324838	0.243097
596.535195	0.243233
596.745534	0.243455
596.955855	0.243921
597.166157	0.243510
597.376441	0.243933
597.586707	0.243940
597.796955	0.244252
598.007185	0.244219
598.217396	0.244196
598.427589	0.244647
598.637764	0.245088
598.847921	0.244888
599.058060	0.245240
599.268180	0.245296
599.478282	0.245874
599.688366	0.246075
599.898431	0.246491
600.108479	0.246790
600.318508	0.246495
600.528519	0.246591
600.738511	0.247102
600.948486	0.247394
601.158442	0.247699
601.368380	0.247605
601.578300	0.247924
601.788202	0.247958
601.998085	0.248204
602.207950	0.248386
602.417797	0.248728
602.627626	0.248584
602.837436	0.248755
603.047228	0.248737
603.257002	0.249031
603.466758	0.249040
603.676496	0.249236
603.886215	0.248856
604.095916	0.249201
604.305599	0.249050
604.515264	0.249610
604.724910	0.249557
604.934538	0.250022
605.144148	0.250260
605.353740	0.250527
605.563314	0.250741
605.772869	0.251191
605.982406	0.251506
606.191925	0.251746
606.401425	0.251687
606.610908	0.252058
606.820372	0.251917
607.029818	0.251665
607.239246	0.251616
607.448655	0.251617
607.658047	0.251896
607.867420	0.251875
608.076775	0.252026
608.286111	0.252176
608.495430	0.252238
608.704730	0.252483
608.914012	0.252792
609.123275	0.253585
609.332521	0.253905
609.541748	0.253742
609.750957	0.254072
609.960148	0.254566
610.169321	0.254801
610.378475	0.254926
610.587611	0.254864
610.796729	0.255200
611.005829	0.255008
611.214910	0.254890
611.423974	0.255430
611.633019	0.255279
611.842045	0.255054
612.051054	0.254969
612.260044	0.255289
612.469017	0.255767
612.677970	0.255752
612.886906	0.255827
613.095824	0.255982
613.304723	0.255771
613.513604	0.256060
613.722467	0.256257
613.931311	0.256388
614.140138	0.256610
614.348946	0.256400
614.557736	0.256538
614.766507	0.256648
614.975261	0.256818
615.183996	0.257246
615.392713	0.257281
615.601412	0.257566
615.810092	0.257820
616.018754	0.257788
616.227399	0.258038
616.436024	0.257888
616.644632	0.257998
616.853222	0.258121
617.061793	0.258112
617.270346	0.258477
617.478880	0.258165
617.687397	0.258368
617.895895	0.258481
618.104375	0.258485
618.312837	0.258694
618.521281	0.258663
618.729706	0.258854
618.938113	0.258970
619.146502	0.258905
619.354873	0.259240
619.563226	0.259075
619.771560	0.259158
619.979876	0.259486
620.188174	0.259993
620.396453	0.260324
620.604715	0.260548
620.812958	0.260806
621.021183	0.260964
621.229390	0.261129
621.437578	0.261655
621.645748	0.261759
621.853900	0.261724
622.062034	0.261741
622.270150	0.261693
622.478247	0.261932
622.686326	0.261986
622.894387	0.262140
623.102430	0.262558
623.310454	0.262499
623.518461	0.262911
623.726449	0.262931
623.934418	0.263077
624.142370	0.263290
624.350303	0.263017
624.558218	0.263091
624.766115	0.262798
624.973994	0.262545
625.181855	0.262675
625.389697	0.262741
625.597521	0.262954
625.805327	0.263023
626.013114	0.263341
626.220883	0.263667
626.428634	0.263759
626.636367	0.264237
626.844082	0.264559
627.051778	0.264932
627.259457	0.265029
627.467117	0.265531
627.674758	0.265665
627.882382	0.265818
628.089987	0.266289
628.297574	0.266637
628.505143	0.266711
628.712694	0.266895
628.920226	0.267090
629.127740	0.267361
629.335236	0.267487
629.542714	0.267833
629.750174	0.268108
629.957615	0.268082
630.165038	0.268383
630.372443	0.268922
630.579829	0.269227
630.787198	0.269213
630.994548	0.269438
631.201880	0.269461
631.409194	0.269589
631.616489	0.269378
631.823766	0.269617
632.031025	0.269596
632.238266	0.269509
632.445489	0.269521
632.652693	0.269773
632.859879	0.269632
633.067047	0.269705
633.274197	0.269645
633.481329	0.270130
633.688442	0.270051
633.895537	0.270087
634.102614	0.270419
634.309672	0.270144
634.516713	0.270008
634.723735	0.270244
634.930739	0.270533
635.137724	0.270687
635.344692	0.270740
635.551641	0.270874
635.758572	0.271267
635.965485	0.271403
636.172379	0.271764
636.379256	0.272059
636.586114	0.272382
636.792954	0.272583
636.999775	0.272648
637.206579	0.272886
637.413364	0.273005
637.620131	0.272966
637.826880	0.273139
638.033610	0.273238
638.240323	0.273210
638.447017	0.272969
638.653692	0.273296
638.860350	0.273492
639.066990	0.273618
639.273611	0.274193
639.480214	0.274641
639.686798	0.274629
639.893365	0.274980
640.099913	0.275322
640.306443	0.275562
640.512955	0.275299
640.719449	0.275534
640.925924	0.275585
641.132381	0.275533
641.338820	0.275466
641.545241	0.275863
641.751644	0.275996
641.958028	0.275972
642.164394	0.276298
642.370742	0.276607
642.577071	0.276832
642.783383	0.277010
642.989676	0.276979
643.195951	0.277400
643.402207	0.277450
643.608446	0.277689
643.814666	0.278213
644.020868	0.278382
644.227052	0.278738
644.433218	0.278937
644.639365	0.279365
644.845494	0.279862
645.051605	0.279673
645.257698	0.279695
645.463772	0.279881
645.669828	0.279873
645.875866	0.280235
646.081886	0.280129
646.287888	0.280384
646.493871	0.280260
646.699836	0.280397
646.905783	0.280762
647.111712	0.281050
647.317622	0.281139
647.523514	0.281333
647.729388	0.281379
647.935244	0.281703
648.141082	0.281952
648.346901	0.282212
648.552702	0.282126
648.758485	0.282176
648.964250	0.282249
649.169996	0.282568
649.375724	0.282782
649.581434	0.282839
649.787126	0.282875
649.992800	0.282906
650.198455	0.283032
650.404092	0.283231
650.609711	0.283485
650.815311	0.283660
651.020894	0.283812
651.226458	0.283936
651.432004	0.284160
651.637532	0.284402
651.843041	0.284713
652.048532	0.284732
652.254006	0.285035
652.459460	0.285192
652.664897	0.285257
652.870315	0.285401
653.075716	0.285734
653.281097	0.285966
653.486461	0.286330
653.691807	0.286211
653.897134	0.286522
654.102443	0.286431
654.307734	0.286719
654.513006	0.287105
654.718261	0.287368
654.923497	0.287587
655.128715	0.287826
655.333915	0.287939
655.539096	0.288547
655.744259	0.288976
655.949404	0.289503
656.154531	0.289680
656.359640	0.289829
656.564730	0.290087
656.769802	0.290227
656.974856	0.290255
657.179892	0.290289
657.384909	0.290422
657.589908	0.290477
657.794889	0.290789
657.999852	0.291016
658.204797	0.291294
658.409723	0.291357
658.614631	0.291741
658.819521	0.291989
659.024393	0.292270
659.229246	0.292297
659.434081	0.292449
659.638898	0.292550
659.843697	0.292556
660.048478	0.292430
660.253240	0.292551
660.457984	0.292531
660.662710	0.292771
660.867417	0.292958
661.072107	0.293093
661.276778	0.293285
661.481431	0.293391
661.686066	0.293643
661.890682	0.293966
662.095281	0.294068
662.299861	0.294178
662.504422	0.294361
662.708966	0.294580
662.913491	0.295153
663.117999	0.295342
663.322488	0.295645
663.526958	0.295900
663.731411	0.296272
663.935845	0.296646
664.140261	0.297125
664.344659	0.297152
664.549038	0.297316
664.753400	0.297083
664.957743	0.297228
665.162068	0.297618
665.366375	0.297726
665.570663	0.297939
665.774933	0.298192
665.979185	0.298083
666.183419	0.298507
666.387635	0.298765
666.591832	0.299194
666.796011	0.299481
667.000172	0.299539
667.204315	0.299843
667.408439	0.300050
667.612545	0.300114
667.816634	0.300527
668.020703	0.300764
668.224755	0.300995
668.428788	0.301055
668.632803	0.301267
668.836800	0.301440
669.040779	0.301833
669.244739	0.302107
669.448681	0.302436
669.652605	0.302507
669.856511	0.302763
670.060399	0.303160
670.264268	0.303505
670.468119	0.303646
670.671952	0.303931
670.875767	0.304016
671.079563	0.303918
671.283341	0.304248
671.487101	0.304691
671.690843	0.304876
671.894567	0.305084
672.098272	0.305233
672.301959	0.305553
672.505628	0.305513
672.709278	0.305524
672.912911	0.305868
673.116525	0.305871
673.320121	0.305867
673.523699	0.305824
673.727258	0.305558
673.930799	0.305773
674.134322	0.306003
674.337827	0.306347
674.541314	0.306576
674.744782	0.307022
674.948232	0.307238
675.151664	0.307497
675.355078	0.307595
675.558474	0.307822
675.761851	0.308096
675.965210	0.308334
676.168551	0.308473
676.371873	0.308966
676.575178	0.309040
676.778464	0.309216
676.981732	0.309265
677.184981	0.309757
677.388213	0.310528
677.591426	0.310376
677.794621	0.310567
677.997798	0.310878
678.200956	0.310905
678.404097	0.311136
678.607219	0.311540
678.810323	0.311879
679.013408	0.311938
679.216476	0.312121
679.419525	0.312377
679.622556	0.312654
679.825569	0.312923
680.028563	0.313113
680.231540	0.313261
680.434498	0.313176
680.637438	0.313313
680.840359	0.313427
681.043263	0.313256
681.246148	0.313506
681.449015	0.313527
681.651864	0.313481
681.854694	0.313806
682.057506	0.313881
682.260301	0.314038
682.463076	0.314471
682.665834	0.314670
682.868573	0.314883
683.071295	0.315298
683.273998	0.315662
683.476682	0.315912
683.679349	0.316004
683.881997	0.316466
684.084627	0.316786
684.287239	0.317026
684.489833	0.317128
684.692408	0.317379
684.894965	0.317286
685.097504	0.317395
685.300025	0.317591
685.502527	0.317568
685.705012	0.317378
685.907478	0.317597
686.109925	0.317758
686.312355	0.318078
686.514766	0.318395
686.717159	0.318869
686.919534	0.318917
687.121891	0.318919
687.324230	0.319186
687.526550	0.319484
687.728852	0.319780
687.931136	0.319680
688.133401	0.319818
688.335649	0.319691
688.537878	0.319514
688.740089	0.319643
688.942281	0.320047
689.144456	0.319867
689.346612	0.319986
689.548750	0.320036
689.750870	0.320153
689.952971	0.320268
690.155055	0.320476
690.357120	0.321014
690.559167	0.321214
690.761195	0.321333
690.963206	0.321898
691.165198	0.322196
691.367172	0.322379
691.569128	0.322527
691.771065	0.322918
691.972984	0.323098
692.174885	0.323078
692.376768	0.323121
692.578633	0.323315
692.780479	0.323485
692.982308	0.323525
693.184118	0.323746
693.385909	0.323712
