sample name	sample
index	1091
start time	 04-22-2021  11:45:51 AM


Wavelength (nm)	Absorbance
494.344910	NaN
494.563924	NaN
494.782919	NaN
495.001897	-0.042173
495.220856	0.475472
495.439797	0.310682
495.658719	0.205014
495.877624	0.108875
496.096510	0.137082
496.315378	0.174240
496.534227	0.131694
496.753059	0.087468
496.971872	0.067146
497.190667	0.067002
497.409444	0.065339
497.628203	0.062741
497.846943	0.065881
498.065665	0.064192
498.284369	0.062943
498.503055	0.063232
498.721723	0.064034
498.940372	0.064796
499.159003	0.064360
499.377616	0.065251
499.596210	0.065412
499.814787	0.064112
500.033345	0.064800
500.251885	0.063987
500.470406	0.064179
500.688910	0.064544
500.907395	0.064332
501.125862	0.064739
501.344311	0.064063
501.562742	0.064899
501.781154	0.065467
501.999548	0.065413
502.217924	0.066364
502.436282	0.065174
502.654621	0.064759
502.872942	0.064437
503.091245	0.064422
503.309530	0.064342
503.527797	0.063881
503.746045	0.064065
503.964275	0.064411
504.182487	0.065222
504.400681	0.066413
504.618856	0.066823
504.837013	0.067402
505.055152	0.067769
505.273273	0.067581
505.491376	0.067770
505.709460	0.067103
505.927526	0.066102
506.145574	0.065497
506.363604	0.066116
506.581615	0.065631
506.799608	0.064679
507.017583	0.064525
507.235540	0.064120
507.453478	0.064208
507.671399	0.064383
507.889301	0.064994
508.107185	0.065366
508.325050	0.064884
508.542898	0.065041
508.760727	0.065036
508.978538	0.064914
509.196330	0.065814
509.414105	0.065293
509.631861	0.065599
509.849599	0.065441
510.067319	0.066406
510.285021	0.067062
510.502704	0.067470
510.720369	0.067518
510.938016	0.067758
511.155645	0.067799
511.373255	0.068012
511.590848	0.068231
511.808422	0.068846
512.025977	0.067104
512.243515	0.066297
512.461034	0.066741
512.678536	0.067914
512.896018	0.067383
513.113483	0.067167
513.330930	0.066636
513.548358	0.065701
513.765768	0.065036
513.983160	0.066107
514.200533	0.066033
514.417889	0.065920
514.635226	0.065417
514.852545	0.066471
515.069845	0.066763
515.287128	0.068071
515.504392	0.069162
515.721638	0.069702
515.938866	0.069928
516.156075	0.070710
516.373267	0.070915
516.590440	0.071175
516.807594	0.070703
517.024731	0.070754
517.241850	0.070487
517.458950	0.070642
517.676032	0.071596
517.893095	0.071846
518.110141	0.072098
518.327168	0.071836
518.544177	0.072112
518.761168	0.072838
518.978141	0.072674
519.195095	0.072943
519.412031	0.072643
519.628949	0.071614
519.845849	0.070865
520.062731	0.070345
520.279594	0.070780
520.496439	0.070589
520.713266	0.070698
520.930074	0.071224
521.146865	0.071327
521.363637	0.071815
521.580391	0.072504
521.797127	0.073050
522.013844	0.073426
522.230543	0.073489
522.447224	0.073659
522.663887	0.073551
522.880532	0.073544
523.097158	0.074105
523.313766	0.073901
523.530356	0.073309
523.746928	0.073972
523.963481	0.074031
524.180017	0.073944
524.396534	0.074452
524.613032	0.074355
524.829513	0.074693
525.045975	0.074156
525.262420	0.074468
525.478845	0.075203
525.695253	0.074769
525.911643	0.075321
526.128014	0.075673
526.344367	0.075845
526.560702	0.076411
526.777018	0.076366
526.993316	0.077364
527.209597	0.077615
527.425858	0.078025
527.642102	0.078381
527.858328	0.078468
528.074535	0.078746
528.290724	0.078681
528.506894	0.078130
528.723047	0.078531
528.939181	0.077720
529.155297	0.077360
529.371395	0.077737
529.587475	0.078593
529.803536	0.078751
530.019579	0.078807
530.235604	0.078470
530.451611	0.078965
530.667600	0.078482
530.883570	0.079053
531.099522	0.079902
531.315456	0.079507
531.531372	0.079308
531.747269	0.079317
531.963148	0.079128
532.179009	0.079844
532.394852	0.080340
532.610676	0.081194
532.826482	0.081311
533.042271	0.081162
533.258040	0.081605
533.473792	0.081703
533.689525	0.082302
533.905240	0.082977
534.120937	0.082854
534.336616	0.083066
534.552277	0.083092
534.767919	0.083295
534.983543	0.083417
535.199149	0.083575
535.414736	0.083351
535.630306	0.083369
535.845857	0.083377
536.061390	0.083607
536.276904	0.083304
536.492401	0.083696
536.707879	0.084115
536.923339	0.084628
537.138781	0.084674
537.354204	0.084817
537.569610	0.084551
537.784997	0.084533
538.000366	0.085197
538.215716	0.085603
538.431049	0.085479
538.646363	0.084989
538.861659	0.084908
539.076937	0.084856
539.292196	0.085365
539.507438	0.085821
539.722661	0.085751
539.937866	0.085223
540.153052	0.085496
540.368221	0.085723
540.583371	0.086012
540.798503	0.086193
541.013617	0.086783
541.228712	0.086950
541.443789	0.086426
541.658848	0.086640
541.873889	0.086982
542.088912	0.086683
542.303916	0.087023
542.518902	0.087035
542.733870	0.087407
542.948820	0.087316
543.163752	0.087541
543.378665	0.087783
543.593560	0.088117
543.808437	0.088600
544.023295	0.089107
544.238136	0.088832
544.452958	0.089484
544.667762	0.089313
544.882548	0.089293
545.097315	0.089110
545.312064	0.089824
545.526795	0.089696
545.741508	0.089561
545.956203	0.089927
546.170879	0.089980
546.385537	0.090193
546.600177	0.090278
546.814799	0.090552
547.029402	0.091262
547.243988	0.091074
547.458555	0.091034
547.673103	0.091353
547.887634	0.091109
548.102146	0.091157
548.316640	0.091075
548.531116	0.090761
548.745574	0.090654
548.960013	0.090464
549.174435	0.090817
549.388838	0.091228
549.603222	0.091255
549.817589	0.091080
550.031937	0.091293
550.246267	0.091369
550.460579	0.091734
550.674873	0.091831
550.889148	0.091458
551.103405	0.091411
551.317644	0.091382
551.531865	0.091517
551.746068	0.091744
551.960252	0.091902
552.174418	0.092076
552.388566	0.092221
552.602696	0.092652
552.816807	0.092516
553.030900	0.092678
553.244975	0.092726
553.459032	0.092477
553.673070	0.092134
553.887091	0.092133
554.101093	0.092652
554.315077	0.092860
554.529042	0.092474
554.742990	0.093098
554.956919	0.092702
555.170830	0.093060
555.384722	0.093392
555.598597	0.093721
555.812453	0.093872
556.026291	0.093748
556.240111	0.093998
556.453913	0.094094
556.667696	0.093835
556.881461	0.093863
557.095208	0.093536
557.308937	0.093525
557.522647	0.093476
557.736339	0.093511
557.950013	0.092934
558.163669	0.092781
558.377307	0.092956
558.590926	0.093462
558.804527	0.093578
559.018110	0.093839
559.231675	0.093933
559.445221	0.094132
559.658749	0.094227
559.872259	0.094505
560.085751	0.094335
560.299225	0.094476
560.512680	0.093649
560.726117	0.093995
560.939536	0.094566
561.152937	0.094665
561.366319	0.094992
561.579683	0.094991
561.793029	0.094906
562.006357	0.095210
562.219667	0.095072
562.432958	0.095667
562.646231	0.095183
562.859486	0.094616
563.072723	0.094456
563.285941	0.094357
563.499141	0.094249
563.712323	0.094458
563.925487	0.094104
564.138632	0.094205
564.351760	0.094187
564.564869	0.094891
564.777960	0.095039
564.991032	0.095358
565.204087	0.095526
565.417123	0.095458
565.630141	0.095378
565.843140	0.095572
566.056122	0.095418
566.269085	0.095457
566.482030	0.095267
566.694957	0.095143
566.907866	0.095171
567.120756	0.095230
567.333628	0.095840
567.546482	0.095739
567.759318	0.095773
567.972135	0.096072
568.184935	0.096503
568.397716	0.096967
568.610478	0.097302
568.823223	0.097419
569.035949	0.097694
569.248657	0.097478
569.461347	0.098154
569.674019	0.098874
569.886672	0.099243
570.099308	0.099073
570.311925	0.098965
570.524523	0.098981
570.737104	0.098531
570.949666	0.098483
571.162210	0.098638
571.374736	0.098462
571.587244	0.097778
571.799733	0.097801
572.012205	0.097922
572.224658	0.097802
572.437092	0.097913
572.649509	0.098022
572.861907	0.097695
573.074287	0.097518
573.286649	0.097489
573.498993	0.097775
573.711318	0.097796
573.923625	0.097811
574.135914	0.098129
574.348185	0.097931
574.560438	0.098359
574.772672	0.098437
574.984888	0.098303
575.197086	0.098205
575.409266	0.098250
575.621427	0.098165
575.833570	0.098171
576.045695	0.098080
576.257802	0.098488
576.469890	0.098201
576.681961	0.098342
576.894013	0.098812
577.106046	0.098970
577.318062	0.098767
577.530059	0.098724
577.742039	0.098862
577.954000	0.098987
578.165942	0.098786
578.377867	0.099022
578.589773	0.099436
578.801661	0.099427
579.013531	0.099079
579.225382	0.099248
579.437216	0.099466
579.649031	0.099504
579.860828	0.099452
580.072606	0.099440
580.284367	0.099172
580.496109	0.099005
580.707833	0.098842
580.919539	0.099265
581.131227	0.099403
581.342896	0.099386
581.554547	0.099193
581.766180	0.099335
581.977795	0.099497
582.189391	0.099980
582.400969	0.099707
582.612529	0.099855
582.824071	0.100022
583.035595	0.100097
583.247100	0.099860
583.458587	0.100034
583.670056	0.100193
583.881506	0.100312
584.092939	0.100267
584.304353	0.100535
584.515749	0.100801
584.727127	0.100750
584.938486	0.101001
585.149828	0.101316
585.361151	0.101525
585.572456	0.101031
585.783742	0.100835
585.995011	0.100830
586.206261	0.101012
586.417493	0.101042
586.628706	0.101042
586.839902	0.100964
587.051079	0.101369
587.262238	0.101672
587.473379	0.101927
587.684502	0.102157
587.895606	0.102016
588.106692	0.101944
588.317760	0.102110
588.528810	0.102145
588.739841	0.102101
588.950855	0.101964
589.161850	0.101499
589.372827	0.101897
589.583785	0.101740
589.794726	0.101765
590.005648	0.101849
590.216552	0.101736
590.427437	0.101797
590.638305	0.102130
590.849154	0.101925
591.059985	0.102198
591.270798	0.101941
591.481592	0.102573
591.692369	0.102733
591.903127	0.102720
592.113867	0.102510
592.324588	0.102562
592.535292	0.102520
592.745977	0.102551
592.956644	0.102595
593.167293	0.102291
593.377923	0.101915
593.588536	0.101828
593.799130	0.101812
594.009706	0.101980
594.220263	0.102224
594.430803	0.102363
594.641324	0.102422
594.851827	0.102445
595.062312	0.102692
595.272778	0.102739
595.483227	0.103156
595.693657	0.103310
595.904069	0.103209
596.114462	0.103220
596.324838	0.102796
596.535195	0.102896
596.745534	0.102486
596.955855	0.102879
597.166157	0.102996
597.376441	0.102830
597.586707	0.102976
597.796955	0.103238
598.007185	0.103257
598.217396	0.103468
598.427589	0.103274
598.637764	0.103519
598.847921	0.103396
599.058060	0.103649
599.268180	0.103592
599.478282	0.103544
599.688366	0.103414
599.898431	0.103385
600.108479	0.103398
600.318508	0.103622
600.528519	0.103959
600.738511	0.103787
600.948486	0.103554
601.158442	0.103630
601.368380	0.103689
601.578300	0.103760
601.788202	0.103744
601.998085	0.104070
602.207950	0.104307
602.417797	0.104284
602.627626	0.104523
602.837436	0.104676
603.047228	0.104925
603.257002	0.104904
603.466758	0.105100
603.676496	0.105285
603.886215	0.105483
604.095916	0.105541
604.305599	0.105757
604.515264	0.105689
604.724910	0.105724
604.934538	0.106191
605.144148	0.106539
605.353740	0.106717
605.563314	0.106868
605.772869	0.106764
605.982406	0.106918
606.191925	0.106728
606.401425	0.106986
606.610908	0.107015
606.820372	0.106576
607.029818	0.106696
607.239246	0.106697
607.448655	0.106638
607.658047	0.106608
607.867420	0.106622
608.076775	0.106951
608.286111	0.106947
608.495430	0.106825
608.704730	0.106837
608.914012	0.106586
609.123275	0.106493
609.332521	0.106328
609.541748	0.106429
609.750957	0.106532
609.960148	0.106263
610.169321	0.106376
610.378475	0.106989
610.587611	0.107208
610.796729	0.107675
611.005829	0.107872
611.214910	0.108276
611.423974	0.108255
611.633019	0.108271
611.842045	0.108480
612.051054	0.108471
612.260044	0.108267
612.469017	0.108302
612.677970	0.108145
612.886906	0.107984
613.095824	0.107727
613.304723	0.107616
613.513604	0.107323
613.722467	0.107159
613.931311	0.107073
614.140138	0.107044
614.348946	0.106988
614.557736	0.106548
614.766507	0.106513
614.975261	0.106649
615.183996	0.106691
615.392713	0.106707
615.601412	0.106962
615.810092	0.107195
616.018754	0.107230
616.227399	0.107237
616.436024	0.107564
616.644632	0.107730
616.853222	0.107892
617.061793	0.107770
617.270346	0.107880
617.478880	0.107843
617.687397	0.108118
617.895895	0.108261
618.104375	0.108361
618.312837	0.108460
618.521281	0.108386
618.729706	0.108162
618.938113	0.108555
619.146502	0.108732
619.354873	0.108977
619.563226	0.108834
619.771560	0.108796
619.979876	0.108873
620.188174	0.108576
620.396453	0.109074
620.604715	0.109424
620.812958	0.109598
621.021183	0.109397
621.229390	0.109299
621.437578	0.109446
621.645748	0.109387
621.853900	0.109474
622.062034	0.109816
622.270150	0.109716
622.478247	0.109516
622.686326	0.109364
622.894387	0.109564
623.102430	0.109596
623.310454	0.109457
623.518461	0.109498
623.726449	0.109531
623.934418	0.109666
624.142370	0.109450
624.350303	0.109643
624.558218	0.109708
624.766115	0.109953
624.973994	0.109968
625.181855	0.109837
625.389697	0.109988
625.597521	0.109994
625.805327	0.110258
626.013114	0.110366
626.220883	0.110482
626.428634	0.110629
626.636367	0.110678
626.844082	0.110820
627.051778	0.110971
627.259457	0.111144
627.467117	0.111392
627.674758	0.111438
627.882382	0.111724
628.089987	0.111701
628.297574	0.111894
628.505143	0.112015
628.712694	0.112112
628.920226	0.112442
629.127740	0.112482
629.335236	0.112490
629.542714	0.112423
629.750174	0.112515
629.957615	0.112536
630.165038	0.112563
630.372443	0.112488
630.579829	0.112724
630.787198	0.112869
630.994548	0.112966
631.201880	0.112995
631.409194	0.113196
631.616489	0.113321
631.823766	0.113673
632.031025	0.113633
632.238266	0.113754
632.445489	0.113669
632.652693	0.113763
632.859879	0.113822
633.067047	0.113937
633.274197	0.113898
633.481329	0.113752
633.688442	0.113629
633.895537	0.113684
634.102614	0.113889
634.309672	0.114193
634.516713	0.114061
634.723735	0.114149
634.930739	0.114308
635.137724	0.114534
635.344692	0.114852
635.551641	0.115038
635.758572	0.115087
635.965485	0.115198
636.172379	0.115175
636.379256	0.115507
636.586114	0.115596
636.792954	0.115671
636.999775	0.115305
637.206579	0.115224
637.413364	0.115286
637.620131	0.115205
637.826880	0.115195
638.033610	0.115088
638.240323	0.114921
638.447017	0.114754
638.653692	0.114393
638.860350	0.114704
639.066990	0.114729
639.273611	0.114788
639.480214	0.115045
639.686798	0.115064
639.893365	0.115400
640.099913	0.115448
640.306443	0.115678
640.512955	0.116079
640.719449	0.115968
640.925924	0.115933
641.132381	0.116086
641.338820	0.116334
641.545241	0.116485
641.751644	0.116404
641.958028	0.116464
642.164394	0.116715
642.370742	0.116891
642.577071	0.117132
642.783383	0.117417
642.989676	0.117399
643.195951	0.117378
643.402207	0.117320
643.608446	0.117345
643.814666	0.117404
644.020868	0.117184
644.227052	0.117190
644.433218	0.117326
644.639365	0.117408
644.845494	0.117559
645.051605	0.117796
645.257698	0.118112
645.463772	0.118303
645.669828	0.118698
645.875866	0.118764
646.081886	0.118945
646.287888	0.119159
646.493871	0.119154
646.699836	0.119183
646.905783	0.119226
647.111712	0.119243
647.317622	0.119247
647.523514	0.119216
647.729388	0.119640
647.935244	0.119606
648.141082	0.119496
648.346901	0.119790
648.552702	0.119974
648.758485	0.120046
648.964250	0.120038
649.169996	0.120402
649.375724	0.120463
649.581434	0.120317
649.787126	0.120447
649.992800	0.120573
650.198455	0.120730
650.404092	0.120618
650.609711	0.120724
650.815311	0.120848
651.020894	0.120670
651.226458	0.120701
651.432004	0.120976
651.637532	0.121123
651.843041	0.121352
652.048532	0.121461
652.254006	0.121877
652.459460	0.121878
652.664897	0.121976
652.870315	0.122263
653.075716	0.122682
653.281097	0.122696
653.486461	0.122771
653.691807	0.122870
653.897134	0.122667
654.102443	0.122743
654.307734	0.122690
654.513006	0.122894
654.718261	0.123072
654.923497	0.122974
655.128715	0.123187
655.333915	0.123182
655.539096	0.123288
655.744259	0.123508
655.949404	0.123329
656.154531	0.123505
656.359640	0.123613
656.564730	0.123407
656.769802	0.123322
656.974856	0.123257
657.179892	0.123354
657.384909	0.123121
657.589908	0.123283
657.794889	0.123553
657.999852	0.123857
658.204797	0.124031
658.409723	0.124181
658.614631	0.124637
658.819521	0.124851
659.024393	0.125234
659.229246	0.125488
659.434081	0.125653
659.638898	0.125805
659.843697	0.125840
660.048478	0.125859
660.253240	0.126131
660.457984	0.126036
660.662710	0.126037
660.867417	0.125899
661.072107	0.126059
661.276778	0.125925
661.481431	0.125873
661.686066	0.125765
661.890682	0.125796
662.095281	0.125721
662.299861	0.125800
662.504422	0.126016
662.708966	0.126127
662.913491	0.126155
663.117999	0.126280
663.322488	0.126559
663.526958	0.126710
663.731411	0.126740
663.935845	0.126885
664.140261	0.126916
664.344659	0.126864
664.549038	0.127003
664.753400	0.127219
664.957743	0.127471
665.162068	0.127335
665.366375	0.127448
665.570663	0.127671
665.774933	0.127754
665.979185	0.127738
666.183419	0.127897
666.387635	0.127921
666.591832	0.127863
666.796011	0.127912
667.000172	0.127928
667.204315	0.127978
667.408439	0.127812
667.612545	0.127931
667.816634	0.128155
668.020703	0.128301
668.224755	0.128668
668.428788	0.128913
668.632803	0.128956
668.836800	0.129325
669.040779	0.129539
669.244739	0.129849
669.448681	0.129888
669.652605	0.130124
669.856511	0.130249
670.060399	0.130235
670.264268	0.130257
670.468119	0.130526
670.671952	0.130539
670.875767	0.130638
671.079563	0.130878
671.283341	0.131138
671.487101	0.131234
671.690843	0.131359
671.894567	0.131392
672.098272	0.131626
672.301959	0.131662
672.505628	0.131669
672.709278	0.132066
672.912911	0.132037
673.116525	0.131972
673.320121	0.132118
673.523699	0.132184
673.727258	0.132145
673.930799	0.132421
674.134322	0.132498
674.337827	0.132685
674.541314	0.132609
674.744782	0.132609
674.948232	0.132870
675.151664	0.132968
675.355078	0.133087
675.558474	0.133498
675.761851	0.133485
675.965210	0.133695
676.168551	0.134050
676.371873	0.134215
676.575178	0.134591
676.778464	0.134558
676.981732	0.134592
677.184981	0.134701
677.388213	0.134589
677.591426	0.134713
677.794621	0.134621
677.997798	0.134650
678.200956	0.134627
678.404097	0.134596
678.607219	0.134757
678.810323	0.134824
679.013408	0.134775
679.216476	0.134861
679.419525	0.134718
679.622556	0.134801
679.825569	0.134784
680.028563	0.134691
680.231540	0.134749
680.434498	0.134777
680.637438	0.134639
680.840359	0.134691
681.043263	0.134841
681.246148	0.135103
681.449015	0.135301
681.651864	0.135282
681.854694	0.135562
682.057506	0.135359
682.260301	0.135547
682.463076	0.135830
682.665834	0.135997
682.868573	0.136008
683.071295	0.136139
683.273998	0.136142
683.476682	0.136370
683.679349	0.136533
683.881997	0.136925
684.084627	0.136990
684.287239	0.137115
684.489833	0.137203
684.692408	0.137335
684.894965	0.137350
685.097504	0.137479
685.300025	0.137730
685.502527	0.137742
685.705012	0.137760
685.907478	0.137756
686.109925	0.137926
686.312355	0.138194
686.514766	0.138386
686.717159	0.138333
686.919534	0.138373
687.121891	0.138200
687.324230	0.138396
687.526550	0.138506
687.728852	0.138642
687.931136	0.138655
688.133401	0.138555
688.335649	0.138485
688.537878	0.138653
688.740089	0.138743
688.942281	0.138870
689.144456	0.138815
689.346612	0.138805
689.548750	0.138906
689.750870	0.139012
689.952971	0.139095
690.155055	0.139281
690.357120	0.139246
690.559167	0.139560
690.761195	0.139588
690.963206	0.139679
691.165198	0.139752
691.367172	0.139785
691.569128	0.139714
691.771065	0.139791
691.972984	0.139811
692.174885	0.140100
692.376768	0.139902
692.578633	0.139883
692.780479	0.139996
692.982308	0.140048
693.184118	0.140135
693.385909	0.140162
693.587683	0.140207
