sample name	sample
index	1327
start time	 05-03-2021  11:14:51 AM


Wavelength (nm)	Absorbance
494.344910	-0.065887
494.563924	-0.065887
494.782919	-0.065887
495.001897	0.124163
495.220856	-0.034356
495.439797	-0.041205
495.658719	-0.041980
495.877624	-0.052492
496.096510	-0.043484
496.315378	-0.037791
496.534227	-0.024417
496.753059	-0.008641
496.971872	0.016049
497.190667	0.068137
497.409444	0.078163
497.628203	0.079221
497.846943	0.077102
498.065665	0.076463
498.284369	0.076654
498.503055	0.077386
498.721723	0.077186
498.940372	0.077131
499.159003	0.075850
499.377616	0.074859
499.596210	0.074820
499.814787	0.074259
500.033345	0.074801
500.251885	0.073804
500.470406	0.074145
500.688910	0.073681
500.907395	0.073184
501.125862	0.073609
501.344311	0.074668
501.562742	0.074688
501.781154	0.075424
501.999548	0.074438
502.217924	0.075556
502.436282	0.074624
502.654621	0.076016
502.872942	0.076980
503.091245	0.077428
503.309530	0.077548
503.527797	0.078142
503.746045	0.078300
503.964275	0.078637
504.182487	0.077664
504.400681	0.077837
504.618856	0.076751
504.837013	0.076033
505.055152	0.075137
505.273273	0.075020
505.491376	0.075028
505.709460	0.074894
505.927526	0.074555
506.145574	0.075211
506.363604	0.075678
506.581615	0.076121
506.799608	0.076660
507.017583	0.076909
507.235540	0.077116
507.453478	0.076620
507.671399	0.078242
507.889301	0.079845
508.107185	0.078560
508.325050	0.079135
508.542898	0.079185
508.760727	0.078695
508.978538	0.079263
509.196330	0.079144
509.414105	0.079122
509.631861	0.078435
509.849599	0.077064
510.067319	0.078310
510.285021	0.077787
510.502704	0.078112
510.720369	0.078246
510.938016	0.078716
511.155645	0.078476
511.373255	0.078016
511.590848	0.078093
511.808422	0.078723
512.025977	0.078482
512.243515	0.078324
512.461034	0.078485
512.678536	0.078736
512.896018	0.078340
513.113483	0.078123
513.330930	0.079119
513.548358	0.078612
513.765768	0.078942
513.983160	0.078812
514.200533	0.079253
514.417889	0.079405
514.635226	0.079463
514.852545	0.079562
515.069845	0.079330
515.287128	0.078510
515.504392	0.078874
515.721638	0.078859
515.938866	0.079145
516.156075	0.079507
516.373267	0.079856
516.590440	0.079366
516.807594	0.079321
517.024731	0.080233
517.241850	0.080289
517.458950	0.080808
517.676032	0.080274
517.893095	0.080777
518.110141	0.080470
518.327168	0.080190
518.544177	0.080017
518.761168	0.080799
518.978141	0.080817
519.195095	0.082129
519.412031	0.081884
519.628949	0.082608
519.845849	0.082207
520.062731	0.081523
520.279594	0.081388
520.496439	0.082260
520.713266	0.081611
520.930074	0.081451
521.146865	0.080916
521.363637	0.081315
521.580391	0.080637
521.797127	0.081385
522.013844	0.082364
522.230543	0.082466
522.447224	0.081849
522.663887	0.082183
522.880532	0.082027
523.097158	0.081787
523.313766	0.081491
523.530356	0.081604
523.746928	0.081501
523.963481	0.081047
524.180017	0.081438
524.396534	0.081837
524.613032	0.081964
524.829513	0.081875
525.045975	0.082359
525.262420	0.082318
525.478845	0.082832
525.695253	0.082643
525.911643	0.082762
526.128014	0.082679
526.344367	0.083138
526.560702	0.083121
526.777018	0.083973
526.993316	0.084220
527.209597	0.084105
527.425858	0.084395
527.642102	0.084219
527.858328	0.084427
528.074535	0.084807
528.290724	0.084656
528.506894	0.084491
528.723047	0.084096
528.939181	0.084581
529.155297	0.084919
529.371395	0.085492
529.587475	0.085856
529.803536	0.086404
530.019579	0.085240
530.235604	0.085831
530.451611	0.086398
530.667600	0.086585
530.883570	0.085981
531.099522	0.085703
531.315456	0.085485
531.531372	0.085449
531.747269	0.085359
531.963148	0.086609
532.179009	0.086158
532.394852	0.086101
532.610676	0.086552
532.826482	0.086535
533.042271	0.087527
533.258040	0.087908
533.473792	0.088128
533.689525	0.087781
533.905240	0.088026
534.120937	0.088240
534.336616	0.088194
534.552277	0.087834
534.767919	0.088101
534.983543	0.088121
535.199149	0.088432
535.414736	0.088146
535.630306	0.088204
535.845857	0.088200
536.061390	0.088142
536.276904	0.087956
536.492401	0.088033
536.707879	0.088054
536.923339	0.088271
537.138781	0.087832
537.354204	0.088581
537.569610	0.089000
537.784997	0.089370
538.000366	0.090183
538.215716	0.090750
538.431049	0.091270
538.646363	0.091752
538.861659	0.091453
539.076937	0.091559
539.292196	0.091858
539.507438	0.091981
539.722661	0.091595
539.937866	0.091072
540.153052	0.091522
540.368221	0.091632
540.583371	0.091639
540.798503	0.092007
541.013617	0.091908
541.228712	0.091692
541.443789	0.092081
541.658848	0.092056
541.873889	0.092440
542.088912	0.092045
542.303916	0.092734
542.518902	0.092532
542.733870	0.092611
542.948820	0.093241
543.163752	0.093312
543.378665	0.093304
543.593560	0.093046
543.808437	0.092773
544.023295	0.092887
544.238136	0.092091
544.452958	0.092282
544.667762	0.092414
544.882548	0.092067
545.097315	0.092366
545.312064	0.092387
545.526795	0.093623
545.741508	0.093853
545.956203	0.093858
546.170879	0.093996
546.385537	0.094289
546.600177	0.094029
546.814799	0.094005
547.029402	0.093708
547.243988	0.093485
547.458555	0.092871
547.673103	0.092740
547.887634	0.092696
548.102146	0.093362
548.316640	0.093002
548.531116	0.093339
548.745574	0.093719
548.960013	0.094002
549.174435	0.094330
549.388838	0.094602
549.603222	0.095119
549.817589	0.095287
550.031937	0.095029
550.246267	0.095407
550.460579	0.095305
550.674873	0.095620
550.889148	0.095684
551.103405	0.095668
551.317644	0.095346
551.531865	0.095539
551.746068	0.095602
551.960252	0.095845
552.174418	0.095589
552.388566	0.095410
552.602696	0.094813
552.816807	0.094930
553.030900	0.095229
553.244975	0.095466
553.459032	0.095096
553.673070	0.095445
553.887091	0.094965
554.101093	0.095182
554.315077	0.095522
554.529042	0.095669
554.742990	0.095807
554.956919	0.096311
555.170830	0.096304
555.384722	0.096588
555.598597	0.096567
555.812453	0.096866
556.026291	0.097316
556.240111	0.097727
556.453913	0.098241
556.667696	0.098270
556.881461	0.097777
557.095208	0.097840
557.308937	0.097768
557.522647	0.098337
557.736339	0.098664
557.950013	0.098303
558.163669	0.098034
558.377307	0.098077
558.590926	0.098285
558.804527	0.098411
559.018110	0.098851
559.231675	0.099119
559.445221	0.098706
559.658749	0.098966
559.872259	0.099045
560.085751	0.099103
560.299225	0.098935
560.512680	0.099237
560.726117	0.099464
560.939536	0.099417
561.152937	0.099348
561.366319	0.099593
561.579683	0.099243
561.793029	0.099424
562.006357	0.099549
562.219667	0.099345
562.432958	0.099066
562.646231	0.098975
562.859486	0.099184
563.072723	0.099536
563.285941	0.099503
563.499141	0.099269
563.712323	0.099633
563.925487	0.100099
564.138632	0.100530
564.351760	0.100712
564.564869	0.100717
564.777960	0.100731
564.991032	0.100666
565.204087	0.101130
565.417123	0.101400
565.630141	0.101512
565.843140	0.101262
566.056122	0.101351
566.269085	0.101164
566.482030	0.101446
566.694957	0.101665
566.907866	0.101676
567.120756	0.101476
567.333628	0.101641
567.546482	0.101363
567.759318	0.101493
567.972135	0.101429
568.184935	0.101850
568.397716	0.101698
568.610478	0.101523
568.823223	0.101496
569.035949	0.101502
569.248657	0.101553
569.461347	0.101572
569.674019	0.101500
569.886672	0.101198
570.099308	0.100759
570.311925	0.100674
570.524523	0.100548
570.737104	0.100756
570.949666	0.100773
571.162210	0.101077
571.374736	0.101354
571.587244	0.101602
571.799733	0.102323
572.012205	0.102356
572.224658	0.102689
572.437092	0.103010
572.649509	0.103077
572.861907	0.103072
573.074287	0.102669
573.286649	0.102395
573.498993	0.102205
573.711318	0.102061
573.923625	0.102215
574.135914	0.101888
574.348185	0.101454
574.560438	0.101405
574.772672	0.101428
574.984888	0.101643
575.197086	0.102277
575.409266	0.102437
575.621427	0.102394
575.833570	0.102412
576.045695	0.102916
576.257802	0.103243
576.469890	0.103162
576.681961	0.103406
576.894013	0.103175
577.106046	0.102869
577.318062	0.102606
577.530059	0.102800
577.742039	0.102808
577.954000	0.102630
578.165942	0.102627
578.377867	0.102579
578.589773	0.102340
578.801661	0.102635
579.013531	0.102606
579.225382	0.103098
579.437216	0.103105
579.649031	0.103431
579.860828	0.103448
580.072606	0.103613
580.284367	0.103832
580.496109	0.103759
580.707833	0.103780
580.919539	0.103685
581.131227	0.103577
581.342896	0.103484
581.554547	0.103664
581.766180	0.103729
581.977795	0.103468
582.189391	0.103763
582.400969	0.103897
582.612529	0.104098
582.824071	0.104590
583.035595	0.104497
583.247100	0.104666
583.458587	0.104578
583.670056	0.104650
583.881506	0.104568
584.092939	0.104623
584.304353	0.104801
584.515749	0.104603
584.727127	0.104272
584.938486	0.104577
585.149828	0.104544
585.361151	0.104408
585.572456	0.104609
585.783742	0.105007
585.995011	0.104797
586.206261	0.104875
586.417493	0.104997
586.628706	0.104845
586.839902	0.104553
587.051079	0.104328
587.262238	0.104343
587.473379	0.104110
587.684502	0.103967
587.895606	0.104173
588.106692	0.104063
588.317760	0.104226
588.528810	0.104586
588.739841	0.104700
588.950855	0.104788
589.161850	0.104845
589.372827	0.104690
589.583785	0.104900
589.794726	0.104664
590.005648	0.104828
590.216552	0.105102
590.427437	0.105097
590.638305	0.105432
590.849154	0.105788
591.059985	0.105875
591.270798	0.106431
591.481592	0.106819
591.692369	0.107053
591.903127	0.107352
592.113867	0.107380
592.324588	0.107475
592.535292	0.107426
592.745977	0.107446
592.956644	0.107705
593.167293	0.107945
593.377923	0.107647
593.588536	0.107891
593.799130	0.107731
594.009706	0.107795
594.220263	0.107848
594.430803	0.107471
594.641324	0.107325
594.851827	0.107161
595.062312	0.106774
595.272778	0.107140
595.483227	0.106982
595.693657	0.106839
595.904069	0.106447
596.114462	0.106562
596.324838	0.107001
596.535195	0.106989
596.745534	0.107250
596.955855	0.107302
597.166157	0.107058
597.376441	0.107143
597.586707	0.107111
597.796955	0.107575
598.007185	0.107762
598.217396	0.107547
598.427589	0.107868
598.637764	0.107791
598.847921	0.108043
599.058060	0.108149
599.268180	0.108231
599.478282	0.108626
599.688366	0.108565
599.898431	0.108514
600.108479	0.108942
600.318508	0.109060
600.528519	0.109056
600.738511	0.109112
600.948486	0.109621
601.158442	0.109666
601.368380	0.109946
601.578300	0.110062
601.788202	0.110221
601.998085	0.110147
602.207950	0.109981
602.417797	0.110253
602.627626	0.110208
602.837436	0.110070
603.047228	0.110395
603.257002	0.110228
603.466758	0.110176
603.676496	0.110064
603.886215	0.110037
604.095916	0.110303
604.305599	0.110330
604.515264	0.110292
604.724910	0.110417
604.934538	0.110246
605.144148	0.110201
605.353740	0.110453
605.563314	0.110419
605.772869	0.110389
605.982406	0.110299
606.191925	0.110201
606.401425	0.110518
606.610908	0.110359
606.820372	0.110459
607.029818	0.110622
607.239246	0.110330
607.448655	0.110793
607.658047	0.111044
607.867420	0.111131
608.076775	0.111031
608.286111	0.111006
608.495430	0.111033
608.704730	0.110816
608.914012	0.110952
609.123275	0.111200
609.332521	0.111046
609.541748	0.111030
609.750957	0.111131
609.960148	0.111392
610.169321	0.111532
610.378475	0.111698
610.587611	0.111986
610.796729	0.112189
611.005829	0.112088
611.214910	0.112060
611.423974	0.112302
611.633019	0.112253
611.842045	0.112163
612.051054	0.112324
612.260044	0.112174
612.469017	0.112315
612.677970	0.111930
612.886906	0.112148
613.095824	0.112198
613.304723	0.111816
613.513604	0.111828
613.722467	0.111975
613.931311	0.111698
614.140138	0.111513
614.348946	0.111341
614.557736	0.111210
614.766507	0.110972
614.975261	0.110886
615.183996	0.111019
615.392713	0.110989
615.601412	0.110980
615.810092	0.110770
616.018754	0.110639
616.227399	0.110521
616.436024	0.110632
616.644632	0.110800
616.853222	0.110900
617.061793	0.110913
617.270346	0.110754
617.478880	0.110541
617.687397	0.110598
617.895895	0.110681
618.104375	0.110797
618.312837	0.111008
618.521281	0.110985
618.729706	0.110693
618.938113	0.110660
619.146502	0.110885
619.354873	0.111305
619.563226	0.111588
619.771560	0.111939
619.979876	0.112144
620.188174	0.112282
620.396453	0.112403
620.604715	0.112742
620.812958	0.112987
621.021183	0.113054
621.229390	0.112770
621.437578	0.112817
621.645748	0.112791
621.853900	0.112858
622.062034	0.112874
622.270150	0.113047
622.478247	0.112889
622.686326	0.112830
622.894387	0.113139
623.102430	0.113393
623.310454	0.113260
623.518461	0.113292
623.726449	0.113257
623.934418	0.112995
624.142370	0.112734
624.350303	0.113101
624.558218	0.113363
624.766115	0.113020
624.973994	0.113320
625.181855	0.113693
625.389697	0.113985
625.597521	0.113912
625.805327	0.114145
626.013114	0.114665
626.220883	0.114634
626.428634	0.114547
626.636367	0.114774
626.844082	0.114409
627.051778	0.114222
627.259457	0.113916
627.467117	0.114330
627.674758	0.114549
627.882382	0.114407
628.089987	0.114403
628.297574	0.114642
628.505143	0.114804
628.712694	0.115103
628.920226	0.115186
629.127740	0.115710
629.335236	0.115735
629.542714	0.115825
629.750174	0.115922
629.957615	0.116414
630.165038	0.116559
630.372443	0.116741
630.579829	0.116753
630.787198	0.116934
630.994548	0.116671
631.201880	0.116625
631.409194	0.116675
631.616489	0.116713
631.823766	0.116568
632.031025	0.116443
632.238266	0.116325
632.445489	0.116303
632.652693	0.116335
632.859879	0.116626
633.067047	0.116625
633.274197	0.116638
633.481329	0.116724
633.688442	0.116505
633.895537	0.116631
634.102614	0.116663
634.309672	0.116687
634.516713	0.116636
634.723735	0.116503
634.930739	0.116442
635.137724	0.116409
635.344692	0.116430
635.551641	0.116490
635.758572	0.116562
635.965485	0.116790
636.172379	0.117209
636.379256	0.117289
636.586114	0.117648
636.792954	0.117866
636.999775	0.118068
637.206579	0.118170
637.413364	0.118316
637.620131	0.118373
637.826880	0.118391
638.033610	0.118394
638.240323	0.118551
638.447017	0.118569
638.653692	0.118465
638.860350	0.118427
639.066990	0.118449
639.273611	0.118635
639.480214	0.118547
639.686798	0.118409
639.893365	0.118307
640.099913	0.118422
640.306443	0.118516
640.512955	0.118725
640.719449	0.118881
640.925924	0.118925
641.132381	0.118911
641.338820	0.119257
641.545241	0.119474
641.751644	0.119693
641.958028	0.119801
642.164394	0.119763
642.370742	0.119917
642.577071	0.120056
642.783383	0.120004
642.989676	0.120177
643.195951	0.120239
643.402207	0.120257
643.608446	0.120222
643.814666	0.120261
644.020868	0.120271
644.227052	0.120530
644.433218	0.120343
644.639365	0.120637
644.845494	0.120727
645.051605	0.120852
645.257698	0.120973
645.463772	0.121095
645.669828	0.121112
645.875866	0.121345
646.081886	0.121264
646.287888	0.121642
646.493871	0.121635
646.699836	0.121815
646.905783	0.121767
647.111712	0.121982
647.317622	0.121959
647.523514	0.122076
647.729388	0.121919
647.935244	0.122014
648.141082	0.121859
648.346901	0.122069
648.552702	0.121971
648.758485	0.122043
648.964250	0.122019
649.169996	0.122112
649.375724	0.122198
649.581434	0.122395
649.787126	0.122534
649.992800	0.122782
650.198455	0.122744
650.404092	0.122670
650.609711	0.122763
650.815311	0.123095
651.020894	0.123137
651.226458	0.123239
651.432004	0.123205
651.637532	0.123379
651.843041	0.123357
652.048532	0.123373
652.254006	0.123748
652.459460	0.123889
652.664897	0.123751
652.870315	0.123962
653.075716	0.124257
653.281097	0.124356
653.486461	0.124247
653.691807	0.124301
653.897134	0.124451
654.102443	0.124542
654.307734	0.124509
654.513006	0.124727
654.718261	0.124964
654.923497	0.124981
655.128715	0.125414
655.333915	0.125526
655.539096	0.125943
655.744259	0.126138
655.949404	0.126183
656.154531	0.126370
656.359640	0.126488
656.564730	0.126329
656.769802	0.126254
656.974856	0.126040
657.179892	0.125956
657.384909	0.125689
657.589908	0.125636
657.794889	0.125621
657.999852	0.125676
658.204797	0.125645
658.409723	0.125869
658.614631	0.125917
658.819521	0.125934
659.024393	0.126080
659.229246	0.126364
659.434081	0.126293
659.638898	0.126292
659.843697	0.126265
660.048478	0.126178
660.253240	0.126139
660.457984	0.126251
660.662710	0.126328
660.867417	0.126488
661.072107	0.126364
661.276778	0.126533
661.481431	0.126737
661.686066	0.126818
661.890682	0.127068
662.095281	0.127342
662.299861	0.127438
662.504422	0.127796
662.708966	0.127989
662.913491	0.127994
663.117999	0.128296
663.322488	0.128581
663.526958	0.128780
663.731411	0.128894
663.935845	0.128756
664.140261	0.128623
664.344659	0.128684
664.549038	0.128542
664.753400	0.128810
664.957743	0.128662
665.162068	0.128636
665.366375	0.128483
665.570663	0.128473
665.774933	0.128668
665.979185	0.129152
666.183419	0.129084
666.387635	0.129278
666.591832	0.129362
666.796011	0.129617
667.000172	0.129537
667.204315	0.129966
667.408439	0.130198
667.612545	0.130213
667.816634	0.130000
668.020703	0.130106
668.224755	0.130061
668.428788	0.130059
668.632803	0.130261
668.836800	0.130607
669.040779	0.130576
669.244739	0.130666
669.448681	0.130787
669.652605	0.130981
669.856511	0.131114
670.060399	0.131362
670.264268	0.131479
670.468119	0.131351
670.671952	0.131337
670.875767	0.131437
671.079563	0.131547
671.283341	0.131891
671.487101	0.132041
671.690843	0.132210
671.894567	0.132308
672.098272	0.132697
672.301959	0.133004
672.505628	0.133189
672.709278	0.133434
672.912911	0.133546
673.116525	0.133356
673.320121	0.133657
673.523699	0.133761
673.727258	0.133984
673.930799	0.133985
674.134322	0.134174
674.337827	0.134395
674.541314	0.134534
674.744782	0.134447
674.948232	0.134618
675.151664	0.134614
675.355078	0.134732
675.558474	0.134714
675.761851	0.134921
675.965210	0.134825
676.168551	0.134799
676.371873	0.134670
676.575178	0.134884
676.778464	0.135150
676.981732	0.135231
677.184981	0.135143
677.388213	0.135198
677.591426	0.135069
677.794621	0.135141
677.997798	0.135273
678.200956	0.135335
678.404097	0.135211
678.607219	0.135039
678.810323	0.135102
679.013408	0.135281
679.216476	0.135281
679.419525	0.135452
679.622556	0.135725
679.825569	0.135712
680.028563	0.135846
680.231540	0.136107
680.434498	0.136272
680.637438	0.136333
680.840359	0.136528
681.043263	0.136809
681.246148	0.136523
681.449015	0.136576
681.651864	0.136571
681.854694	0.136765
682.057506	0.136776
682.260301	0.136955
682.463076	0.137058
682.665834	0.137218
682.868573	0.137208
683.071295	0.137568
683.273998	0.137550
683.476682	0.137785
683.679349	0.137803
683.881997	0.137942
684.084627	0.138087
684.287239	0.138026
684.489833	0.137940
684.692408	0.137830
684.894965	0.137954
685.097504	0.137920
685.300025	0.137892
685.502527	0.137816
685.705012	0.137894
685.907478	0.137658
686.109925	0.137845
686.312355	0.137814
686.514766	0.138164
686.717159	0.138093
686.919534	0.138239
687.121891	0.138287
687.324230	0.138603
687.526550	0.138617
687.728852	0.138671
687.931136	0.138583
688.133401	0.138574
688.335649	0.138367
688.537878	0.138454
688.740089	0.138571
688.942281	0.138708
689.144456	0.138719
689.346612	0.138898
689.548750	0.139131
689.750870	0.139226
689.952971	0.139355
690.155055	0.139639
690.357120	0.139882
690.559167	0.140099
690.761195	0.140159
690.963206	0.140152
691.165198	0.140236
691.367172	0.140384
691.569128	0.140618
691.771065	0.141068
691.972984	0.141155
692.174885	0.141236
692.376768	0.141146
692.578633	0.141217
692.780479	0.141398
692.982308	0.141343
693.184118	0.141442
693.385909	0.141389
