sample name	sample
index	186
start time	 02-18-2021  11:32:29 AM


Wavelength (nm)	Absorbance
494.344910	-0.104880
494.563924	-0.104880
494.782919	-0.104880
495.001897	0.151445
495.220856	0.012019
495.439797	0.023372
495.658719	0.001933
495.877624	0.036352
496.096510	0.018797
496.315378	0.061347
496.534227	-0.002063
496.753059	0.017202
496.971872	0.086895
497.190667	0.144053
497.409444	0.152013
497.628203	0.157536
497.846943	0.155214
498.065665	0.156461
498.284369	0.154522
498.503055	0.154840
498.721723	0.154262
498.940372	0.154261
499.159003	0.154909
499.377616	0.155317
499.596210	0.153338
499.814787	0.154026
500.033345	0.153983
500.251885	0.154926
500.470406	0.155085
500.688910	0.155086
500.907395	0.155253
501.125862	0.154721
501.344311	0.153707
501.562742	0.155425
501.781154	0.155353
501.999548	0.155818
502.217924	0.154884
502.436282	0.156015
502.654621	0.156909
502.872942	0.157129
503.091245	0.158932
503.309530	0.160024
503.527797	0.160335
503.746045	0.160564
503.964275	0.159076
504.182487	0.160499
504.400681	0.160424
504.618856	0.159698
504.837013	0.159423
505.055152	0.158063
505.273273	0.158314
505.491376	0.157106
505.709460	0.156603
505.927526	0.157004
506.145574	0.155578
506.363604	0.155134
506.581615	0.155272
506.799608	0.154958
507.017583	0.154469
507.235540	0.154124
507.453478	0.155615
507.671399	0.156241
507.889301	0.157110
508.107185	0.157926
508.325050	0.158763
508.542898	0.158859
508.760727	0.159784
508.978538	0.160652
509.196330	0.160948
509.414105	0.160222
509.631861	0.160735
509.849599	0.160036
510.067319	0.161006
510.285021	0.160278
510.502704	0.160169
510.720369	0.160755
510.938016	0.160911
511.155645	0.161419
511.373255	0.162442
511.590848	0.162262
511.808422	0.162575
512.025977	0.161870
512.243515	0.162510
512.461034	0.163084
512.678536	0.162479
512.896018	0.162455
513.113483	0.162917
513.330930	0.162440
513.548358	0.162247
513.765768	0.163011
513.983160	0.163393
514.200533	0.163367
514.417889	0.163968
514.635226	0.164207
514.852545	0.164628
515.069845	0.163712
515.287128	0.165012
515.504392	0.165852
515.721638	0.166292
515.938866	0.166408
516.156075	0.166004
516.373267	0.165606
516.590440	0.165970
516.807594	0.165996
517.024731	0.166112
517.241850	0.165627
517.458950	0.165673
517.676032	0.165129
517.893095	0.165588
518.110141	0.166541
518.327168	0.166503
518.544177	0.166973
518.761168	0.166813
518.978141	0.167407
519.195095	0.168068
519.412031	0.168571
519.628949	0.169283
519.845849	0.169326
520.062731	0.169723
520.279594	0.170572
520.496439	0.171047
520.713266	0.172373
520.930074	0.172925
521.146865	0.172944
521.363637	0.173572
521.580391	0.173752
521.797127	0.173974
522.013844	0.173751
522.230543	0.174092
522.447224	0.173949
522.663887	0.173482
522.880532	0.174103
523.097158	0.173953
523.313766	0.173813
523.530356	0.175058
523.746928	0.175241
523.963481	0.175822
524.180017	0.175827
524.396534	0.176368
524.613032	0.177165
524.829513	0.176900
525.045975	0.176872
525.262420	0.176729
525.478845	0.176222
525.695253	0.177198
525.911643	0.177449
526.128014	0.177935
526.344367	0.177610
526.560702	0.177203
526.777018	0.177068
526.993316	0.177766
527.209597	0.178288
527.425858	0.178593
527.642102	0.178332
527.858328	0.178473
528.074535	0.178203
528.290724	0.178916
528.506894	0.179798
528.723047	0.180830
528.939181	0.181284
529.155297	0.181098
529.371395	0.180682
529.587475	0.180574
529.803536	0.180566
530.019579	0.182238
530.235604	0.182417
530.451611	0.182438
530.667600	0.182601
530.883570	0.183055
531.099522	0.184018
531.315456	0.185070
531.531372	0.185608
531.747269	0.185824
531.963148	0.185456
532.179009	0.185922
532.394852	0.185805
532.610676	0.185881
532.826482	0.185674
533.042271	0.185801
533.258040	0.186295
533.473792	0.187469
533.689525	0.187919
533.905240	0.188180
534.120937	0.188289
534.336616	0.189396
534.552277	0.189803
534.767919	0.190752
534.983543	0.190919
535.199149	0.190521
535.414736	0.190282
535.630306	0.191433
535.845857	0.191106
536.061390	0.191477
536.276904	0.191489
536.492401	0.191688
536.707879	0.191078
536.923339	0.191618
537.138781	0.192067
537.354204	0.191887
537.569610	0.191430
537.784997	0.192284
538.000366	0.192359
538.215716	0.192618
538.431049	0.193206
538.646363	0.193540
538.861659	0.193651
539.076937	0.194136
539.292196	0.194915
539.507438	0.195931
539.722661	0.195639
539.937866	0.196141
540.153052	0.196377
540.368221	0.196366
540.583371	0.197397
540.798503	0.197976
541.013617	0.198456
541.228712	0.198702
541.443789	0.198217
541.658848	0.198984
541.873889	0.199264
542.088912	0.199902
542.303916	0.199956
542.518902	0.200017
542.733870	0.200028
542.948820	0.199836
543.163752	0.200182
543.378665	0.200734
543.593560	0.201184
543.808437	0.201641
544.023295	0.201437
544.238136	0.202418
544.452958	0.201993
544.667762	0.202727
544.882548	0.203616
545.097315	0.204033
545.312064	0.204400
545.526795	0.204395
545.741508	0.204566
545.956203	0.205555
546.170879	0.205374
546.385537	0.206690
546.600177	0.206461
546.814799	0.206527
547.029402	0.206754
547.243988	0.207230
547.458555	0.207885
547.673103	0.208049
547.887634	0.208207
548.102146	0.208940
548.316640	0.208586
548.531116	0.208935
548.745574	0.209398
548.960013	0.209522
549.174435	0.209389
549.388838	0.209499
549.603222	0.209780
549.817589	0.209613
550.031937	0.210156
550.246267	0.210448
550.460579	0.211046
550.674873	0.211154
550.889148	0.211001
551.103405	0.211026
551.317644	0.211131
551.531865	0.211402
551.746068	0.211524
551.960252	0.211275
552.174418	0.211465
552.388566	0.211203
552.602696	0.210828
552.816807	0.211867
553.030900	0.212838
553.244975	0.213036
553.459032	0.213799
553.673070	0.213815
553.887091	0.213909
554.101093	0.214672
554.315077	0.214719
554.529042	0.215706
554.742990	0.215289
554.956919	0.214941
555.170830	0.215162
555.384722	0.215081
555.598597	0.215891
555.812453	0.215966
556.026291	0.215793
556.240111	0.216483
556.453913	0.216715
556.667696	0.216923
556.881461	0.216967
557.095208	0.217348
557.308937	0.217640
557.522647	0.217907
557.736339	0.218112
557.950013	0.218830
558.163669	0.218864
558.377307	0.219196
558.590926	0.219513
558.804527	0.219999
559.018110	0.220588
559.231675	0.220332
559.445221	0.220282
559.658749	0.220787
559.872259	0.220331
560.085751	0.220657
560.299225	0.220473
560.512680	0.220797
560.726117	0.221190
560.939536	0.221058
561.152937	0.221722
561.366319	0.222146
561.579683	0.222396
561.793029	0.222974
562.006357	0.223177
562.219667	0.223541
562.432958	0.223771
562.646231	0.224009
562.859486	0.224065
563.072723	0.224059
563.285941	0.224546
563.499141	0.224426
563.712323	0.224673
563.925487	0.224595
564.138632	0.224602
564.351760	0.225054
564.564869	0.225136
564.777960	0.225688
564.991032	0.225791
565.204087	0.225250
565.417123	0.225410
565.630141	0.225580
565.843140	0.226223
566.056122	0.226269
566.269085	0.226113
566.482030	0.226499
566.694957	0.226411
566.907866	0.226768
567.120756	0.227409
567.333628	0.227938
567.546482	0.228020
567.759318	0.228059
567.972135	0.228308
568.184935	0.228774
568.397716	0.228774
568.610478	0.229388
568.823223	0.229030
569.035949	0.228984
569.248657	0.229337
569.461347	0.229110
569.674019	0.229096
569.886672	0.229250
570.099308	0.229220
570.311925	0.229305
570.524523	0.228780
570.737104	0.229481
570.949666	0.230115
571.162210	0.229998
571.374736	0.230513
571.587244	0.231067
571.799733	0.231315
572.012205	0.231220
572.224658	0.231661
572.437092	0.232027
572.649509	0.232170
572.861907	0.232384
573.074287	0.232728
573.286649	0.233039
573.498993	0.233213
573.711318	0.234081
573.923625	0.234478
574.135914	0.234176
574.348185	0.234313
574.560438	0.234586
574.772672	0.234882
574.984888	0.235301
575.197086	0.235323
575.409266	0.235404
575.621427	0.235071
575.833570	0.235498
576.045695	0.235985
576.257802	0.236367
576.469890	0.236340
576.681961	0.235972
576.894013	0.235925
577.106046	0.236351
577.318062	0.236347
577.530059	0.236441
577.742039	0.236390
577.954000	0.236471
578.165942	0.236303
578.377867	0.236848
578.589773	0.237149
578.801661	0.237223
579.013531	0.237614
579.225382	0.238263
579.437216	0.238663
579.649031	0.239006
579.860828	0.239582
580.072606	0.239992
580.284367	0.240095
580.496109	0.240247
580.707833	0.240610
580.919539	0.240857
581.131227	0.240601
581.342896	0.240841
581.554547	0.241139
581.766180	0.241255
581.977795	0.241685
582.189391	0.241506
582.400969	0.241578
582.612529	0.241539
582.824071	0.241220
583.035595	0.241652
583.247100	0.241764
583.458587	0.241792
583.670056	0.241624
583.881506	0.241718
584.092939	0.242011
584.304353	0.242610
584.515749	0.242717
584.727127	0.242889
584.938486	0.243016
585.149828	0.242874
585.361151	0.243181
585.572456	0.243605
585.783742	0.243938
585.995011	0.244571
586.206261	0.244581
586.417493	0.244879
586.628706	0.245487
586.839902	0.245709
587.051079	0.246162
587.262238	0.246311
587.473379	0.246565
587.684502	0.246510
587.895606	0.246804
588.106692	0.246638
588.317760	0.246923
588.528810	0.246858
588.739841	0.247191
588.950855	0.247375
589.161850	0.247603
589.372827	0.248051
589.583785	0.248441
589.794726	0.248635
590.005648	0.249066
590.216552	0.249320
590.427437	0.249690
590.638305	0.249656
590.849154	0.249916
591.059985	0.250034
591.270798	0.250156
591.481592	0.250417
591.692369	0.250183
591.903127	0.250592
592.113867	0.250883
592.324588	0.250863
592.535292	0.250984
592.745977	0.251168
592.956644	0.251202
593.167293	0.251311
593.377923	0.251408
593.588536	0.251680
593.799130	0.251604
594.009706	0.252090
594.220263	0.252471
594.430803	0.252627
594.641324	0.252837
594.851827	0.253052
595.062312	0.253268
595.272778	0.253537
595.483227	0.253489
595.693657	0.254113
595.904069	0.254095
596.114462	0.254518
596.324838	0.255166
596.535195	0.255340
596.745534	0.255714
596.955855	0.255627
597.166157	0.255589
597.376441	0.256231
597.586707	0.256137
597.796955	0.255994
598.007185	0.256330
598.217396	0.256533
598.427589	0.256994
598.637764	0.257365
598.847921	0.257784
599.058060	0.258171
599.268180	0.258022
599.478282	0.258233
599.688366	0.258407
599.898431	0.258073
600.108479	0.257859
600.318508	0.257786
600.528519	0.258115
600.738511	0.258241
600.948486	0.258164
601.158442	0.258433
601.368380	0.258711
601.578300	0.258886
601.788202	0.259556
601.998085	0.260040
602.207950	0.260321
602.417797	0.260271
602.627626	0.260457
602.837436	0.261200
603.047228	0.261283
603.257002	0.261545
603.466758	0.262112
603.676496	0.261882
603.886215	0.261770
604.095916	0.262353
604.305599	0.262383
604.515264	0.262747
604.724910	0.262722
604.934538	0.263121
605.144148	0.263332
605.353740	0.263025
605.563314	0.263266
605.772869	0.263851
605.982406	0.263592
606.191925	0.264000
606.401425	0.264145
606.610908	0.264269
606.820372	0.264386
607.029818	0.264694
607.239246	0.265256
607.448655	0.265440
607.658047	0.265330
607.867420	0.265647
608.076775	0.265730
608.286111	0.265715
608.495430	0.265855
608.704730	0.266287
608.914012	0.266108
609.123275	0.266099
609.332521	0.266282
609.541748	0.266684
609.750957	0.266459
609.960148	0.266441
610.169321	0.266787
610.378475	0.266737
610.587611	0.266691
610.796729	0.266912
611.005829	0.267359
611.214910	0.267886
611.423974	0.268119
611.633019	0.268623
611.842045	0.269215
612.051054	0.269334
612.260044	0.269706
612.469017	0.269919
612.677970	0.270242
612.886906	0.270161
613.095824	0.270064
613.304723	0.269968
613.513604	0.270024
613.722467	0.269933
613.931311	0.269937
614.140138	0.270373
614.348946	0.270344
614.557736	0.270293
614.766507	0.270266
614.975261	0.270431
615.183996	0.270626
615.392713	0.270832
615.601412	0.271181
615.810092	0.271616
616.018754	0.271482
616.227399	0.271821
616.436024	0.272181
616.644632	0.272692
616.853222	0.272864
617.061793	0.273213
617.270346	0.273023
617.478880	0.272857
617.687397	0.272748
617.895895	0.273100
618.104375	0.273074
618.312837	0.273036
618.521281	0.273458
618.729706	0.273691
618.938113	0.273483
619.146502	0.273817
619.354873	0.274199
619.563226	0.274600
619.771560	0.274561
619.979876	0.274981
620.188174	0.275136
620.396453	0.274917
620.604715	0.274829
620.812958	0.275101
621.021183	0.275252
621.229390	0.275257
621.437578	0.275127
621.645748	0.275192
621.853900	0.275429
622.062034	0.275630
622.270150	0.275826
622.478247	0.276300
622.686326	0.276587
622.894387	0.276763
623.102430	0.277094
623.310454	0.277303
623.518461	0.277780
623.726449	0.277835
623.934418	0.278328
624.142370	0.278586
624.350303	0.278695
624.558218	0.278846
624.766115	0.279272
624.973994	0.279481
625.181855	0.280009
625.389697	0.279999
625.597521	0.280112
625.805327	0.280061
626.013114	0.280204
626.220883	0.280402
626.428634	0.280462
626.636367	0.280665
626.844082	0.280758
627.051778	0.280615
627.259457	0.280845
627.467117	0.281006
627.674758	0.281097
627.882382	0.281379
628.089987	0.281638
628.297574	0.282074
628.505143	0.282182
628.712694	0.282350
628.920226	0.282750
629.127740	0.283246
629.335236	0.283504
629.542714	0.283724
629.750174	0.283630
629.957615	0.283386
630.165038	0.283570
630.372443	0.283457
630.579829	0.283566
630.787198	0.283479
630.994548	0.283400
631.201880	0.283708
631.409194	0.283873
631.616489	0.284154
631.823766	0.284515
632.031025	0.284321
632.238266	0.284845
632.445489	0.285110
632.652693	0.285269
632.859879	0.285728
633.067047	0.285855
633.274197	0.285978
633.481329	0.286611
633.688442	0.287047
633.895537	0.287536
634.102614	0.287644
634.309672	0.287938
634.516713	0.288289
634.723735	0.288080
634.930739	0.287920
635.137724	0.288236
635.344692	0.288060
635.551641	0.288093
635.758572	0.288139
635.965485	0.288276
636.172379	0.288272
636.379256	0.288689
636.586114	0.288727
636.792954	0.289141
636.999775	0.289209
637.206579	0.289470
637.413364	0.289594
637.620131	0.289705
637.826880	0.289893
638.033610	0.290016
638.240323	0.290087
638.447017	0.290441
638.653692	0.290977
638.860350	0.291187
639.066990	0.290981
639.273611	0.291103
639.480214	0.291718
639.686798	0.291901
639.893365	0.292067
640.099913	0.292023
640.306443	0.292296
640.512955	0.292272
640.719449	0.292426
640.925924	0.292976
641.132381	0.293201
641.338820	0.293118
641.545241	0.293282
641.751644	0.293488
641.958028	0.293679
642.164394	0.294034
642.370742	0.293795
642.577071	0.294135
642.783383	0.294168
642.989676	0.294213
643.195951	0.294310
643.402207	0.294673
643.608446	0.295130
643.814666	0.295470
644.020868	0.295405
644.227052	0.295953
644.433218	0.296222
644.639365	0.296478
644.845494	0.296880
645.051605	0.297365
645.257698	0.297481
645.463772	0.297642
645.669828	0.297653
645.875866	0.297809
646.081886	0.298115
646.287888	0.298143
646.493871	0.298524
646.699836	0.298568
646.905783	0.298413
647.111712	0.298529
647.317622	0.298650
647.523514	0.299156
647.729388	0.299274
647.935244	0.299387
648.141082	0.299668
648.346901	0.299571
648.552702	0.299958
648.758485	0.300222
648.964250	0.300471
649.169996	0.300713
649.375724	0.300438
649.581434	0.300828
649.787126	0.301150
649.992800	0.301514
650.198455	0.302026
650.404092	0.302002
650.609711	0.302404
650.815311	0.302631
651.020894	0.302756
651.226458	0.303488
651.432004	0.303647
651.637532	0.303522
651.843041	0.303595
652.048532	0.303676
652.254006	0.304139
652.459460	0.304093
652.664897	0.304435
652.870315	0.304541
653.075716	0.304629
653.281097	0.304556
653.486461	0.304933
653.691807	0.305135
653.897134	0.305101
654.102443	0.305129
654.307734	0.305534
654.513006	0.305658
654.718261	0.306200
654.923497	0.306424
655.128715	0.307041
655.333915	0.307308
655.539096	0.307652
655.744259	0.308088
655.949404	0.308366
656.154531	0.308432
656.359640	0.308418
656.564730	0.308588
656.769802	0.308906
656.974856	0.309089
657.179892	0.309331
657.384909	0.309215
657.589908	0.309412
657.794889	0.309485
657.999852	0.309845
658.204797	0.310236
658.409723	0.310232
658.614631	0.310223
658.819521	0.310315
659.024393	0.310486
659.229246	0.310815
659.434081	0.310933
659.638898	0.311539
659.843697	0.312044
660.048478	0.312255
660.253240	0.312348
660.457984	0.312699
660.662710	0.313031
660.867417	0.313346
661.072107	0.313491
661.276778	0.313915
661.481431	0.314016
661.686066	0.314067
661.890682	0.314328
662.095281	0.314814
662.299861	0.315274
662.504422	0.315594
662.708966	0.315478
662.913491	0.315666
663.117999	0.315760
663.322488	0.315707
663.526958	0.315802
663.731411	0.316125
663.935845	0.315949
664.140261	0.315971
664.344659	0.316027
664.549038	0.316520
664.753400	0.316955
664.957743	0.317150
665.162068	0.317468
665.366375	0.317719
665.570663	0.317818
665.774933	0.318546
665.979185	0.318787
666.183419	0.318991
666.387635	0.319267
666.591832	0.319381
666.796011	0.319622
667.000172	0.319993
667.204315	0.320101
667.408439	0.320273
667.612545	0.320320
667.816634	0.320538
668.020703	0.320806
668.224755	0.320884
668.428788	0.321296
668.632803	0.321430
668.836800	0.321766
669.040779	0.322292
669.244739	0.322471
669.448681	0.322743
669.652605	0.322841
669.856511	0.323016
670.060399	0.323161
670.264268	0.323246
670.468119	0.323842
670.671952	0.323656
670.875767	0.323764
671.079563	0.323944
671.283341	0.324318
671.487101	0.324692
671.690843	0.325108
671.894567	0.325496
672.098272	0.325945
672.301959	0.326173
672.505628	0.326383
672.709278	0.326465
672.912911	0.326995
673.116525	0.327116
673.320121	0.327248
673.523699	0.327567
673.727258	0.328096
673.930799	0.328339
674.134322	0.328471
674.337827	0.329239
674.541314	0.329946
674.744782	0.330239
674.948232	0.330409
675.151664	0.330705
675.355078	0.330721
675.558474	0.330659
675.761851	0.330883
675.965210	0.331238
676.168551	0.331260
676.371873	0.331227
676.575178	0.331335
676.778464	0.331785
676.981732	0.332192
677.184981	0.332575
677.388213	0.332659
677.591426	0.332820
677.794621	0.332968
677.997798	0.333259
678.200956	0.333337
678.404097	0.333495
678.607219	0.333487
678.810323	0.333562
679.013408	0.333747
679.216476	0.334320
679.419525	0.334365
679.622556	0.334492
679.825569	0.334599
680.028563	0.334956
680.231540	0.335221
680.434498	0.335267
680.637438	0.335246
680.840359	0.335568
681.043263	0.335621
681.246148	0.336114
681.449015	0.336357
681.651864	0.336477
681.854694	0.336735
682.057506	0.336733
682.260301	0.337395
682.463076	0.337943
682.665834	0.338016
682.868573	0.338499
683.071295	0.338839
683.273998	0.338977
683.476682	0.339509
683.679349	0.339694
683.881997	0.340286
684.084627	0.340408
684.287239	0.340502
684.489833	0.340836
684.692408	0.340833
684.894965	0.340739
685.097504	0.341033
685.300025	0.341103
685.502527	0.341175
685.705012	0.341017
685.907478	0.341330
686.109925	0.341832
686.312355	0.342069
686.514766	0.342505
686.717159	0.342780
686.919534	0.343047
687.121891	0.343454
687.324230	0.343765
687.526550	0.344308
687.728852	0.344367
687.931136	0.344457
688.133401	0.344617
688.335649	0.344477
688.537878	0.344764
688.740089	0.345053
688.942281	0.345162
689.144456	0.345502
689.346612	0.345744
689.548750	0.345943
689.750870	0.346268
689.952971	0.346376
690.155055	0.346757
690.357120	0.347210
690.559167	0.347213
690.761195	0.347265
690.963206	0.347436
691.165198	0.347496
691.367172	0.347714
691.569128	0.347502
691.771065	0.347996
691.972984	0.348031
692.174885	0.348023
692.376768	0.348347
692.578633	0.348584
692.780479	0.348600
692.982308	0.348876
693.184118	0.349045
693.385909	0.349527
