sample name	sample
index	1454
start time	 05-10-2021  01:36:43 PM


Wavelength (nm)	Absorbance
494.344910	-0.020739
494.563924	-0.020739
494.782919	-0.020739
495.001897	0.012135
495.220856	-0.012398
495.439797	-0.014824
495.658719	-0.007936
495.877624	-0.005028
496.096510	-0.013492
496.315378	-0.010126
496.534227	-0.002249
496.753059	-0.010283
496.971872	-0.006880
497.190667	0.054664
497.409444	0.086914
497.628203	0.099859
497.846943	0.109445
498.065665	0.115191
498.284369	0.116975
498.503055	0.118167
498.721723	0.121567
498.940372	0.122779
499.159003	0.123405
499.377616	0.123306
499.596210	0.123811
499.814787	0.123568
500.033345	0.123415
500.251885	0.123677
500.470406	0.123430
500.688910	0.122426
500.907395	0.122566
501.125862	0.122908
501.344311	0.123132
501.562742	0.121696
501.781154	0.121523
501.999548	0.121894
502.217924	0.122174
502.436282	0.123269
502.654621	0.123133
502.872942	0.123612
503.091245	0.123444
503.309530	0.124510
503.527797	0.124120
503.746045	0.124287
503.964275	0.123734
504.182487	0.124096
504.400681	0.123668
504.618856	0.124489
504.837013	0.124602
505.055152	0.124973
505.273273	0.125183
505.491376	0.125792
505.709460	0.125465
505.927526	0.125672
506.145574	0.126360
506.363604	0.126822
506.581615	0.126726
506.799608	0.126729
507.017583	0.125878
507.235540	0.126042
507.453478	0.128278
507.671399	0.128554
507.889301	0.129423
508.107185	0.128960
508.325050	0.128500
508.542898	0.128707
508.760727	0.128285
508.978538	0.128944
509.196330	0.128080
509.414105	0.126697
509.631861	0.126882
509.849599	0.126901
510.067319	0.126544
510.285021	0.127165
510.502704	0.126732
510.720369	0.126895
510.938016	0.126623
511.155645	0.127009
511.373255	0.127108
511.590848	0.126252
511.808422	0.126460
512.025977	0.127098
512.243515	0.126511
512.461034	0.128341
512.678536	0.128930
512.896018	0.129878
513.113483	0.130576
513.330930	0.130778
513.548358	0.131744
513.765768	0.131738
513.983160	0.132277
514.200533	0.133009
514.417889	0.132486
514.635226	0.132991
514.852545	0.132942
515.069845	0.133248
515.287128	0.133292
515.504392	0.132870
515.721638	0.132867
515.938866	0.132829
516.156075	0.132746
516.373267	0.132455
516.590440	0.132388
516.807594	0.133324
517.024731	0.133270
517.241850	0.133318
517.458950	0.134220
517.676032	0.134181
517.893095	0.133910
518.110141	0.133815
518.327168	0.134425
518.544177	0.134148
518.761168	0.133914
518.978141	0.134127
519.195095	0.135270
519.412031	0.136279
519.628949	0.136456
519.845849	0.136967
520.062731	0.137759
520.279594	0.137856
520.496439	0.138904
520.713266	0.138815
520.930074	0.138645
521.146865	0.138255
521.363637	0.137553
521.580391	0.137492
521.797127	0.137916
522.013844	0.138209
522.230543	0.138795
522.447224	0.138830
522.663887	0.138719
522.880532	0.139597
523.097158	0.140488
523.313766	0.140828
523.530356	0.141414
523.746928	0.141027
523.963481	0.141641
524.180017	0.142036
524.396534	0.142132
524.613032	0.142423
524.829513	0.142408
525.045975	0.142412
525.262420	0.142562
525.478845	0.143214
525.695253	0.143874
525.911643	0.144353
526.128014	0.144307
526.344367	0.143905
526.560702	0.144284
526.777018	0.144268
526.993316	0.143976
527.209597	0.144087
527.425858	0.144108
527.642102	0.144661
527.858328	0.144674
528.074535	0.145078
528.290724	0.145744
528.506894	0.146271
528.723047	0.146342
528.939181	0.146800
529.155297	0.147389
529.371395	0.148065
529.587475	0.147725
529.803536	0.147613
530.019579	0.146857
530.235604	0.147282
530.451611	0.147167
530.667600	0.147757
530.883570	0.148125
531.099522	0.148388
531.315456	0.148331
531.531372	0.149127
531.747269	0.149719
531.963148	0.150040
532.179009	0.150339
532.394852	0.150844
532.610676	0.150800
532.826482	0.150806
533.042271	0.150494
533.258040	0.150435
533.473792	0.150207
533.689525	0.150240
533.905240	0.151102
534.120937	0.151396
534.336616	0.151821
534.552277	0.152400
534.767919	0.152899
534.983543	0.153128
535.199149	0.153949
535.414736	0.154627
535.630306	0.154827
535.845857	0.154899
536.061390	0.154564
536.276904	0.154700
536.492401	0.154715
536.707879	0.154882
536.923339	0.155293
537.138781	0.154538
537.354204	0.154547
537.569610	0.154815
537.784997	0.155448
538.000366	0.156091
538.215716	0.156049
538.431049	0.156763
538.646363	0.157102
538.861659	0.157745
539.076937	0.158780
539.292196	0.159245
539.507438	0.159391
539.722661	0.159315
539.937866	0.159584
540.153052	0.159999
540.368221	0.159811
540.583371	0.160125
540.798503	0.159978
541.013617	0.159847
541.228712	0.159501
541.443789	0.159651
541.658848	0.159579
541.873889	0.159390
542.088912	0.159445
542.303916	0.159248
542.518902	0.158807
542.733870	0.158660
542.948820	0.158922
543.163752	0.159720
543.378665	0.159765
543.593560	0.160034
543.808437	0.160401
544.023295	0.160477
544.238136	0.161164
544.452958	0.162017
544.667762	0.162754
544.882548	0.162839
545.097315	0.162791
545.312064	0.163077
545.526795	0.163430
545.741508	0.163730
545.956203	0.164606
546.170879	0.164247
546.385537	0.164283
546.600177	0.163799
546.814799	0.164500
547.029402	0.164355
547.243988	0.164130
547.458555	0.164183
547.673103	0.164469
547.887634	0.163834
548.102146	0.164772
548.316640	0.164729
548.531116	0.164972
548.745574	0.165071
548.960013	0.165261
549.174435	0.165684
549.388838	0.166091
549.603222	0.166372
549.817589	0.167072
550.031937	0.166885
550.246267	0.167338
550.460579	0.168057
550.674873	0.167911
550.889148	0.168106
551.103405	0.168419
551.317644	0.168990
551.531865	0.169351
551.746068	0.169292
551.960252	0.169172
552.174418	0.169135
552.388566	0.169263
552.602696	0.169603
552.816807	0.169832
553.030900	0.169735
553.244975	0.169090
553.459032	0.168398
553.673070	0.168423
553.887091	0.168858
554.101093	0.169036
554.315077	0.168772
554.529042	0.168718
554.742990	0.168928
554.956919	0.169619
555.170830	0.170081
555.384722	0.170561
555.598597	0.170897
555.812453	0.170990
556.026291	0.171209
556.240111	0.171583
556.453913	0.171562
556.667696	0.171608
556.881461	0.171412
557.095208	0.171531
557.308937	0.171885
557.522647	0.171964
557.736339	0.171934
557.950013	0.172102
558.163669	0.172046
558.377307	0.172505
558.590926	0.172302
558.804527	0.172425
559.018110	0.172244
559.231675	0.172191
559.445221	0.172097
559.658749	0.172052
559.872259	0.171845
560.085751	0.172250
560.299225	0.171963
560.512680	0.172297
560.726117	0.172264
560.939536	0.172700
561.152937	0.172688
561.366319	0.172805
561.579683	0.173332
561.793029	0.173557
562.006357	0.173685
562.219667	0.174112
562.432958	0.174546
562.646231	0.175047
562.859486	0.175209
563.072723	0.175474
563.285941	0.175513
563.499141	0.175453
563.712323	0.175724
563.925487	0.175606
564.138632	0.175918
564.351760	0.175879
564.564869	0.175892
564.777960	0.176008
564.991032	0.175844
565.204087	0.175797
565.417123	0.176460
565.630141	0.176216
565.843140	0.176615
566.056122	0.176644
566.269085	0.176687
566.482030	0.176590
566.694957	0.176258
566.907866	0.176924
567.120756	0.177307
567.333628	0.177064
567.546482	0.177415
567.759318	0.177487
567.972135	0.177206
568.184935	0.177234
568.397716	0.177305
568.610478	0.177248
568.823223	0.176655
569.035949	0.176807
569.248657	0.176849
569.461347	0.177029
569.674019	0.177223
569.886672	0.177178
570.099308	0.177127
570.311925	0.177332
570.524523	0.177691
570.737104	0.178084
570.949666	0.177920
571.162210	0.177718
571.374736	0.177818
571.587244	0.178034
571.799733	0.178451
572.012205	0.178934
572.224658	0.179049
572.437092	0.179427
572.649509	0.180002
572.861907	0.180357
573.074287	0.180895
573.286649	0.181205
573.498993	0.180998
573.711318	0.181185
573.923625	0.181245
574.135914	0.181621
574.348185	0.181661
574.560438	0.181086
574.772672	0.181371
574.984888	0.181384
575.197086	0.181248
575.409266	0.181554
575.621427	0.182044
575.833570	0.182103
576.045695	0.181961
576.257802	0.182198
576.469890	0.182910
576.681961	0.183171
576.894013	0.183213
577.106046	0.183606
577.318062	0.183754
577.530059	0.183665
577.742039	0.184132
577.954000	0.184183
578.165942	0.184573
578.377867	0.184524
578.589773	0.184338
578.801661	0.184602
579.013531	0.184394
579.225382	0.184461
579.437216	0.184422
579.649031	0.184142
579.860828	0.184401
580.072606	0.184217
580.284367	0.184389
580.496109	0.184652
580.707833	0.184853
580.919539	0.184744
581.131227	0.184885
581.342896	0.184904
581.554547	0.184601
581.766180	0.184773
581.977795	0.185162
582.189391	0.185262
582.400969	0.185481
582.612529	0.185595
582.824071	0.185977
583.035595	0.185995
583.247100	0.186261
583.458587	0.186776
583.670056	0.186784
583.881506	0.186518
584.092939	0.186794
584.304353	0.187009
584.515749	0.187480
584.727127	0.187646
584.938486	0.187752
585.149828	0.187933
585.361151	0.188182
585.572456	0.188454
585.783742	0.188648
585.995011	0.188452
586.206261	0.189231
586.417493	0.189200
586.628706	0.189394
586.839902	0.189360
587.051079	0.189503
587.262238	0.189936
587.473379	0.190220
587.684502	0.189843
587.895606	0.190154
588.106692	0.189556
588.317760	0.189372
588.528810	0.189696
588.739841	0.190116
588.950855	0.190260
589.161850	0.190412
589.372827	0.190378
589.583785	0.191121
589.794726	0.191356
590.005648	0.191247
590.216552	0.191662
590.427437	0.191917
590.638305	0.192036
590.849154	0.192012
591.059985	0.191715
591.270798	0.192100
591.481592	0.192240
591.692369	0.192331
591.903127	0.192803
592.113867	0.192746
592.324588	0.192695
592.535292	0.192773
592.745977	0.193019
592.956644	0.193104
593.167293	0.193124
593.377923	0.193174
593.588536	0.193562
593.799130	0.193320
594.009706	0.193113
594.220263	0.192826
594.430803	0.192686
594.641324	0.192947
594.851827	0.193063
595.062312	0.193205
595.272778	0.193332
595.483227	0.193144
595.693657	0.193340
595.904069	0.193417
596.114462	0.193696
596.324838	0.193909
596.535195	0.193860
596.745534	0.194324
596.955855	0.194072
597.166157	0.194343
597.376441	0.194412
597.586707	0.194712
597.796955	0.195196
598.007185	0.195701
598.217396	0.195757
598.427589	0.195519
598.637764	0.195203
598.847921	0.195290
599.058060	0.195323
599.268180	0.195527
599.478282	0.195610
599.688366	0.195662
599.898431	0.195269
600.108479	0.195566
600.318508	0.195990
600.528519	0.196467
600.738511	0.196710
600.948486	0.196472
601.158442	0.196337
601.368380	0.196541
601.578300	0.196740
601.788202	0.197084
601.998085	0.197182
602.207950	0.197240
602.417797	0.197330
602.627626	0.197579
602.837436	0.197815
603.047228	0.198063
603.257002	0.197969
603.466758	0.198045
603.676496	0.198272
603.886215	0.198409
604.095916	0.198611
604.305599	0.198749
604.515264	0.198823
604.724910	0.198874
604.934538	0.198874
605.144148	0.199101
605.353740	0.199132
605.563314	0.199010
605.772869	0.199131
605.982406	0.198801
606.191925	0.198659
606.401425	0.198942
606.610908	0.199205
606.820372	0.199503
607.029818	0.199677
607.239246	0.199867
607.448655	0.199930
607.658047	0.200005
607.867420	0.200476
608.076775	0.200964
608.286111	0.200781
608.495430	0.200892
608.704730	0.200853
608.914012	0.200956
609.123275	0.201282
609.332521	0.201604
609.541748	0.201818
609.750957	0.202267
609.960148	0.202041
610.169321	0.202374
610.378475	0.202788
610.587611	0.203214
610.796729	0.203561
611.005829	0.203615
611.214910	0.203833
611.423974	0.204186
611.633019	0.203936
611.842045	0.203974
612.051054	0.204144
612.260044	0.203926
612.469017	0.203978
612.677970	0.204013
612.886906	0.203634
613.095824	0.203581
613.304723	0.203553
613.513604	0.203467
613.722467	0.203664
613.931311	0.203583
614.140138	0.203894
614.348946	0.203837
614.557736	0.203887
614.766507	0.204417
614.975261	0.204559
615.183996	0.204830
615.392713	0.205085
615.601412	0.205175
615.810092	0.205754
616.018754	0.205817
616.227399	0.206094
616.436024	0.206078
616.644632	0.205979
616.853222	0.206297
617.061793	0.206231
617.270346	0.206364
617.478880	0.207171
617.687397	0.206817
617.895895	0.206951
618.104375	0.207201
618.312837	0.207570
618.521281	0.207687
618.729706	0.207689
618.938113	0.207913
619.146502	0.208166
619.354873	0.207684
619.563226	0.208306
619.771560	0.208614
619.979876	0.208248
620.188174	0.207925
620.396453	0.208348
620.604715	0.208352
620.812958	0.208390
621.021183	0.208496
621.229390	0.208852
621.437578	0.208723
621.645748	0.208427
621.853900	0.208742
622.062034	0.208845
622.270150	0.208480
622.478247	0.208832
622.686326	0.209005
622.894387	0.208993
623.102430	0.208878
623.310454	0.208704
623.518461	0.208855
623.726449	0.208869
623.934418	0.209129
624.142370	0.209392
624.350303	0.209558
624.558218	0.209588
624.766115	0.209745
624.973994	0.209781
625.181855	0.209815
625.389697	0.210091
625.597521	0.210284
625.805327	0.210450
626.013114	0.210752
626.220883	0.210416
626.428634	0.210270
626.636367	0.210515
626.844082	0.210650
627.051778	0.210735
627.259457	0.210554
627.467117	0.210688
627.674758	0.210710
627.882382	0.210776
628.089987	0.211043
628.297574	0.211234
628.505143	0.211193
628.712694	0.211420
628.920226	0.211750
629.127740	0.212138
629.335236	0.212093
629.542714	0.212348
629.750174	0.212220
629.957615	0.212305
630.165038	0.212567
630.372443	0.212710
630.579829	0.212623
630.787198	0.212464
630.994548	0.212425
631.201880	0.212674
631.409194	0.212593
631.616489	0.212744
631.823766	0.212971
632.031025	0.212873
632.238266	0.212835
632.445489	0.213100
632.652693	0.213505
632.859879	0.213768
633.067047	0.213902
633.274197	0.214180
633.481329	0.214478
633.688442	0.214505
633.895537	0.214485
634.102614	0.214802
634.309672	0.214965
634.516713	0.214910
634.723735	0.215121
634.930739	0.215272
635.137724	0.215281
635.344692	0.215397
635.551641	0.215282
635.758572	0.215700
635.965485	0.215787
636.172379	0.215856
636.379256	0.216108
636.586114	0.216106
636.792954	0.216228
636.999775	0.216341
637.206579	0.216428
637.413364	0.216773
637.620131	0.216895
637.826880	0.216874
638.033610	0.217316
638.240323	0.217327
638.447017	0.217411
638.653692	0.217364
638.860350	0.217747
639.066990	0.218074
639.273611	0.218227
639.480214	0.218461
639.686798	0.218824
639.893365	0.218838
640.099913	0.219305
640.306443	0.219456
640.512955	0.219781
640.719449	0.219687
640.925924	0.219684
641.132381	0.219891
641.338820	0.220104
641.545241	0.220256
641.751644	0.220078
641.958028	0.219991
642.164394	0.220263
642.370742	0.220515
642.577071	0.220613
642.783383	0.221056
642.989676	0.221483
643.195951	0.221478
643.402207	0.221544
643.608446	0.221877
643.814666	0.222057
644.020868	0.221929
644.227052	0.222004
644.433218	0.222213
644.639365	0.221886
644.845494	0.221478
645.051605	0.221343
645.257698	0.221582
645.463772	0.221765
645.669828	0.221691
645.875866	0.221948
646.081886	0.221717
646.287888	0.221878
646.493871	0.222168
646.699836	0.222575
646.905783	0.222682
647.111712	0.222500
647.317622	0.222419
647.523514	0.222575
647.729388	0.222722
647.935244	0.223060
648.141082	0.223267
648.346901	0.223463
648.552702	0.223636
648.758485	0.223912
648.964250	0.223956
649.169996	0.224153
649.375724	0.224183
649.581434	0.224213
649.787126	0.224097
649.992800	0.223934
650.198455	0.224001
650.404092	0.223807
650.609711	0.223971
650.815311	0.224490
651.020894	0.224412
651.226458	0.224695
651.432004	0.224867
651.637532	0.225211
651.843041	0.225477
652.048532	0.225417
652.254006	0.225726
652.459460	0.225738
652.664897	0.225500
652.870315	0.225738
653.075716	0.225992
653.281097	0.226141
653.486461	0.226393
653.691807	0.226577
653.897134	0.226792
654.102443	0.226895
654.307734	0.227199
654.513006	0.227647
654.718261	0.228005
654.923497	0.228010
655.128715	0.228212
655.333915	0.228014
655.539096	0.228236
655.744259	0.228510
655.949404	0.228509
656.154531	0.228473
656.359640	0.228670
656.564730	0.228828
656.769802	0.229089
656.974856	0.229226
657.179892	0.229699
657.384909	0.229778
657.589908	0.229868
657.794889	0.230238
657.999852	0.230590
658.204797	0.230687
658.409723	0.230900
658.614631	0.231049
658.819521	0.231208
659.024393	0.231284
659.229246	0.231378
659.434081	0.231298
659.638898	0.231626
659.843697	0.231582
660.048478	0.231788
660.253240	0.231783
660.457984	0.231727
660.662710	0.231841
660.867417	0.232053
661.072107	0.232194
661.276778	0.232673
661.481431	0.232688
661.686066	0.232967
661.890682	0.233094
662.095281	0.233063
662.299861	0.233306
662.504422	0.233345
662.708966	0.233086
662.913491	0.233279
663.117999	0.233344
663.322488	0.233476
663.526958	0.233657
663.731411	0.233692
663.935845	0.233772
664.140261	0.234028
664.344659	0.234275
664.549038	0.234811
664.753400	0.234690
664.957743	0.234617
665.162068	0.234434
665.366375	0.234538
665.570663	0.234671
665.774933	0.235053
665.979185	0.235101
666.183419	0.235129
666.387635	0.235183
666.591832	0.235412
666.796011	0.235774
667.000172	0.236007
667.204315	0.236092
667.408439	0.236324
667.612545	0.236248
667.816634	0.236497
668.020703	0.236739
668.224755	0.236985
668.428788	0.237098
668.632803	0.237186
668.836800	0.237298
669.040779	0.237357
669.244739	0.237417
669.448681	0.237691
669.652605	0.237614
669.856511	0.237755
670.060399	0.237809
670.264268	0.237991
670.468119	0.237986
670.671952	0.238185
670.875767	0.238437
671.079563	0.238702
671.283341	0.238951
671.487101	0.238949
671.690843	0.238994
671.894567	0.239227
672.098272	0.239353
672.301959	0.239810
672.505628	0.239969
672.709278	0.239905
672.912911	0.239788
673.116525	0.239653
673.320121	0.240109
673.523699	0.240292
673.727258	0.240165
673.930799	0.240313
674.134322	0.240295
674.337827	0.240361
674.541314	0.240803
674.744782	0.240990
674.948232	0.241472
675.151664	0.241381
675.355078	0.241723
675.558474	0.241941
675.761851	0.242182
675.965210	0.242126
676.168551	0.242497
676.371873	0.242420
676.575178	0.242410
676.778464	0.242313
676.981732	0.242509
677.184981	0.242437
677.388213	0.242654
677.591426	0.242662
677.794621	0.243002
677.997798	0.242891
678.200956	0.243027
678.404097	0.243431
678.607219	0.243692
678.810323	0.243884
679.013408	0.244009
679.216476	0.244199
679.419525	0.244383
679.622556	0.244793
679.825569	0.245318
680.028563	0.245753
680.231540	0.245867
680.434498	0.246021
680.637438	0.246296
680.840359	0.246546
681.043263	0.246864
681.246148	0.247033
681.449015	0.246828
681.651864	0.246685
681.854694	0.246712
682.057506	0.246894
682.260301	0.247064
682.463076	0.247191
682.665834	0.247286
682.868573	0.247190
683.071295	0.247441
683.273998	0.247677
683.476682	0.247940
683.679349	0.247973
683.881997	0.247996
684.084627	0.248173
684.287239	0.248357
684.489833	0.248501
684.692408	0.248706
684.894965	0.248887
685.097504	0.248992
685.300025	0.249149
685.502527	0.249454
685.705012	0.249748
685.907478	0.249705
686.109925	0.249682
686.312355	0.249954
686.514766	0.250135
686.717159	0.250293
686.919534	0.250418
687.121891	0.250494
687.324230	0.250471
687.526550	0.250347
687.728852	0.250452
687.931136	0.250552
688.133401	0.250358
688.335649	0.250240
688.537878	0.250224
688.740089	0.250131
688.942281	0.250371
689.144456	0.250366
689.346612	0.250476
689.548750	0.250601
689.750870	0.250756
689.952971	0.250974
690.155055	0.251287
690.357120	0.251241
690.559167	0.251433
690.761195	0.251348
690.963206	0.251749
691.165198	0.251978
691.367172	0.252005
691.569128	0.252003
691.771065	0.252313
691.972984	0.252369
692.174885	0.252879
692.376768	0.253139
692.578633	0.253442
692.780479	0.253337
692.982308	0.253696
693.184118	0.253955
693.385909	0.254389
