sample name	sample
index	1268
start time	 04-29-2021  01:38:31 PM


Wavelength (nm)	Absorbance
494.344910	-0.152330
494.563924	-0.152330
494.782919	-0.152330
495.001897	-0.040828
495.220856	-0.026329
495.439797	-0.045152
495.658719	-0.032069
495.877624	-0.024911
496.096510	-0.004426
496.315378	0.023024
496.534227	0.001781
496.753059	0.008828
496.971872	0.044890
497.190667	0.158981
497.409444	0.175480
497.628203	0.178452
497.846943	0.185049
498.065665	0.187787
498.284369	0.189829
498.503055	0.188392
498.721723	0.188142
498.940372	0.188556
499.159003	0.188119
499.377616	0.188703
499.596210	0.189378
499.814787	0.189276
500.033345	0.188202
500.251885	0.187007
500.470406	0.187415
500.688910	0.188498
500.907395	0.188139
501.125862	0.188133
501.344311	0.188371
501.562742	0.189391
501.781154	0.190250
501.999548	0.190475
502.217924	0.190964
502.436282	0.191510
502.654621	0.191106
502.872942	0.191706
503.091245	0.192424
503.309530	0.193067
503.527797	0.191547
503.746045	0.189784
503.964275	0.190423
504.182487	0.190136
504.400681	0.190619
504.618856	0.190372
504.837013	0.190514
505.055152	0.190923
505.273273	0.191766
505.491376	0.192468
505.709460	0.192795
505.927526	0.192600
506.145574	0.194092
506.363604	0.192764
506.581615	0.192189
506.799608	0.192695
507.017583	0.192561
507.235540	0.191841
507.453478	0.192446
507.671399	0.193722
507.889301	0.193888
508.107185	0.194056
508.325050	0.195026
508.542898	0.195024
508.760727	0.194746
508.978538	0.194946
509.196330	0.195438
509.414105	0.195993
509.631861	0.196174
509.849599	0.196309
510.067319	0.195037
510.285021	0.195785
510.502704	0.195623
510.720369	0.196007
510.938016	0.196499
511.155645	0.196653
511.373255	0.196668
511.590848	0.196290
511.808422	0.196266
512.025977	0.196781
512.243515	0.196415
512.461034	0.197430
512.678536	0.197068
512.896018	0.196370
513.113483	0.196667
513.330930	0.196337
513.548358	0.197153
513.765768	0.197085
513.983160	0.198211
514.200533	0.198173
514.417889	0.198634
514.635226	0.198615
514.852545	0.199352
515.069845	0.199479
515.287128	0.200711
515.504392	0.199955
515.721638	0.201195
515.938866	0.200883
516.156075	0.200960
516.373267	0.201929
516.590440	0.203241
516.807594	0.203635
517.024731	0.202786
517.241850	0.201823
517.458950	0.202677
517.676032	0.201960
517.893095	0.201950
518.110141	0.202513
518.327168	0.203319
518.544177	0.203001
518.761168	0.202538
518.978141	0.203675
519.195095	0.204054
519.412031	0.204295
519.628949	0.205732
519.845849	0.205051
520.062731	0.205433
520.279594	0.204600
520.496439	0.204017
520.713266	0.204567
520.930074	0.204574
521.146865	0.204612
521.363637	0.204450
521.580391	0.203466
521.797127	0.205702
522.013844	0.205001
522.230543	0.205440
522.447224	0.206709
522.663887	0.207768
522.880532	0.208463
523.097158	0.209221
523.313766	0.209111
523.530356	0.210473
523.746928	0.209891
523.963481	0.211567
524.180017	0.212362
524.396534	0.213496
524.613032	0.213144
524.829513	0.213980
525.045975	0.215101
525.262420	0.216037
525.478845	0.215717
525.695253	0.216111
525.911643	0.216222
526.128014	0.215936
526.344367	0.215461
526.560702	0.215941
526.777018	0.215324
526.993316	0.214900
527.209597	0.215723
527.425858	0.216443
527.642102	0.217484
527.858328	0.218009
528.074535	0.218972
528.290724	0.219240
528.506894	0.219020
528.723047	0.220340
528.939181	0.221546
529.155297	0.221340
529.371395	0.221501
529.587475	0.221738
529.803536	0.221634
530.019579	0.221464
530.235604	0.221737
530.451611	0.222678
530.667600	0.222136
530.883570	0.221181
531.099522	0.221301
531.315456	0.221775
531.531372	0.221121
531.747269	0.221357
531.963148	0.221928
532.179009	0.222076
532.394852	0.222436
532.610676	0.223312
532.826482	0.224192
533.042271	0.224666
533.258040	0.224855
533.473792	0.224978
533.689525	0.226041
533.905240	0.226440
534.120937	0.227459
534.336616	0.227762
534.552277	0.228154
534.767919	0.228473
534.983543	0.229028
535.199149	0.229578
535.414736	0.230917
535.630306	0.231458
535.845857	0.231545
536.061390	0.231909
536.276904	0.232669
536.492401	0.233111
536.707879	0.232942
536.923339	0.232748
537.138781	0.232391
537.354204	0.232764
537.569610	0.232848
537.784997	0.233644
538.000366	0.233386
538.215716	0.232811
538.431049	0.232801
538.646363	0.233957
538.861659	0.234471
539.076937	0.235976
539.292196	0.235698
539.507438	0.235855
539.722661	0.236415
539.937866	0.237124
540.153052	0.237895
540.368221	0.238069
540.583371	0.238430
540.798503	0.238876
541.013617	0.239003
541.228712	0.239776
541.443789	0.240084
541.658848	0.240064
541.873889	0.240285
542.088912	0.240857
542.303916	0.241379
542.518902	0.240986
542.733870	0.241226
542.948820	0.241471
543.163752	0.241693
543.378665	0.241751
543.593560	0.241695
543.808437	0.241700
544.023295	0.241803
544.238136	0.242280
544.452958	0.243313
544.667762	0.243669
544.882548	0.243968
545.097315	0.244726
545.312064	0.244798
545.526795	0.245688
545.741508	0.246430
545.956203	0.247097
546.170879	0.247502
546.385537	0.247645
546.600177	0.248203
546.814799	0.248597
547.029402	0.248298
547.243988	0.248798
547.458555	0.249040
547.673103	0.249415
547.887634	0.249468
548.102146	0.249516
548.316640	0.249580
548.531116	0.249971
548.745574	0.249846
548.960013	0.250497
549.174435	0.251217
549.388838	0.251495
549.603222	0.251265
549.817589	0.252156
550.031937	0.252549
550.246267	0.253006
550.460579	0.253253
550.674873	0.253587
550.889148	0.253819
551.103405	0.253454
551.317644	0.252934
551.531865	0.254150
551.746068	0.253691
551.960252	0.253687
552.174418	0.253674
552.388566	0.253576
552.602696	0.254113
552.816807	0.254050
553.030900	0.254591
553.244975	0.255518
553.459032	0.255012
553.673070	0.254864
553.887091	0.255239
554.101093	0.255982
554.315077	0.256679
554.529042	0.257018
554.742990	0.257613
554.956919	0.258209
555.170830	0.258172
555.384722	0.258858
555.598597	0.259702
555.812453	0.260154
556.026291	0.260142
556.240111	0.260073
556.453913	0.259875
556.667696	0.259338
556.881461	0.258982
557.095208	0.259366
557.308937	0.259511
557.522647	0.259560
557.736339	0.259808
557.950013	0.260165
558.163669	0.260581
558.377307	0.261185
558.590926	0.262246
558.804527	0.262791
559.018110	0.262845
559.231675	0.262923
559.445221	0.263161
559.658749	0.262968
559.872259	0.263125
560.085751	0.263356
560.299225	0.263273
560.512680	0.263130
560.726117	0.263703
560.939536	0.263919
561.152937	0.263618
561.366319	0.263684
561.579683	0.263975
561.793029	0.264517
562.006357	0.265084
562.219667	0.265175
562.432958	0.265312
562.646231	0.265185
562.859486	0.265197
563.072723	0.265878
563.285941	0.265825
563.499141	0.265919
563.712323	0.265775
563.925487	0.265447
564.138632	0.265769
564.351760	0.265899
564.564869	0.266231
564.777960	0.267170
564.991032	0.267192
565.204087	0.267876
565.417123	0.268499
565.630141	0.268524
565.843140	0.268629
566.056122	0.268510
566.269085	0.268802
566.482030	0.268339
566.694957	0.267889
566.907866	0.268095
567.120756	0.268044
567.333628	0.268145
567.546482	0.268590
567.759318	0.268821
567.972135	0.269070
568.184935	0.269292
568.397716	0.269646
568.610478	0.269983
568.823223	0.270220
569.035949	0.270214
569.248657	0.270128
569.461347	0.269688
569.674019	0.270010
569.886672	0.270429
570.099308	0.270584
570.311925	0.270707
570.524523	0.270798
570.737104	0.271047
570.949666	0.271452
571.162210	0.271795
571.374736	0.272280
571.587244	0.271895
571.799733	0.272224
572.012205	0.272597
572.224658	0.272882
572.437092	0.272873
572.649509	0.272990
572.861907	0.273055
573.074287	0.272830
573.286649	0.272943
573.498993	0.273209
573.711318	0.272883
573.923625	0.272695
574.135914	0.273621
574.348185	0.273712
574.560438	0.274076
574.772672	0.274721
574.984888	0.275475
575.197086	0.275900
575.409266	0.276540
575.621427	0.277009
575.833570	0.277271
576.045695	0.276353
576.257802	0.276739
576.469890	0.276508
576.681961	0.276066
576.894013	0.275996
577.106046	0.275950
577.318062	0.275686
577.530059	0.275438
577.742039	0.275148
577.954000	0.275982
578.165942	0.276207
578.377867	0.276921
578.589773	0.277618
578.801661	0.277940
579.013531	0.278215
579.225382	0.278187
579.437216	0.278639
579.649031	0.279027
579.860828	0.279223
580.072606	0.279346
580.284367	0.279162
580.496109	0.279302
580.707833	0.279163
580.919539	0.279225
581.131227	0.279935
581.342896	0.280392
581.554547	0.280810
581.766180	0.280949
581.977795	0.281143
582.189391	0.281360
582.400969	0.281170
582.612529	0.281399
582.824071	0.281967
583.035595	0.282230
583.247100	0.282405
583.458587	0.282871
583.670056	0.282916
583.881506	0.283141
584.092939	0.283149
584.304353	0.283426
584.515749	0.283702
584.727127	0.283489
584.938486	0.283383
585.149828	0.283378
585.361151	0.283390
585.572456	0.283650
585.783742	0.284002
585.995011	0.284589
586.206261	0.284947
586.417493	0.285316
586.628706	0.285444
586.839902	0.285694
587.051079	0.285981
587.262238	0.285861
587.473379	0.285508
587.684502	0.285376
587.895606	0.285402
588.106692	0.285485
588.317760	0.285561
588.528810	0.285704
588.739841	0.285960
588.950855	0.285755
589.161850	0.286005
589.372827	0.286635
589.583785	0.286951
589.794726	0.287160
590.005648	0.287388
590.216552	0.287573
590.427437	0.288071
590.638305	0.288436
590.849154	0.288766
591.059985	0.289058
591.270798	0.289633
591.481592	0.290022
591.692369	0.290357
591.903127	0.290802
592.113867	0.290658
592.324588	0.291170
592.535292	0.291537
592.745977	0.291937
592.956644	0.292250
593.167293	0.292106
593.377923	0.292085
593.588536	0.291831
593.799130	0.291691
594.009706	0.292188
594.220263	0.291790
594.430803	0.291530
594.641324	0.291370
594.851827	0.291563
595.062312	0.291976
595.272778	0.292354
595.483227	0.292309
595.693657	0.292359
595.904069	0.292091
596.114462	0.292709
596.324838	0.293126
596.535195	0.293111
596.745534	0.293017
596.955855	0.292827
597.166157	0.292510
597.376441	0.292685
597.586707	0.292989
597.796955	0.293252
598.007185	0.292918
598.217396	0.292859
598.427589	0.293137
598.637764	0.293542
598.847921	0.293812
599.058060	0.294170
599.268180	0.294688
599.478282	0.294924
599.688366	0.295096
599.898431	0.295435
600.108479	0.295789
600.318508	0.295963
600.528519	0.295764
600.738511	0.295573
600.948486	0.295250
601.158442	0.294996
601.368380	0.295085
601.578300	0.295215
601.788202	0.295054
601.998085	0.295232
602.207950	0.295340
602.417797	0.295735
602.627626	0.296100
602.837436	0.296615
603.047228	0.297194
603.257002	0.296988
603.466758	0.296976
603.676496	0.297237
603.886215	0.296977
604.095916	0.297342
604.305599	0.297488
604.515264	0.297829
604.724910	0.298102
604.934538	0.298148
605.144148	0.298486
605.353740	0.299079
605.563314	0.299563
605.772869	0.300129
605.982406	0.300641
606.191925	0.300812
606.401425	0.300898
606.610908	0.301391
606.820372	0.301360
607.029818	0.301289
607.239246	0.301300
607.448655	0.301235
607.658047	0.301517
607.867420	0.301250
608.076775	0.301248
608.286111	0.301312
608.495430	0.300933
608.704730	0.301351
608.914012	0.301539
609.123275	0.302076
609.332521	0.302041
609.541748	0.302240
609.750957	0.302598
609.960148	0.303179
610.169321	0.303253
610.378475	0.303521
610.587611	0.303611
610.796729	0.303804
611.005829	0.303625
611.214910	0.304313
611.423974	0.304402
611.633019	0.304501
611.842045	0.304434
612.051054	0.304781
612.260044	0.304930
612.469017	0.305184
612.677970	0.305435
612.886906	0.305566
613.095824	0.305414
613.304723	0.305388
613.513604	0.305350
613.722467	0.305301
613.931311	0.305416
614.140138	0.305519
614.348946	0.305247
614.557736	0.305413
614.766507	0.305605
614.975261	0.305766
615.183996	0.305731
615.392713	0.305691
615.601412	0.305811
615.810092	0.305682
616.018754	0.305902
616.227399	0.306348
616.436024	0.306706
616.644632	0.306902
616.853222	0.306812
617.061793	0.306897
617.270346	0.307411
617.478880	0.307636
617.687397	0.307937
617.895895	0.307956
618.104375	0.308351
618.312837	0.308459
618.521281	0.308572
618.729706	0.308864
618.938113	0.309201
619.146502	0.309456
619.354873	0.309656
619.563226	0.309853
619.771560	0.310320
619.979876	0.310356
620.188174	0.310443
620.396453	0.310483
620.604715	0.310787
620.812958	0.311025
621.021183	0.311053
621.229390	0.311202
621.437578	0.311132
621.645748	0.310974
621.853900	0.311223
622.062034	0.311192
622.270150	0.311430
622.478247	0.311644
622.686326	0.311682
622.894387	0.311819
623.102430	0.311770
623.310454	0.312212
623.518461	0.312623
623.726449	0.312681
623.934418	0.313014
624.142370	0.313224
624.350303	0.313090
624.558218	0.313221
624.766115	0.313325
624.973994	0.313737
625.181855	0.313728
625.389697	0.313595
625.597521	0.313687
625.805327	0.313809
626.013114	0.313770
626.220883	0.314067
626.428634	0.314190
626.636367	0.314436
626.844082	0.314369
627.051778	0.314808
627.259457	0.315035
627.467117	0.315075
627.674758	0.315283
627.882382	0.315555
628.089987	0.315458
628.297574	0.315647
628.505143	0.315568
628.712694	0.315968
628.920226	0.315908
629.127740	0.316286
629.335236	0.316332
629.542714	0.316447
629.750174	0.316715
629.957615	0.317142
630.165038	0.317218
630.372443	0.317534
630.579829	0.317586
630.787198	0.317808
630.994548	0.317807
631.201880	0.318332
631.409194	0.318577
631.616489	0.318839
631.823766	0.319183
632.031025	0.319508
632.238266	0.319610
632.445489	0.319828
632.652693	0.319567
632.859879	0.319625
633.067047	0.319790
633.274197	0.319751
633.481329	0.319842
633.688442	0.319995
633.895537	0.320146
634.102614	0.320361
634.309672	0.320589
634.516713	0.321330
634.723735	0.321691
634.930739	0.321895
635.137724	0.322224
635.344692	0.322134
635.551641	0.322105
635.758572	0.322171
635.965485	0.322409
636.172379	0.322508
636.379256	0.322430
636.586114	0.322588
636.792954	0.322777
636.999775	0.323057
637.206579	0.323122
637.413364	0.323294
637.620131	0.323482
637.826880	0.323585
638.033610	0.323754
638.240323	0.323720
638.447017	0.323890
638.653692	0.323653
638.860350	0.323586
639.066990	0.324152
639.273611	0.324412
639.480214	0.324539
639.686798	0.324795
639.893365	0.324775
640.099913	0.325340
640.306443	0.325676
640.512955	0.326360
640.719449	0.326530
640.925924	0.326510
641.132381	0.326823
641.338820	0.327256
641.545241	0.327369
641.751644	0.327815
641.958028	0.327967
642.164394	0.328155
642.370742	0.328041
642.577071	0.328287
642.783383	0.328618
642.989676	0.328596
643.195951	0.328531
643.402207	0.328732
643.608446	0.328758
643.814666	0.328792
644.020868	0.328989
644.227052	0.329043
644.433218	0.329315
644.639365	0.329334
644.845494	0.329708
645.051605	0.329821
645.257698	0.329701
645.463772	0.329908
645.669828	0.330166
645.875866	0.330117
646.081886	0.330572
646.287888	0.330876
646.493871	0.331190
646.699836	0.331229
646.905783	0.331527
647.111712	0.332158
647.317622	0.332319
647.523514	0.332583
647.729388	0.332713
647.935244	0.332643
648.141082	0.332684
648.346901	0.332721
648.552702	0.332876
648.758485	0.333156
648.964250	0.333257
649.169996	0.333579
649.375724	0.333806
649.581434	0.334083
649.787126	0.334472
649.992800	0.334817
650.198455	0.335153
650.404092	0.335363
650.609711	0.335451
650.815311	0.335345
651.020894	0.335515
651.226458	0.335482
651.432004	0.335726
651.637532	0.335715
651.843041	0.335492
652.048532	0.335597
652.254006	0.335730
652.459460	0.335736
652.664897	0.335941
652.870315	0.336009
653.075716	0.336078
653.281097	0.336009
653.486461	0.336398
653.691807	0.336799
653.897134	0.337048
654.102443	0.337440
654.307734	0.337653
654.513006	0.338252
654.718261	0.338646
654.923497	0.339220
655.128715	0.339596
655.333915	0.339660
655.539096	0.339716
655.744259	0.339635
655.949404	0.339588
656.154531	0.340137
656.359640	0.339984
656.564730	0.339965
656.769802	0.339985
656.974856	0.340405
657.179892	0.340454
657.384909	0.340681
657.589908	0.340979
657.794889	0.341256
657.999852	0.341220
658.204797	0.341555
658.409723	0.341794
658.614631	0.342403
658.819521	0.342528
659.024393	0.342822
659.229246	0.343071
659.434081	0.343422
659.638898	0.343659
659.843697	0.344047
660.048478	0.344455
660.253240	0.344794
660.457984	0.344328
660.662710	0.344532
660.867417	0.344738
661.072107	0.345000
661.276778	0.345394
661.481431	0.345610
661.686066	0.345743
661.890682	0.346005
662.095281	0.346159
662.299861	0.346679
662.504422	0.346685
662.708966	0.346971
662.913491	0.347294
663.117999	0.347347
663.322488	0.347645
663.526958	0.347797
663.731411	0.348165
663.935845	0.348198
664.140261	0.348251
664.344659	0.348963
664.549038	0.349236
664.753400	0.349536
664.957743	0.350079
665.162068	0.350052
665.366375	0.350321
665.570663	0.350228
665.774933	0.350934
665.979185	0.351286
666.183419	0.351229
666.387635	0.351503
666.591832	0.351411
666.796011	0.351291
667.000172	0.351826
667.204315	0.352116
667.408439	0.352598
667.612545	0.352609
667.816634	0.352795
668.020703	0.353030
668.224755	0.353330
668.428788	0.353723
668.632803	0.354213
668.836800	0.354209
669.040779	0.354700
669.244739	0.354903
669.448681	0.355342
669.652605	0.355854
669.856511	0.356166
670.060399	0.356299
670.264268	0.357135
670.468119	0.357334
670.671952	0.357876
670.875767	0.358198
671.079563	0.358361
671.283341	0.358517
671.487101	0.358807
671.690843	0.359130
671.894567	0.359487
672.098272	0.359604
672.301959	0.359886
672.505628	0.360134
672.709278	0.360182
672.912911	0.360579
673.116525	0.360993
673.320121	0.361102
673.523699	0.361271
673.727258	0.361602
673.930799	0.361567
674.134322	0.361823
674.337827	0.361876
674.541314	0.362136
674.744782	0.362352
674.948232	0.362150
675.151664	0.362630
675.355078	0.362789
675.558474	0.363016
675.761851	0.363029
675.965210	0.363375
676.168551	0.363749
676.371873	0.363824
676.575178	0.363729
676.778464	0.364289
676.981732	0.364297
677.184981	0.364594
677.388213	0.364567
677.591426	0.364705
677.794621	0.364691
677.997798	0.364320
678.200956	0.364267
678.404097	0.364640
678.607219	0.364729
678.810323	0.364965
679.013408	0.365145
679.216476	0.365635
679.419525	0.366181
679.622556	0.366413
679.825569	0.367393
680.028563	0.367998
680.231540	0.368238
680.434498	0.368143
680.637438	0.368520
680.840359	0.368733
681.043263	0.368830
681.246148	0.369190
681.449015	0.369197
681.651864	0.369057
681.854694	0.369105
682.057506	0.369358
682.260301	0.369910
682.463076	0.369895
682.665834	0.370098
682.868573	0.370197
683.071295	0.370138
683.273998	0.370474
683.476682	0.370577
683.679349	0.370978
683.881997	0.371111
684.084627	0.371344
684.287239	0.371043
684.489833	0.370967
684.692408	0.371369
684.894965	0.371721
685.097504	0.371861
685.300025	0.372195
685.502527	0.372042
685.705012	0.372072
685.907478	0.372043
686.109925	0.372832
686.312355	0.373056
686.514766	0.373090
686.717159	0.372941
686.919534	0.373218
687.121891	0.373317
687.324230	0.373892
687.526550	0.374243
687.728852	0.374492
687.931136	0.374513
688.133401	0.374633
688.335649	0.374815
688.537878	0.375109
688.740089	0.375179
688.942281	0.375505
689.144456	0.375467
689.346612	0.375503
689.548750	0.375836
689.750870	0.376025
689.952971	0.376549
690.155055	0.376928
690.357120	0.377213
690.559167	0.377780
690.761195	0.378292
690.963206	0.378666
691.165198	0.379197
691.367172	0.379439
691.569128	0.379811
691.771065	0.380236
691.972984	0.380308
692.174885	0.380607
692.376768	0.380675
692.578633	0.380377
692.780479	0.380253
692.982308	0.380221
693.184118	0.380274
693.385909	0.380291
