sample name	sample
index	1450
start time	 05-10-2021  01:26:52 PM


Wavelength (nm)	Absorbance
494.344910	-0.024414
494.563924	-0.024414
494.782919	-0.024414
495.001897	-0.010418
495.220856	-0.009157
495.439797	-0.011264
495.658719	-0.004986
495.877624	-0.005072
496.096510	-0.004603
496.315378	-0.015206
496.534227	-0.020331
496.753059	-0.022645
496.971872	-0.014103
497.190667	0.025147
497.409444	0.050358
497.628203	0.055541
497.846943	0.059986
498.065665	0.060835
498.284369	0.064197
498.503055	0.067270
498.721723	0.067925
498.940372	0.068099
499.159003	0.067643
499.377616	0.066745
499.596210	0.067185
499.814787	0.066833
500.033345	0.067850
500.251885	0.067870
500.470406	0.067098
500.688910	0.067286
500.907395	0.066890
501.125862	0.067390
501.344311	0.067826
501.562742	0.067422
501.781154	0.067364
501.999548	0.066488
502.217924	0.065923
502.436282	0.065162
502.654621	0.063744
502.872942	0.063126
503.091245	0.064355
503.309530	0.064075
503.527797	0.064425
503.746045	0.064460
503.964275	0.065246
504.182487	0.064818
504.400681	0.065749
504.618856	0.066727
504.837013	0.068036
505.055152	0.066871
505.273273	0.068057
505.491376	0.068545
505.709460	0.068794
505.927526	0.068330
506.145574	0.069214
506.363604	0.068371
506.581615	0.068056
506.799608	0.067606
507.017583	0.067325
507.235540	0.065847
507.453478	0.065332
507.671399	0.065193
507.889301	0.065387
508.107185	0.065569
508.325050	0.066041
508.542898	0.066078
508.760727	0.065282
508.978538	0.065454
509.196330	0.066013
509.414105	0.065849
509.631861	0.065627
509.849599	0.066099
510.067319	0.065511
510.285021	0.064921
510.502704	0.064514
510.720369	0.064320
510.938016	0.063939
511.155645	0.063078
511.373255	0.062896
511.590848	0.063208
511.808422	0.062268
512.025977	0.062363
512.243515	0.062073
512.461034	0.062063
512.678536	0.063338
512.896018	0.064093
513.113483	0.064364
513.330930	0.064764
513.548358	0.064789
513.765768	0.065805
513.983160	0.066358
514.200533	0.067006
514.417889	0.067319
514.635226	0.066997
514.852545	0.066682
515.069845	0.067738
515.287128	0.068524
515.504392	0.068850
515.721638	0.068818
515.938866	0.068033
516.156075	0.068288
516.373267	0.068681
516.590440	0.068415
516.807594	0.068221
517.024731	0.067643
517.241850	0.067485
517.458950	0.066785
517.676032	0.066661
517.893095	0.066777
518.110141	0.067264
518.327168	0.067106
518.544177	0.067430
518.761168	0.067501
518.978141	0.067837
519.195095	0.067933
519.412031	0.068774
519.628949	0.068552
519.845849	0.069199
520.062731	0.068409
520.279594	0.067947
520.496439	0.067732
520.713266	0.068085
520.930074	0.067533
521.146865	0.066651
521.363637	0.065987
521.580391	0.065760
521.797127	0.065482
522.013844	0.065582
522.230543	0.065644
522.447224	0.066785
522.663887	0.066278
522.880532	0.066875
523.097158	0.067038
523.313766	0.067331
523.530356	0.067844
523.746928	0.067619
523.963481	0.067828
524.180017	0.068467
524.396534	0.067597
524.613032	0.067996
524.829513	0.067686
525.045975	0.067350
525.262420	0.067400
525.478845	0.067130
525.695253	0.067244
525.911643	0.067332
526.128014	0.067043
526.344367	0.067185
526.560702	0.067333
526.777018	0.066678
526.993316	0.067267
527.209597	0.067237
527.425858	0.067817
527.642102	0.067793
527.858328	0.067652
528.074535	0.067947
528.290724	0.067501
528.506894	0.067879
528.723047	0.068373
528.939181	0.068027
529.155297	0.068178
529.371395	0.068422
529.587475	0.068559
529.803536	0.068615
530.019579	0.068648
530.235604	0.068624
530.451611	0.068247
530.667600	0.068257
530.883570	0.068440
531.099522	0.067962
531.315456	0.067853
531.531372	0.067803
531.747269	0.068145
531.963148	0.068395
532.179009	0.068731
532.394852	0.068437
532.610676	0.068148
532.826482	0.068352
533.042271	0.068388
533.258040	0.067379
533.473792	0.067442
533.689525	0.067371
533.905240	0.066868
534.120937	0.067005
534.336616	0.067702
534.552277	0.068352
534.767919	0.068205
534.983543	0.068546
535.199149	0.068999
535.414736	0.068947
535.630306	0.068929
535.845857	0.069871
536.061390	0.069778
536.276904	0.069537
536.492401	0.069264
536.707879	0.069530
536.923339	0.069588
537.138781	0.069469
537.354204	0.069316
537.569610	0.069172
537.784997	0.068054
538.000366	0.068244
538.215716	0.068066
538.431049	0.067903
538.646363	0.067721
538.861659	0.067558
539.076937	0.067931
539.292196	0.067980
539.507438	0.067681
539.722661	0.067990
539.937866	0.068349
540.153052	0.068603
540.368221	0.068528
540.583371	0.068383
540.798503	0.068710
541.013617	0.068488
541.228712	0.068725
541.443789	0.068854
541.658848	0.068871
541.873889	0.068813
542.088912	0.068608
542.303916	0.068967
542.518902	0.069216
542.733870	0.069293
542.948820	0.069747
543.163752	0.069649
543.378665	0.069837
543.593560	0.069795
543.808437	0.069726
544.023295	0.069959
544.238136	0.069691
544.452958	0.069565
544.667762	0.069728
544.882548	0.069513
545.097315	0.069488
545.312064	0.069782
545.526795	0.070163
545.741508	0.069662
545.956203	0.069431
546.170879	0.069420
546.385537	0.069662
546.600177	0.069012
546.814799	0.068938
547.029402	0.068589
547.243988	0.068782
547.458555	0.068876
547.673103	0.068743
547.887634	0.068413
548.102146	0.068668
548.316640	0.068753
548.531116	0.069372
548.745574	0.069621
548.960013	0.070331
549.174435	0.070066
549.388838	0.070068
549.603222	0.070252
549.817589	0.070971
550.031937	0.070980
550.246267	0.070895
550.460579	0.070680
550.674873	0.070746
550.889148	0.070415
551.103405	0.070433
551.317644	0.069849
551.531865	0.070095
551.746068	0.069667
551.960252	0.069709
552.174418	0.069612
552.388566	0.069448
552.602696	0.069300
552.816807	0.069683
553.030900	0.070074
553.244975	0.070627
553.459032	0.070595
553.673070	0.070881
553.887091	0.071135
554.101093	0.071157
554.315077	0.071399
554.529042	0.071505
554.742990	0.071063
554.956919	0.070921
555.170830	0.070964
555.384722	0.071072
555.598597	0.070950
555.812453	0.070953
556.026291	0.070957
556.240111	0.070865
556.453913	0.070985
556.667696	0.071459
556.881461	0.071305
557.095208	0.071110
557.308937	0.070876
557.522647	0.070860
557.736339	0.070562
557.950013	0.070640
558.163669	0.070940
558.377307	0.070545
558.590926	0.070492
558.804527	0.070391
559.018110	0.070466
559.231675	0.070910
559.445221	0.071155
559.658749	0.071606
559.872259	0.071373
560.085751	0.071310
560.299225	0.071812
560.512680	0.071798
560.726117	0.072157
560.939536	0.072209
561.152937	0.072393
561.366319	0.072165
561.579683	0.072284
561.793029	0.072851
562.006357	0.072941
562.219667	0.072551
562.432958	0.072495
562.646231	0.072500
562.859486	0.072859
563.072723	0.072506
563.285941	0.073002
563.499141	0.072924
563.712323	0.072904
563.925487	0.073028
564.138632	0.073347
564.351760	0.073514
564.564869	0.073450
564.777960	0.073411
564.991032	0.073564
565.204087	0.073414
565.417123	0.073295
565.630141	0.073541
565.843140	0.073255
566.056122	0.073409
566.269085	0.073459
566.482030	0.073376
566.694957	0.073458
566.907866	0.073668
567.120756	0.074070
567.333628	0.074198
567.546482	0.073926
567.759318	0.073940
567.972135	0.073947
568.184935	0.073991
568.397716	0.074409
568.610478	0.074642
568.823223	0.074406
569.035949	0.074037
569.248657	0.074119
569.461347	0.074183
569.674019	0.074478
569.886672	0.074373
570.099308	0.074448
570.311925	0.074446
570.524523	0.074177
570.737104	0.074621
570.949666	0.074488
571.162210	0.074256
571.374736	0.074224
571.587244	0.074120
571.799733	0.074095
572.012205	0.074097
572.224658	0.073461
572.437092	0.073393
572.649509	0.073107
572.861907	0.073167
573.074287	0.073667
573.286649	0.073893
573.498993	0.073939
573.711318	0.074327
573.923625	0.074283
574.135914	0.074560
574.348185	0.074675
574.560438	0.074762
574.772672	0.074905
574.984888	0.074794
575.197086	0.074780
575.409266	0.074906
575.621427	0.074803
575.833570	0.074731
576.045695	0.074833
576.257802	0.074832
576.469890	0.074815
576.681961	0.075017
576.894013	0.074980
577.106046	0.074984
577.318062	0.074864
577.530059	0.074976
577.742039	0.075302
577.954000	0.075547
578.165942	0.075878
578.377867	0.076037
578.589773	0.075888
578.801661	0.075960
579.013531	0.076115
579.225382	0.076206
579.437216	0.076116
579.649031	0.076259
579.860828	0.076211
580.072606	0.076152
580.284367	0.076122
580.496109	0.076129
580.707833	0.076390
580.919539	0.076458
581.131227	0.076744
581.342896	0.077048
581.554547	0.076968
581.766180	0.077262
581.977795	0.077212
582.189391	0.077878
582.400969	0.078186
582.612529	0.078620
582.824071	0.078425
583.035595	0.078407
583.247100	0.078271
583.458587	0.078369
583.670056	0.077992
583.881506	0.078014
584.092939	0.077443
584.304353	0.077637
584.515749	0.077285
584.727127	0.077683
584.938486	0.077872
585.149828	0.078028
585.361151	0.077865
585.572456	0.078410
585.783742	0.078375
585.995011	0.078548
586.206261	0.078805
586.417493	0.078945
586.628706	0.078990
586.839902	0.078937
587.051079	0.078921
587.262238	0.079173
587.473379	0.079114
587.684502	0.079342
587.895606	0.079480
588.106692	0.079146
588.317760	0.079164
588.528810	0.079077
588.739841	0.079289
588.950855	0.079203
589.161850	0.079467
589.372827	0.079551
589.583785	0.079665
589.794726	0.079769
590.005648	0.080133
590.216552	0.080166
590.427437	0.080082
590.638305	0.080166
590.849154	0.080597
591.059985	0.080535
591.270798	0.080601
591.481592	0.080801
591.692369	0.080641
591.903127	0.080280
592.113867	0.080080
592.324588	0.080240
592.535292	0.079996
592.745977	0.079654
592.956644	0.079492
593.167293	0.079258
593.377923	0.078972
593.588536	0.079112
593.799130	0.079271
594.009706	0.079465
594.220263	0.079360
594.430803	0.079740
594.641324	0.079758
594.851827	0.079880
595.062312	0.079966
595.272778	0.080103
595.483227	0.080203
595.693657	0.080214
595.904069	0.080117
596.114462	0.080347
596.324838	0.080003
596.535195	0.080084
596.745534	0.080248
596.955855	0.080662
597.166157	0.080475
597.376441	0.080418
597.586707	0.080387
597.796955	0.080692
598.007185	0.080450
598.217396	0.080599
598.427589	0.080897
598.637764	0.080951
598.847921	0.080790
599.058060	0.081005
599.268180	0.081168
599.478282	0.081472
599.688366	0.081332
599.898431	0.081498
600.108479	0.081460
600.318508	0.081078
600.528519	0.080934
600.738511	0.080952
600.948486	0.080695
601.158442	0.080563
601.368380	0.080288
601.578300	0.080027
601.788202	0.079899
601.998085	0.079825
602.207950	0.080111
602.417797	0.080014
602.627626	0.079995
602.837436	0.080100
603.047228	0.079893
603.257002	0.080242
603.466758	0.080310
603.676496	0.080546
603.886215	0.080653
604.095916	0.080586
604.305599	0.080721
604.515264	0.080773
604.724910	0.080972
604.934538	0.081318
605.144148	0.081176
605.353740	0.081322
605.563314	0.081571
605.772869	0.081820
605.982406	0.081877
606.191925	0.081948
606.401425	0.081845
606.610908	0.081778
606.820372	0.081986
607.029818	0.081798
607.239246	0.081700
607.448655	0.081551
607.658047	0.081282
607.867420	0.081412
608.076775	0.081403
608.286111	0.081618
608.495430	0.081554
608.704730	0.081379
608.914012	0.081728
609.123275	0.082031
609.332521	0.081836
609.541748	0.081883
609.750957	0.081840
609.960148	0.081777
610.169321	0.082033
610.378475	0.082136
610.587611	0.082046
610.796729	0.081879
611.005829	0.081704
611.214910	0.081970
611.423974	0.082339
611.633019	0.082291
611.842045	0.082435
612.051054	0.082072
612.260044	0.082210
612.469017	0.082309
612.677970	0.082674
612.886906	0.082878
613.095824	0.082831
613.304723	0.082283
613.513604	0.082202
613.722467	0.082435
613.931311	0.082426
614.140138	0.082363
614.348946	0.082391
614.557736	0.082414
614.766507	0.082222
614.975261	0.082374
615.183996	0.082834
615.392713	0.083180
615.601412	0.082961
615.810092	0.082991
616.018754	0.083265
616.227399	0.083455
616.436024	0.083309
616.644632	0.083606
616.853222	0.083635
617.061793	0.083843
617.270346	0.083941
617.478880	0.084145
617.687397	0.084540
617.895895	0.084489
618.104375	0.084311
618.312837	0.084385
618.521281	0.084476
618.729706	0.084587
618.938113	0.084457
619.146502	0.084361
619.354873	0.084410
619.563226	0.084246
619.771560	0.084253
619.979876	0.084199
620.188174	0.084335
620.396453	0.084360
620.604715	0.084233
620.812958	0.084073
621.021183	0.084201
621.229390	0.084136
621.437578	0.084011
621.645748	0.084119
621.853900	0.084279
622.062034	0.084067
622.270150	0.084086
622.478247	0.084049
622.686326	0.084064
622.894387	0.084001
623.102430	0.084018
623.310454	0.084148
623.518461	0.084072
623.726449	0.084222
623.934418	0.084040
624.142370	0.084069
624.350303	0.083992
624.558218	0.084153
624.766115	0.084067
624.973994	0.084122
625.181855	0.084183
625.389697	0.084234
625.597521	0.084214
625.805327	0.084578
626.013114	0.084365
626.220883	0.084504
626.428634	0.084392
626.636367	0.084442
626.844082	0.084317
627.051778	0.084161
627.259457	0.084310
627.467117	0.084155
627.674758	0.084023
627.882382	0.084426
628.089987	0.084365
628.297574	0.084546
628.505143	0.084597
628.712694	0.084902
628.920226	0.085165
629.127740	0.085164
629.335236	0.085550
629.542714	0.085765
629.750174	0.085637
629.957615	0.085895
630.165038	0.085830
630.372443	0.085787
630.579829	0.085605
630.787198	0.085582
630.994548	0.085477
631.201880	0.085324
631.409194	0.085136
631.616489	0.085042
631.823766	0.084847
632.031025	0.084948
632.238266	0.085195
632.445489	0.085402
632.652693	0.085420
632.859879	0.085326
633.067047	0.085235
633.274197	0.085364
633.481329	0.085472
633.688442	0.085492
633.895537	0.085584
634.102614	0.085359
634.309672	0.085168
634.516713	0.085005
634.723735	0.085168
634.930739	0.085293
635.137724	0.085233
635.344692	0.085228
635.551641	0.085380
635.758572	0.085539
635.965485	0.085702
636.172379	0.085777
636.379256	0.085922
636.586114	0.085949
636.792954	0.085724
636.999775	0.085758
637.206579	0.085773
637.413364	0.085734
637.620131	0.085565
637.826880	0.085526
638.033610	0.085536
638.240323	0.085713
638.447017	0.085663
638.653692	0.085974
638.860350	0.086304
639.066990	0.086390
639.273611	0.086427
639.480214	0.086600
639.686798	0.086624
639.893365	0.086902
640.099913	0.086994
640.306443	0.087254
640.512955	0.087243
640.719449	0.087116
640.925924	0.087144
641.132381	0.087348
641.338820	0.087246
641.545241	0.087453
641.751644	0.087299
641.958028	0.087315
642.164394	0.087193
642.370742	0.087337
642.577071	0.087508
642.783383	0.087531
642.989676	0.087676
643.195951	0.087716
643.402207	0.087755
643.608446	0.087760
643.814666	0.087821
644.020868	0.087902
644.227052	0.087831
644.433218	0.087794
644.639365	0.087784
644.845494	0.087807
645.051605	0.087914
645.257698	0.087905
645.463772	0.088039
645.669828	0.087650
645.875866	0.087535
646.081886	0.087475
646.287888	0.087273
646.493871	0.087185
646.699836	0.086835
646.905783	0.086692
647.111712	0.086675
647.317622	0.086533
647.523514	0.086727
647.729388	0.086962
647.935244	0.087095
648.141082	0.087364
648.346901	0.087536
648.552702	0.087748
648.758485	0.087872
648.964250	0.087843
649.169996	0.088147
649.375724	0.088060
649.581434	0.088054
649.787126	0.088180
649.992800	0.088085
650.198455	0.088163
650.404092	0.088225
650.609711	0.088291
650.815311	0.088378
651.020894	0.088256
651.226458	0.088310
651.432004	0.088356
651.637532	0.088352
651.843041	0.088263
652.048532	0.088187
652.254006	0.088195
652.459460	0.088130
652.664897	0.088067
652.870315	0.088161
653.075716	0.088197
653.281097	0.088143
653.486461	0.088284
653.691807	0.088569
653.897134	0.088663
654.102443	0.088789
654.307734	0.089068
654.513006	0.089383
654.718261	0.089507
654.923497	0.089947
655.128715	0.090173
655.333915	0.090167
655.539096	0.090279
655.744259	0.090426
655.949404	0.090418
656.154531	0.090224
656.359640	0.090189
656.564730	0.090181
656.769802	0.090082
656.974856	0.089974
657.179892	0.089991
657.384909	0.089880
657.589908	0.089959
657.794889	0.090133
657.999852	0.090333
658.204797	0.090360
658.409723	0.090579
658.614631	0.090519
658.819521	0.090616
659.024393	0.090515
659.229246	0.090458
659.434081	0.090345
659.638898	0.090054
659.843697	0.090157
660.048478	0.089926
660.253240	0.089676
660.457984	0.089821
660.662710	0.089714
660.867417	0.089893
661.072107	0.089825
661.276778	0.089760
661.481431	0.089945
661.686066	0.089767
661.890682	0.090007
662.095281	0.090105
662.299861	0.090127
662.504422	0.090338
662.708966	0.090250
662.913491	0.090441
663.117999	0.090496
663.322488	0.090630
663.526958	0.090758
663.731411	0.090826
663.935845	0.090983
664.140261	0.091100
664.344659	0.091134
664.549038	0.091248
664.753400	0.091322
664.957743	0.091543
665.162068	0.091536
665.366375	0.091715
665.570663	0.091737
665.774933	0.091879
665.979185	0.091672
666.183419	0.091756
666.387635	0.091895
666.591832	0.091970
666.796011	0.092068
667.000172	0.092096
667.204315	0.091950
667.408439	0.092080
667.612545	0.091896
667.816634	0.092243
668.020703	0.092100
668.224755	0.092105
668.428788	0.092252
668.632803	0.092309
668.836800	0.092523
669.040779	0.092537
669.244739	0.092590
669.448681	0.092796
669.652605	0.092817
669.856511	0.092941
670.060399	0.092923
670.264268	0.092977
670.468119	0.092716
670.671952	0.092566
670.875767	0.092706
671.079563	0.092592
671.283341	0.092534
671.487101	0.092381
671.690843	0.092250
671.894567	0.092237
672.098272	0.092200
672.301959	0.092557
672.505628	0.092523
672.709278	0.092544
672.912911	0.092622
673.116525	0.092462
673.320121	0.092431
673.523699	0.092442
673.727258	0.092478
673.930799	0.092522
674.134322	0.092334
674.337827	0.092249
674.541314	0.092207
674.744782	0.092180
674.948232	0.092219
675.151664	0.092309
675.355078	0.092385
675.558474	0.092475
675.761851	0.092505
675.965210	0.092604
676.168551	0.092785
676.371873	0.092837
676.575178	0.092890
676.778464	0.092977
676.981732	0.093010
677.184981	0.093156
677.388213	0.093335
677.591426	0.093267
677.794621	0.093220
677.997798	0.093373
678.200956	0.093380
678.404097	0.093320
678.607219	0.093584
678.810323	0.093694
679.013408	0.093843
679.216476	0.093721
679.419525	0.093873
679.622556	0.094178
679.825569	0.094333
680.028563	0.094470
680.231540	0.094674
680.434498	0.094576
680.637438	0.094779
680.840359	0.094662
681.043263	0.094661
681.246148	0.094560
681.449015	0.094389
681.651864	0.094166
681.854694	0.094229
682.057506	0.094309
682.260301	0.094337
682.463076	0.094144
682.665834	0.094230
682.868573	0.094202
683.071295	0.094324
683.273998	0.094456
683.476682	0.094430
683.679349	0.094460
683.881997	0.094299
684.084627	0.094327
684.287239	0.094425
684.489833	0.094345
684.692408	0.094452
684.894965	0.094399
685.097504	0.094232
685.300025	0.094416
685.502527	0.094271
685.705012	0.094319
685.907478	0.094262
686.109925	0.094085
686.312355	0.094152
686.514766	0.094090
686.717159	0.094163
686.919534	0.094204
687.121891	0.094168
687.324230	0.094174
687.526550	0.094285
687.728852	0.094268
687.931136	0.094368
688.133401	0.094388
688.335649	0.094365
688.537878	0.094288
688.740089	0.094276
688.942281	0.094332
689.144456	0.094453
689.346612	0.094506
689.548750	0.094555
689.750870	0.094802
689.952971	0.094862
690.155055	0.095104
690.357120	0.094985
690.559167	0.095020
690.761195	0.095049
690.963206	0.095203
691.165198	0.095200
691.367172	0.095152
691.569128	0.094874
691.771065	0.095053
691.972984	0.095050
692.174885	0.095465
692.376768	0.095599
692.578633	0.095556
692.780479	0.095589
692.982308	0.095686
693.184118	0.095806
