sample name	sample
index	186
start time	 02-18-2021  11:30:56 AM
880	0.474469
Peak Time (s)	91.538
Peak Height 	0.4745
calc peak height	90,93
Baseline Time (s)	8.537
Baseline Value 	-0.002562
subtract baseline	10,4
Abs	0.325119
Peak Time (s)	92.035
Peak Height 	0.3251
calc peak height	90,93
Baseline Time (s)	9.038
Baseline Value 	0.001961
subtract baseline	10,3
PK_550	0.157074
Peak Time (s)	92.536
Peak Height 	0.1571
calc peak height	90,93
Baseline Time (s)	11.036
Baseline Value 	8.4243E-4
subtract baseline	10,2
PK_880	0.312392
Peak Time (s)	92.536
Peak Height 	0.3124
calc peak height	90,93
Baseline Time (s)	8.537
Baseline Value 	0.001143
subtract baseline	10,1


Time (s)	A880-A510	A880-A775	A880-A975	A880	I510	I775	I975	I880	
0.035000	-0.002483	0.000109	-0.002174	0.006949	6650.428731	43366.084923	3870.469445	22844.594250
0.536000	-0.001992	-0.001244	0.006886	0.003625	6684.030480	43550.346415	3901.194681	22998.396981
1.036000	-0.001535	-0.000915	-0.006064	0.002647	6696.737939	43672.889312	3871.478843	23043.828717
1.536000	-0.001638	-0.001381	-0.002693	-0.000225	6721.393152	43899.608214	3886.871034	23177.930413
2.036500	-0.004969	-0.001191	-0.006163	0.003900	6655.371009	43529.550483	3868.175417	22985.627907
2.536500	-0.001254	-0.001216	0.004028	-0.000833	6730.274025	43972.760271	3905.229606	23206.476475
3.040000	0.001777	0.000192	0.002219	-0.002069	6768.649026	44223.657582	3903.781118	23264.520867
3.534500	0.002421	-0.000301	0.000137	-0.000238	6757.939892	44003.034158	3893.956790	23178.559907
4.035000	0.000376	0.000132	-0.000737	0.000190	6735.705842	44003.547406	3890.706400	23158.540168
4.535500	0.000219	-0.000647	0.000196	-0.000839	6743.530312	44027.114092	3895.606248	23206.718145
5.035500	0.000248	-0.000672	0.000936	-0.000434	6740.151268	43986.419854	3896.446607	23187.733481
5.535500	0.001137	0.000437	-0.000858	0.000220	6742.267383	44029.536924	3890.330589	23157.133057
6.036000	0.001542	-0.000245	0.004376	-0.000450	6751.932911	44028.413875	3905.139440	23188.505585
6.536500	0.001546	-0.000910	-0.004640	-0.001198	6758.700189	44036.230045	3884.455064	23223.568319
7.036500	0.001014	-0.000941	-0.001421	-0.000205	6744.970816	43939.256509	3889.986175	23177.002394
7.536500	0.002963	0.000229	-0.000372	-0.000332	6763.671025	44062.138849	3892.919126	23182.959472
8.037000	-0.000967	-0.000465	0.002534	-0.000084	6726.133102	43972.907379	3899.579478	23171.363271
8.537500	0.000000	0.000360	0.004203	0.000000	6734.037911	44043.105943	3903.568115	23167.412782
9.038000	-0.000962	-0.000136	0.000000	-0.000428	6729.254382	44036.645441	3894.088940	23187.469341
9.535500	0.001530	-0.000285	0.000985	-0.000513	6752.389791	44030.562487	3896.768022	23191.454001
10.035500	-0.001381	-0.000301	-0.002271	-0.000825	6729.066680	44058.698346	3889.415470	23206.100558
10.536000	0.001787	0.000596	-0.001463	0.000668	6744.077955	44002.164767	3887.709809	23136.179641
11.036000	0.000050	0.000000	0.004995	0.000377	6731.109769	43973.316714	3904.616141	23149.788962
11.536000	-0.001756	0.000354	-0.002838	0.000332	6715.369767	44011.013696	3885.128484	23151.857156
12.036500	0.000735	-0.000367	0.006047	-0.000073	6741.287860	43981.085587	3908.411536	23170.824704
12.537000	0.001156	0.000117	0.000022	0.000716	6737.976555	43952.229716	3891.286728	23133.904765
13.040000	-0.002142	-0.000027	0.000020	0.000698	6708.673588	43940.379155	3891.328351	23134.765885
13.534500	-0.000604	-0.000353	-0.000322	-0.000076	6729.305520	43982.747483	3892.403040	23170.958896
14.035000	-0.002730	-0.000579	-0.003131	0.002745	6685.283034	43695.298305	3878.440556	23039.273366
14.535000	-0.000994	0.000351	-0.000842	0.002744	6700.688935	43782.878719	3884.098946	23039.323148
15.035500	0.000370	0.000759	0.000915	0.001438	6724.476041	43944.693151	3891.712424	23100.180679
15.535500	-0.000977	-0.000664	0.000193	-0.000089	6726.087152	43954.480446	3893.722975	23171.570075
16.036000	0.001309	-0.000058	-0.000993	-0.000077	6746.478119	44010.714078	3890.732324	23171.008618
16.536500	0.000291	0.000223	0.004618	0.000656	6730.768801	43967.976570	3902.959539	23136.720133
17.039500	0.003568	0.000518	0.006722	-0.000589	6771.465900	44113.927087	3911.434051	23194.994158
17.536500	0.000396	0.000026	0.001798	0.001350	6725.501316	43883.772754	3894.138154	23104.311506
18.034500	-0.000436	0.000852	-0.005693	0.002590	6707.018652	43844.668671	3872.525819	23046.490822
18.537500	0.000295	0.000047	0.001281	0.002138	6717.563898	43811.412304	3890.882135	23067.559535
19.035000	-0.002057	-0.000445	-0.001837	0.002221	6695.894882	43757.182044	3882.930183	23063.681451
19.535500	-0.000208	-0.000971	0.001881	0.001567	6718.167175	43769.296737	3893.805171	23094.186756
20.035500	-0.001203	0.000087	0.001832	0.002391	6701.964315	43791.295699	3891.625271	23055.773401
20.536000	0.000265	-0.000208	-0.000991	0.002239	6716.392176	43777.816055	3884.981375	23062.838324
21.036000	-0.000203	0.000624	0.001897	0.002820	6707.042170	43801.470594	3890.715712	23035.771832
21.536500	0.000254	0.000450	-0.001473	0.002887	6710.515634	43778.690261	3882.181556	23032.659360
22.036500	-0.000942	-0.000663	0.001689	0.002150	6706.428023	43743.359844	3891.867124	23066.983764
22.537000	0.000443	-0.000221	0.001308	0.002389	6716.642578	43762.502669	3890.322929	23055.867015
23.034500	0.000013	-0.000172	0.001707	0.002632	6710.637821	43744.203014	3890.710376	23044.535909
23.535000	-0.000282	0.000063	-0.002460	0.002614	6708.173673	43767.996862	3880.419176	23045.388008
24.035000	-0.000979	-0.000704	0.002728	0.002203	6705.631065	43734.501266	3894.330570	23064.510958
24.536000	-0.000455	-0.000213	0.005195	0.002821	6704.793542	43722.544777	3898.963690	23035.739044
25.036000	-0.001850	-0.000140	0.002524	0.002273	6697.267202	43781.060707	3893.647234	23061.272893
25.539000	-0.000536	0.000270	0.002902	0.003191	6700.792545	43733.201244	3892.297933	23018.564325
26.036500	-0.001301	-0.000824	-0.001354	0.002037	6704.243132	43738.861990	3884.583461	23072.271396
26.536500	-0.001543	-0.000878	-0.004185	0.002368	6699.151196	43702.640905	3876.776518	23056.845961
27.034000	0.001091	0.000015	-0.000377	0.000167	6742.331811	43994.612436	3891.662539	23159.611369
27.537500	0.003948	0.000350	0.006996	0.000304	6766.827830	44013.330106	3909.864981	23153.198271
28.037500	0.000985	-0.000662	-0.002895	0.001216	6731.967993	43831.461600	3882.800873	23110.563642
28.535000	0.001104	-0.000579	0.002879	0.000907	6735.805745	43868.468268	3897.956994	23125.006343
29.035500	0.000518	-0.000546	0.001977	0.000565	6733.613591	43903.845854	3896.551490	23140.978495
29.538000	-0.001034	-0.000189	0.002055	0.001413	6712.175758	43857.542048	3894.623135	23101.364084
30.036000	-0.000878	0.001177	0.003311	0.002365	6705.088560	43896.642689	3895.386256	23056.984721
30.536000	-0.000644	0.000331	-0.001411	0.004569	6687.603996	43609.382331	3878.183383	22954.571072
31.036500	-0.001341	0.000021	0.000492	0.004449	6682.495607	43591.660213	3883.180144	22960.150516
31.537000	0.000841	0.000638	0.004955	0.002287	6721.106879	43853.109747	3899.704347	23060.615843
32.037000	-0.000850	-0.000066	-0.003962	0.001667	6711.554792	43845.148136	3879.050853	23089.517429
32.537500	-0.000677	-0.000002	-0.000680	0.001252	6716.788531	43890.352770	3888.203655	23108.858701
33.035000	-0.000615	-0.000134	0.005422	0.001175	6718.025373	43885.138548	3903.677887	23112.456285
33.537000	0.000682	0.001006	-0.000734	0.001453	6727.141677	43966.637876	3887.569913	23099.503534
34.035500	0.000088	-0.000093	0.002162	0.003725	6701.586736	43648.826865	3889.121253	22993.726454
34.535500	-0.000869	-0.000167	-0.001367	0.003651	6693.738846	43648.855979	3880.557264	22997.153299
35.036000	-0.001129	-0.000445	0.001509	0.003959	6688.718749	43593.958789	3886.917391	22982.889243
35.536500	-0.001251	-0.001098	0.000055	0.003245	6693.964346	43599.641087	3885.081973	23016.048175
36.036500	0.000320	0.000265	0.001141	0.004437	6697.323627	43615.690854	3884.818481	22960.717113
36.537000	0.000465	0.000443	0.001383	0.004342	6699.459999	43641.366216	3885.655535	22965.135781
37.034000	-0.002201	-0.000081	0.001898	0.003951	6679.294828	43628.772058	3887.901622	22983.235533
37.537500	-0.000070	0.000007	-0.000419	0.003825	6699.291170	43648.929789	3882.472245	22989.111003
38.034500	-0.001074	0.000075	0.002687	0.003970	6689.098305	43641.646497	3889.817584	22982.345718
38.534500	-0.002938	-0.000683	0.008844	0.003864	6673.564140	43580.447065	3905.528402	22987.279514
39.036000	-0.000350	-0.000128	0.000835	0.004070	6694.633139	43613.149534	3884.969205	22977.711585
39.535500	-0.000899	-0.000310	0.000443	0.003618	6693.770764	43638.501565	3885.117743	22998.682269
40.036500	-0.000474	0.000354	0.000139	0.004790	6687.156701	43590.932876	3881.464189	22944.364202
40.536500	-0.000043	0.000123	0.003719	0.004493	6693.599860	43597.078123	3891.086342	22958.100643
41.036000	-0.000662	-0.000165	-0.000942	0.003915	6693.247034	43624.290446	3880.955247	22984.934425
41.536500	-0.000598	-0.000186	0.004011	0.004109	6692.082427	43604.117608	3892.773291	22975.904223
42.040000	0.001761	0.000422	-0.000003	0.004685	6707.923617	43607.091757	3881.372457	22949.211364
42.534000	0.000711	-0.000035	0.000507	0.004559	6699.713761	43576.108569	3882.946932	22955.068335
43.035000	-0.000693	-0.000431	0.003976	0.003976	6692.422703	43593.581864	3893.019431	22982.071352
43.538000	-0.001700	0.000355	0.001710	0.004898	6675.364337	43580.883829	3885.085209	22939.360049
44.035500	0.000633	0.000753	0.005523	0.002720	6715.383997	43823.066117	3900.043803	23040.469733
44.539000	-0.000025	0.000231	0.000507	0.001592	6719.573142	43880.295336	3890.313375	23093.005672
45.036500	-0.001657	0.001431	0.004054	0.004348	6680.598915	43733.575698	3892.283508	22964.828474
45.536500	-0.000185	-0.000469	0.003826	0.001630	6717.810446	43810.669843	3898.518990	23091.240960
46.039500	0.001260	-0.000082	0.002853	0.001800	6729.199292	43831.100971	3895.651399	23083.301267
46.537000	-0.000364	0.000184	0.004848	0.002120	6711.836717	43825.948694	3899.852506	23068.364824
47.034500	0.000821	0.000382	0.002129	0.004547	6700.791507	43616.237849	3886.994474	22955.592247
47.535000	-0.001725	0.000671	-0.002696	0.007301	6653.993946	43385.701244	3868.336280	22828.409818
48.035500	0.000107	0.001058	0.006909	0.003114	6707.188123	43814.689238	3902.537595	23022.112998
48.535500	0.000157	0.000588	0.001872	0.002187	6715.891867	43857.804697	3892.233020	23065.286705
49.036000	-0.000725	0.000250	0.003773	0.002753	6703.001152	43772.584401	3895.570253	23038.934118
49.536500	0.000310	-0.000330	0.001671	0.004553	6696.201511	43548.972125	3885.845920	22955.337287
50.036500	0.002333	0.001123	0.005279	0.001281	6743.477297	43994.002233	3903.049705	23107.507481
50.539500	0.002017	0.000495	-0.000455	0.000055	6751.661955	44050.671640	3891.747213	23164.840917
51.037000	0.001505	-0.000739	0.004646	-0.007119	6812.085725	44617.740039	3922.804469	23503.486943
51.537500	-0.012397	-0.009572	-0.003600	0.086948	5938.323833	35810.491349	3688.878806	19477.755337
52.037500	-0.021541	-0.020437	0.010724	-0.023456	6751.235708	44295.921772	3981.840194	24295.931630
52.535000	-0.013365	-0.023613	0.010655	-0.103485	7631.458843	52315.581931	4219.076029	28639.117693
53.035000	0.011112	-0.019263	0.033181	-0.116793	8066.772059	54367.392746	4340.416202	29442.139544
53.535500	0.017004	-0.009198	0.049085	-0.031121	7190.075354	46139.021305	4113.040379	24678.148934
54.036000	0.027257	0.005794	0.046071	0.018693	6811.544752	42805.090945	3963.602359	22310.707024
54.536500	0.045962	0.020562	0.064150	0.031225	6868.356517	43011.210352	3978.452747	21756.642044
55.036500	0.081964	0.033526	0.091328	0.063565	6902.445582	41259.569417	3964.625890	20398.574251
55.539500	0.106448	0.049062	0.109661	0.058922	7184.073610	43085.483334	4027.446940	20587.374321
56.037000	0.149082	0.070762	0.140944	0.036354	7887.368883	47401.014026	4188.392037	21534.461144
56.534500	0.175703	0.089872	0.168199	0.109413	7375.768473	42198.910333	4050.250279	18638.602322
57.035000	0.200842	0.102449	0.195517	0.167464	7044.917670	38288.973712	3965.399150	16660.833978
57.535500	0.213063	0.113071	0.213886	0.216728	6701.328132	35273.540922	3885.942988	15177.831412
58.035500	0.230083	0.122655	0.234059	0.249988	6559.704091	33554.284876	3853.953796	14267.617182
58.539000	0.237809	0.127224	0.240571	0.284935	6333.866802	31481.221552	3787.682505	13383.439243
59.036500	0.249508	0.134634	0.260412	0.312166	6211.206318	30204.757975	3771.159128	12742.147510
59.539000	0.254430	0.138764	0.262907	0.340901	6031.470623	28699.090316	3714.705865	12107.650659
60.036500	0.264028	0.142889	0.268364	0.359418	5966.642287	27857.099313	3687.852125	11720.453212
60.537000	0.272048	0.148048	0.277760	0.383934	5850.200845	26767.822945	3657.758445	11232.582245
61.037000	0.274280	0.150828	0.283700	0.397891	5770.087510	26160.587455	3642.222002	10966.895943
61.537500	0.279219	0.153900	0.286780	0.403878	5763.033416	26004.814412	3636.659183	10855.521846
62.038000	0.283049	0.160951	0.289508	0.421046	5674.707310	25472.086628	3609.569771	10544.525032
62.538000	0.281721	0.159504	0.291074	0.391835	5862.504142	26964.263181	3668.414130	11081.142048
63.035500	0.288504	0.162323	0.292030	0.397542	5869.994859	26804.586081	3659.053953	10973.437124
63.535500	0.289845	0.162318	0.290623	0.402206	5846.919481	26548.630098	3647.244843	10886.467232
64.036000	0.290167	0.162526	0.296000	0.405846	5824.051866	26362.221478	3650.606950	10819.246837
64.536000	0.288998	0.165282	0.302758	0.408975	5794.695884	26342.099067	3657.675423	10761.911202
65.037000	0.290709	0.162341	0.291835	0.409059	5805.770047	26179.124544	3636.417416	10760.367736
65.537000	0.286791	0.163103	0.298690	0.416857	5726.896766	25804.500241	3634.621968	10619.273047
66.040000	0.293793	0.164881	0.296383	0.413333	5797.661873	26086.239911	3636.940336	10682.724493
66.541000	0.292418	0.164029	0.303017	0.414138	5782.865771	25997.855676	3648.137274	10668.190767
67.035000	0.294126	0.164614	0.295460	0.415338	5786.304945	25965.108218	3631.372559	10646.554791
67.535500	0.297880	0.164535	0.303771	0.416107	5806.614783	25920.095315	3645.791553	10632.742370
68.036000	0.296463	0.164844	0.306702	0.415897	5798.382446	25947.611871	3651.870682	10636.512917
68.536000	0.299152	0.164543	0.299829	0.416173	5814.852803	25917.002349	3638.098805	10631.552863
69.036000	0.297967	0.165565	0.304188	0.418477	5791.071033	25849.068121	3642.035302	10590.288768
69.537000	0.298277	0.165500	0.305699	0.418584	5792.446663	25839.952387	3644.734438	10588.374167
70.037000	0.298104	0.165270	0.307242	0.418523	5791.691554	25831.009507	3647.827873	10589.460888
70.537000	0.301251	0.166042	0.308803	0.420335	5800.771394	25776.116950	3647.344166	10557.165665
71.037500	0.299986	0.166166	0.307716	0.422120	5780.066090	25688.627375	3641.813210	10525.471722
71.535500	0.298701	0.164326	0.303970	0.421636	5774.647910	25617.470577	3635.574802	10534.041664
72.035000	0.300419	0.164090	0.302957	0.423248	5775.367297	25520.916245	3630.590435	10505.511603
72.536500	0.299230	0.162873	0.307299	0.423565	5765.214157	25441.038584	3638.247343	10499.913868
73.035500	0.300896	0.163324	0.309458	0.426154	5759.012803	25330.188264	3637.425764	10454.345205
73.536000	0.294863	0.161861	0.298325	0.431106	5686.162808	25000.858884	3607.278893	10367.917035
74.036500	0.298378	0.161604	0.310172	0.427416	5733.736823	25176.512270	3636.380974	10432.222078
74.536000	0.302751	0.162220	0.305378	0.429256	5750.649435	25113.717098	3623.826473	10400.088475
75.039500	0.301584	0.160506	0.307717	0.429685	5739.981409	25004.226052	3627.422016	10392.613562
75.534500	0.295740	0.160120	0.304887	0.436893	5654.198948	24620.518297	3608.705364	10268.166216
76.035000	0.300976	0.161561	0.311239	0.433509	5710.564012	24863.548205	3626.852206	10326.332764
76.534500	0.302105	0.161077	0.314364	0.434463	5711.719329	24790.799404	3630.953852	10309.885398
77.035500	0.300367	0.161589	0.311028	0.437855	5678.024643	24645.916783	3618.306258	10251.698152
77.536000	0.302848	0.161036	0.309010	0.445239	5646.192753	24251.549503	3600.960321	10126.622091
78.036000	0.305661	0.162982	0.310623	0.441093	5691.483456	24553.638361	3611.540868	10196.592729
78.536000	0.301678	0.160609	0.310862	0.441695	5661.559325	24405.542089	3610.870305	10186.382070
79.039000	0.306152	0.161278	0.320783	0.443531	5678.733111	24347.739452	3625.951444	10155.355497
79.536500	0.298649	0.159750	0.312179	0.449711	5590.770403	23969.911713	3598.584098	10051.876512
80.037000	0.302468	0.160091	0.305266	0.445994	5638.872348	24167.986030	3592.789961	10113.939253
80.534500	0.306002	0.161325	0.312625	0.448429	5645.962955	24109.188373	3601.736059	10073.230659
81.035000	0.304606	0.162046	0.317389	0.450456	5623.954108	24045.411786	3606.753203	10039.508772
81.535000	0.301704	0.160974	0.310462	0.457237	5562.626064	23665.952053	3581.943960	9927.843255
82.035500	0.305375	0.160374	0.307484	0.452033	5618.779363	23887.577253	3585.918258	10013.382152
82.536000	0.305316	0.159750	0.313122	0.453496	5609.066057	23786.824064	3593.430089	9989.224161
83.036000	0.306209	0.159099	0.313417	0.453884	5612.283733	23736.835326	3593.261256	9982.832479
83.536500	0.303191	0.159193	0.310892	0.461153	5547.454458	23394.928578	3575.758829	9864.144067
84.036000	0.307203	0.158893	0.307734	0.457037	5598.547491	23576.065170	3577.452767	9931.105135
84.537000	0.306172	0.160176	0.315222	0.458193	5584.710654	23582.099839	3588.749544	9912.238657
85.037000	0.308806	0.159992	0.315877	0.459311	5594.291645	23520.088950	3587.916553	9894.026585
85.534500	0.304935	0.156905	0.306616	0.463940	5540.963077	23156.456052	3563.378187	9819.156773
86.035000	0.305878	0.157867	0.310282	0.460057	5571.116561	23384.082724	3576.617968	9881.919671
86.535500	0.307767	0.158102	0.312758	0.461377	5574.694721	23332.852138	3578.666458	9860.524464
87.036000	0.307758	0.156545	0.313445	0.461292	5575.167115	23263.571837	3580.036347	9861.888109
87.536000	0.304977	0.157048	0.317459	0.468883	5510.683799	22933.450428	3573.706207	9740.084399
88.036000	0.307141	0.158914	0.314130	0.465017	5547.988317	23200.018402	3574.652947	9801.854756
88.536500	0.308355	0.156275	0.313289	0.464807	5556.876699	23086.640200	3573.541213	9805.229291
89.036500	0.306538	0.155950	0.311607	0.465155	5543.375741	23055.354429	3569.972799	9799.643471
89.537000	0.304525	0.156704	0.316836	0.471863	5489.677845	22780.441730	3567.381696	9692.832936
90.034500	0.305894	0.155804	0.313843	0.467157	5526.967392	22955.755032	3570.381660	9767.591629
90.535000	0.307418	0.156024	0.316924	0.468130	5530.374697	22920.907485	3574.088628	9752.060939
91.035000	0.310568	0.157037	0.318404	0.470476	5535.353439	22859.443189	3572.564194	9714.780153
91.538000	0.303039	0.154379	0.311249	0.474469	5464.854396	22555.696884	3553.196965	9651.796672
92.035500	0.311119	0.156473	0.325119	0.472003	5529.314392	22763.501661	3581.749289	9690.634253
92.536000	0.312392	0.157074	0.324160	0.473565	5527.526053	22719.509212	3577.273348	9666.007694
93.036500	0.309421	0.153822	0.319538	0.472665	5514.750954	22612.285560	3570.709462	9680.178166
93.539000	0.309697	0.155317	0.325293	0.474109	5507.568991	22614.564946	3578.315814	9657.439798
94.037000	0.311447	0.154026	0.320244	0.474111	5518.326792	22555.937670	3569.413954	9657.423255
94.537000	0.310559	0.155003	0.317475	0.476315	5499.339668	22500.373092	3560.747561	9622.864704
95.034500	0.311818	0.154626	0.320390	0.477227	5501.467443	22442.173150	3564.224777	9608.621796
95.541000	0.310614	0.153300	0.322110	0.476919	5495.984340	22396.343829	3567.764341	9613.429494
96.035500	0.307931	0.153628	0.318900	0.477892	5473.743619	22367.396899	3560.484225	9598.256223
