sample name	sample
index	1217
start time	 04-29-2021  10:07:28 AM


Wavelength (nm)	Absorbance
494.344910	-0.108958
494.563924	-0.108958
494.782919	-0.108958
495.001897	0.312677
495.220856	-0.012170
495.439797	0.004803
495.658719	0.033943
495.877624	0.056098
496.096510	0.028256
496.315378	0.031527
496.534227	0.025911
496.753059	-0.005892
496.971872	-0.002639
497.190667	0.062168
497.409444	0.085435
497.628203	0.089217
497.846943	0.093706
498.065665	0.097375
498.284369	0.099023
498.503055	0.099927
498.721723	0.102301
498.940372	0.102774
499.159003	0.102875
499.377616	0.103521
499.596210	0.103055
499.814787	0.102743
500.033345	0.102154
500.251885	0.101971
500.470406	0.102620
500.688910	0.102415
500.907395	0.102924
501.125862	0.103108
501.344311	0.103550
501.562742	0.104759
501.781154	0.105668
501.999548	0.104824
502.217924	0.105021
502.436282	0.104480
502.654621	0.104642
502.872942	0.103703
503.091245	0.104069
503.309530	0.103500
503.527797	0.103541
503.746045	0.103977
503.964275	0.104328
504.182487	0.105022
504.400681	0.105510
504.618856	0.105153
504.837013	0.106762
505.055152	0.106708
505.273273	0.106853
505.491376	0.107132
505.709460	0.107086
505.927526	0.108830
506.145574	0.108371
506.363604	0.107851
506.581615	0.108538
506.799608	0.107477
507.017583	0.107857
507.235540	0.108433
507.453478	0.107991
507.671399	0.107534
507.889301	0.106769
508.107185	0.106833
508.325050	0.107496
508.542898	0.106845
508.760727	0.107088
508.978538	0.107189
509.196330	0.106479
509.414105	0.106428
509.631861	0.106833
509.849599	0.106004
510.067319	0.106955
510.285021	0.106358
510.502704	0.107754
510.720369	0.107180
510.938016	0.107499
511.155645	0.108059
511.373255	0.108157
511.590848	0.108409
511.808422	0.108790
512.025977	0.108363
512.243515	0.109028
512.461034	0.108488
512.678536	0.110295
512.896018	0.110872
513.113483	0.110263
513.330930	0.110646
513.548358	0.110339
513.765768	0.111832
513.983160	0.111654
514.200533	0.112241
514.417889	0.112228
514.635226	0.112628
514.852545	0.111907
515.069845	0.112255
515.287128	0.112195
515.504392	0.112422
515.721638	0.111810
515.938866	0.112124
516.156075	0.111412
516.373267	0.112023
516.590440	0.111280
516.807594	0.111955
517.024731	0.112568
517.241850	0.112557
517.458950	0.112291
517.676032	0.112513
517.893095	0.112454
518.110141	0.113583
518.327168	0.113394
518.544177	0.113037
518.761168	0.113092
518.978141	0.112749
519.195095	0.113216
519.412031	0.113728
519.628949	0.113945
519.845849	0.114108
520.062731	0.113883
520.279594	0.114123
520.496439	0.115300
520.713266	0.115448
520.930074	0.115904
521.146865	0.116154
521.363637	0.115806
521.580391	0.116019
521.797127	0.116773
522.013844	0.116508
522.230543	0.117128
522.447224	0.116271
522.663887	0.116630
522.880532	0.116783
523.097158	0.117121
523.313766	0.117398
523.530356	0.117641
523.746928	0.117229
523.963481	0.118232
524.180017	0.118154
524.396534	0.118200
524.613032	0.118718
524.829513	0.118604
525.045975	0.119027
525.262420	0.120148
525.478845	0.120048
525.695253	0.120676
525.911643	0.120775
526.128014	0.120854
526.344367	0.121664
526.560702	0.121973
526.777018	0.122977
526.993316	0.123193
527.209597	0.122915
527.425858	0.122624
527.642102	0.123074
527.858328	0.123211
528.074535	0.122962
528.290724	0.123799
528.506894	0.123372
528.723047	0.123111
528.939181	0.123211
529.155297	0.123702
529.371395	0.124412
529.587475	0.124673
529.803536	0.124924
530.019579	0.125617
530.235604	0.126200
530.451611	0.126541
530.667600	0.127026
530.883570	0.127509
531.099522	0.127473
531.315456	0.128261
531.531372	0.128433
531.747269	0.128471
531.963148	0.128735
532.179009	0.127687
532.394852	0.128324
532.610676	0.128255
532.826482	0.128624
533.042271	0.128824
533.258040	0.128999
533.473792	0.129420
533.689525	0.129655
533.905240	0.129794
534.120937	0.130348
534.336616	0.129871
534.552277	0.130678
534.767919	0.130460
534.983543	0.131473
535.199149	0.132179
535.414736	0.131925
535.630306	0.132476
535.845857	0.132946
536.061390	0.134001
536.276904	0.134622
536.492401	0.134768
536.707879	0.135170
536.923339	0.134442
537.138781	0.134103
537.354204	0.134298
537.569610	0.134196
537.784997	0.134528
538.000366	0.134006
538.215716	0.134560
538.431049	0.134872
538.646363	0.135409
538.861659	0.136005
539.076937	0.136002
539.292196	0.136263
539.507438	0.136769
539.722661	0.136525
539.937866	0.137038
540.153052	0.136955
540.368221	0.137341
540.583371	0.137395
540.798503	0.137880
541.013617	0.138147
541.228712	0.139014
541.443789	0.139017
541.658848	0.139862
541.873889	0.139873
542.088912	0.140471
542.303916	0.140501
542.518902	0.141095
542.733870	0.140526
542.948820	0.140483
543.163752	0.140619
543.378665	0.140868
543.593560	0.140882
543.808437	0.140820
544.023295	0.140292
544.238136	0.140444
544.452958	0.139965
544.667762	0.140699
544.882548	0.141370
545.097315	0.141136
545.312064	0.141118
545.526795	0.141001
545.741508	0.141483
545.956203	0.142634
546.170879	0.142984
546.385537	0.143699
546.600177	0.143842
546.814799	0.144263
547.029402	0.144675
547.243988	0.144891
547.458555	0.145196
547.673103	0.145539
547.887634	0.145264
548.102146	0.145455
548.316640	0.145238
548.531116	0.145295
548.745574	0.144855
548.960013	0.145302
549.174435	0.145632
549.388838	0.146071
549.603222	0.146345
549.817589	0.145831
550.031937	0.145822
550.246267	0.146082
550.460579	0.146379
550.674873	0.147101
550.889148	0.146863
551.103405	0.147025
551.317644	0.146905
551.531865	0.146761
551.746068	0.147652
551.960252	0.147521
552.174418	0.147756
552.388566	0.148205
552.602696	0.148033
552.816807	0.148104
553.030900	0.148404
553.244975	0.148737
553.459032	0.149081
553.673070	0.149290
553.887091	0.149846
554.101093	0.149720
554.315077	0.149645
554.529042	0.149742
554.742990	0.149951
554.956919	0.150091
555.170830	0.149978
555.384722	0.150205
555.598597	0.150280
555.812453	0.150378
556.026291	0.150512
556.240111	0.150511
556.453913	0.150578
556.667696	0.150961
556.881461	0.151073
557.095208	0.151531
557.308937	0.151923
557.522647	0.152051
557.736339	0.152045
557.950013	0.152740
558.163669	0.152945
558.377307	0.153186
558.590926	0.153424
558.804527	0.154024
559.018110	0.154281
559.231675	0.154067
559.445221	0.154292
559.658749	0.154386
559.872259	0.154745
560.085751	0.155040
560.299225	0.155675
560.512680	0.155439
560.726117	0.155130
560.939536	0.155050
561.152937	0.154909
561.366319	0.155159
561.579683	0.155448
561.793029	0.155267
562.006357	0.155446
562.219667	0.155058
562.432958	0.155136
562.646231	0.155426
562.859486	0.155700
563.072723	0.156315
563.285941	0.156137
563.499141	0.156247
563.712323	0.156027
563.925487	0.156155
564.138632	0.156902
564.351760	0.157439
564.564869	0.157178
564.777960	0.157050
564.991032	0.156991
565.204087	0.157421
565.417123	0.157714
565.630141	0.157953
565.843140	0.158083
566.056122	0.157879
566.269085	0.157766
566.482030	0.158292
566.694957	0.158460
566.907866	0.158395
567.120756	0.158473
567.333628	0.158255
567.546482	0.158576
567.759318	0.158824
567.972135	0.158835
568.184935	0.159102
568.397716	0.159137
568.610478	0.159621
568.823223	0.160105
569.035949	0.160284
569.248657	0.160521
569.461347	0.160646
569.674019	0.160860
569.886672	0.161281
570.099308	0.161459
570.311925	0.161292
570.524523	0.161308
570.737104	0.161182
570.949666	0.161046
571.162210	0.161141
571.374736	0.161413
571.587244	0.161398
571.799733	0.161533
572.012205	0.161363
572.224658	0.161736
572.437092	0.161687
572.649509	0.162237
572.861907	0.162387
573.074287	0.162773
573.286649	0.162558
573.498993	0.162482
573.711318	0.162301
573.923625	0.162834
574.135914	0.163198
574.348185	0.163186
574.560438	0.163069
574.772672	0.163268
574.984888	0.162832
575.197086	0.162651
575.409266	0.162933
575.621427	0.163187
575.833570	0.162787
576.045695	0.162512
576.257802	0.162930
576.469890	0.162899
576.681961	0.162990
576.894013	0.163709
577.106046	0.164306
577.318062	0.164635
577.530059	0.164620
577.742039	0.164975
577.954000	0.165560
578.165942	0.165484
578.377867	0.165619
578.589773	0.165756
578.801661	0.165501
579.013531	0.165782
579.225382	0.165799
579.437216	0.166121
579.649031	0.166497
579.860828	0.166438
580.072606	0.166646
580.284367	0.167028
580.496109	0.167396
580.707833	0.167732
580.919539	0.167852
581.131227	0.167732
581.342896	0.167557
581.554547	0.167624
581.766180	0.167699
581.977795	0.168035
582.189391	0.168182
582.400969	0.168490
582.612529	0.169000
582.824071	0.169022
583.035595	0.169526
583.247100	0.170166
583.458587	0.170458
583.670056	0.170582
583.881506	0.170625
584.092939	0.170885
584.304353	0.170736
584.515749	0.170464
584.727127	0.170778
584.938486	0.170490
585.149828	0.170659
585.361151	0.170624
585.572456	0.170890
585.783742	0.170820
585.995011	0.170631
586.206261	0.170875
586.417493	0.171089
586.628706	0.171168
586.839902	0.171657
587.051079	0.171791
587.262238	0.172080
587.473379	0.172209
587.684502	0.172786
587.895606	0.172844
588.106692	0.172666
588.317760	0.172412
588.528810	0.172660
588.739841	0.172677
588.950855	0.172535
589.161850	0.172627
589.372827	0.172760
589.583785	0.172544
589.794726	0.172658
590.005648	0.172860
590.216552	0.173419
590.427437	0.173545
590.638305	0.173857
590.849154	0.173847
591.059985	0.173980
591.270798	0.174244
591.481592	0.174665
591.692369	0.175491
591.903127	0.175937
592.113867	0.175950
592.324588	0.176003
592.535292	0.176015
592.745977	0.176239
592.956644	0.176336
593.167293	0.176361
593.377923	0.176213
593.588536	0.175811
593.799130	0.175933
594.009706	0.176319
594.220263	0.176297
594.430803	0.176423
594.641324	0.176825
594.851827	0.177067
595.062312	0.177315
595.272778	0.177358
595.483227	0.177433
595.693657	0.177630
595.904069	0.177526
596.114462	0.177647
596.324838	0.177902
596.535195	0.177967
596.745534	0.178402
596.955855	0.178468
597.166157	0.178673
597.376441	0.178919
597.586707	0.178880
597.796955	0.179184
598.007185	0.179474
598.217396	0.179581
598.427589	0.179724
598.637764	0.179229
598.847921	0.179648
599.058060	0.179725
599.268180	0.179831
599.478282	0.179944
599.688366	0.179905
599.898431	0.179993
600.108479	0.180036
600.318508	0.179990
600.528519	0.180775
600.738511	0.180390
600.948486	0.180739
601.158442	0.181011
601.368380	0.181217
601.578300	0.181562
601.788202	0.181811
601.998085	0.182007
602.207950	0.182346
602.417797	0.182110
602.627626	0.182867
602.837436	0.183117
603.047228	0.183578
603.257002	0.183820
603.466758	0.184026
603.676496	0.184228
603.886215	0.184470
604.095916	0.184654
604.305599	0.184726
604.515264	0.184363
604.724910	0.184314
604.934538	0.183991
605.144148	0.184275
605.353740	0.184157
605.563314	0.184345
605.772869	0.183932
605.982406	0.184158
606.191925	0.184178
606.401425	0.184257
606.610908	0.184292
606.820372	0.184222
607.029818	0.184098
607.239246	0.184114
607.448655	0.184056
607.658047	0.184531
607.867420	0.184721
608.076775	0.184817
608.286111	0.184914
608.495430	0.185377
608.704730	0.185907
608.914012	0.186038
609.123275	0.186447
609.332521	0.186597
609.541748	0.186723
609.750957	0.186805
609.960148	0.187103
610.169321	0.187257
610.378475	0.187179
610.587611	0.187427
610.796729	0.187674
611.005829	0.187632
611.214910	0.187836
611.423974	0.187891
611.633019	0.187806
611.842045	0.188027
612.051054	0.188448
612.260044	0.188554
612.469017	0.188631
612.677970	0.188449
612.886906	0.188533
613.095824	0.188495
613.304723	0.188672
613.513604	0.188619
613.722467	0.188596
613.931311	0.188326
614.140138	0.188597
614.348946	0.188334
614.557736	0.188596
614.766507	0.188612
614.975261	0.188766
615.183996	0.188930
615.392713	0.189049
615.601412	0.188996
615.810092	0.189351
616.018754	0.189213
616.227399	0.189649
616.436024	0.189731
616.644632	0.190240
616.853222	0.190248
617.061793	0.190529
617.270346	0.190914
617.478880	0.191174
617.687397	0.191194
617.895895	0.191413
618.104375	0.191165
618.312837	0.191386
618.521281	0.191454
618.729706	0.191595
618.938113	0.191279
619.146502	0.191063
619.354873	0.191052
619.563226	0.190891
619.771560	0.190995
619.979876	0.191329
620.188174	0.191406
620.396453	0.191510
620.604715	0.191795
620.812958	0.192294
621.021183	0.192848
621.229390	0.193007
621.437578	0.193440
621.645748	0.193815
621.853900	0.193852
622.062034	0.193999
622.270150	0.194065
622.478247	0.194136
622.686326	0.194278
622.894387	0.194110
623.102430	0.194290
623.310454	0.194386
623.518461	0.194386
623.726449	0.194801
623.934418	0.194893
624.142370	0.194940
624.350303	0.195052
624.558218	0.195116
624.766115	0.195147
624.973994	0.195321
625.181855	0.195718
625.389697	0.195881
625.597521	0.196036
625.805327	0.196406
626.013114	0.196853
626.220883	0.197146
626.428634	0.197405
626.636367	0.197964
626.844082	0.198223
627.051778	0.198526
627.259457	0.198659
627.467117	0.198659
627.674758	0.198705
627.882382	0.198734
628.089987	0.198774
628.297574	0.198618
628.505143	0.198682
628.712694	0.198705
628.920226	0.198460
629.127740	0.198357
629.335236	0.198500
629.542714	0.198289
629.750174	0.198295
629.957615	0.198281
630.165038	0.198327
630.372443	0.198045
630.579829	0.197848
630.787198	0.198036
630.994548	0.198104
631.201880	0.198168
631.409194	0.198557
631.616489	0.198624
631.823766	0.198759
632.031025	0.199182
632.238266	0.199563
632.445489	0.200059
632.652693	0.200135
632.859879	0.200437
633.067047	0.200388
633.274197	0.200140
633.481329	0.200194
633.688442	0.200447
633.895537	0.200238
634.102614	0.200406
634.309672	0.200382
634.516713	0.200401
634.723735	0.200597
634.930739	0.200844
635.137724	0.201273
635.344692	0.201527
635.551641	0.201554
635.758572	0.201917
635.965485	0.202083
636.172379	0.202249
636.379256	0.202456
636.586114	0.202510
636.792954	0.202527
636.999775	0.202702
637.206579	0.202769
637.413364	0.202931
637.620131	0.203137
637.826880	0.203392
638.033610	0.203725
638.240323	0.203962
638.447017	0.204032
638.653692	0.204398
638.860350	0.204450
639.066990	0.204825
639.273611	0.205133
639.480214	0.205227
639.686798	0.205228
639.893365	0.205066
640.099913	0.205337
640.306443	0.205684
640.512955	0.206023
640.719449	0.206113
640.925924	0.205989
641.132381	0.205962
641.338820	0.206302
641.545241	0.206140
641.751644	0.206805
641.958028	0.207025
642.164394	0.207328
642.370742	0.207320
642.577071	0.207628
642.783383	0.207831
642.989676	0.207946
643.195951	0.207878
643.402207	0.208265
643.608446	0.208263
643.814666	0.208220
644.020868	0.208227
644.227052	0.208152
644.433218	0.207980
644.639365	0.208103
644.845494	0.208343
645.051605	0.208598
645.257698	0.208645
645.463772	0.208560
645.669828	0.208375
645.875866	0.208363
646.081886	0.208493
646.287888	0.208853
646.493871	0.208934
646.699836	0.209026
646.905783	0.209112
647.111712	0.209221
647.317622	0.209320
647.523514	0.209579
647.729388	0.209737
647.935244	0.209937
648.141082	0.210004
648.346901	0.210355
648.552702	0.210343
648.758485	0.210490
648.964250	0.210763
649.169996	0.211199
649.375724	0.211404
649.581434	0.211530
649.787126	0.211758
649.992800	0.211717
650.198455	0.211975
650.404092	0.212287
650.609711	0.212431
650.815311	0.212537
651.020894	0.212475
651.226458	0.212774
651.432004	0.212981
651.637532	0.212992
651.843041	0.213323
652.048532	0.213111
652.254006	0.213282
652.459460	0.213486
652.664897	0.213580
652.870315	0.213733
653.075716	0.213821
653.281097	0.213950
653.486461	0.214430
653.691807	0.214786
653.897134	0.215289
654.102443	0.215623
654.307734	0.215514
654.513006	0.215906
654.718261	0.215894
654.923497	0.216067
655.128715	0.216287
655.333915	0.216545
655.539096	0.216771
655.744259	0.216942
655.949404	0.216995
656.154531	0.217694
656.359640	0.217864
656.564730	0.218376
656.769802	0.218602
656.974856	0.218669
657.179892	0.218549
657.384909	0.218643
657.589908	0.218303
657.794889	0.218658
657.999852	0.218603
658.204797	0.218777
658.409723	0.218901
658.614631	0.219041
658.819521	0.219242
659.024393	0.219326
659.229246	0.219545
659.434081	0.220060
659.638898	0.219935
659.843697	0.219902
660.048478	0.219920
660.253240	0.219959
660.457984	0.220124
660.662710	0.220506
660.867417	0.221096
661.072107	0.221293
661.276778	0.221544
661.481431	0.221874
661.686066	0.222366
661.890682	0.222604
662.095281	0.222785
662.299861	0.223086
662.504422	0.223109
662.708966	0.223259
662.913491	0.223397
663.117999	0.223706
663.322488	0.223666
663.526958	0.223960
663.731411	0.224145
663.935845	0.224414
664.140261	0.224604
664.344659	0.224812
664.549038	0.224794
664.753400	0.225010
664.957743	0.225080
665.162068	0.225559
665.366375	0.225476
665.570663	0.225743
665.774933	0.225979
665.979185	0.226148
666.183419	0.226460
666.387635	0.226788
666.591832	0.226989
666.796011	0.227371
667.000172	0.227521
667.204315	0.227652
667.408439	0.227833
667.612545	0.228182
667.816634	0.228320
668.020703	0.228498
668.224755	0.228650
668.428788	0.228739
668.632803	0.228749
668.836800	0.228925
669.040779	0.229137
669.244739	0.229188
669.448681	0.229361
669.652605	0.229709
669.856511	0.229690
670.060399	0.229649
670.264268	0.229751
670.468119	0.230069
670.671952	0.230275
670.875767	0.230380
671.079563	0.230729
671.283341	0.230577
671.487101	0.230672
671.690843	0.231217
671.894567	0.231719
672.098272	0.232032
672.301959	0.231904
672.505628	0.232170
672.709278	0.232621
672.912911	0.232701
673.116525	0.233126
673.320121	0.233355
673.523699	0.233086
673.727258	0.233010
673.930799	0.233053
674.134322	0.233357
674.337827	0.233163
674.541314	0.233144
674.744782	0.233510
674.948232	0.233655
675.151664	0.233640
675.355078	0.234037
675.558474	0.234329
675.761851	0.234668
675.965210	0.234889
676.168551	0.235260
676.371873	0.235350
676.575178	0.235405
676.778464	0.235462
676.981732	0.235744
677.184981	0.236167
677.388213	0.236249
677.591426	0.236447
677.794621	0.236594
677.997798	0.236900
678.200956	0.237255
678.404097	0.237594
678.607219	0.238010
678.810323	0.238256
679.013408	0.238122
679.216476	0.238234
679.419525	0.238313
679.622556	0.238444
679.825569	0.238524
680.028563	0.238703
680.231540	0.238691
680.434498	0.238457
680.637438	0.238602
680.840359	0.238921
681.043263	0.239007
681.246148	0.239310
681.449015	0.239557
681.651864	0.239949
681.854694	0.239987
682.057506	0.240200
682.260301	0.240779
682.463076	0.240884
682.665834	0.241025
682.868573	0.241400
683.071295	0.241607
683.273998	0.241717
683.476682	0.241747
683.679349	0.241985
683.881997	0.242155
684.084627	0.241997
684.287239	0.242362
684.489833	0.242362
684.692408	0.242422
684.894965	0.242276
685.097504	0.242455
685.300025	0.242480
685.502527	0.242679
685.705012	0.242664
685.907478	0.243143
686.109925	0.243201
686.312355	0.243418
686.514766	0.243672
686.717159	0.244100
686.919534	0.244234
687.121891	0.244446
687.324230	0.244414
687.526550	0.244620
687.728852	0.244402
687.931136	0.244430
688.133401	0.244503
688.335649	0.244438
688.537878	0.244465
688.740089	0.244664
688.942281	0.244706
689.144456	0.245163
689.346612	0.245328
689.548750	0.245652
689.750870	0.245934
689.952971	0.246203
690.155055	0.246755
690.357120	0.246923
690.559167	0.247052
690.761195	0.247319
690.963206	0.247271
691.165198	0.247513
691.367172	0.247683
691.569128	0.247768
691.771065	0.248004
691.972984	0.248047
692.174885	0.248403
692.376768	0.248554
692.578633	0.248867
692.780479	0.249143
692.982308	0.249272
693.184118	0.249433
693.385909	0.249609
