sample name	sample
index	804
start time	 03-31-2021  02:56:54 PM


Wavelength (nm)	Absorbance
494.344910	-1.157761
494.563924	-1.157761
494.782919	-1.157761
495.001897	0.099628
495.220856	-1.416245
495.439797	-1.649262
495.658719	0.260236
495.877624	NaN
496.096510	NaN
496.315378	NaN
496.534227	NaN
496.753059	NaN
496.971872	NaN
497.190667	0.175558
497.409444	0.150374
497.628203	0.146761
497.846943	0.143231
498.065665	0.142691
498.284369	0.143670
498.503055	0.143099
498.721723	0.142856
498.940372	0.141444
499.159003	0.141613
499.377616	0.144048
499.596210	0.143136
499.814787	0.142986
500.033345	0.142618
500.251885	0.143733
500.470406	0.143587
500.688910	0.144632
500.907395	0.146303
501.125862	0.146606
501.344311	0.145406
501.562742	0.147522
501.781154	0.147905
501.999548	0.148770
502.217924	0.148667
502.436282	0.148741
502.654621	0.147500
502.872942	0.147775
503.091245	0.147470
503.309530	0.147667
503.527797	0.147168
503.746045	0.146649
503.964275	0.146216
504.182487	0.146524
504.400681	0.147090
504.618856	0.147391
504.837013	0.146059
505.055152	0.146891
505.273273	0.147631
505.491376	0.148463
505.709460	0.149601
505.927526	0.150490
506.145574	0.150498
506.363604	0.150003
506.581615	0.150714
506.799608	0.152425
507.017583	0.152176
507.235540	0.150419
507.453478	0.149779
507.671399	0.149786
507.889301	0.148764
508.107185	0.147740
508.325050	0.148011
508.542898	0.148007
508.760727	0.148142
508.978538	0.147819
509.196330	0.149488
509.414105	0.149581
509.631861	0.148762
509.849599	0.149093
510.067319	0.150118
510.285021	0.150861
510.502704	0.151517
510.720369	0.150110
510.938016	0.150754
511.155645	0.150637
511.373255	0.151521
511.590848	0.153122
511.808422	0.153556
512.025977	0.154061
512.243515	0.153042
512.461034	0.153990
512.678536	0.154934
512.896018	0.156049
513.113483	0.156014
513.330930	0.156090
513.548358	0.155603
513.765768	0.156552
513.983160	0.155685
514.200533	0.156450
514.417889	0.155650
514.635226	0.155903
514.852545	0.155430
515.069845	0.156805
515.287128	0.156948
515.504392	0.157423
515.721638	0.156667
515.938866	0.157835
516.156075	0.158688
516.373267	0.158419
516.590440	0.158194
516.807594	0.158613
517.024731	0.157867
517.241850	0.157513
517.458950	0.157298
517.676032	0.157536
517.893095	0.157645
518.110141	0.156707
518.327168	0.157328
518.544177	0.157693
518.761168	0.157849
518.978141	0.158357
519.195095	0.158154
519.412031	0.158031
519.628949	0.159275
519.845849	0.160087
520.062731	0.160618
520.279594	0.160480
520.496439	0.160525
520.713266	0.159674
520.930074	0.160167
521.146865	0.161245
521.363637	0.161939
521.580391	0.161285
521.797127	0.161348
522.013844	0.161288
522.230543	0.161483
522.447224	0.162341
522.663887	0.163460
522.880532	0.163299
523.097158	0.162718
523.313766	0.162261
523.530356	0.162780
523.746928	0.161838
523.963481	0.162653
524.180017	0.162842
524.396534	0.163010
524.613032	0.162584
524.829513	0.162674
525.045975	0.162979
525.262420	0.163517
525.478845	0.163332
525.695253	0.163776
525.911643	0.164086
526.128014	0.164830
526.344367	0.164878
526.560702	0.164527
526.777018	0.164698
526.993316	0.164842
527.209597	0.165693
527.425858	0.165904
527.642102	0.166221
527.858328	0.166458
528.074535	0.166117
528.290724	0.165764
528.506894	0.166625
528.723047	0.167624
528.939181	0.168011
529.155297	0.168199
529.371395	0.168119
529.587475	0.168708
529.803536	0.169034
530.019579	0.169677
530.235604	0.170429
530.451611	0.170691
530.667600	0.170022
530.883570	0.170121
531.099522	0.169993
531.315456	0.171211
531.531372	0.170999
531.747269	0.171488
531.963148	0.171650
532.179009	0.171400
532.394852	0.171771
532.610676	0.172908
532.826482	0.173620
533.042271	0.174293
533.258040	0.174631
533.473792	0.175165
533.689525	0.174963
533.905240	0.175020
534.120937	0.175989
534.336616	0.177109
534.552277	0.176766
534.767919	0.177566
534.983543	0.178081
535.199149	0.177635
535.414736	0.177559
535.630306	0.178381
535.845857	0.178598
536.061390	0.178729
536.276904	0.178237
536.492401	0.179218
536.707879	0.179323
536.923339	0.179700
537.138781	0.179981
537.354204	0.180769
537.569610	0.180893
537.784997	0.181157
538.000366	0.181370
538.215716	0.181534
538.431049	0.181225
538.646363	0.181159
538.861659	0.180688
539.076937	0.181733
539.292196	0.181736
539.507438	0.182265
539.722661	0.182789
539.937866	0.182826
540.153052	0.183003
540.368221	0.183029
540.583371	0.183360
540.798503	0.184371
541.013617	0.184281
541.228712	0.185298
541.443789	0.185334
541.658848	0.185293
541.873889	0.185734
542.088912	0.186138
542.303916	0.186986
542.518902	0.186839
542.733870	0.187142
542.948820	0.187252
543.163752	0.187191
543.378665	0.187178
543.593560	0.188402
543.808437	0.188458
544.023295	0.189393
544.238136	0.189846
544.452958	0.191015
544.667762	0.191417
544.882548	0.191887
545.097315	0.192093
545.312064	0.192555
545.526795	0.192525
545.741508	0.193404
545.956203	0.193391
546.170879	0.193348
546.385537	0.192933
546.600177	0.192927
546.814799	0.193148
547.029402	0.193002
547.243988	0.193336
547.458555	0.193397
547.673103	0.192920
547.887634	0.193365
548.102146	0.193736
548.316640	0.194165
548.531116	0.194008
548.745574	0.194221
548.960013	0.194345
549.174435	0.194346
549.388838	0.194058
549.603222	0.195103
549.817589	0.194715
550.031937	0.194480
550.246267	0.194467
550.460579	0.194537
550.674873	0.194447
550.889148	0.194860
551.103405	0.194652
551.317644	0.195422
551.531865	0.195515
551.746068	0.196419
551.960252	0.197014
552.174418	0.197290
552.388566	0.197943
552.602696	0.197995
552.816807	0.198622
553.030900	0.199048
553.244975	0.198787
553.459032	0.198504
553.673070	0.197927
553.887091	0.197830
554.101093	0.198527
554.315077	0.198327
554.529042	0.199085
554.742990	0.199236
554.956919	0.200195
555.170830	0.200960
555.384722	0.201498
555.598597	0.202272
555.812453	0.202928
556.026291	0.202931
556.240111	0.203109
556.453913	0.203136
556.667696	0.203238
556.881461	0.202700
557.095208	0.202560
557.308937	0.202681
557.522647	0.202581
557.736339	0.202394
557.950013	0.201951
558.163669	0.202412
558.377307	0.202499
558.590926	0.202416
558.804527	0.203091
559.018110	0.203449
559.231675	0.203638
559.445221	0.203945
559.658749	0.204643
559.872259	0.205293
560.085751	0.205338
560.299225	0.205450
560.512680	0.205627
560.726117	0.205345
560.939536	0.205694
561.152937	0.205767
561.366319	0.205964
561.579683	0.205917
561.793029	0.206259
562.006357	0.206249
562.219667	0.206664
562.432958	0.206999
562.646231	0.207679
562.859486	0.206997
563.072723	0.207509
563.285941	0.207719
563.499141	0.208010
563.712323	0.208125
563.925487	0.208709
564.138632	0.208672
564.351760	0.209069
564.564869	0.208937
564.777960	0.209758
564.991032	0.209899
565.204087	0.210092
565.417123	0.210317
565.630141	0.210248
565.843140	0.210574
566.056122	0.210715
566.269085	0.210305
566.482030	0.210245
566.694957	0.210552
566.907866	0.210334
567.120756	0.210402
567.333628	0.210136
567.546482	0.210682
567.759318	0.210421
567.972135	0.210960
568.184935	0.211657
568.397716	0.212164
568.610478	0.212092
568.823223	0.212718
569.035949	0.213020
569.248657	0.213244
569.461347	0.212951
569.674019	0.213357
569.886672	0.213032
570.099308	0.212344
570.311925	0.212321
570.524523	0.212814
570.737104	0.212656
570.949666	0.212403
571.162210	0.212639
571.374736	0.212805
571.587244	0.213001
571.799733	0.213260
572.012205	0.214087
572.224658	0.214189
572.437092	0.214178
572.649509	0.214497
572.861907	0.215028
573.074287	0.215351
573.286649	0.215479
573.498993	0.215783
573.711318	0.215987
573.923625	0.216013
574.135914	0.216383
574.348185	0.216810
574.560438	0.216706
574.772672	0.216715
574.984888	0.216521
575.197086	0.216827
575.409266	0.216827
575.621427	0.216969
575.833570	0.217159
576.045695	0.217064
576.257802	0.216396
576.469890	0.216486
576.681961	0.216699
576.894013	0.217002
577.106046	0.217063
577.318062	0.217028
577.530059	0.217246
577.742039	0.217689
577.954000	0.217893
578.165942	0.218745
578.377867	0.219323
578.589773	0.219302
578.801661	0.219375
579.013531	0.219839
579.225382	0.220116
579.437216	0.220927
579.649031	0.220923
579.860828	0.220941
580.072606	0.220962
580.284367	0.220780
580.496109	0.221133
580.707833	0.221456
580.919539	0.221630
581.131227	0.221911
581.342896	0.221593
581.554547	0.221548
581.766180	0.221885
581.977795	0.221492
582.189391	0.221749
582.400969	0.221690
582.612529	0.221920
582.824071	0.221961
583.035595	0.221811
583.247100	0.221572
583.458587	0.221645
583.670056	0.222375
583.881506	0.222888
584.092939	0.223386
584.304353	0.224026
584.515749	0.224153
584.727127	0.224125
584.938486	0.224275
585.149828	0.224532
585.361151	0.224759
585.572456	0.224281
585.783742	0.224136
585.995011	0.224244
586.206261	0.224179
586.417493	0.223950
586.628706	0.224001
586.839902	0.224425
587.051079	0.224342
587.262238	0.224489
587.473379	0.224976
587.684502	0.225188
587.895606	0.225103
588.106692	0.225234
588.317760	0.225405
588.528810	0.225682
588.739841	0.225803
588.950855	0.226673
589.161850	0.227160
589.372827	0.226902
589.583785	0.227371
589.794726	0.227233
590.005648	0.227450
590.216552	0.227719
590.427437	0.227754
590.638305	0.227856
590.849154	0.227560
591.059985	0.227602
591.270798	0.228006
591.481592	0.228047
591.692369	0.228526
591.903127	0.228147
592.113867	0.228511
592.324588	0.228649
592.535292	0.228592
592.745977	0.228958
592.956644	0.229122
593.167293	0.229198
593.377923	0.229484
593.588536	0.229493
593.799130	0.229895
594.009706	0.230021
594.220263	0.230197
594.430803	0.230521
594.641324	0.230844
594.851827	0.230784
595.062312	0.230469
595.272778	0.230419
595.483227	0.230744
595.693657	0.231007
595.904069	0.231042
596.114462	0.231378
596.324838	0.231175
596.535195	0.230874
596.745534	0.231321
596.955855	0.231691
597.166157	0.231942
597.376441	0.232146
597.586707	0.232406
597.796955	0.232712
598.007185	0.232750
598.217396	0.233019
598.427589	0.233562
598.637764	0.234209
598.847921	0.234713
599.058060	0.234761
599.268180	0.234790
599.478282	0.234938
599.688366	0.234933
599.898431	0.235044
600.108479	0.235213
600.318508	0.235122
600.528519	0.234562
600.738511	0.234532
600.948486	0.234642
601.158442	0.234664
601.368380	0.234611
601.578300	0.234509
601.788202	0.234570
601.998085	0.234742
602.207950	0.234563
602.417797	0.234573
602.627626	0.234882
602.837436	0.235142
603.047228	0.235150
603.257002	0.235396
603.466758	0.235324
603.676496	0.235565
603.886215	0.235839
604.095916	0.236384
604.305599	0.236510
604.515264	0.236016
604.724910	0.235878
604.934538	0.236062
605.144148	0.236172
605.353740	0.236650
605.563314	0.236748
605.772869	0.236742
605.982406	0.236462
606.191925	0.236570
606.401425	0.236695
606.610908	0.237103
606.820372	0.237166
607.029818	0.237047
607.239246	0.237425
607.448655	0.237850
607.658047	0.237900
607.867420	0.238553
608.076775	0.238886
608.286111	0.239526
608.495430	0.239686
608.704730	0.240157
608.914012	0.240597
609.123275	0.240673
609.332521	0.240595
609.541748	0.241018
609.750957	0.240934
609.960148	0.240881
610.169321	0.240968
610.378475	0.240955
610.587611	0.240786
610.796729	0.240921
611.005829	0.240860
611.214910	0.240969
611.423974	0.240776
611.633019	0.240795
611.842045	0.240881
612.051054	0.241096
612.260044	0.241041
612.469017	0.241333
612.677970	0.241169
612.886906	0.241252
613.095824	0.241401
613.304723	0.241558
613.513604	0.241526
613.722467	0.241780
613.931311	0.241625
614.140138	0.241854
614.348946	0.241830
614.557736	0.242420
614.766507	0.242393
614.975261	0.242450
615.183996	0.242637
615.392713	0.243055
615.601412	0.242994
615.810092	0.243203
616.018754	0.243317
616.227399	0.243662
616.436024	0.243685
616.644632	0.243873
616.853222	0.243886
617.061793	0.243972
617.270346	0.244120
617.478880	0.244400
617.687397	0.244577
617.895895	0.244702
618.104375	0.244618
618.312837	0.244837
618.521281	0.245037
618.729706	0.245353
618.938113	0.245686
619.146502	0.245661
619.354873	0.245776
619.563226	0.246050
619.771560	0.246542
619.979876	0.246813
620.188174	0.246902
620.396453	0.246815
620.604715	0.246805
620.812958	0.246434
621.021183	0.246819
621.229390	0.247265
621.437578	0.247477
621.645748	0.247346
621.853900	0.247209
622.062034	0.247249
622.270150	0.247705
622.478247	0.248188
622.686326	0.248511
622.894387	0.248452
623.102430	0.248443
623.310454	0.248346
623.518461	0.248788
623.726449	0.249056
623.934418	0.249273
624.142370	0.249571
624.350303	0.249247
624.558218	0.249680
624.766115	0.249870
624.973994	0.249912
625.181855	0.250066
625.389697	0.250170
625.597521	0.250166
625.805327	0.250087
626.013114	0.249804
626.220883	0.250132
626.428634	0.250246
626.636367	0.250329
626.844082	0.250500
627.051778	0.250240
627.259457	0.250063
627.467117	0.250320
627.674758	0.250238
627.882382	0.250596
628.089987	0.250619
628.297574	0.250323
628.505143	0.250418
628.712694	0.250511
628.920226	0.251001
629.127740	0.251135
629.335236	0.251107
629.542714	0.251327
629.750174	0.251454
629.957615	0.251784
630.165038	0.252351
630.372443	0.252793
630.579829	0.252606
630.787198	0.252809
630.994548	0.253335
631.201880	0.253737
631.409194	0.253943
631.616489	0.254276
631.823766	0.254328
632.031025	0.254589
632.238266	0.254371
632.445489	0.254826
632.652693	0.254974
632.859879	0.255028
633.067047	0.255214
633.274197	0.255289
633.481329	0.255221
633.688442	0.255481
633.895537	0.255451
634.102614	0.255615
634.309672	0.255789
634.516713	0.255963
634.723735	0.255859
634.930739	0.255870
635.137724	0.256344
635.344692	0.256284
635.551641	0.256244
635.758572	0.256347
635.965485	0.256239
636.172379	0.256247
636.379256	0.256343
636.586114	0.256440
636.792954	0.256624
636.999775	0.256437
637.206579	0.256543
637.413364	0.256939
637.620131	0.256847
637.826880	0.257240
638.033610	0.257521
638.240323	0.257605
638.447017	0.258143
638.653692	0.258270
638.860350	0.258366
639.066990	0.258721
639.273611	0.258398
639.480214	0.258783
639.686798	0.259174
639.893365	0.259012
640.099913	0.259252
640.306443	0.259128
640.512955	0.259301
640.719449	0.259560
640.925924	0.260069
641.132381	0.260613
641.338820	0.260842
641.545241	0.261071
641.751644	0.261327
641.958028	0.261654
642.164394	0.261731
642.370742	0.261934
642.577071	0.262223
642.783383	0.262205
642.989676	0.262186
643.195951	0.262374
643.402207	0.262352
643.608446	0.262402
643.814666	0.262259
644.020868	0.262588
644.227052	0.262761
644.433218	0.262896
644.639365	0.262575
644.845494	0.262711
645.051605	0.262535
645.257698	0.262474
645.463772	0.262951
645.669828	0.263273
645.875866	0.263531
646.081886	0.263604
646.287888	0.263824
646.493871	0.264264
646.699836	0.264441
646.905783	0.265046
647.111712	0.265604
647.317622	0.265630
647.523514	0.265927
647.729388	0.265934
647.935244	0.266033
648.141082	0.265983
648.346901	0.266225
648.552702	0.266503
648.758485	0.266454
648.964250	0.266351
649.169996	0.266629
649.375724	0.266512
649.581434	0.266692
649.787126	0.267171
649.992800	0.267539
650.198455	0.267834
650.404092	0.267929
650.609711	0.267813
650.815311	0.267989
651.020894	0.268085
651.226458	0.268401
651.432004	0.268401
651.637532	0.268246
651.843041	0.267974
652.048532	0.268217
652.254006	0.268643
652.459460	0.268982
652.664897	0.269010
652.870315	0.269022
653.075716	0.269107
653.281097	0.269229
653.486461	0.269562
653.691807	0.270121
653.897134	0.269773
654.102443	0.269785
654.307734	0.270099
654.513006	0.270439
654.718261	0.270835
654.923497	0.271195
655.128715	0.271485
655.333915	0.271560
655.539096	0.271549
655.744259	0.272125
655.949404	0.272209
656.154531	0.272569
656.359640	0.272906
656.564730	0.273055
656.769802	0.273158
656.974856	0.273347
657.179892	0.273673
657.384909	0.274173
657.589908	0.274279
657.794889	0.274629
657.999852	0.274608
658.204797	0.274947
658.409723	0.275084
658.614631	0.275474
658.819521	0.275698
659.024393	0.275674
659.229246	0.275811
659.434081	0.275945
659.638898	0.276270
659.843697	0.276441
660.048478	0.276307
660.253240	0.276674
660.457984	0.276645
660.662710	0.276832
660.867417	0.277299
661.072107	0.277621
661.276778	0.278033
661.481431	0.278017
661.686066	0.278110
661.890682	0.278329
662.095281	0.278552
662.299861	0.278686
662.504422	0.278907
662.708966	0.278777
662.913491	0.278369
663.117999	0.278292
663.322488	0.278597
663.526958	0.278892
663.731411	0.279214
663.935845	0.279277
664.140261	0.279631
664.344659	0.279861
664.549038	0.280260
664.753400	0.280806
664.957743	0.280971
665.162068	0.280884
665.366375	0.281241
665.570663	0.281200
665.774933	0.281545
665.979185	0.281289
666.183419	0.281334
666.387635	0.281519
666.591832	0.281720
666.796011	0.282198
667.000172	0.282576
667.204315	0.282653
667.408439	0.282815
667.612545	0.283048
667.816634	0.283509
668.020703	0.283662
668.224755	0.283812
668.428788	0.283957
668.632803	0.284080
668.836800	0.284255
669.040779	0.284522
669.244739	0.284774
669.448681	0.284720
669.652605	0.285131
669.856511	0.285577
670.060399	0.285759
670.264268	0.286043
670.468119	0.286049
670.671952	0.286234
670.875767	0.286312
671.079563	0.286360
671.283341	0.286436
671.487101	0.286473
671.690843	0.286494
671.894567	0.286834
672.098272	0.287074
672.301959	0.287381
672.505628	0.287632
672.709278	0.287857
672.912911	0.288271
673.116525	0.288715
673.320121	0.288708
673.523699	0.288936
673.727258	0.289241
673.930799	0.289354
674.134322	0.289552
674.337827	0.289872
674.541314	0.290169
674.744782	0.290110
674.948232	0.290222
675.151664	0.290334
675.355078	0.290455
675.558474	0.290383
675.761851	0.290610
675.965210	0.290893
676.168551	0.290806
676.371873	0.290993
676.575178	0.291552
676.778464	0.291852
676.981732	0.292371
677.184981	0.292667
677.388213	0.292712
677.591426	0.292650
677.794621	0.292746
677.997798	0.292953
678.200956	0.293000
678.404097	0.293271
678.607219	0.293455
678.810323	0.293420
679.013408	0.293829
679.216476	0.294055
679.419525	0.294448
679.622556	0.294668
679.825569	0.294884
680.028563	0.295249
680.231540	0.295593
680.434498	0.295755
680.637438	0.296144
680.840359	0.296217
681.043263	0.296692
681.246148	0.297038
681.449015	0.297018
681.651864	0.297363
681.854694	0.297492
682.057506	0.297537
682.260301	0.297610
682.463076	0.297782
682.665834	0.297844
682.868573	0.298062
683.071295	0.298142
683.273998	0.298721
683.476682	0.298925
683.679349	0.299141
683.881997	0.299246
684.084627	0.299525
684.287239	0.299677
684.489833	0.300181
684.692408	0.300226
684.894965	0.300337
685.097504	0.300258
685.300025	0.300411
685.502527	0.300566
685.705012	0.300524
685.907478	0.300737
686.109925	0.301026
686.312355	0.300892
686.514766	0.301188
686.717159	0.301246
686.919534	0.301529
687.121891	0.301709
687.324230	0.301974
687.526550	0.302136
687.728852	0.302191
687.931136	0.302304
688.133401	0.302291
688.335649	0.302210
688.537878	0.302565
688.740089	0.303001
688.942281	0.303026
689.144456	0.303072
689.346612	0.303154
689.548750	0.303385
689.750870	0.303620
689.952971	0.304007
690.155055	0.304238
690.357120	0.304297
690.559167	0.304261
690.761195	0.304566
690.963206	0.304622
691.165198	0.304865
691.367172	0.305035
691.569128	0.304998
691.771065	0.305335
691.972984	0.305438
692.174885	0.305729
692.376768	0.305782
692.578633	0.305905
692.780479	0.306092
692.982308	0.306344
693.184118	0.306363
693.385909	0.306549
693.587683	0.306483
