sample name	sample
index	1382
start time	 05-03-2021  02:57:42 PM


Wavelength (nm)	Absorbance
494.344910	-0.121653
494.563924	-0.121653
494.782919	-0.121653
495.001897	NaN
495.220856	-0.016187
495.439797	0.011761
495.658719	0.032132
495.877624	0.012198
496.096510	-0.050762
496.315378	-0.025200
496.534227	-0.050238
496.753059	-0.017357
496.971872	-0.013795
497.190667	0.133172
497.409444	0.149370
497.628203	0.158795
497.846943	0.161164
498.065665	0.161577
498.284369	0.160912
498.503055	0.162496
498.721723	0.162382
498.940372	0.161886
499.159003	0.161582
499.377616	0.161496
499.596210	0.161084
499.814787	0.161499
500.033345	0.161000
500.251885	0.161578
500.470406	0.161102
500.688910	0.160768
500.907395	0.161914
501.125862	0.162407
501.344311	0.162108
501.562742	0.162168
501.781154	0.161498
501.999548	0.163506
502.217924	0.162910
502.436282	0.163969
502.654621	0.164474
502.872942	0.163970
503.091245	0.163908
503.309530	0.165327
503.527797	0.164846
503.746045	0.164724
503.964275	0.163885
504.182487	0.164711
504.400681	0.164212
504.618856	0.164038
504.837013	0.163965
505.055152	0.164109
505.273273	0.164204
505.491376	0.163767
505.709460	0.163506
505.927526	0.163621
506.145574	0.163567
506.363604	0.163186
506.581615	0.163263
506.799608	0.163117
507.017583	0.163151
507.235540	0.162608
507.453478	0.164012
507.671399	0.165609
507.889301	0.165482
508.107185	0.165727
508.325050	0.165873
508.542898	0.166252
508.760727	0.166680
508.978538	0.166880
509.196330	0.166849
509.414105	0.166162
509.631861	0.166830
509.849599	0.167931
510.067319	0.167200
510.285021	0.167386
510.502704	0.167330
510.720369	0.167711
510.938016	0.167690
511.155645	0.168385
511.373255	0.167993
511.590848	0.167339
511.808422	0.166684
512.025977	0.167641
512.243515	0.167953
512.461034	0.167504
512.678536	0.167846
512.896018	0.167809
513.113483	0.167010
513.330930	0.167424
513.548358	0.167784
513.765768	0.167722
513.983160	0.167261
514.200533	0.167644
514.417889	0.168488
514.635226	0.168587
514.852545	0.169052
515.069845	0.169796
515.287128	0.170730
515.504392	0.170939
515.721638	0.172145
515.938866	0.173152
516.156075	0.172311
516.373267	0.173258
516.590440	0.173137
516.807594	0.173749
517.024731	0.174012
517.241850	0.174949
517.458950	0.174060
517.676032	0.173069
517.893095	0.173001
518.110141	0.174716
518.327168	0.174402
518.544177	0.175742
518.761168	0.174125
518.978141	0.174919
519.195095	0.174617
519.412031	0.175722
519.628949	0.176827
519.845849	0.176320
520.062731	0.175555
520.279594	0.175601
520.496439	0.174954
520.713266	0.176579
520.930074	0.176225
521.146865	0.175493
521.363637	0.176283
521.580391	0.175848
521.797127	0.177142
522.013844	0.177793
522.230543	0.178031
522.447224	0.178046
522.663887	0.178355
522.880532	0.178804
523.097158	0.179151
523.313766	0.178501
523.530356	0.179029
523.746928	0.179134
523.963481	0.178769
524.180017	0.179732
524.396534	0.179839
524.613032	0.179591
524.829513	0.179765
525.045975	0.180120
525.262420	0.180448
525.478845	0.180777
525.695253	0.180351
525.911643	0.181947
526.128014	0.181589
526.344367	0.182177
526.560702	0.183442
526.777018	0.183101
526.993316	0.184097
527.209597	0.184522
527.425858	0.185029
527.642102	0.185389
527.858328	0.184201
528.074535	0.184890
528.290724	0.185486
528.506894	0.185090
528.723047	0.186095
528.939181	0.186324
529.155297	0.186405
529.371395	0.186571
529.587475	0.187593
529.803536	0.188313
530.019579	0.187853
530.235604	0.187941
530.451611	0.188439
530.667600	0.188444
530.883570	0.188590
531.099522	0.188862
531.315456	0.189065
531.531372	0.189297
531.747269	0.189480
531.963148	0.189781
532.179009	0.189690
532.394852	0.190073
532.610676	0.190617
532.826482	0.190813
533.042271	0.191696
533.258040	0.191935
533.473792	0.191782
533.689525	0.192115
533.905240	0.192536
534.120937	0.192896
534.336616	0.193421
534.552277	0.193159
534.767919	0.193200
534.983543	0.193294
535.199149	0.193418
535.414736	0.194634
535.630306	0.195303
535.845857	0.195947
536.061390	0.196017
536.276904	0.195406
536.492401	0.195830
536.707879	0.196080
536.923339	0.196841
537.138781	0.197807
537.354204	0.197336
537.569610	0.197149
537.784997	0.197770
538.000366	0.198456
538.215716	0.199166
538.431049	0.199678
538.646363	0.200125
538.861659	0.199937
539.076937	0.199889
539.292196	0.200082
539.507438	0.200734
539.722661	0.200757
539.937866	0.201377
540.153052	0.201880
540.368221	0.201864
540.583371	0.202548
540.798503	0.202807
541.013617	0.202611
541.228712	0.202856
541.443789	0.203493
541.658848	0.203829
541.873889	0.203835
542.088912	0.204254
542.303916	0.205037
542.518902	0.205464
542.733870	0.205667
542.948820	0.205850
543.163752	0.206332
543.378665	0.206265
543.593560	0.206301
543.808437	0.206094
544.023295	0.205802
544.238136	0.205737
544.452958	0.206049
544.667762	0.206017
544.882548	0.206723
545.097315	0.206999
545.312064	0.207239
545.526795	0.208275
545.741508	0.208655
545.956203	0.209427
546.170879	0.210352
546.385537	0.210429
546.600177	0.210611
546.814799	0.211095
547.029402	0.210768
547.243988	0.210863
547.458555	0.210426
547.673103	0.210329
547.887634	0.209833
548.102146	0.209351
548.316640	0.209058
548.531116	0.209342
548.745574	0.209383
548.960013	0.209914
549.174435	0.209780
549.388838	0.209516
549.603222	0.209955
549.817589	0.210065
550.031937	0.210528
550.246267	0.210502
550.460579	0.211074
550.674873	0.211030
550.889148	0.211504
551.103405	0.212348
551.317644	0.212780
551.531865	0.213271
551.746068	0.214226
551.960252	0.214101
552.174418	0.214767
552.388566	0.215058
552.602696	0.215520
552.816807	0.215729
553.030900	0.215573
553.244975	0.216122
553.459032	0.216360
553.673070	0.216380
553.887091	0.216961
554.101093	0.217240
554.315077	0.216974
554.529042	0.217050
554.742990	0.217166
554.956919	0.217193
555.170830	0.217197
555.384722	0.217268
555.598597	0.217781
555.812453	0.217431
556.026291	0.217269
556.240111	0.217691
556.453913	0.218064
556.667696	0.218775
556.881461	0.219431
557.095208	0.219686
557.308937	0.219925
557.522647	0.219483
557.736339	0.219711
557.950013	0.219535
558.163669	0.219185
558.377307	0.219330
558.590926	0.219219
558.804527	0.219250
559.018110	0.219188
559.231675	0.219775
559.445221	0.220067
559.658749	0.220033
559.872259	0.220434
560.085751	0.221176
560.299225	0.220782
560.512680	0.219929
560.726117	0.219652
560.939536	0.219840
561.152937	0.219649
561.366319	0.219305
561.579683	0.219830
561.793029	0.219644
562.006357	0.219697
562.219667	0.219988
562.432958	0.220578
562.646231	0.221166
562.859486	0.221523
563.072723	0.221777
563.285941	0.222143
563.499141	0.221981
563.712323	0.222697
563.925487	0.222621
564.138632	0.222635
564.351760	0.223295
564.564869	0.222953
564.777960	0.223112
564.991032	0.222449
565.204087	0.222745
565.417123	0.223325
565.630141	0.223414
565.843140	0.223679
566.056122	0.223806
566.269085	0.223586
566.482030	0.223951
566.694957	0.223674
566.907866	0.224059
567.120756	0.224332
567.333628	0.224485
567.546482	0.224825
567.759318	0.224941
567.972135	0.224994
568.184935	0.225036
568.397716	0.225206
568.610478	0.225190
568.823223	0.225305
569.035949	0.225489
569.248657	0.225446
569.461347	0.225126
569.674019	0.225362
569.886672	0.225828
570.099308	0.225876
570.311925	0.225842
570.524523	0.226469
570.737104	0.226468
570.949666	0.226627
571.162210	0.227215
571.374736	0.227352
571.587244	0.227635
571.799733	0.227668
572.012205	0.227420
572.224658	0.227708
572.437092	0.227600
572.649509	0.228047
572.861907	0.227832
573.074287	0.227155
573.286649	0.227669
573.498993	0.227203
573.711318	0.227761
573.923625	0.228359
574.135914	0.228122
574.348185	0.227668
574.560438	0.227987
574.772672	0.228137
574.984888	0.228309
575.197086	0.228049
575.409266	0.228243
575.621427	0.227877
575.833570	0.227808
576.045695	0.228306
576.257802	0.229106
576.469890	0.228896
576.681961	0.229283
576.894013	0.229575
577.106046	0.229364
577.318062	0.229502
577.530059	0.229847
577.742039	0.230121
577.954000	0.229790
578.165942	0.229986
578.377867	0.230096
578.589773	0.229984
578.801661	0.230298
579.013531	0.230940
579.225382	0.231236
579.437216	0.231246
579.649031	0.231457
579.860828	0.231893
580.072606	0.231618
580.284367	0.232213
580.496109	0.232558
580.707833	0.232331
580.919539	0.232463
581.131227	0.232667
581.342896	0.232594
581.554547	0.232972
581.766180	0.233321
581.977795	0.233277
582.189391	0.233195
582.400969	0.233538
582.612529	0.234037
582.824071	0.234466
583.035595	0.234484
583.247100	0.234967
583.458587	0.234776
583.670056	0.234677
583.881506	0.234857
584.092939	0.234677
584.304353	0.234231
584.515749	0.234167
584.727127	0.233910
584.938486	0.234083
585.149828	0.233970
585.361151	0.234414
585.572456	0.234601
585.783742	0.235180
585.995011	0.235105
586.206261	0.235158
586.417493	0.235209
586.628706	0.235378
586.839902	0.235598
587.051079	0.236076
587.262238	0.235827
587.473379	0.236217
587.684502	0.236284
587.895606	0.237207
588.106692	0.237483
588.317760	0.237708
588.528810	0.237571
588.739841	0.237985
588.950855	0.237627
589.161850	0.237790
589.372827	0.237787
589.583785	0.237991
589.794726	0.237817
590.005648	0.238070
590.216552	0.238468
590.427437	0.239135
590.638305	0.238713
590.849154	0.239134
591.059985	0.238802
591.270798	0.238613
591.481592	0.238829
591.692369	0.239407
591.903127	0.239714
592.113867	0.239953
592.324588	0.240159
592.535292	0.240725
592.745977	0.240883
592.956644	0.241458
593.167293	0.242034
593.377923	0.241615
593.588536	0.241186
593.799130	0.241215
594.009706	0.241245
594.220263	0.241176
594.430803	0.241180
594.641324	0.241461
594.851827	0.241328
595.062312	0.241240
595.272778	0.241795
595.483227	0.242200
595.693657	0.242219
595.904069	0.241951
596.114462	0.242526
596.324838	0.242788
596.535195	0.243003
596.745534	0.243624
596.955855	0.243929
597.166157	0.244265
597.376441	0.244608
597.586707	0.245265
597.796955	0.245680
598.007185	0.245390
598.217396	0.245838
598.427589	0.245907
598.637764	0.246263
598.847921	0.246666
599.058060	0.246790
599.268180	0.246928
599.478282	0.247006
599.688366	0.247530
599.898431	0.247930
600.108479	0.248058
600.318508	0.248322
600.528519	0.248641
600.738511	0.248541
600.948486	0.248710
601.158442	0.248424
601.368380	0.248396
601.578300	0.248338
601.788202	0.248221
601.998085	0.248026
602.207950	0.247897
602.417797	0.247854
602.627626	0.248047
602.837436	0.248300
603.047228	0.248769
603.257002	0.248676
603.466758	0.248736
603.676496	0.248915
603.886215	0.249173
604.095916	0.249636
604.305599	0.249516
604.515264	0.249961
604.724910	0.250186
604.934538	0.250316
605.144148	0.250407
605.353740	0.250782
605.563314	0.251237
605.772869	0.251238
605.982406	0.250959
606.191925	0.251005
606.401425	0.250747
606.610908	0.250653
606.820372	0.250410
607.029818	0.250741
607.239246	0.250899
607.448655	0.250968
607.658047	0.251125
607.867420	0.251315
608.076775	0.251754
608.286111	0.251823
608.495430	0.252006
608.704730	0.252593
608.914012	0.252863
609.123275	0.252461
609.332521	0.252043
609.541748	0.252375
609.750957	0.252796
609.960148	0.252401
610.169321	0.252379
610.378475	0.252649
610.587611	0.252594
610.796729	0.252434
611.005829	0.252972
611.214910	0.253453
611.423974	0.253546
611.633019	0.253665
611.842045	0.254151
612.051054	0.254706
612.260044	0.254614
612.469017	0.254787
612.677970	0.255160
612.886906	0.255200
613.095824	0.255427
613.304723	0.255584
613.513604	0.255767
613.722467	0.256066
613.931311	0.256329
614.140138	0.256407
614.348946	0.256514
614.557736	0.256494
614.766507	0.256702
614.975261	0.256621
615.183996	0.256190
615.392713	0.255891
615.601412	0.255727
615.810092	0.255476
616.018754	0.255493
616.227399	0.255460
616.436024	0.255789
616.644632	0.255772
616.853222	0.255810
617.061793	0.256485
617.270346	0.256855
617.478880	0.257238
617.687397	0.257027
617.895895	0.257328
618.104375	0.257195
618.312837	0.257174
618.521281	0.257237
618.729706	0.257177
618.938113	0.257198
619.146502	0.257351
619.354873	0.257261
619.563226	0.258049
619.771560	0.258385
619.979876	0.258964
620.188174	0.259204
620.396453	0.259277
620.604715	0.259873
620.812958	0.260173
621.021183	0.260311
621.229390	0.260705
621.437578	0.260805
621.645748	0.260781
621.853900	0.260795
622.062034	0.260899
622.270150	0.261345
622.478247	0.261439
622.686326	0.261312
622.894387	0.261240
623.102430	0.261176
623.310454	0.261224
623.518461	0.261294
623.726449	0.261606
623.934418	0.261567
624.142370	0.261404
624.350303	0.261528
624.558218	0.262000
624.766115	0.262155
624.973994	0.262250
625.181855	0.262420
625.389697	0.262521
625.597521	0.262681
625.805327	0.262898
626.013114	0.263120
626.220883	0.263168
626.428634	0.263254
626.636367	0.263558
626.844082	0.263453
627.051778	0.263519
627.259457	0.263920
627.467117	0.263778
627.674758	0.264366
627.882382	0.264734
628.089987	0.264931
628.297574	0.264896
628.505143	0.265042
628.712694	0.265624
628.920226	0.265586
629.127740	0.265719
629.335236	0.265911
629.542714	0.265715
629.750174	0.265787
629.957615	0.265931
630.165038	0.265914
630.372443	0.266147
630.579829	0.266163
630.787198	0.266547
630.994548	0.266495
631.201880	0.266991
631.409194	0.267229
631.616489	0.267279
631.823766	0.267308
632.031025	0.267865
632.238266	0.267980
632.445489	0.268171
632.652693	0.268457
632.859879	0.268448
633.067047	0.268423
633.274197	0.268522
633.481329	0.268798
633.688442	0.269019
633.895537	0.268623
634.102614	0.268562
634.309672	0.268585
634.516713	0.268351
634.723735	0.268762
634.930739	0.268932
635.137724	0.268848
635.344692	0.268847
635.551641	0.268865
635.758572	0.269295
635.965485	0.269492
636.172379	0.269352
636.379256	0.269380
636.586114	0.269456
636.792954	0.269306
636.999775	0.269567
637.206579	0.269595
637.413364	0.269549
637.620131	0.269943
637.826880	0.270036
638.033610	0.270597
638.240323	0.270936
638.447017	0.270794
638.653692	0.270996
638.860350	0.271036
639.066990	0.271231
639.273611	0.271633
639.480214	0.271503
639.686798	0.271485
639.893365	0.271746
640.099913	0.271745
640.306443	0.272245
640.512955	0.272396
640.719449	0.272840
640.925924	0.273126
641.132381	0.273237
641.338820	0.273588
641.545241	0.273783
641.751644	0.273928
641.958028	0.274298
642.164394	0.274721
642.370742	0.274891
642.577071	0.274833
642.783383	0.275192
642.989676	0.275415
643.195951	0.275318
643.402207	0.275547
643.608446	0.275646
643.814666	0.275901
644.020868	0.275708
644.227052	0.276207
644.433218	0.276408
644.639365	0.276408
644.845494	0.276832
645.051605	0.277105
645.257698	0.277635
645.463772	0.277680
645.669828	0.277812
645.875866	0.278023
646.081886	0.277948
646.287888	0.278195
646.493871	0.278172
646.699836	0.278156
646.905783	0.278082
647.111712	0.277977
647.317622	0.278112
647.523514	0.278218
647.729388	0.278334
647.935244	0.278424
648.141082	0.278659
648.346901	0.278873
648.552702	0.279083
648.758485	0.279535
648.964250	0.279873
649.169996	0.279736
649.375724	0.279714
649.581434	0.279827
649.787126	0.280167
649.992800	0.280048
650.198455	0.280288
650.404092	0.280289
650.609711	0.280414
650.815311	0.280692
651.020894	0.281140
651.226458	0.281415
651.432004	0.281578
651.637532	0.281457
651.843041	0.281714
652.048532	0.281820
652.254006	0.282216
652.459460	0.282348
652.664897	0.282308
652.870315	0.282683
653.075716	0.282949
653.281097	0.283026
653.486461	0.283442
653.691807	0.283658
653.897134	0.283983
654.102443	0.283744
654.307734	0.283916
654.513006	0.284195
654.718261	0.284304
654.923497	0.284456
655.128715	0.284619
655.333915	0.284749
655.539096	0.284670
655.744259	0.284643
655.949404	0.284864
656.154531	0.285071
656.359640	0.285123
656.564730	0.285455
656.769802	0.285583
656.974856	0.285692
657.179892	0.285868
657.384909	0.286269
657.589908	0.286299
657.794889	0.286655
657.999852	0.286757
658.204797	0.286905
658.409723	0.286609
658.614631	0.286709
658.819521	0.287020
659.024393	0.287076
659.229246	0.287227
659.434081	0.287484
659.638898	0.287456
659.843697	0.287398
660.048478	0.287209
660.253240	0.287499
660.457984	0.287548
660.662710	0.287528
660.867417	0.287807
661.072107	0.287672
661.276778	0.287722
661.481431	0.288019
661.686066	0.288269
661.890682	0.288509
662.095281	0.288726
662.299861	0.289013
662.504422	0.289228
662.708966	0.289177
662.913491	0.289636
663.117999	0.289872
663.322488	0.290019
663.526958	0.290163
663.731411	0.290617
663.935845	0.290840
664.140261	0.290931
664.344659	0.291259
664.549038	0.291440
664.753400	0.291491
664.957743	0.291646
665.162068	0.291914
665.366375	0.292103
665.570663	0.292213
665.774933	0.292259
665.979185	0.292491
666.183419	0.292470
666.387635	0.292859
666.591832	0.293181
666.796011	0.293692
667.000172	0.294019
667.204315	0.294218
667.408439	0.294494
667.612545	0.294764
667.816634	0.294798
668.020703	0.295146
668.224755	0.295229
668.428788	0.295464
668.632803	0.295289
668.836800	0.295407
669.040779	0.295696
669.244739	0.295879
669.448681	0.296001
669.652605	0.296504
669.856511	0.296707
670.060399	0.296909
670.264268	0.297122
670.468119	0.297468
670.671952	0.297669
670.875767	0.297731
671.079563	0.297956
671.283341	0.298168
671.487101	0.298335
671.690843	0.298520
671.894567	0.298780
672.098272	0.298912
672.301959	0.299242
672.505628	0.299229
672.709278	0.299804
672.912911	0.299859
673.116525	0.300169
673.320121	0.300097
673.523699	0.300230
673.727258	0.300211
673.930799	0.300460
674.134322	0.300829
674.337827	0.301374
674.541314	0.301490
674.744782	0.301857
674.948232	0.301790
675.151664	0.302294
675.355078	0.302604
675.558474	0.303022
675.761851	0.303211
675.965210	0.302955
676.168551	0.302758
676.371873	0.302866
676.575178	0.302955
676.778464	0.303427
676.981732	0.303440
677.184981	0.303558
677.388213	0.303606
677.591426	0.303864
677.794621	0.304068
677.997798	0.304596
678.200956	0.304617
678.404097	0.304914
678.607219	0.304965
678.810323	0.305281
679.013408	0.305645
679.216476	0.305992
679.419525	0.305940
679.622556	0.306433
679.825569	0.306386
680.028563	0.306609
680.231540	0.306619
680.434498	0.306975
680.637438	0.307323
680.840359	0.307561
681.043263	0.307494
681.246148	0.307706
681.449015	0.307639
681.651864	0.308023
681.854694	0.308412
682.057506	0.308855
682.260301	0.308938
682.463076	0.308910
682.665834	0.309071
682.868573	0.309608
683.071295	0.310069
683.273998	0.310552
683.476682	0.310719
683.679349	0.310979
683.881997	0.311196
684.084627	0.311440
684.287239	0.311783
684.489833	0.311830
684.692408	0.312018
684.894965	0.312054
685.097504	0.312276
685.300025	0.312401
685.502527	0.312260
685.705012	0.312149
685.907478	0.312331
686.109925	0.312284
686.312355	0.312641
686.514766	0.312679
686.717159	0.312854
686.919534	0.312714
687.121891	0.312767
687.324230	0.313114
687.526550	0.313289
687.728852	0.313396
687.931136	0.313705
688.133401	0.313638
688.335649	0.313701
688.537878	0.313766
688.740089	0.313762
688.942281	0.313718
689.144456	0.313755
689.346612	0.313913
689.548750	0.313954
689.750870	0.313945
689.952971	0.314011
690.155055	0.314242
690.357120	0.314575
690.559167	0.314858
690.761195	0.315132
690.963206	0.315258
691.165198	0.315639
691.367172	0.316005
691.569128	0.316068
691.771065	0.316447
691.972984	0.316735
692.174885	0.316869
692.376768	0.317029
692.578633	0.317420
692.780479	0.317679
692.982308	0.317681
693.184118	0.317805
693.385909	0.318210
