sample name	sample
index	1481
start time	 05-18-2021  12:32:27 PM
880	0.460710
Peak Time (s)	91.536
Peak Height 	0.4607
calc peak height	90,93
Baseline Time (s)	8.538
Baseline Value 	-0.005692
subtract baseline	10,4
Abs	0.296209
Peak Time (s)	91.035
Peak Height 	0.2962
calc peak height	90,93
Baseline Time (s)	9.036
Baseline Value 	0.005999
subtract baseline	10,3
PK_550	0.181615
Peak Time (s)	91.035
Peak Height 	0.1816
calc peak height	90,93
Baseline Time (s)	8.538
Baseline Value 	2.165E-4
subtract baseline	10,2
PK_880	0.287463
Peak Time (s)	90.035
Peak Height 	0.2875
calc peak height	90,93
Baseline Time (s)	8.538
Baseline Value 	8.6599E-4
subtract baseline	10,1


Time (s)	A880-A510	A880-A775	A880-A975	A880	I510	I775	I975	I880	
0.036000	0.002011	0.000232	-0.003903	0.002974	6590.910963	44648.980766	3966.776785	23303.893067
0.536000	-0.002221	-0.000701	-0.007826	0.004151	6545.214569	44446.716032	3954.055482	23248.657245
1.037000	-0.002661	-0.000258	-0.004654	0.007688	6511.980517	44152.052923	3953.150812	23083.581646
1.541500	-0.003950	-0.000582	-0.005813	0.005288	6521.233040	44349.575027	3956.231698	23195.464347
2.036500	0.001489	0.000482	-0.002563	0.001936	6595.302090	44772.920512	3972.760635	23352.741390
2.537500	-0.000955	0.000280	0.001321	0.001405	6579.055603	44804.616077	3983.956144	23377.776654
3.078500	0.002786	0.000417	-0.001553	0.000104	6622.019908	44943.458846	3979.952411	23439.204005
3.541000	-0.000794	-0.001264	-0.009211	0.002900	6567.768588	44512.557295	3953.722120	23307.365004
4.038500	0.001923	0.000844	-0.002299	0.001365	6603.861611	44862.836746	3974.866155	23379.635127
4.535500	0.000185	-0.000354	-0.005615	0.000582	6595.729424	44822.852523	3968.484925	23416.641096
5.036000	-0.000177	-0.000155	-0.001515	0.000228	6595.654471	44876.243880	3979.735345	23433.371733
5.536500	0.003382	-0.000076	-0.000330	0.000647	6622.479308	44843.442881	3981.681431	23413.567820
6.037500	-0.001002	0.000054	0.000502	0.000767	6584.064286	44844.311320	3983.492354	23407.864563
6.537000	0.002268	0.000051	0.001491	0.000019	6618.308691	44916.319821	3987.926448	23443.227410
7.037500	-0.001348	-0.000250	0.000780	0.000041	6587.287002	44885.130675	3986.055122	23442.194741
7.537500	-0.000035	-0.000421	0.002729	-0.000034	6599.098784	44875.901067	3991.235968	23445.772292
8.035000	0.002103	0.000256	-0.002665	0.000808	6610.155160	44859.924542	3975.350465	23405.947884
8.538000	0.000000	0.000000	0.000309	0.000000	6599.104664	44913.258825	3984.957590	23444.143215
9.035500	0.002079	-0.000742	0.000000	-0.000463	6620.822593	44886.222907	3985.349031	23466.041399
9.536000	-0.000537	0.000670	-0.004285	0.000000	6594.534036	44978.010254	3973.298962	23444.128055
10.036500	-0.000768	0.000100	0.000573	0.000118	6591.559054	44911.500670	3985.329872	23438.546382
10.536500	0.000177	-0.000950	0.003464	-0.000844	6607.817251	44903.069793	3995.205825	23484.124127
11.037000	-0.000644	-0.000276	-0.007738	-0.000367	6596.745855	44922.129378	3965.537927	23461.533638
11.537500	0.001544	0.000599	-0.004470	0.000179	6610.750186	44953.852885	3972.382053	23435.666284
12.034500	0.001455	0.000146	-0.001237	0.000306	6608.913575	44897.845317	3980.243616	23429.685201
12.535000	0.000725	0.000478	-0.001828	0.000304	6602.696065	44930.091007	3978.747275	23429.759829
13.035500	0.001447	-0.000166	0.000341	-0.000758	6617.939067	44970.527211	3986.975198	23480.055843
13.535500	0.001421	-0.000031	-0.003802	-0.000187	6612.825193	44928.294583	3974.992676	23452.976298
14.035500	-0.000381	0.000159	0.000290	0.002276	6576.535377	44709.032632	3979.117612	23336.723878
14.536500	-0.002055	0.000143	-0.006036	0.002305	6562.144473	44704.747970	3963.109185	23335.363333
15.036500	0.001182	0.000016	-0.005953	0.000362	6606.095614	44879.838962	3968.188228	23427.008685
15.536500	0.001851	0.000700	0.000142	0.000397	6611.506827	44942.570668	3983.519930	23425.353350
16.036500	0.002186	0.000836	0.000166	0.000292	6615.278175	44965.903398	3983.847732	23430.339815
16.537500	-0.000159	0.000362	-0.002028	-0.000022	6597.938130	44950.399582	3979.067037	23445.199463
17.038500	0.003949	0.000487	-0.003654	-0.003008	6658.855886	45252.537239	3982.523218	23586.973495
17.535000	0.002111	0.000963	-0.003390	0.001812	6601.652163	44831.318905	3970.987961	23358.596735
18.038500	-0.000538	-0.000052	-0.004064	0.000974	6586.241964	44814.142884	3971.401195	23398.109322
18.535500	-0.002003	0.000359	-0.004002	0.001376	6570.431605	44815.014638	3970.545206	23379.135098
19.035000	-0.000762	0.000793	-0.002150	0.001637	6578.730545	44831.805383	3974.558562	23366.853596
19.536500	-0.001635	0.000279	-0.003885	0.002481	6564.208413	44700.871453	3968.059142	23327.088089
20.036500	-0.001659	0.000161	-0.000257	0.001265	6574.275879	44806.676449	3980.295464	23384.364073
20.537000	-0.001673	-0.000594	-0.001778	0.000857	6577.612432	44773.222455	3977.470857	23403.618712
21.037000	-0.001184	-0.000811	-0.008690	0.000604	6583.904351	44776.602551	3960.728538	23415.568001
21.540000	-0.001106	-0.000397	-0.003562	0.002029	6572.493024	44679.336575	3970.009582	23348.368333
22.037500	0.001302	-0.000148	-0.001342	0.001113	6600.718344	44791.582682	3977.929242	23391.566277
22.549500	0.000062	-0.000214	-0.005556	0.000949	6591.559944	44800.992613	3967.710976	23399.288786
23.038500	0.000057	0.000594	-0.006440	0.001454	6587.225982	44830.205304	3964.228131	23375.469471
23.535000	-0.000236	-0.000103	-0.003044	0.002118	6579.107482	44699.114946	3971.088714	23344.188022
24.040000	0.001968	0.000643	-0.002376	0.001345	6604.418246	44845.463355	3974.724227	23380.612087
24.536500	-0.000976	-0.000290	-0.001973	0.000850	6583.581961	44803.126778	3976.994431	23403.949299
25.037000	0.000256	0.000408	-0.003618	0.001222	6590.881763	44834.651778	3971.900378	23386.409676
25.537000	-0.002598	-0.000112	-0.000197	0.002636	6554.783701	44648.459791	3976.972725	23319.801238
26.037500	0.002176	0.000169	-0.005115	0.000999	6609.148809	44833.114157	3968.693865	23396.948515
26.537500	-0.000504	0.000043	-0.002137	0.000846	6587.616556	44835.676535	3976.589770	23404.136880
27.044000	-0.000194	-0.000088	0.001242	0.000643	6591.977396	44842.655028	3985.695613	23413.726736
27.538000	0.002863	0.000534	0.000180	-0.002232	6642.768197	45181.468680	3990.333019	23550.013038
28.035000	0.002205	0.000294	0.002005	-0.000166	6619.359906	44957.818977	3989.719263	23452.012489
28.535500	0.000130	0.000604	-0.000485	0.000463	6596.269113	44926.821087	3981.754761	23422.227971
29.036500	0.001592	0.000541	-0.007224	0.000888	6605.107840	44879.783883	3963.683126	23402.178964
29.536500	-0.000619	-0.000005	-0.007029	0.000075	6593.202379	44905.504198	3966.208937	23440.605671
30.037000	0.002472	0.000507	-0.000702	0.000518	6615.785451	44912.110562	3981.061735	23419.624584
30.534000	0.001618	-0.000189	-0.006203	0.001209	6602.594827	44778.295905	3965.434920	23387.027591
31.037500	0.000508	-0.000400	-0.000463	0.001567	6590.094341	44723.578489	3979.007840	23370.152151
31.535500	0.000930	-0.000014	-0.010341	-0.000779	6613.690632	44987.296460	3960.060609	23481.026937
32.035500	0.001153	0.000192	-0.004252	-0.000214	6610.766541	44952.548542	3973.924441	23454.266790
32.535500	0.003059	0.000069	-0.001385	-0.000320	6628.002531	44950.932002	3981.458581	23459.290435
33.035000	0.002252	0.000921	-0.001505	0.001009	6609.707372	44904.723778	3977.779723	23396.453956
33.536000	0.002518	-0.000726	-0.001701	-0.002264	6640.073806	45062.234633	3985.605533	23551.558399
34.036500	-0.001171	0.000659	-0.004958	0.001511	6576.322871	44830.908105	3967.800384	23372.762335
34.537000	-0.000520	0.000528	0.001034	0.002010	6577.611789	44770.171676	3981.683686	23349.251947
35.037000	0.002168	0.000586	-0.004119	0.002174	6599.049919	44759.951095	3968.243295	23341.522939
35.537500	-0.000355	0.000428	-0.003685	0.003048	6570.224287	44660.683432	3967.136742	23300.419509
36.034500	-0.000482	-0.000379	-0.005231	0.001158	6585.154484	44764.872200	3968.001975	23389.419934
36.535500	-0.000418	-0.000776	-0.006317	0.000455	6591.668395	44794.340161	3967.038090	23422.602955
37.037500	-0.000712	-0.000407	-0.001053	0.001128	6583.462491	44765.102438	3978.625487	23390.852707
37.535500	0.000361	0.000554	-0.005497	0.003594	6571.666717	44620.382655	3961.237032	23274.808559
38.036000	0.001097	-0.000091	-0.000128	0.001427	6596.291445	44766.768600	3980.211616	23376.739624
38.536000	-0.001041	0.000656	0.003814	0.001899	6574.148553	44793.305204	3989.061851	23354.502070
39.036500	0.001788	0.000555	-0.002553	0.001736	6599.549883	44799.222098	3973.290475	23362.175668
39.539500	0.000018	-0.000060	-0.003504	0.003363	6570.715358	44583.624261	3966.802623	23285.634849
40.037000	0.001045	0.000538	-0.007502	0.001920	6591.659106	44779.910394	3960.409377	23353.503390
40.537500	0.000065	-0.000026	-0.002240	0.001438	6587.430781	44771.961600	3974.835050	23376.229820
41.035000	0.002166	-0.000010	0.000233	0.001511	6604.688758	44766.461292	3980.917862	23372.789166
41.538000	-0.002088	-0.000521	-0.004165	0.002353	6561.464416	44636.386737	3967.679734	23333.127470
42.035500	0.000623	0.000224	-0.004376	0.001960	6587.729652	44745.749608	3968.134728	23351.621339
42.536000	-0.000716	0.000304	-0.003530	0.002025	6575.826711	44747.189486	3970.098922	23348.535125
43.036000	-0.000282	0.000048	-0.001478	0.001806	6581.354727	44743.624580	3975.827699	23358.851159
43.536500	-0.001969	-0.000406	-0.006771	0.002458	6561.580130	44637.203228	3960.891277	23328.153607
44.037000	0.002940	0.001351	-0.000942	0.000390	6620.888603	45006.278481	3980.777966	23425.682311
44.537000	0.000415	0.000343	-0.003378	0.001652	6588.585061	44786.883906	3971.422678	23366.144418
45.037000	0.000131	0.000098	0.002381	0.000018	6600.063978	44921.031250	3990.209511	23443.286847
45.534500	-0.001006	0.000287	-0.001944	0.004021	6556.525053	44553.822093	3969.066440	23254.757384
46.035000	0.000961	0.000503	0.000783	0.000736	6601.023935	44890.731984	3984.291090	23409.360592
46.535500	0.000314	0.000830	0.002970	0.002117	6583.776828	44788.941806	3986.344538	23344.201861
47.035000	0.002011	-0.000033	0.006181	-0.000298	6618.835534	44938.886102	4000.808683	23458.263900
47.536000	-0.000057	0.000509	-0.003448	0.004240	6562.678134	44554.073499	3964.743391	23244.490779
48.036000	-0.000175	0.000884	-0.003453	0.001680	6583.333634	44836.425533	3971.162802	23364.819908
48.536000	0.000117	-0.000071	-0.002224	-0.000231	6602.068528	44928.691522	3979.099658	23455.079449
49.037000	0.003651	-0.000001	-0.005252	-0.000354	6633.384149	44947.361181	3971.752287	23460.895445
49.536500	-0.001782	0.000344	-0.007305	0.003268	6556.330680	44631.574104	3957.544042	23290.112678
50.034000	0.003025	0.000225	0.000043	-0.001772	6640.195648	45106.712223	3988.804902	23528.139938
50.537500	0.001310	0.000978	-0.000179	0.013791	6494.283249	43692.529602	3949.124081	22801.820319
51.038000	-0.000115	-0.009959	0.015575	0.173342	5380.790313	30455.787067	3646.948370	16681.259535
51.535500	0.001905	-0.012719	-0.006478	0.090089	5919.182504	36062.202551	3763.452471	19594.449074
52.036000	0.009710	-0.009418	-0.013721	-0.011548	6784.719569	45119.706194	3978.643373	23997.882031
52.536000	-0.025577	-0.027418	-0.025619	-0.138199	7694.490490	57114.258787	4311.785123	31143.539984
53.036500	-0.022387	-0.053128	-0.008396	-0.204690	8529.040352	62449.280701	4616.785752	35817.088496
53.536500	-0.011364	-0.042092	0.000552	-0.185059	8418.554160	61282.902040	4574.513227	34362.105072
54.036500	0.003384	-0.036154	0.018935	-0.167605	8384.268499	59755.750499	4578.147398	33122.476352
54.537500	0.017570	-0.018902	0.040334	-0.071041	7436.552777	50269.417506	4307.807830	27096.165879
55.037500	0.033939	-0.004627	0.053369	-0.021694	7104.765683	46596.233140	4193.045676	24496.700085
55.535000	0.062649	0.014588	0.073440	0.018602	6994.053348	44526.987410	4133.170195	22582.547578
56.035500	0.091698	0.034494	0.099121	0.060687	6872.960150	42455.639137	4086.609031	20764.184006
56.535500	0.116968	0.053289	0.120769	0.103874	6712.357581	40296.565008	4028.086466	19072.707439
57.036000	0.145321	0.069676	0.148011	0.126540	6762.618378	39760.094522	4040.277326	18250.012827
57.539000	0.166394	0.084473	0.169678	0.158939	6663.168107	38296.963833	4011.886536	17146.159308
58.036000	0.186214	0.095863	0.182407	0.178904	6661.901966	37605.320967	3993.134560	16505.801130
58.537000	0.199310	0.106694	0.194472	0.227444	6367.017897	34720.972310	3903.228969	15066.444171
59.037000	0.209109	0.111078	0.208645	0.237230	6367.115528	34327.955552	3913.647604	14795.237862
59.537000	0.218848	0.119182	0.223330	0.300576	5964.417177	30576.953038	3803.776209	13180.071336
60.034500	0.224979	0.125506	0.231891	0.268660	6245.069043	33122.305137	3894.298638	13964.416939
60.537500	0.230940	0.132529	0.240539	0.308085	5996.930360	30951.161634	3824.704985	13003.740890
61.035000	0.236012	0.134368	0.248462	0.352988	5725.460215	28305.299255	3747.356288	12010.745315
61.535500	0.243165	0.139593	0.259799	0.383963	5574.605292	26844.128431	3708.880604	11383.194806
62.035500	0.252486	0.143524	0.263210	0.417178	5431.384468	25284.391060	3653.713226	10758.183580
62.536000	0.256987	0.154857	0.259853	0.394054	5597.692676	27130.776169	3689.877773	11188.232632
63.039500	0.255714	0.156621	0.259286	0.391900	5603.169010	27350.145128	3692.853397	11229.470826
63.556000	0.261540	0.161058	0.270562	0.394445	5623.677618	27456.773317	3709.419980	11180.765716
64.037000	0.258107	0.160973	0.265988	0.395352	5596.585383	27400.810500	3698.980914	11163.479853
64.537500	0.254850	0.161353	0.263322	0.401113	5541.146679	27099.389377	3683.186540	11054.508869
65.035500	0.261304	0.163355	0.259465	0.395301	5616.830595	27538.308424	3686.822277	11164.441141
65.535000	0.263265	0.165974	0.266279	0.395135	5630.174632	27696.660800	3699.944110	11167.615998
66.035500	0.263107	0.167047	0.270442	0.392160	5647.951299	27928.659678	3713.579171	11224.482644
66.536000	0.265009	0.168217	0.265862	0.390617	5669.838354	28085.359809	3707.748282	11254.118832
67.036000	0.265474	0.169337	0.266242	0.388850	5684.114976	28253.225315	3711.867193	11288.215253
67.536500	0.269336	0.170944	0.273572	0.389599	5704.147385	28303.252304	3724.611339	11273.735792
68.036500	0.267269	0.171981	0.268672	0.389807	5689.497285	28351.749583	3714.702404	11269.733054
68.536500	0.264266	0.171240	0.269293	0.390450	5666.167652	28270.859377	3714.659800	11257.335474
69.037000	0.266064	0.173019	0.271961	0.393862	5655.902799	28175.737472	3713.227924	11191.901475
69.534500	0.265687	0.172675	0.268236	0.402107	5601.714771	27681.267233	3690.495437	11035.864806
70.038000	0.267154	0.173109	0.269311	0.399790	5625.367832	27838.544827	3696.874791	11079.416921
70.535500	0.269137	0.174152	0.268654	0.403893	5612.084913	27663.616142	3687.936800	11002.442277
71.035500	0.270905	0.175171	0.282137	0.408658	5593.433272	27451.130625	3704.378515	10913.974913
71.535500	0.264382	0.173130	0.262903	0.415776	5510.117677	26939.237372	3655.673066	10783.598434
72.036500	0.271106	0.174369	0.277649	0.415460	5552.789929	27025.414877	3683.148979	10789.347745
72.536500	0.272241	0.175299	0.277162	0.419663	5534.107160	26844.478494	3674.491744	10713.314714
73.036500	0.272377	0.176457	0.277903	0.424184	5507.631493	26659.908852	3667.580829	10632.331862
73.537000	0.269785	0.175833	0.278238	0.431724	5447.483472	26217.903083	3654.574776	10499.156948
74.037500	0.273991	0.176253	0.275893	0.428251	5492.940137	26427.613799	3656.596981	10560.209674
74.540500	0.273529	0.177624	0.280551	0.438019	5432.561477	25977.592018	3647.478881	10389.727867
75.035000	0.276326	0.177995	0.270921	0.434075	5472.188439	26207.755616	3637.457627	10458.096710
75.535000	0.275532	0.178283	0.279684	0.435920	5456.603679	26124.426740	3649.667715	10426.043096
76.036000	0.277575	0.179207	0.283901	0.438471	5453.607847	26037.633758	3652.636437	10381.921100
76.535500	0.275859	0.178389	0.280760	0.445731	5401.359891	25611.723386	3634.283649	10257.806173
77.036500	0.279528	0.178959	0.283553	0.442284	5442.696583	25822.541166	3645.242262	10316.478798
77.537000	0.276119	0.179129	0.280789	0.443958	5413.102007	25743.382602	3637.432908	10287.930391
78.036500	0.280944	0.180370	0.287328	0.446356	5427.186973	25682.654541	3644.716553	10247.217040
78.537000	0.278748	0.179823	0.283697	0.453885	5371.205023	25263.374448	3625.242719	10120.848324
79.034500	0.280669	0.181200	0.280022	0.450548	5401.316708	25507.161777	3624.660067	10176.579422
79.538000	0.276822	0.179644	0.284939	0.456471	5345.654727	25121.570823	3622.930513	10077.942910
80.035500	0.281171	0.179385	0.287505	0.451462	5398.946041	25365.694024	3636.053620	10161.277800
80.535500	0.283349	0.179752	0.293164	0.452661	5404.583200	25322.727303	3643.886643	10141.233423
81.036000	0.282032	0.179151	0.283142	0.452863	5395.834544	25281.339787	3626.046860	10137.862921
81.535500	0.281360	0.179120	0.288418	0.453594	5387.785166	25242.181907	3633.926618	10125.689017
82.036000	0.281171	0.178264	0.284777	0.452987	5390.181871	25229.375088	3628.657122	10135.801494
82.537000	0.281539	0.179707	0.287717	0.460777	5347.968475	24905.735184	3620.311094	10007.066724
83.037000	0.281856	0.179486	0.289851	0.454774	5383.872510	25200.362423	3634.367118	10106.069109
83.537500	0.283993	0.180316	0.292541	0.455906	5389.626520	25184.864136	3637.089097	10087.289142
84.037500	0.283147	0.179156	0.294045	0.454598	5392.279853	25192.484876	3642.025611	10108.990992
84.535000	0.276000	0.178331	0.282277	0.459422	5324.494965	24904.675271	3613.352015	10029.295617
85.038000	0.279842	0.178391	0.286592	0.454677	5372.924734	25149.246498	3628.874101	10107.677342
85.536000	0.285768	0.180197	0.296373	0.456443	5396.736890	25151.301102	3642.877158	10078.409279
86.035500	0.283679	0.180407	0.288165	0.456612	5383.786589	25153.380591	3628.246814	10075.611661
86.536000	0.281207	0.178891	0.292961	0.460579	5347.218702	24874.501415	3629.683355	10010.316697
87.036000	0.285405	0.178678	0.292630	0.456172	5396.202390	25087.476706	3636.778647	10082.885550
87.537000	0.284161	0.179245	0.285382	0.455645	5392.090075	25143.408486	3625.114011	10091.624452
88.036500	0.282494	0.179754	0.296805	0.455165	5385.278972	25194.038555	3645.897641	10099.570400
88.535000	0.284168	0.178903	0.293307	0.461806	5357.008098	24813.142442	3628.156218	9990.235109
89.035000	0.284710	0.178738	0.293035	0.454726	5400.532299	25164.516615	3640.025130	10106.870609
89.535500	0.279913	0.179290	0.289512	0.461024	5337.437064	24872.214961	3622.965079	10003.032794
90.035500	0.287463	0.178812	0.290071	0.455142	5414.027823	25147.038834	3634.110168	10099.968428
90.536000	0.284415	0.180333	0.295030	0.455766	5392.849927	25192.907907	3641.702990	10089.607636
91.035500	0.287121	0.181615	0.296209	0.457017	5401.224957	25194.537210	3641.577140	10068.926060
91.536000	0.281406	0.178544	0.287435	0.460710	5347.603149	24850.356076	3619.943993	10008.172729
92.037000	0.284626	0.179036	0.286203	0.455121	5397.769181	25159.557516	3627.432689	10100.307195
92.537000	0.282093	0.179468	0.292625	0.455944	5378.538374	25139.514958	3637.169262	10086.667225
93.037500	0.285418	0.180086	0.296444	0.456533	5394.207672	25141.021140	3642.845227	10076.926395
93.592500	0.283414	0.180899	0.292284	0.463789	5341.570377	24813.837496	3622.977696	9957.919371
94.038000	0.288230	0.180410	0.294591	0.457539	5404.603457	25106.156180	3637.819908	10060.305135
94.535000	0.284406	0.179247	0.293542	0.456241	5390.073716	25113.030851	3638.255761	10081.749071
95.035500	0.285080	0.179517	0.289349	0.456865	5390.358358	25094.949861	3629.858867	10071.425642
95.536000	0.280593	0.179104	0.293314	0.461807	5336.857355	24823.264603	3628.169283	9990.229694
96.036500	0.288188	0.179925	0.293333	0.456898	5408.060517	25114.103746	3636.739348	10070.886838
