sample name	sample
index	191
start time	 02-18-2021  11:56:23 AM


Wavelength (nm)	Absorbance
494.344910	0.209131
494.563924	0.209131
494.782919	0.209131
495.001897	-0.103080
495.220856	0.166822
495.439797	0.262178
495.658719	0.284227
495.877624	0.203095
496.096510	0.258659
496.315378	0.181379
496.534227	0.209086
496.753059	0.240550
496.971872	0.145366
497.190667	0.116828
497.409444	0.117129
497.628203	0.119669
497.846943	0.122656
498.065665	0.123587
498.284369	0.126102
498.503055	0.125033
498.721723	0.124700
498.940372	0.125906
499.159003	0.125789
499.377616	0.125419
499.596210	0.125402
499.814787	0.125830
500.033345	0.126706
500.251885	0.126371
500.470406	0.126476
500.688910	0.126302
500.907395	0.126516
501.125862	0.127971
501.344311	0.129534
501.562742	0.130265
501.781154	0.130720
501.999548	0.130991
502.217924	0.130990
502.436282	0.131359
502.654621	0.131754
502.872942	0.131661
503.091245	0.132110
503.309530	0.131475
503.527797	0.130524
503.746045	0.129878
503.964275	0.129061
504.182487	0.129550
504.400681	0.130040
504.618856	0.130986
504.837013	0.130636
505.055152	0.130434
505.273273	0.130392
505.491376	0.131752
505.709460	0.132869
505.927526	0.133335
506.145574	0.132858
506.363604	0.133253
506.581615	0.133235
506.799608	0.134177
507.017583	0.134150
507.235540	0.134383
507.453478	0.134251
507.671399	0.133107
507.889301	0.133264
508.107185	0.133678
508.325050	0.133167
508.542898	0.132995
508.760727	0.132656
508.978538	0.133468
509.196330	0.134072
509.414105	0.134807
509.631861	0.135898
509.849599	0.135468
510.067319	0.135964
510.285021	0.136303
510.502704	0.137153
510.720369	0.136460
510.938016	0.136509
511.155645	0.136687
511.373255	0.137133
511.590848	0.136644
511.808422	0.137121
512.025977	0.136989
512.243515	0.137106
512.461034	0.136359
512.678536	0.137527
512.896018	0.136973
513.113483	0.137244
513.330930	0.136188
513.548358	0.136500
513.765768	0.136850
513.983160	0.136675
514.200533	0.137193
514.417889	0.137488
514.635226	0.136871
514.852545	0.136788
515.069845	0.137032
515.287128	0.137439
515.504392	0.138172
515.721638	0.138211
515.938866	0.139241
516.156075	0.139568
516.373267	0.139845
516.590440	0.140864
516.807594	0.141328
517.024731	0.141506
517.241850	0.141373
517.458950	0.141458
517.676032	0.142002
517.893095	0.141615
518.110141	0.141677
518.327168	0.142151
518.544177	0.142906
518.761168	0.143692
518.978141	0.143519
519.195095	0.143944
519.412031	0.144155
519.628949	0.144470
519.845849	0.144978
520.062731	0.145255
520.279594	0.145463
520.496439	0.144664
520.713266	0.144463
520.930074	0.144496
521.146865	0.144908
521.363637	0.144965
521.580391	0.145518
521.797127	0.146263
522.013844	0.146970
522.230543	0.147451
522.447224	0.147743
522.663887	0.148376
522.880532	0.148393
523.097158	0.149314
523.313766	0.149824
523.530356	0.149369
523.746928	0.148721
523.963481	0.148563
524.180017	0.148802
524.396534	0.148968
524.613032	0.149612
524.829513	0.150467
525.045975	0.150172
525.262420	0.150919
525.478845	0.151348
525.695253	0.151578
525.911643	0.152183
526.128014	0.152898
526.344367	0.153714
526.560702	0.153357
526.777018	0.153710
526.993316	0.154175
527.209597	0.153791
527.425858	0.153656
527.642102	0.154522
527.858328	0.154764
528.074535	0.155333
528.290724	0.155303
528.506894	0.155800
528.723047	0.155797
528.939181	0.155568
529.155297	0.155703
529.371395	0.156320
529.587475	0.156900
529.803536	0.156725
530.019579	0.156378
530.235604	0.156640
530.451611	0.156293
530.667600	0.157323
530.883570	0.158240
531.099522	0.158669
531.315456	0.158949
531.531372	0.159436
531.747269	0.159894
531.963148	0.160145
532.179009	0.160663
532.394852	0.161203
532.610676	0.161274
532.826482	0.161430
533.042271	0.161267
533.258040	0.161349
533.473792	0.161224
533.689525	0.161335
533.905240	0.161553
534.120937	0.161615
534.336616	0.162821
534.552277	0.163093
534.767919	0.162705
534.983543	0.163747
535.199149	0.164838
535.414736	0.164980
535.630306	0.165665
535.845857	0.165844
536.061390	0.166359
536.276904	0.165859
536.492401	0.166228
536.707879	0.167222
536.923339	0.167252
537.138781	0.166566
537.354204	0.166817
537.569610	0.167465
537.784997	0.167874
538.000366	0.168226
538.215716	0.168615
538.431049	0.168983
538.646363	0.169308
538.861659	0.169693
539.076937	0.170243
539.292196	0.170903
539.507438	0.170521
539.722661	0.170863
539.937866	0.171406
540.153052	0.171719
540.368221	0.172011
540.583371	0.171849
540.798503	0.172354
541.013617	0.173046
541.228712	0.173460
541.443789	0.173947
541.658848	0.174654
541.873889	0.174592
542.088912	0.174868
542.303916	0.174962
542.518902	0.175705
542.733870	0.175823
542.948820	0.175574
543.163752	0.175608
543.378665	0.176111
543.593560	0.176155
543.808437	0.176538
544.023295	0.176936
544.238136	0.177078
544.452958	0.177221
544.667762	0.177725
544.882548	0.178224
545.097315	0.178666
545.312064	0.178751
545.526795	0.178695
545.741508	0.179224
545.956203	0.179450
546.170879	0.179382
546.385537	0.179913
546.600177	0.180372
546.814799	0.180993
547.029402	0.180642
547.243988	0.180853
547.458555	0.181198
547.673103	0.180763
547.887634	0.181079
548.102146	0.181245
548.316640	0.180996
548.531116	0.181070
548.745574	0.181429
548.960013	0.182417
549.174435	0.182838
549.388838	0.183153
549.603222	0.184046
549.817589	0.184458
550.031937	0.185187
550.246267	0.186135
550.460579	0.186325
550.674873	0.186269
550.889148	0.186047
551.103405	0.186199
551.317644	0.186870
551.531865	0.186966
551.746068	0.186992
551.960252	0.187011
552.174418	0.186724
552.388566	0.186957
552.602696	0.187034
552.816807	0.187393
553.030900	0.187661
553.244975	0.187584
553.459032	0.187641
553.673070	0.187945
553.887091	0.188493
554.101093	0.188845
554.315077	0.189039
554.529042	0.189489
554.742990	0.189832
554.956919	0.189908
555.170830	0.189964
555.384722	0.190230
555.598597	0.189944
555.812453	0.189969
556.026291	0.189950
556.240111	0.190037
556.453913	0.190053
556.667696	0.190091
556.881461	0.190334
557.095208	0.190295
557.308937	0.190507
557.522647	0.190866
557.736339	0.190949
557.950013	0.191090
558.163669	0.191094
558.377307	0.191530
558.590926	0.191925
558.804527	0.192022
559.018110	0.192220
559.231675	0.192458
559.445221	0.193114
559.658749	0.193521
559.872259	0.194632
560.085751	0.195336
560.299225	0.194564
560.512680	0.195007
560.726117	0.195079
560.939536	0.195576
561.152937	0.196239
561.366319	0.196655
561.579683	0.196828
561.793029	0.196568
562.006357	0.196455
562.219667	0.197374
562.432958	0.196995
562.646231	0.197754
562.859486	0.197861
563.072723	0.197543
563.285941	0.197239
563.499141	0.197028
563.712323	0.197123
563.925487	0.197387
564.138632	0.197606
564.351760	0.197958
564.564869	0.197320
564.777960	0.197379
564.991032	0.197783
565.204087	0.198093
565.417123	0.198893
565.630141	0.199189
565.843140	0.199238
566.056122	0.199452
566.269085	0.199892
566.482030	0.200674
566.694957	0.200754
566.907866	0.201236
567.120756	0.201395
567.333628	0.201287
567.546482	0.201444
567.759318	0.201650
567.972135	0.201969
568.184935	0.201806
568.397716	0.201879
568.610478	0.202532
568.823223	0.202264
569.035949	0.202404
569.248657	0.202555
569.461347	0.202472
569.674019	0.202809
569.886672	0.202548
570.099308	0.203089
570.311925	0.203025
570.524523	0.203074
570.737104	0.203378
570.949666	0.203712
571.162210	0.203862
571.374736	0.204088
571.587244	0.204420
571.799733	0.204899
572.012205	0.204962
572.224658	0.205398
572.437092	0.205547
572.649509	0.206005
572.861907	0.206172
573.074287	0.206392
573.286649	0.206856
573.498993	0.206569
573.711318	0.206704
573.923625	0.206867
574.135914	0.207376
574.348185	0.207826
574.560438	0.207812
574.772672	0.208054
574.984888	0.207982
575.197086	0.207863
575.409266	0.208839
575.621427	0.209144
575.833570	0.208968
576.045695	0.208764
576.257802	0.208957
576.469890	0.209146
576.681961	0.208878
576.894013	0.209088
577.106046	0.209189
577.318062	0.208929
577.530059	0.209252
577.742039	0.209489
577.954000	0.209987
578.165942	0.209722
578.377867	0.209576
578.589773	0.210008
578.801661	0.210495
579.013531	0.211020
579.225382	0.211085
579.437216	0.211143
579.649031	0.211451
579.860828	0.211815
580.072606	0.212121
580.284367	0.212527
580.496109	0.212896
580.707833	0.212963
580.919539	0.212838
581.131227	0.212951
581.342896	0.213662
581.554547	0.214255
581.766180	0.214390
581.977795	0.214725
582.189391	0.214965
582.400969	0.215049
582.612529	0.215488
582.824071	0.215888
583.035595	0.216053
583.247100	0.215787
583.458587	0.216011
583.670056	0.215881
583.881506	0.216065
584.092939	0.215870
584.304353	0.216106
584.515749	0.216735
584.727127	0.216878
584.938486	0.217067
585.149828	0.217294
585.361151	0.217172
585.572456	0.217319
585.783742	0.217789
585.995011	0.218688
586.206261	0.218942
586.417493	0.218922
586.628706	0.219062
586.839902	0.219618
587.051079	0.220191
587.262238	0.220276
587.473379	0.220634
587.684502	0.220563
587.895606	0.220552
588.106692	0.220818
588.317760	0.220460
588.528810	0.220871
588.739841	0.221220
588.950855	0.221034
589.161850	0.221495
589.372827	0.221577
589.583785	0.222028
589.794726	0.222355
590.005648	0.222565
590.216552	0.223109
590.427437	0.223096
590.638305	0.222959
590.849154	0.222998
591.059985	0.223158
591.270798	0.223570
591.481592	0.223792
591.692369	0.223463
591.903127	0.223535
592.113867	0.223643
592.324588	0.224103
592.535292	0.224097
592.745977	0.224625
592.956644	0.224678
593.167293	0.224766
593.377923	0.224660
593.588536	0.225011
593.799130	0.225145
594.009706	0.225259
594.220263	0.225394
594.430803	0.226207
594.641324	0.226665
594.851827	0.227049
595.062312	0.227334
595.272778	0.227320
595.483227	0.227085
595.693657	0.227610
595.904069	0.227805
596.114462	0.227740
596.324838	0.227845
596.535195	0.227691
596.745534	0.227521
596.955855	0.227417
597.166157	0.227757
597.376441	0.228676
597.586707	0.228515
597.796955	0.228944
598.007185	0.229406
598.217396	0.229275
598.427589	0.229632
598.637764	0.229981
598.847921	0.230424
599.058060	0.230909
599.268180	0.230656
599.478282	0.230997
599.688366	0.231144
599.898431	0.231318
600.108479	0.231650
600.318508	0.231436
600.528519	0.231835
600.738511	0.231938
600.948486	0.231924
601.158442	0.232463
601.368380	0.232615
601.578300	0.232510
601.788202	0.232532
601.998085	0.232788
602.207950	0.233269
602.417797	0.233458
602.627626	0.233724
602.837436	0.233878
603.047228	0.234101
603.257002	0.234480
603.466758	0.235369
603.676496	0.236015
603.886215	0.236339
604.095916	0.236531
604.305599	0.237202
604.515264	0.237575
604.724910	0.238187
604.934538	0.238221
605.144148	0.238573
605.353740	0.238433
605.563314	0.238286
605.772869	0.237978
605.982406	0.238323
606.191925	0.237789
606.401425	0.237825
606.610908	0.237730
606.820372	0.237728
607.029818	0.237546
607.239246	0.237875
607.448655	0.238079
607.658047	0.238642
607.867420	0.238646
608.076775	0.238993
608.286111	0.239235
608.495430	0.239457
608.704730	0.240012
608.914012	0.240251
609.123275	0.240213
609.332521	0.240436
609.541748	0.240415
609.750957	0.240578
609.960148	0.240745
610.169321	0.240789
610.378475	0.240884
610.587611	0.240722
610.796729	0.240705
611.005829	0.241027
611.214910	0.241132
611.423974	0.241424
611.633019	0.241744
611.842045	0.242245
612.051054	0.242417
612.260044	0.242605
612.469017	0.242901
612.677970	0.243260
612.886906	0.243429
613.095824	0.243821
613.304723	0.243685
613.513604	0.243741
613.722467	0.243676
613.931311	0.243777
614.140138	0.243867
614.348946	0.244050
614.557736	0.244286
614.766507	0.244162
614.975261	0.244044
615.183996	0.244341
615.392713	0.244348
615.601412	0.244195
615.810092	0.244599
616.018754	0.244835
616.227399	0.245166
616.436024	0.245162
616.644632	0.245555
616.853222	0.245699
617.061793	0.246042
617.270346	0.246268
617.478880	0.246319
617.687397	0.246316
617.895895	0.246289
618.104375	0.246174
618.312837	0.246411
618.521281	0.246350
618.729706	0.246724
618.938113	0.246628
619.146502	0.246804
619.354873	0.247202
619.563226	0.247222
619.771560	0.247518
619.979876	0.247720
620.188174	0.247810
620.396453	0.248173
620.604715	0.248439
620.812958	0.248767
621.021183	0.249078
621.229390	0.249101
621.437578	0.249534
621.645748	0.249491
621.853900	0.249865
622.062034	0.250219
622.270150	0.250221
622.478247	0.250241
622.686326	0.250249
622.894387	0.250079
623.102430	0.250366
623.310454	0.250117
623.518461	0.250314
623.726449	0.250216
623.934418	0.250221
624.142370	0.250392
624.350303	0.250350
624.558218	0.250724
624.766115	0.251145
624.973994	0.251449
625.181855	0.251834
625.389697	0.252235
625.597521	0.252753
625.805327	0.252869
626.013114	0.253424
626.220883	0.253632
626.428634	0.253750
626.636367	0.253837
626.844082	0.254114
627.051778	0.254677
627.259457	0.254701
627.467117	0.254467
627.674758	0.254752
627.882382	0.254617
628.089987	0.254966
628.297574	0.255172
628.505143	0.255584
628.712694	0.255726
628.920226	0.255537
629.127740	0.255535
629.335236	0.255986
629.542714	0.256352
629.750174	0.256460
629.957615	0.256423
630.165038	0.256797
630.372443	0.256885
630.579829	0.256976
630.787198	0.257299
630.994548	0.257683
631.201880	0.257797
631.409194	0.257810
631.616489	0.258255
631.823766	0.258873
632.031025	0.259098
632.238266	0.259385
632.445489	0.259560
632.652693	0.259939
632.859879	0.260200
633.067047	0.260756
633.274197	0.260889
633.481329	0.260811
633.688442	0.260457
633.895537	0.260306
634.102614	0.260426
634.309672	0.260320
634.516713	0.260307
634.723735	0.260178
634.930739	0.259993
635.137724	0.260090
635.344692	0.260197
635.551641	0.260778
635.758572	0.261219
635.965485	0.261344
636.172379	0.261811
636.379256	0.262186
636.586114	0.262505
636.792954	0.263052
636.999775	0.263480
637.206579	0.263737
637.413364	0.263784
637.620131	0.263715
637.826880	0.263807
638.033610	0.263978
638.240323	0.263977
638.447017	0.264444
638.653692	0.264296
638.860350	0.264281
639.066990	0.264447
639.273611	0.264505
639.480214	0.264796
639.686798	0.265135
639.893365	0.265492
640.099913	0.265521
640.306443	0.265653
640.512955	0.266200
640.719449	0.266727
640.925924	0.266862
641.132381	0.267354
641.338820	0.267650
641.545241	0.267758
641.751644	0.267857
641.958028	0.267962
642.164394	0.268072
642.370742	0.267723
642.577071	0.267708
642.783383	0.268241
642.989676	0.268033
643.195951	0.268095
643.402207	0.268183
643.608446	0.268324
643.814666	0.268881
644.020868	0.269236
644.227052	0.269594
644.433218	0.269676
644.639365	0.269639
644.845494	0.269946
645.051605	0.270118
645.257698	0.270291
645.463772	0.270336
645.669828	0.270251
645.875866	0.270225
646.081886	0.270571
646.287888	0.270883
646.493871	0.271099
646.699836	0.271409
646.905783	0.271707
647.111712	0.271814
647.317622	0.272304
647.523514	0.272420
647.729388	0.272547
647.935244	0.272554
648.141082	0.272608
648.346901	0.272848
648.552702	0.272839
648.758485	0.273218
648.964250	0.273364
649.169996	0.273693
649.375724	0.274212
649.581434	0.274506
649.787126	0.274955
649.992800	0.275233
650.198455	0.275712
650.404092	0.276305
650.609711	0.276437
650.815311	0.277032
651.020894	0.277063
651.226458	0.276972
651.432004	0.277272
651.637532	0.277337
651.843041	0.277507
652.048532	0.277441
652.254006	0.277428
652.459460	0.277472
652.664897	0.277469
652.870315	0.277681
653.075716	0.278050
653.281097	0.278176
653.486461	0.278404
653.691807	0.278747
653.897134	0.278910
654.102443	0.279050
654.307734	0.279309
654.513006	0.279535
654.718261	0.279742
654.923497	0.279946
655.128715	0.280197
655.333915	0.280404
655.539096	0.280435
655.744259	0.280556
655.949404	0.280745
656.154531	0.280984
656.359640	0.281144
656.564730	0.281171
656.769802	0.281127
656.974856	0.281413
657.179892	0.281661
657.384909	0.282048
657.589908	0.282103
657.794889	0.282500
657.999852	0.282545
658.204797	0.282704
658.409723	0.282955
658.614631	0.283497
658.819521	0.283630
659.024393	0.283708
659.229246	0.283428
659.434081	0.283829
659.638898	0.284138
659.843697	0.284565
660.048478	0.285160
660.253240	0.285699
660.457984	0.285793
660.662710	0.286040
660.867417	0.286293
661.072107	0.286916
661.276778	0.287095
661.481431	0.287127
661.686066	0.287300
661.890682	0.287414
662.095281	0.287461
662.299861	0.287805
662.504422	0.288016
662.708966	0.288150
662.913491	0.288615
663.117999	0.289156
663.322488	0.289600
663.526958	0.289713
663.731411	0.290067
663.935845	0.290066
664.140261	0.290231
664.344659	0.290538
664.549038	0.290716
664.753400	0.290744
664.957743	0.290728
665.162068	0.290962
665.366375	0.291147
665.570663	0.291138
665.774933	0.291635
665.979185	0.291891
666.183419	0.292159
666.387635	0.292598
666.591832	0.292787
666.796011	0.293130
667.000172	0.293057
667.204315	0.293466
667.408439	0.293961
667.612545	0.294050
667.816634	0.294452
668.020703	0.294755
668.224755	0.295041
668.428788	0.295518
668.632803	0.295873
668.836800	0.296281
669.040779	0.296205
669.244739	0.296288
669.448681	0.296772
669.652605	0.296891
669.856511	0.296979
670.060399	0.297114
670.264268	0.297021
670.468119	0.297062
670.671952	0.297182
670.875767	0.297730
671.079563	0.297839
671.283341	0.298095
671.487101	0.298411
671.690843	0.298451
671.894567	0.298407
672.098272	0.298683
672.301959	0.299113
672.505628	0.299178
672.709278	0.299257
672.912911	0.299487
673.116525	0.299585
673.320121	0.299532
673.523699	0.300153
673.727258	0.300463
673.930799	0.300860
674.134322	0.301090
674.337827	0.301677
674.541314	0.302015
674.744782	0.302327
674.948232	0.302670
675.151664	0.302913
675.355078	0.303107
675.558474	0.303522
675.761851	0.303763
675.965210	0.303826
676.168551	0.304066
676.371873	0.304340
676.575178	0.304638
676.778464	0.304666
676.981732	0.304834
677.184981	0.304968
677.388213	0.305043
677.591426	0.305191
677.794621	0.305318
677.997798	0.305535
678.200956	0.305571
678.404097	0.305628
678.607219	0.305810
678.810323	0.306521
679.013408	0.306836
679.216476	0.307236
679.419525	0.307351
679.622556	0.307689
679.825569	0.308131
680.028563	0.308396
680.231540	0.308655
680.434498	0.309077
680.637438	0.309276
680.840359	0.309268
681.043263	0.309543
681.246148	0.309852
681.449015	0.309978
681.651864	0.309863
681.854694	0.310243
682.057506	0.310577
682.260301	0.310800
682.463076	0.310796
682.665834	0.310904
682.868573	0.311156
683.071295	0.311244
683.273998	0.311456
683.476682	0.311740
683.679349	0.311781
683.881997	0.311858
684.084627	0.312197
684.287239	0.312579
684.489833	0.312976
684.692408	0.313097
684.894965	0.313267
685.097504	0.313459
685.300025	0.313710
685.502527	0.313961
685.705012	0.314031
685.907478	0.314102
686.109925	0.314220
686.312355	0.314432
686.514766	0.314857
686.717159	0.315347
686.919534	0.315865
687.121891	0.316221
687.324230	0.316489
687.526550	0.316975
687.728852	0.317095
687.931136	0.317275
688.133401	0.317553
688.335649	0.318020
688.537878	0.318274
688.740089	0.318443
688.942281	0.318711
689.144456	0.318906
689.346612	0.319070
689.548750	0.319438
689.750870	0.319694
689.952971	0.319994
690.155055	0.319882
690.357120	0.320159
690.559167	0.320167
690.761195	0.320304
690.963206	0.320601
691.165198	0.320864
691.367172	0.320863
691.569128	0.321131
691.771065	0.321129
691.972984	0.321221
692.174885	0.321485
692.376768	0.321768
692.578633	0.321816
692.780479	0.321814
692.982308	0.321911
693.184118	0.322211
693.385909	0.322284
