sample name	sample
index	672
start time	 03-22-2021  11:18:07 AM


Wavelength (nm)	Absorbance
494.344910	0.486558
494.563924	0.486558
494.782919	0.486558
495.001897	0.292226
495.220856	0.038686
495.439797	-0.022728
495.658719	-0.089991
495.877624	-0.103116
496.096510	-0.089775
496.315378	-0.125401
496.534227	-0.083311
496.753059	-0.030198
496.971872	-0.044916
497.190667	0.046525
497.409444	0.060842
497.628203	0.067026
497.846943	0.070135
498.065665	0.068961
498.284369	0.068303
498.503055	0.069923
498.721723	0.070082
498.940372	0.070218
499.159003	0.070370
499.377616	0.070845
499.596210	0.070482
499.814787	0.069235
500.033345	0.069795
500.251885	0.070556
500.470406	0.070663
500.688910	0.069951
500.907395	0.069275
501.125862	0.068787
501.344311	0.068666
501.562742	0.069069
501.781154	0.069690
501.999548	0.068908
502.217924	0.068425
502.436282	0.068123
502.654621	0.069234
502.872942	0.069820
503.091245	0.069557
503.309530	0.069191
503.527797	0.069482
503.746045	0.069334
503.964275	0.070244
504.182487	0.071017
504.400681	0.071054
504.618856	0.070688
504.837013	0.070643
505.055152	0.071152
505.273273	0.071675
505.491376	0.071594
505.709460	0.071265
505.927526	0.071096
506.145574	0.070790
506.363604	0.070014
506.581615	0.070228
506.799608	0.069641
507.017583	0.069978
507.235540	0.069748
507.453478	0.069826
507.671399	0.069530
507.889301	0.069711
508.107185	0.069669
508.325050	0.070288
508.542898	0.069619
508.760727	0.070188
508.978538	0.069990
509.196330	0.069827
509.414105	0.069078
509.631861	0.069371
509.849599	0.068846
510.067319	0.068900
510.285021	0.069137
510.502704	0.069083
510.720369	0.069286
510.938016	0.069019
511.155645	0.069381
511.373255	0.069389
511.590848	0.069570
511.808422	0.069838
512.025977	0.070075
512.243515	0.069689
512.461034	0.070157
512.678536	0.070374
512.896018	0.070140
513.113483	0.069674
513.330930	0.070175
513.548358	0.070074
513.765768	0.069537
513.983160	0.069169
514.200533	0.068905
514.417889	0.068830
514.635226	0.068537
514.852545	0.068874
515.069845	0.069322
515.287128	0.068915
515.504392	0.069011
515.721638	0.069189
515.938866	0.069139
516.156075	0.069291
516.373267	0.069090
516.590440	0.069624
516.807594	0.069765
517.024731	0.068838
517.241850	0.069543
517.458950	0.069680
517.676032	0.070230
517.893095	0.070429
518.110141	0.070983
518.327168	0.070836
518.544177	0.070261
518.761168	0.070472
518.978141	0.071075
519.195095	0.070640
519.412031	0.070625
519.628949	0.070514
519.845849	0.070237
520.062731	0.070224
520.279594	0.070130
520.496439	0.070170
520.713266	0.069814
520.930074	0.070256
521.146865	0.070563
521.363637	0.070671
521.580391	0.070452
521.797127	0.071142
522.013844	0.070950
522.230543	0.071284
522.447224	0.071171
522.663887	0.071774
522.880532	0.071463
523.097158	0.071069
523.313766	0.070965
523.530356	0.071470
523.746928	0.071235
523.963481	0.071623
524.180017	0.071454
524.396534	0.071893
524.613032	0.071355
524.829513	0.071442
525.045975	0.071533
525.262420	0.071895
525.478845	0.071581
525.695253	0.071437
525.911643	0.070987
526.128014	0.071647
526.344367	0.071217
526.560702	0.071303
526.777018	0.071483
526.993316	0.071323
527.209597	0.071209
527.425858	0.071090
527.642102	0.071808
527.858328	0.071906
528.074535	0.071946
528.290724	0.072558
528.506894	0.072640
528.723047	0.072141
528.939181	0.072808
529.155297	0.073095
529.371395	0.073625
529.587475	0.073456
529.803536	0.073643
530.019579	0.073561
530.235604	0.073380
530.451611	0.073493
530.667600	0.074191
530.883570	0.074010
531.099522	0.073628
531.315456	0.073592
531.531372	0.073203
531.747269	0.072603
531.963148	0.072592
532.179009	0.072504
532.394852	0.072668
532.610676	0.072718
532.826482	0.072638
533.042271	0.072483
533.258040	0.072626
533.473792	0.072727
533.689525	0.073546
533.905240	0.073800
534.120937	0.073842
534.336616	0.073932
534.552277	0.073880
534.767919	0.073933
534.983543	0.074085
535.199149	0.073642
535.414736	0.073931
535.630306	0.073527
535.845857	0.073667
536.061390	0.073787
536.276904	0.073164
536.492401	0.073439
536.707879	0.073679
536.923339	0.074156
537.138781	0.074617
537.354204	0.074617
537.569610	0.074894
537.784997	0.074807
538.000366	0.074420
538.215716	0.074905
538.431049	0.074598
538.646363	0.074187
538.861659	0.073535
539.076937	0.074035
539.292196	0.074452
539.507438	0.074427
539.722661	0.074765
539.937866	0.075569
540.153052	0.075576
540.368221	0.076193
540.583371	0.076834
540.798503	0.077378
541.013617	0.076788
541.228712	0.076479
541.443789	0.076472
541.658848	0.076230
541.873889	0.076029
542.088912	0.076390
542.303916	0.075792
542.518902	0.075802
542.733870	0.075660
542.948820	0.075992
543.163752	0.076023
543.378665	0.076195
543.593560	0.075973
543.808437	0.076069
544.023295	0.075877
544.238136	0.075803
544.452958	0.075694
544.667762	0.076084
544.882548	0.076076
545.097315	0.076526
545.312064	0.076778
545.526795	0.077003
545.741508	0.076825
545.956203	0.077299
546.170879	0.077938
546.385537	0.078217
546.600177	0.078047
546.814799	0.078016
547.029402	0.077684
547.243988	0.077762
547.458555	0.077626
547.673103	0.077637
547.887634	0.077547
548.102146	0.077369
548.316640	0.077092
548.531116	0.077427
548.745574	0.077012
548.960013	0.076803
549.174435	0.076826
549.388838	0.077088
549.603222	0.077235
549.817589	0.076916
550.031937	0.076946
550.246267	0.076929
550.460579	0.076622
550.674873	0.076866
550.889148	0.076895
551.103405	0.077097
551.317644	0.077174
551.531865	0.077303
551.746068	0.077718
551.960252	0.077310
552.174418	0.077169
552.388566	0.077290
552.602696	0.077464
552.816807	0.077695
553.030900	0.077439
553.244975	0.077471
553.459032	0.077368
553.673070	0.077520
553.887091	0.077732
554.101093	0.078244
554.315077	0.078479
554.529042	0.078438
554.742990	0.078635
554.956919	0.078499
555.170830	0.078755
555.384722	0.079126
555.598597	0.078526
555.812453	0.078770
556.026291	0.078480
556.240111	0.078489
556.453913	0.078837
556.667696	0.078745
556.881461	0.078841
557.095208	0.078298
557.308937	0.078317
557.522647	0.078594
557.736339	0.078333
557.950013	0.078679
558.163669	0.078682
558.377307	0.078372
558.590926	0.078903
558.804527	0.079147
559.018110	0.079786
559.231675	0.079775
559.445221	0.079914
559.658749	0.080319
559.872259	0.080325
560.085751	0.080317
560.299225	0.080794
560.512680	0.080485
560.726117	0.080494
560.939536	0.080479
561.152937	0.080462
561.366319	0.080439
561.579683	0.080561
561.793029	0.080640
562.006357	0.080952
562.219667	0.080570
562.432958	0.080686
562.646231	0.080497
562.859486	0.079913
563.072723	0.079535
563.285941	0.079723
563.499141	0.079247
563.712323	0.079117
563.925487	0.078748
564.138632	0.078887
564.351760	0.078776
564.564869	0.079091
564.777960	0.079804
564.991032	0.080090
565.204087	0.080272
565.417123	0.080829
565.630141	0.080872
565.843140	0.081192
566.056122	0.081209
566.269085	0.081210
566.482030	0.081079
566.694957	0.080879
566.907866	0.080900
567.120756	0.080707
567.333628	0.080747
567.546482	0.080676
567.759318	0.080503
567.972135	0.080485
568.184935	0.080442
568.397716	0.080616
568.610478	0.080633
568.823223	0.080886
569.035949	0.081136
569.248657	0.080993
569.461347	0.081277
569.674019	0.081239
569.886672	0.081267
570.099308	0.081232
570.311925	0.081192
570.524523	0.081307
570.737104	0.081151
570.949666	0.081197
571.162210	0.081011
571.374736	0.080767
571.587244	0.080823
571.799733	0.080953
572.012205	0.081133
572.224658	0.081227
572.437092	0.080900
572.649509	0.080865
572.861907	0.080751
573.074287	0.081431
573.286649	0.081655
573.498993	0.081554
573.711318	0.081677
573.923625	0.081551
574.135914	0.081773
574.348185	0.081818
574.560438	0.082030
574.772672	0.082148
574.984888	0.081881
575.197086	0.081935
575.409266	0.082031
575.621427	0.082060
575.833570	0.082404
576.045695	0.082252
576.257802	0.082088
576.469890	0.082010
576.681961	0.081994
576.894013	0.082275
577.106046	0.082202
577.318062	0.082319
577.530059	0.082103
577.742039	0.081843
577.954000	0.081877
578.165942	0.082128
578.377867	0.082180
578.589773	0.081905
578.801661	0.081291
579.013531	0.081209
579.225382	0.081326
579.437216	0.081561
579.649031	0.081778
579.860828	0.081672
580.072606	0.081906
580.284367	0.082153
580.496109	0.082498
580.707833	0.082744
580.919539	0.083329
581.131227	0.083510
581.342896	0.083733
581.554547	0.084078
581.766180	0.084170
581.977795	0.084190
582.189391	0.083964
582.400969	0.083927
582.612529	0.084016
582.824071	0.083620
583.035595	0.083633
583.247100	0.083436
583.458587	0.082993
583.670056	0.083012
583.881506	0.083015
584.092939	0.083218
584.304353	0.083221
584.515749	0.083067
584.727127	0.083436
584.938486	0.083327
585.149828	0.083281
585.361151	0.083435
585.572456	0.083201
585.783742	0.083072
585.995011	0.082907
586.206261	0.082872
586.417493	0.083282
586.628706	0.082935
586.839902	0.082727
587.051079	0.082734
587.262238	0.082503
587.473379	0.082974
587.684502	0.083254
587.895606	0.083473
588.106692	0.083778
588.317760	0.083497
588.528810	0.083783
588.739841	0.084173
588.950855	0.084321
589.161850	0.084588
589.372827	0.084346
589.583785	0.084655
589.794726	0.085031
590.005648	0.084912
590.216552	0.084665
590.427437	0.084657
590.638305	0.084653
590.849154	0.084684
591.059985	0.084753
591.270798	0.084920
591.481592	0.084651
591.692369	0.084574
591.903127	0.084580
592.113867	0.085079
592.324588	0.085181
592.535292	0.085278
592.745977	0.085447
592.956644	0.085445
593.167293	0.085404
593.377923	0.085547
593.588536	0.085100
593.799130	0.085103
594.009706	0.085107
594.220263	0.085114
594.430803	0.085269
594.641324	0.085428
594.851827	0.085411
595.062312	0.085705
595.272778	0.085717
595.483227	0.086030
595.693657	0.086250
595.904069	0.086236
596.114462	0.086011
596.324838	0.085848
596.535195	0.085748
596.745534	0.085865
596.955855	0.085896
597.166157	0.085678
597.376441	0.085929
597.586707	0.086004
597.796955	0.086323
598.007185	0.086745
598.217396	0.086639
598.427589	0.086499
598.637764	0.086665
598.847921	0.086466
599.058060	0.086561
599.268180	0.086442
599.478282	0.086403
599.688366	0.086118
599.898431	0.085891
600.108479	0.086191
600.318508	0.086480
600.528519	0.086594
600.738511	0.086634
600.948486	0.086871
601.158442	0.086861
601.368380	0.086846
601.578300	0.087337
601.788202	0.087657
601.998085	0.087724
602.207950	0.087516
602.417797	0.087350
602.627626	0.087424
602.837436	0.087324
603.047228	0.087350
603.257002	0.087260
603.466758	0.086865
603.676496	0.086467
603.886215	0.086359
604.095916	0.086560
604.305599	0.086412
604.515264	0.086547
604.724910	0.086755
604.934538	0.086833
605.144148	0.086744
605.353740	0.086796
605.563314	0.086890
605.772869	0.086903
605.982406	0.086785
606.191925	0.087192
606.401425	0.087063
606.610908	0.087022
606.820372	0.086954
607.029818	0.087253
607.239246	0.087353
607.448655	0.087083
607.658047	0.086952
607.867420	0.086960
608.076775	0.086832
608.286111	0.086819
608.495430	0.086891
608.704730	0.086879
608.914012	0.086917
609.123275	0.086886
609.332521	0.086800
609.541748	0.087114
609.750957	0.087157
609.960148	0.087060
610.169321	0.087044
610.378475	0.087011
610.587611	0.086874
610.796729	0.086740
611.005829	0.086588
611.214910	0.087169
611.423974	0.086996
611.633019	0.087157
611.842045	0.087090
612.051054	0.087309
612.260044	0.087254
612.469017	0.087499
612.677970	0.087625
612.886906	0.087751
613.095824	0.087452
613.304723	0.087493
613.513604	0.087292
613.722467	0.087378
613.931311	0.087403
614.140138	0.087365
614.348946	0.087096
614.557736	0.086920
614.766507	0.086848
614.975261	0.087198
615.183996	0.087041
615.392713	0.087296
615.601412	0.087197
615.810092	0.087076
616.018754	0.087366
616.227399	0.087603
616.436024	0.087534
616.644632	0.087772
616.853222	0.087754
617.061793	0.087766
617.270346	0.087613
617.478880	0.087801
617.687397	0.088001
617.895895	0.087730
618.104375	0.087745
618.312837	0.087899
618.521281	0.087850
618.729706	0.087719
618.938113	0.087955
619.146502	0.087994
619.354873	0.088229
619.563226	0.088196
619.771560	0.088177
619.979876	0.088304
620.188174	0.088308
620.396453	0.088424
620.604715	0.088576
620.812958	0.088549
621.021183	0.088853
621.229390	0.088854
621.437578	0.088587
621.645748	0.088676
621.853900	0.088746
622.062034	0.089098
622.270150	0.089162
622.478247	0.089192
622.686326	0.089102
622.894387	0.088926
623.102430	0.088649
623.310454	0.088835
623.518461	0.088981
623.726449	0.088861
623.934418	0.088615
624.142370	0.088755
624.350303	0.088760
624.558218	0.088846
624.766115	0.088939
624.973994	0.089111
625.181855	0.089182
625.389697	0.089154
625.597521	0.089307
625.805327	0.089538
626.013114	0.089451
626.220883	0.089534
626.428634	0.089729
626.636367	0.089732
626.844082	0.089743
627.051778	0.089886
627.259457	0.089982
627.467117	0.089909
627.674758	0.089889
627.882382	0.089956
628.089987	0.089814
628.297574	0.089630
628.505143	0.089786
628.712694	0.089889
628.920226	0.089977
629.127740	0.089879
629.335236	0.089669
629.542714	0.089615
629.750174	0.089362
629.957615	0.089387
630.165038	0.089367
630.372443	0.089094
630.579829	0.088857
630.787198	0.088584
630.994548	0.088622
631.201880	0.088752
631.409194	0.088995
631.616489	0.089315
631.823766	0.089272
632.031025	0.089408
632.238266	0.089578
632.445489	0.089742
632.652693	0.089947
632.859879	0.089991
633.067047	0.090078
633.274197	0.089729
633.481329	0.089503
633.688442	0.089716
633.895537	0.089672
634.102614	0.089652
634.309672	0.089801
634.516713	0.089720
634.723735	0.089793
634.930739	0.089727
635.137724	0.090228
635.344692	0.090384
635.551641	0.090337
635.758572	0.090609
635.965485	0.090668
636.172379	0.090741
636.379256	0.090778
636.586114	0.090841
636.792954	0.090990
636.999775	0.090659
637.206579	0.090623
637.413364	0.090684
637.620131	0.090603
637.826880	0.090607
638.033610	0.090443
638.240323	0.090549
638.447017	0.090402
638.653692	0.090457
638.860350	0.090591
639.066990	0.090469
639.273611	0.090389
639.480214	0.090240
639.686798	0.090184
639.893365	0.090223
640.099913	0.090190
640.306443	0.090336
640.512955	0.090232
640.719449	0.090225
640.925924	0.090433
641.132381	0.090604
641.338820	0.090690
641.545241	0.090860
641.751644	0.090873
641.958028	0.090902
642.164394	0.090920
642.370742	0.091150
642.577071	0.091345
642.783383	0.091259
642.989676	0.091370
643.195951	0.091406
643.402207	0.091501
643.608446	0.091604
643.814666	0.091634
644.020868	0.091691
644.227052	0.091642
644.433218	0.091309
644.639365	0.091496
644.845494	0.091428
645.051605	0.091726
645.257698	0.091660
645.463772	0.091767
645.669828	0.091906
645.875866	0.092030
646.081886	0.092019
646.287888	0.092217
646.493871	0.092320
646.699836	0.092361
646.905783	0.092384
647.111712	0.092437
647.317622	0.092539
647.523514	0.092714
647.729388	0.092624
647.935244	0.092832
648.141082	0.092824
648.346901	0.092889
648.552702	0.093108
648.758485	0.093002
648.964250	0.092879
649.169996	0.092839
649.375724	0.092692
649.581434	0.092586
649.787126	0.092343
649.992800	0.092379
650.198455	0.092180
650.404092	0.091893
650.609711	0.091901
650.815311	0.091949
651.020894	0.091812
651.226458	0.091742
651.432004	0.091791
651.637532	0.091839
651.843041	0.091675
652.048532	0.091685
652.254006	0.091650
652.459460	0.091622
652.664897	0.091705
652.870315	0.091822
653.075716	0.091935
653.281097	0.092084
653.486461	0.091941
653.691807	0.091942
653.897134	0.091927
654.102443	0.092136
654.307734	0.092363
654.513006	0.092356
654.718261	0.092465
654.923497	0.092293
655.128715	0.092323
655.333915	0.092675
655.539096	0.092831
655.744259	0.093002
655.949404	0.093036
656.154531	0.092869
656.359640	0.093097
656.564730	0.093199
656.769802	0.093513
656.974856	0.093592
657.179892	0.093772
657.384909	0.093894
657.589908	0.093823
657.794889	0.094051
657.999852	0.094373
658.204797	0.094466
658.409723	0.094529
658.614631	0.094419
658.819521	0.094314
659.024393	0.094168
659.229246	0.094440
659.434081	0.094612
659.638898	0.094591
659.843697	0.094557
660.048478	0.094549
660.253240	0.094542
660.457984	0.094691
660.662710	0.094984
660.867417	0.095074
661.072107	0.094812
661.276778	0.094865
661.481431	0.094870
661.686066	0.094862
661.890682	0.094765
662.095281	0.094594
662.299861	0.094506
662.504422	0.094333
662.708966	0.094094
662.913491	0.094306
663.117999	0.094326
663.322488	0.094200
663.526958	0.093889
663.731411	0.093767
663.935845	0.093852
664.140261	0.093783
664.344659	0.093797
664.549038	0.094158
664.753400	0.093963
664.957743	0.093797
665.162068	0.093795
665.366375	0.093892
665.570663	0.093908
665.774933	0.093977
665.979185	0.094042
666.183419	0.094233
666.387635	0.094069
666.591832	0.094157
666.796011	0.094317
667.000172	0.094393
667.204315	0.094510
667.408439	0.094730
667.612545	0.094695
667.816634	0.094880
668.020703	0.094791
668.224755	0.094887
668.428788	0.094908
668.632803	0.094961
668.836800	0.094875
669.040779	0.094913
669.244739	0.094793
669.448681	0.094788
669.652605	0.094838
669.856511	0.094665
670.060399	0.094773
670.264268	0.094973
670.468119	0.095005
670.671952	0.095198
670.875767	0.095321
671.079563	0.095431
671.283341	0.095717
671.487101	0.095712
671.690843	0.096164
671.894567	0.096241
672.098272	0.096227
672.301959	0.096428
672.505628	0.096497
672.709278	0.096662
672.912911	0.096582
673.116525	0.096619
673.320121	0.096603
673.523699	0.096556
673.727258	0.096487
673.930799	0.096409
674.134322	0.096260
674.337827	0.096184
674.541314	0.095972
674.744782	0.095983
674.948232	0.095840
675.151664	0.096055
675.355078	0.096015
675.558474	0.096064
675.761851	0.096393
675.965210	0.096377
676.168551	0.096470
676.371873	0.096596
676.575178	0.096815
676.778464	0.096775
676.981732	0.096535
677.184981	0.096465
677.388213	0.096524
677.591426	0.096270
677.794621	0.096397
677.997798	0.096211
678.200956	0.096153
678.404097	0.096109
678.607219	0.096262
678.810323	0.096391
679.013408	0.096567
679.216476	0.096673
679.419525	0.096721
679.622556	0.096603
679.825569	0.096836
680.028563	0.096923
680.231540	0.097047
680.434498	0.097019
680.637438	0.097040
680.840359	0.097047
681.043263	0.096880
681.246148	0.097039
681.449015	0.097280
681.651864	0.097379
681.854694	0.097537
682.057506	0.097615
682.260301	0.097752
682.463076	0.098004
682.665834	0.098007
682.868573	0.098216
683.071295	0.098090
683.273998	0.098130
683.476682	0.097896
683.679349	0.097683
683.881997	0.097491
684.084627	0.097207
684.287239	0.096785
684.489833	0.096619
684.692408	0.096594
684.894965	0.096607
685.097504	0.096598
685.300025	0.096834
685.502527	0.096812
685.705012	0.096939
685.907478	0.097166
686.109925	0.097415
686.312355	0.097595
686.514766	0.097581
686.717159	0.097638
686.919534	0.097749
687.121891	0.097871
687.324230	0.098132
687.526550	0.098291
687.728852	0.098339
687.931136	0.098473
688.133401	0.098427
688.335649	0.098366
688.537878	0.098333
688.740089	0.098343
688.942281	0.098207
689.144456	0.098254
689.346612	0.098143
689.548750	0.098090
689.750870	0.098072
689.952971	0.098124
690.155055	0.098205
690.357120	0.098375
690.559167	0.098300
690.761195	0.098327
690.963206	0.098218
691.165198	0.098249
691.367172	0.098244
691.569128	0.098113
691.771065	0.098152
691.972984	0.098196
692.174885	0.098260
692.376768	0.098291
692.578633	0.098324
692.780479	0.098440
692.982308	0.098605
693.184118	0.098727
693.385909	0.098790
