sample name	sample
index	1085
start time	 04-22-2021  11:27:37 AM
880	0.479050
Peak Time (s)	102.037
Peak Height 	0.479
calc peak height	100,103
Baseline Time (s)	9.036
Baseline Value 	-0.003345
subtract baseline	10,4
Abs	0.347300
Peak Time (s)	101.039
Peak Height 	0.3473
calc peak height	100,103
Baseline Time (s)	9.536
Baseline Value 	0.001722
subtract baseline	10,3
PK_550	0.198449
Peak Time (s)	102.037
Peak Height 	0.1984
calc peak height	100,103
Baseline Time (s)	10.037
Baseline Value 	2.5624E-4
subtract baseline	10,2
PK_880	0.331799
Peak Time (s)	102.037
Peak Height 	0.3318
calc peak height	100,103
Baseline Time (s)	8.536
Baseline Value 	4.3613E-5
subtract baseline	10,1


Time (s)	A880-A510	A880-A775	A880-A975	A880	I510	I775	I975	I880	
0.036000	-0.000464	0.000376	-0.003508	0.005326	6224.763454	42979.944594	3875.218947	22539.391414
0.536500	-0.002628	-0.001702	0.000025	0.005857	6204.187847	42740.115649	3882.192831	22515.370320
1.036500	-0.001803	-0.000530	-0.001433	0.004022	6224.495314	43016.618741	3883.071955	22598.439420
1.537000	0.000995	-0.000368	-0.002960	0.001140	6268.262161	43298.438209	3886.240511	22729.598084
2.040000	-0.002254	0.000924	-0.003389	0.004837	6214.819953	43075.604155	3876.627086	22561.517160
2.537500	0.000026	-0.000352	-0.004832	0.002312	6251.694766	43191.144665	3879.137335	22676.145078
3.037000	0.001425	-0.000515	0.003978	-0.002117	6296.982602	43588.363101	3910.389261	22878.866101
3.535000	-0.000847	0.000042	-0.000417	0.000221	6261.106384	43422.000131	3894.376479	22771.566337
4.034500	-0.001849	0.000058	-0.003548	0.003647	6227.009710	43105.524683	3879.019076	22615.439093
4.535500	0.000828	0.000398	-0.000096	-0.000021	6275.981194	43477.841402	3895.707671	22782.675685
5.036000	0.001267	-0.000559	-0.001206	-0.000549	6283.504718	43437.824348	3894.330948	22806.842429
5.536500	0.000683	0.000353	-0.004010	-0.000187	6276.144044	43489.081485	3886.887783	22790.263100
6.036500	0.001354	-0.000742	-0.001686	-0.000685	6285.244834	43433.432660	3893.520937	22813.102812
6.539500	0.002764	0.000395	-0.006665	-0.000056	6291.332746	43480.798742	3880.382287	22784.259401
7.037500	-0.002046	0.000200	-0.000729	-0.000238	6255.392593	43479.638028	3894.723216	22792.607525
7.534500	0.001028	-0.000319	-0.000088	-0.001168	6286.469521	43517.902805	3898.438515	22835.234332
8.035500	0.001048	-0.000176	0.003970	-0.000490	6281.344135	43468.048137	3906.477552	22804.158847
8.535500	0.000000	0.000322	0.002782	-0.000191	6270.868852	43486.602952	3902.933547	22790.450864
9.036000	0.003035	0.000874	-0.004543	0.000000	6293.019155	43520.277022	3885.202194	22781.702575
9.535500	0.000801	0.000513	0.000000	0.000050	6275.219365	43481.932301	3895.764769	22779.400112
10.036500	-0.001067	0.000000	-0.003106	0.000129	6260.114262	43426.682319	3888.267002	22775.784242
10.536500	-0.003635	-0.000247	-0.003653	0.003488	6214.574097	43092.102553	3879.145753	22622.674719
11.037000	-0.002202	-0.000470	0.002145	-0.000630	6257.208156	43453.595281	3902.461717	22810.557029
11.537000	0.000030	-0.000241	0.000901	-0.000696	6275.021534	43481.190901	3899.665581	22813.586388
12.037500	-0.000685	-0.000828	0.001445	-0.001319	6274.307631	43484.491841	3902.435346	22842.160305
12.534500	-0.002808	-0.000504	-0.003624	0.002600	6227.687990	43150.472894	3881.280191	22663.047975
13.035000	0.003875	0.000233	-0.001545	-0.001038	6307.724988	43557.446637	3894.688271	22829.296173
13.535500	0.000480	-0.000232	0.002201	-0.000699	6278.542825	43482.230069	3902.759550	22813.711822
14.036000	-0.003337	-0.000346	0.002096	0.002304	6225.904888	43192.462338	3895.394226	22676.534322
14.536000	-0.002308	0.000355	0.001102	0.002692	6230.815693	43221.468650	3892.132492	22658.835271
15.036000	-0.000015	0.000587	0.001518	-0.000543	6273.483201	43544.159640	3900.765679	22806.570109
15.536500	0.000211	-0.000273	-0.002745	-0.000751	6276.857305	43483.266691	3891.182360	22816.104165
16.039500	0.000372	-0.000555	0.007700	-0.001565	6284.452323	43532.985219	3918.014462	22853.477572
16.537500	-0.000558	0.000179	0.001905	0.003582	6237.421553	43122.781362	3891.927906	22618.420565
17.037500	0.003680	0.000410	0.001986	-0.003842	6328.258054	43837.085743	3909.748978	22958.362852
17.534500	-0.000851	0.000118	-0.003936	0.000304	6260.437147	43421.369018	3885.912193	22767.790467
18.035000	-0.002319	-0.000335	0.000822	0.000359	6248.675366	43374.080903	3896.977721	22765.284507
18.536000	-0.000441	-0.000192	0.003321	0.000699	6260.550737	43355.792582	3902.100108	22749.738268
19.036000	0.002139	0.000200	0.000147	0.000622	6281.173775	43399.428284	3894.760931	22753.244498
19.536500	-0.001442	-0.000617	0.003857	0.000485	6254.469051	43336.183091	3903.885176	22759.523800
20.035500	0.001010	-0.000166	-0.001847	0.000415	6274.001101	43384.596231	3890.550873	22762.709846
20.537000	-0.001865	-0.000386	0.000026	0.000386	6251.967204	43366.848002	3895.032082	22764.036221
21.037000	-0.000972	0.000158	-0.002849	0.000832	6255.420064	43375.945461	3887.221076	22743.642368
21.537000	0.000675	0.000452	-0.001145	0.000912	6267.551025	43395.839977	3891.034804	22740.001257
22.035000	0.002173	0.001351	-0.001204	0.001540	6274.299083	43421.088242	3889.419223	22711.318688
22.535000	0.001012	-0.000500	0.000006	0.000797	6271.050873	43318.037410	3894.015609	22745.247263
23.035500	0.000693	0.000776	0.002150	0.000899	6267.787148	43427.222557	3898.843331	22740.571559
23.535500	0.001189	-0.000113	-0.001544	0.000660	6273.498222	43366.821708	3890.689720	22751.535287
24.035500	-0.002449	-0.000437	0.001656	0.000298	6248.139185	43370.318040	3899.098715	22768.075779
24.536500	0.000227	-0.000360	-0.000548	0.001227	6261.634758	43291.042471	3891.696123	22725.595919
25.036500	-0.002030	0.000336	-0.003502	0.000742	6247.941107	43400.862578	3885.902191	22747.745067
25.540000	0.000209	0.000616	0.003851	0.000748	6265.209015	43426.462609	3903.242637	22747.497891
26.037000	-0.000759	-0.000631	-0.003323	0.000454	6259.991235	43337.725564	3886.996661	22760.937587
26.537500	-0.002156	-0.000014	-0.002082	0.001002	6244.974129	43344.160119	3888.621623	22735.889148
27.035000	-0.000607	0.000530	0.003377	-0.001427	6275.751939	43621.618186	3907.299355	22847.135673
27.535000	0.002974	0.000757	0.005314	-0.001282	6302.562398	43629.236325	3911.588751	22840.456236
28.035500	-0.001804	0.000094	0.001914	0.005484	6213.318085	42939.405393	3887.483362	22532.261347
28.536000	0.000391	-0.000266	-0.001893	-0.001151	6281.371508	43521.301047	3894.132594	22834.474556
29.039000	0.001521	0.000280	0.003056	-0.000445	6284.676341	43506.381615	3904.190221	22802.089538
29.536000	0.001502	0.000632	-0.000931	-0.000422	6284.343723	43537.034680	3894.679785	22801.011753
30.037000	-0.003428	-0.000691	-0.005082	0.004391	6209.265109	42967.766876	3873.739063	22581.695370
30.536500	-0.001265	0.001022	0.001656	0.002319	6241.694495	43317.985041	3894.316816	22675.821624
31.037500	-0.002439	0.000218	-0.007601	0.001642	6237.874925	43306.191152	3874.270021	22706.676405
31.534500	0.001275	0.000110	0.001827	-0.000643	6284.303405	43508.959027	3901.738343	22811.157103
32.035000	-0.003004	-0.000630	0.002332	0.004088	6214.806416	43001.344247	3891.741206	22595.444383
32.535500	0.000737	0.000655	0.001445	0.000144	6273.984796	43486.377987	3898.961745	22775.090280
33.036000	0.001344	0.000344	0.001137	-0.001130	6288.633463	43576.317677	3901.254344	22833.484781
33.538500	0.000551	-0.000154	-0.004395	0.000024	6273.471541	43422.104961	3885.492504	22780.581951
34.036000	-0.001545	-0.000706	0.000069	0.001472	6246.058645	43236.217480	3892.572321	22714.425447
34.536500	-0.000494	-0.001068	0.001003	0.001135	6256.771731	43233.876716	3895.572285	22729.823241
35.039500	-0.000635	0.000235	0.001350	0.001445	6253.282457	43326.101799	3895.657786	22715.661460
35.537000	-0.001865	-0.000242	-0.001134	0.000841	6248.460291	43337.922495	3891.227598	22743.256675
36.037000	0.001010	0.000771	-0.004624	0.002479	6258.003830	43279.839851	3879.233440	22668.540638
36.534500	-0.000349	-0.000117	0.000811	0.001588	6254.390343	43280.090983	3894.049125	22709.133392
37.035000	-0.001208	0.000932	-0.003605	0.002352	6241.874935	43306.576555	3881.901316	22674.326015
37.535500	-0.001767	-0.000513	-0.001273	0.000895	6248.794737	43307.689075	3890.771021	22740.754809
38.036000	-0.000646	-0.000098	-0.003075	0.001290	6254.393949	43309.544624	3885.620075	22722.730555
38.536000	-0.001467	-0.000245	-0.004913	0.001281	6248.130786	43296.701569	3881.348943	22723.129246
39.036000	-0.000690	-0.000038	-0.001308	0.001456	6252.776218	43299.722593	3889.371971	22715.178212
39.539500	0.001484	-0.000336	0.001985	0.001452	6269.633295	43272.385080	3897.143386	22715.324106
40.037000	0.001254	0.000456	0.004600	0.001847	6264.786375	43309.290948	3902.410024	22697.335199
40.537000	-0.001274	0.000205	0.001774	0.002265	6242.034623	43247.131358	3894.724042	22678.276382
41.037500	-0.000016	-0.000113	-0.001399	0.001073	6260.948969	43328.286556	3890.058009	22732.631690
41.534500	-0.002227	-0.001035	-0.002788	0.000657	6247.083179	43281.296612	3887.773225	22751.636685
42.035000	0.000108	0.000184	-0.003625	0.002333	6252.163010	43238.900855	3881.899216	22675.184966
42.535500	-0.000353	0.000973	0.002245	0.002260	6249.178541	43319.010274	3895.850046	22678.532731
43.036000	-0.000236	0.000116	0.006365	0.001324	6257.308356	43326.328339	3907.867581	22721.195963
43.536000	0.001455	-0.000957	0.002016	-0.004400	6315.117925	43760.924674	3911.157339	22984.132840
44.036500	0.001414	0.000518	0.004215	-0.000305	6282.754697	43515.545652	3906.623008	22795.691241
44.536500	-0.000877	-0.000185	0.000002	0.003650	6234.440593	43082.831234	3887.298538	22615.302769
45.037000	0.001454	0.000547	0.000854	0.000046	6280.324296	43485.419972	3897.794032	22779.596360
45.537500	0.001533	0.000101	0.005254	-0.000155	6282.508396	43462.567220	3908.747084	22788.799348
46.034500	-0.002815	-0.000544	-0.006811	0.003625	6219.783477	43051.937439	3871.513253	22616.433108
46.535500	-0.002868	0.000357	-0.002500	0.004666	6211.439131	43039.028337	3879.088344	22569.265903
47.035500	-0.001505	-0.000565	-0.002047	0.001428	6246.701992	43253.334925	3887.702597	22716.420067
47.536000	-0.000898	-0.000287	0.001307	0.001335	6252.102929	43287.754496	3895.816841	22720.668622
48.036000	-0.002514	-0.000370	-0.001700	0.004119	6218.318023	43022.476858	3882.223713	22594.057031
48.536500	-0.002086	-0.000386	-0.006031	0.004380	6219.589104	42996.901290	3871.571711	22582.206740
49.039500	0.001400	0.000451	0.002557	-0.000617	6285.073584	43538.465989	3903.413346	22809.980831
49.537000	0.000620	0.000782	0.000806	-0.002664	6294.965255	43761.211382	3904.117785	22904.030081
50.034500	-0.001396	-0.000936	0.001514	0.008850	6190.819353	42536.710270	3878.691275	22380.669390
50.537000	0.020693	-0.007500	0.025377	0.380320	4371.983411	19530.020351	3322.799764	11182.641305
51.035000	0.010159	-0.011936	-0.010123	0.139966	5398.837935	31489.925533	3595.985421	17304.453951
51.535500	-0.010550	-0.024217	-0.028031	-0.129738	7333.449689	54573.078501	4166.719746	29703.079310
52.035000	-0.017333	-0.055464	-0.018814	-0.231547	8417.865209	63679.630134	4544.584248	36783.639259
52.536000	-0.002303	-0.035176	-0.002835	-0.200161	8213.914530	62147.550714	4486.203145	34421.352360
53.036000	0.005211	-0.011518	0.008957	-0.110558	7298.701466	53808.588781	4221.016710	28545.218185
53.536500	0.012869	-0.007368	0.016365	-0.074307	7018.413790	50185.276368	4134.176530	26491.575672
54.036500	0.009771	-0.006948	0.010494	-0.083606	7077.634514	51254.137959	4144.196647	27002.108296
54.537000	0.017825	-0.004886	0.018012	-0.105766	7378.637326	54024.504254	4234.346657	28263.769788
55.037500	0.023978	-0.001175	0.024178	-0.103940	7423.487551	54246.621536	4248.053844	28157.386847
55.535000	0.037318	0.004865	0.033596	-0.088838	7405.161067	53187.453123	4230.129765	27294.211861
56.035000	0.044228	0.012851	0.050188	-0.055386	7138.070488	50326.639859	4178.321569	25485.873918
56.535500	0.059611	0.021282	0.056756	-0.036820	7107.122269	49233.960415	4142.661093	24540.729375
57.036000	0.072288	0.030281	0.068830	-0.006483	6939.461900	47014.980723	4090.231772	23080.677122
57.536000	0.084923	0.038224	0.081599	0.029633	6726.859851	44247.559114	4026.342556	21470.460545
58.036500	0.094888	0.046211	0.089117	0.074740	6429.384457	40864.776103	3930.429669	19638.566015
58.539500	0.112209	0.056794	0.112287	0.111768	6272.810308	38625.223686	3897.111902	18270.676563
59.037000	0.124584	0.062618	0.122180	0.148043	6092.209026	36209.826097	3836.547612	17039.068334
59.537000	0.136010	0.069274	0.141894	0.145068	6199.836247	36955.479824	3888.409738	17136.243500
60.034500	0.147575	0.075975	0.141981	0.173628	6073.197395	35286.567963	3823.753580	16230.235566
60.535000	0.160996	0.085025	0.162562	0.170204	6198.700150	36228.683331	3877.981723	16335.744121
61.035000	0.169648	0.091006	0.179456	0.240510	5762.109528	31647.934145	3761.281591	14327.796246
61.535500	0.176610	0.097375	0.183677	0.224447	5917.945415	33168.904111	3803.918274	14758.325713
62.036000	0.180990	0.102513	0.193328	0.223528	5954.996221	33593.223175	3826.937697	14783.438827
62.536000	0.184094	0.105412	0.195000	0.230792	5925.875275	33286.848958	3814.689515	14586.351154
63.047500	0.186485	0.106823	0.196519	0.231236	5939.468874	33354.472491	3817.031620	14574.421089
63.536500	0.190629	0.109138	0.199681	0.236626	5930.766069	33140.046115	3812.185273	14430.448105
64.037000	0.196806	0.113145	0.206199	0.244185	5921.130581	32894.101752	3809.926414	14231.492665
64.537000	0.197729	0.114943	0.204271	0.254803	5854.435594	32292.232133	3783.149155	13957.850607
65.040000	0.203840	0.118306	0.215551	0.259442	5864.464225	32206.108772	3797.227127	13840.371317
65.535500	0.205911	0.120610	0.220501	0.267331	5825.011378	31832.372701	3790.969181	13643.446111
66.035000	0.212052	0.121654	0.220641	0.277273	5799.522546	31246.696771	3770.406369	13400.322114
66.535500	0.213121	0.124241	0.222164	0.285181	5754.222209	30902.247990	3757.259973	13210.892488
67.036000	0.217656	0.126531	0.225644	0.292681	5734.805379	30568.949001	3749.079766	13034.371995
67.536000	0.221655	0.130547	0.235010	0.302323	5698.208489	30213.515954	3748.522280	12811.884239
68.039000	0.221982	0.131152	0.229645	0.310817	5646.071851	29722.837673	3720.913614	12619.928565
68.536500	0.221130	0.131771	0.232111	0.320951	5577.472069	29142.697922	3706.013392	12395.759873
69.037000	0.228052	0.135826	0.247905	0.325932	5589.471554	29086.980981	3727.101379	12287.501800
69.537000	0.228156	0.136693	0.244136	0.333010	5546.625483	28715.928505	3705.948256	12135.761879
70.035500	0.233776	0.137155	0.242334	0.341635	5528.374742	28236.218577	3686.106494	11954.180738
70.535000	0.234607	0.139261	0.247335	0.348585	5491.596968	27955.771238	3682.449635	11810.448492
71.035500	0.238336	0.140241	0.254701	0.353157	5486.573462	27749.859913	3687.696823	11717.151831
71.535500	0.245701	0.144090	0.259136	0.362034	5477.584039	27464.408814	3679.369352	11538.772323
72.036500	0.244235	0.144344	0.259826	0.367744	5435.338923	27158.473175	3670.063743	11425.952973
72.541500	0.250831	0.145712	0.261513	0.371860	5449.865502	27005.816756	3665.599885	11345.554225
73.037000	0.252042	0.148009	0.265240	0.377578	5423.539394	26817.099580	3661.959259	11235.101557
73.537000	0.257981	0.150408	0.268130	0.382332	5430.430441	26688.070639	3658.563860	11144.367886
74.034500	0.258997	0.151569	0.268542	0.388567	5400.204030	26412.387170	3648.055817	11026.863147
74.534500	0.260864	0.152853	0.273349	0.390962	5397.162544	26352.411403	3652.390899	10982.172207
75.035500	0.265017	0.153499	0.279948	0.394671	5399.720667	26188.020605	3657.617723	10913.459632
75.535000	0.266308	0.155558	0.275604	0.398711	5383.941929	26082.273086	3642.549133	10839.265253
76.036000	0.271490	0.157861	0.289443	0.404882	5378.296174	25877.169409	3656.319425	10727.269118
76.536000	0.272812	0.158915	0.281856	0.406683	5375.558106	25837.785007	3639.494618	10694.876584
77.036000	0.276863	0.161333	0.292700	0.411303	5372.315923	25722.051925	3650.608155	10612.405037
77.536000	0.274476	0.162658	0.297355	0.413938	5343.894255	25653.505772	3654.250726	10565.768724
78.037000	0.280281	0.164527	0.296448	0.418803	5349.191532	25497.450910	3643.889724	10480.391691
78.537000	0.280906	0.164082	0.295707	0.424049	5323.267560	25203.941593	3633.287384	10389.382088
79.035000	0.285689	0.166425	0.301880	0.422997	5356.051649	25378.583039	3646.101848	10407.555841
79.537500	0.286064	0.167970	0.296995	0.425548	5343.776119	25326.702204	3632.917512	10363.589606
80.035000	0.289404	0.168846	0.308438	0.429419	5340.785030	25172.952015	3646.343547	10297.362439
80.535500	0.288162	0.169891	0.297135	0.432850	5314.661299	25051.201329	3620.431005	10239.164187
81.035500	0.290865	0.172776	0.308285	0.433980	5323.423444	25140.661500	3637.956275	10220.091264
81.536000	0.293452	0.172255	0.310968	0.434332	5335.928476	25096.139891	3642.092176	10214.163934
82.039500	0.291406	0.174623	0.311076	0.437575	5306.445415	25051.583675	3636.536570	10159.768986
82.537000	0.295399	0.174054	0.310762	0.438423	5323.936451	24979.612088	3634.486203	10145.608320
83.037000	0.299863	0.176110	0.317547	0.439671	5341.949389	25020.558976	3644.300927	10124.807237
83.537500	0.297925	0.175281	0.309185	0.439292	5333.195348	24997.737682	3630.190197	10131.116104
84.035000	0.298055	0.176554	0.312335	0.441391	5322.193667	24955.876725	3632.034102	10096.268240
84.535500	0.300436	0.179697	0.315706	0.444636	5317.372687	24950.662027	3632.254094	10042.693077
85.035500	0.303292	0.179332	0.318518	0.444591	5333.580240	24934.540500	3637.289018	10043.449333
85.535500	0.301078	0.178949	0.313950	0.443959	5324.728716	24947.087672	3630.361422	10053.834939
86.036500	0.302927	0.178940	0.313457	0.444711	5330.862429	24908.569604	3628.183261	10041.460974
86.536000	0.303408	0.180529	0.316128	0.450484	5301.421366	24698.121608	3622.784231	9947.180227
87.036500	0.307597	0.181736	0.327595	0.447715	5340.208779	24898.093186	3647.886021	9992.251925
87.536500	0.311057	0.183355	0.324470	0.449336	5350.564099	24898.014706	3639.426021	9965.837465
88.037000	0.311306	0.184248	0.323008	0.450419	5345.861847	24888.413374	3634.926703	9948.241980
88.537500	0.308974	0.184362	0.318992	0.454743	5308.655652	24676.786609	3620.368795	9878.414708
89.035000	0.314924	0.186383	0.325033	0.453749	5347.485063	24828.100526	3632.629905	9894.410170
89.535000	0.314636	0.186946	0.326955	0.454197	5343.339496	24833.923560	3635.224984	9887.201979
90.035500	0.315863	0.187592	0.328956	0.456669	5336.346817	24742.128522	3634.394540	9847.548402
90.535500	0.315529	0.188439	0.333247	0.459823	5316.849896	24626.685041	3636.398481	9797.276186
91.036500	0.317141	0.189097	0.328043	0.457196	5340.560469	24791.215917	3631.862653	9839.122910
91.539000	0.319408	0.189502	0.337670	0.458059	5348.465080	24768.229277	3647.402245	9825.349563
92.036500	0.318390	0.189236	0.332685	0.459192	5336.361491	24698.028242	3636.520337	9807.302839
92.537000	0.313555	0.189709	0.332112	0.462488	5291.176968	24557.197152	3629.719194	9755.099625
93.035000	0.319057	0.191533	0.330789	0.460555	5332.466080	24744.849489	3630.787945	9785.667528
93.534500	0.321096	0.191559	0.334550	0.461458	5338.837942	24700.928488	3635.813643	9771.366024
94.034500	0.322427	0.193202	0.339117	0.463872	5332.757886	24662.333277	3639.621742	9733.281843
94.535000	0.323204	0.193826	0.336625	0.464453	5333.857125	24664.485990	3634.192812	9724.150809
95.035500	0.323341	0.192453	0.332823	0.464522	5334.241127	24592.514751	3627.407436	9723.070856
95.535500	0.326332	0.194597	0.341764	0.467405	5334.849148	24555.753355	3638.052380	9677.937308
96.036500	0.321586	0.193041	0.336091	0.466208	5315.029046	24537.892533	3630.172914	9696.640723
96.536500	0.326758	0.195430	0.341280	0.468392	5331.701632	24548.098759	3635.453686	9662.548091
97.036500	0.324906	0.193786	0.332229	0.468097	5323.000408	24481.114122	3620.166533	9667.138033
97.537000	0.323493	0.193404	0.341377	0.468217	5314.464950	24456.252414	3635.934759	9665.281126
