sample name	sample
index	268
start time	 02-25-2021  11:26:01 AM


Wavelength (nm)	Absorbance
494.344910	-0.069315
494.563924	-0.069315
494.782919	-0.069315
495.001897	0.010418
495.220856	0.011738
495.439797	0.066129
495.658719	0.075759
495.877624	0.094767
496.096510	0.072463
496.315378	0.124693
496.534227	0.158225
496.753059	0.169151
496.971872	0.172276
497.190667	0.069934
497.409444	0.062788
497.628203	0.065074
497.846943	0.064267
498.065665	0.064493
498.284369	0.062552
498.503055	0.062161
498.721723	0.061425
498.940372	0.060692
499.159003	0.060585
499.377616	0.060853
499.596210	0.060165
499.814787	0.059679
500.033345	0.058820
500.251885	0.059389
500.470406	0.059219
500.688910	0.059752
500.907395	0.060067
501.125862	0.061435
501.344311	0.060129
501.562742	0.059842
501.781154	0.060329
501.999548	0.060936
502.217924	0.061297
502.436282	0.061928
502.654621	0.062369
502.872942	0.061646
503.091245	0.059901
503.309530	0.061100
503.527797	0.061634
503.746045	0.061994
503.964275	0.062389
504.182487	0.062245
504.400681	0.061879
504.618856	0.061119
504.837013	0.062926
505.055152	0.063341
505.273273	0.063396
505.491376	0.062951
505.709460	0.062849
505.927526	0.062662
506.145574	0.061861
506.363604	0.062714
506.581615	0.062544
506.799608	0.061973
507.017583	0.062848
507.235540	0.062414
507.453478	0.062365
507.671399	0.062289
507.889301	0.062640
508.107185	0.063071
508.325050	0.062083
508.542898	0.062652
508.760727	0.063401
508.978538	0.062536
509.196330	0.062949
509.414105	0.062561
509.631861	0.063346
509.849599	0.063809
510.067319	0.063972
510.285021	0.064427
510.502704	0.064337
510.720369	0.063439
510.938016	0.064122
511.155645	0.064088
511.373255	0.064177
511.590848	0.063538
511.808422	0.062578
512.025977	0.062745
512.243515	0.063006
512.461034	0.062797
512.678536	0.063316
512.896018	0.063411
513.113483	0.063690
513.330930	0.064233
513.548358	0.064347
513.765768	0.065684
513.983160	0.065978
514.200533	0.065751
514.417889	0.065410
514.635226	0.065239
514.852545	0.065352
515.069845	0.064886
515.287128	0.065007
515.504392	0.064330
515.721638	0.063926
515.938866	0.063638
516.156075	0.062901
516.373267	0.062936
516.590440	0.063194
516.807594	0.063153
517.024731	0.063468
517.241850	0.063229
517.458950	0.063707
517.676032	0.063182
517.893095	0.063279
518.110141	0.064471
518.327168	0.065264
518.544177	0.065190
518.761168	0.065074
518.978141	0.065011
519.195095	0.065266
519.412031	0.065706
519.628949	0.065508
519.845849	0.065449
520.062731	0.065429
520.279594	0.065435
520.496439	0.065655
520.713266	0.066558
520.930074	0.066326
521.146865	0.067046
521.363637	0.066807
521.580391	0.067715
521.797127	0.067855
522.013844	0.067504
522.230543	0.067837
522.447224	0.067366
522.663887	0.066987
522.880532	0.067743
523.097158	0.067183
523.313766	0.067621
523.530356	0.068170
523.746928	0.068622
523.963481	0.068947
524.180017	0.069120
524.396534	0.069473
524.613032	0.069599
524.829513	0.069902
525.045975	0.070470
525.262420	0.070205
525.478845	0.069795
525.695253	0.069816
525.911643	0.070162
526.128014	0.070108
526.344367	0.070600
526.560702	0.070520
526.777018	0.070425
526.993316	0.070552
527.209597	0.071183
527.425858	0.071304
527.642102	0.071757
527.858328	0.071897
528.074535	0.072052
528.290724	0.072421
528.506894	0.072556
528.723047	0.072509
528.939181	0.072524
529.155297	0.072253
529.371395	0.072829
529.587475	0.072461
529.803536	0.072185
530.019579	0.072066
530.235604	0.071778
530.451611	0.072144
530.667600	0.072390
530.883570	0.072630
531.099522	0.073365
531.315456	0.073542
531.531372	0.074172
531.747269	0.075269
531.963148	0.075894
532.179009	0.076057
532.394852	0.076351
532.610676	0.076527
532.826482	0.077185
533.042271	0.076982
533.258040	0.076506
533.473792	0.076544
533.689525	0.076580
533.905240	0.076466
534.120937	0.077340
534.336616	0.077113
534.552277	0.077281
534.767919	0.076523
534.983543	0.076353
535.199149	0.076704
535.414736	0.076602
535.630306	0.076369
535.845857	0.076351
536.061390	0.076041
536.276904	0.076595
536.492401	0.076234
536.707879	0.076602
536.923339	0.076593
537.138781	0.077167
537.354204	0.077367
537.569610	0.077240
537.784997	0.077417
538.000366	0.077339
538.215716	0.077256
538.431049	0.077673
538.646363	0.077862
538.861659	0.078736
539.076937	0.078521
539.292196	0.078954
539.507438	0.079105
539.722661	0.079390
539.937866	0.079707
540.153052	0.079892
540.368221	0.080123
540.583371	0.080372
540.798503	0.079925
541.013617	0.079903
541.228712	0.079330
541.443789	0.079385
541.658848	0.079430
541.873889	0.079491
542.088912	0.079223
542.303916	0.079559
542.518902	0.079532
542.733870	0.080050
542.948820	0.080377
543.163752	0.081128
543.378665	0.081380
543.593560	0.081415
543.808437	0.081321
544.023295	0.081722
544.238136	0.081965
544.452958	0.082445
544.667762	0.082127
544.882548	0.082037
545.097315	0.082256
545.312064	0.082411
545.526795	0.082983
545.741508	0.083292
545.956203	0.083017
546.170879	0.083088
546.385537	0.082838
546.600177	0.083452
546.814799	0.083400
547.029402	0.083237
547.243988	0.083471
547.458555	0.083309
547.673103	0.083993
547.887634	0.084455
548.102146	0.084777
548.316640	0.084940
548.531116	0.085142
548.745574	0.085200
548.960013	0.085708
549.174435	0.085647
549.388838	0.085557
549.603222	0.085046
549.817589	0.085257
550.031937	0.085164
550.246267	0.085606
550.460579	0.085654
550.674873	0.085904
550.889148	0.085580
551.103405	0.085597
551.317644	0.085954
551.531865	0.086297
551.746068	0.086186
551.960252	0.086317
552.174418	0.086108
552.388566	0.086152
552.602696	0.086516
552.816807	0.086368
553.030900	0.086467
553.244975	0.086555
553.459032	0.086642
553.673070	0.086924
553.887091	0.086913
554.101093	0.087264
554.315077	0.087298
554.529042	0.087654
554.742990	0.088166
554.956919	0.088762
555.170830	0.088609
555.384722	0.088360
555.598597	0.088479
555.812453	0.088460
556.026291	0.088330
556.240111	0.088395
556.453913	0.088486
556.667696	0.088229
556.881461	0.087874
557.095208	0.087835
557.308937	0.087823
557.522647	0.087685
557.736339	0.087850
557.950013	0.088278
558.163669	0.088275
558.377307	0.088114
558.590926	0.088321
558.804527	0.088624
559.018110	0.089263
559.231675	0.089732
559.445221	0.090139
559.658749	0.090216
559.872259	0.090395
560.085751	0.090467
560.299225	0.090298
560.512680	0.090233
560.726117	0.090222
560.939536	0.089985
561.152937	0.090304
561.366319	0.090129
561.579683	0.090021
561.793029	0.089602
562.006357	0.089672
562.219667	0.090025
562.432958	0.090480
562.646231	0.090569
562.859486	0.090844
563.072723	0.090352
563.285941	0.090797
563.499141	0.091024
563.712323	0.091385
563.925487	0.091839
564.138632	0.091612
564.351760	0.091303
564.564869	0.091623
564.777960	0.091557
564.991032	0.091493
565.204087	0.091409
565.417123	0.091669
565.630141	0.091777
565.843140	0.091502
566.056122	0.091656
566.269085	0.091868
566.482030	0.091698
566.694957	0.092132
566.907866	0.092724
567.120756	0.092783
567.333628	0.092588
567.546482	0.092405
567.759318	0.092767
567.972135	0.093424
568.184935	0.093892
568.397716	0.093831
568.610478	0.093263
568.823223	0.092975
569.035949	0.092928
569.248657	0.093223
569.461347	0.093302
569.674019	0.093286
569.886672	0.092780
570.099308	0.092456
570.311925	0.092804
570.524523	0.093089
570.737104	0.093224
570.949666	0.092964
571.162210	0.093144
571.374736	0.093552
571.587244	0.093471
571.799733	0.093596
572.012205	0.093874
572.224658	0.093840
572.437092	0.094040
572.649509	0.094409
572.861907	0.095099
573.074287	0.095019
573.286649	0.094683
573.498993	0.094958
573.711318	0.095137
573.923625	0.095414
574.135914	0.095414
574.348185	0.095394
574.560438	0.095635
574.772672	0.095310
574.984888	0.095300
575.197086	0.095554
575.409266	0.095422
575.621427	0.095400
575.833570	0.095230
576.045695	0.095542
576.257802	0.095915
576.469890	0.095685
576.681961	0.096053
576.894013	0.096347
577.106046	0.096673
577.318062	0.096953
577.530059	0.097006
577.742039	0.097002
577.954000	0.097061
578.165942	0.096967
578.377867	0.097105
578.589773	0.097126
578.801661	0.097169
579.013531	0.097239
579.225382	0.097158
579.437216	0.097597
579.649031	0.097510
579.860828	0.097299
580.072606	0.097383
580.284367	0.097590
580.496109	0.097513
580.707833	0.097647
580.919539	0.097677
581.131227	0.097731
581.342896	0.097439
581.554547	0.097709
581.766180	0.097854
581.977795	0.098315
582.189391	0.098321
582.400969	0.098341
582.612529	0.098545
582.824071	0.098494
583.035595	0.098841
583.247100	0.099160
583.458587	0.099358
583.670056	0.099618
583.881506	0.099404
584.092939	0.099206
584.304353	0.099447
584.515749	0.099103
584.727127	0.099164
584.938486	0.098950
585.149828	0.099066
585.361151	0.098905
585.572456	0.098972
585.783742	0.099225
585.995011	0.099701
586.206261	0.099744
586.417493	0.100287
586.628706	0.100176
586.839902	0.100326
587.051079	0.100498
587.262238	0.100824
587.473379	0.100903
587.684502	0.100811
587.895606	0.100894
588.106692	0.101046
588.317760	0.100933
588.528810	0.101288
588.739841	0.101462
588.950855	0.101480
589.161850	0.101763
589.372827	0.101797
589.583785	0.101754
589.794726	0.101992
590.005648	0.102284
590.216552	0.102252
590.427437	0.102495
590.638305	0.102598
590.849154	0.102499
591.059985	0.102414
591.270798	0.102538
591.481592	0.102558
591.692369	0.102361
591.903127	0.102418
592.113867	0.102713
592.324588	0.102719
592.535292	0.102763
592.745977	0.102846
592.956644	0.102979
593.167293	0.102857
593.377923	0.103114
593.588536	0.103098
593.799130	0.102961
594.009706	0.102995
594.220263	0.102925
594.430803	0.102869
594.641324	0.102698
594.851827	0.102936
595.062312	0.103056
595.272778	0.103355
595.483227	0.103480
595.693657	0.103746
595.904069	0.103858
596.114462	0.103935
596.324838	0.104053
596.535195	0.104337
596.745534	0.104273
596.955855	0.104315
597.166157	0.103911
597.376441	0.103908
597.586707	0.103824
597.796955	0.103716
598.007185	0.103564
598.217396	0.103705
598.427589	0.103861
598.637764	0.103971
598.847921	0.104114
599.058060	0.104589
599.268180	0.104620
599.478282	0.104828
599.688366	0.104807
599.898431	0.104944
600.108479	0.105093
600.318508	0.105184
600.528519	0.104901
600.738511	0.104690
600.948486	0.104425
601.158442	0.104457
601.368380	0.104498
601.578300	0.104753
601.788202	0.104900
601.998085	0.104791
602.207950	0.104699
602.417797	0.104734
602.627626	0.105217
602.837436	0.105271
603.047228	0.105550
603.257002	0.105721
603.466758	0.105636
603.676496	0.105742
603.886215	0.105727
604.095916	0.105972
604.305599	0.106091
604.515264	0.106183
604.724910	0.106254
604.934538	0.106387
605.144148	0.106182
605.353740	0.106058
605.563314	0.106252
605.772869	0.106436
605.982406	0.106265
606.191925	0.106649
606.401425	0.106591
606.610908	0.106839
606.820372	0.106509
607.029818	0.106460
607.239246	0.106582
607.448655	0.106414
607.658047	0.106234
607.867420	0.106205
608.076775	0.105982
608.286111	0.105846
608.495430	0.106014
608.704730	0.106446
608.914012	0.106390
609.123275	0.106619
609.332521	0.106909
609.541748	0.107025
609.750957	0.107485
609.960148	0.107497
610.169321	0.107636
610.378475	0.107557
610.587611	0.107252
610.796729	0.107371
611.005829	0.107241
611.214910	0.107087
611.423974	0.107123
611.633019	0.106820
611.842045	0.107072
612.051054	0.107213
612.260044	0.107282
612.469017	0.107423
612.677970	0.107896
612.886906	0.108019
613.095824	0.108129
613.304723	0.108353
613.513604	0.108793
613.722467	0.108879
613.931311	0.108949
614.140138	0.109144
614.348946	0.109551
614.557736	0.109519
614.766507	0.109742
614.975261	0.110000
615.183996	0.110232
615.392713	0.110000
615.601412	0.109939
615.810092	0.110065
616.018754	0.109887
616.227399	0.109854
616.436024	0.109843
616.644632	0.109941
616.853222	0.109952
617.061793	0.109693
617.270346	0.109780
617.478880	0.109780
617.687397	0.109809
617.895895	0.110021
618.104375	0.110171
618.312837	0.110304
618.521281	0.110414
618.729706	0.110362
618.938113	0.110702
619.146502	0.110922
619.354873	0.111370
619.563226	0.111451
619.771560	0.111548
619.979876	0.111541
620.188174	0.111573
620.396453	0.111359
620.604715	0.111509
620.812958	0.111193
621.021183	0.111165
621.229390	0.111274
621.437578	0.111470
621.645748	0.111479
621.853900	0.111403
622.062034	0.111712
622.270150	0.112025
622.478247	0.112109
622.686326	0.112486
622.894387	0.112560
623.102430	0.112495
623.310454	0.112421
623.518461	0.112560
623.726449	0.112824
623.934418	0.112799
624.142370	0.112878
624.350303	0.113095
624.558218	0.113349
624.766115	0.113513
624.973994	0.113666
625.181855	0.114042
625.389697	0.114007
625.597521	0.114101
625.805327	0.114344
626.013114	0.114505
626.220883	0.114571
626.428634	0.114500
626.636367	0.114640
626.844082	0.114513
627.051778	0.114547
627.259457	0.114692
627.467117	0.114645
627.674758	0.114535
627.882382	0.114336
628.089987	0.114102
628.297574	0.114166
628.505143	0.114002
628.712694	0.114159
628.920226	0.114145
629.127740	0.114218
629.335236	0.114203
629.542714	0.114082
629.750174	0.114282
629.957615	0.114275
630.165038	0.114371
630.372443	0.114483
630.579829	0.114341
630.787198	0.114355
630.994548	0.114637
631.201880	0.114903
631.409194	0.114829
631.616489	0.114881
631.823766	0.115227
632.031025	0.115388
632.238266	0.115671
632.445489	0.115743
632.652693	0.115634
632.859879	0.115493
633.067047	0.115543
633.274197	0.115725
633.481329	0.115806
633.688442	0.115950
633.895537	0.115824
634.102614	0.115804
634.309672	0.116108
634.516713	0.116483
634.723735	0.116433
634.930739	0.116355
635.137724	0.116447
635.344692	0.116370
635.551641	0.116160
635.758572	0.116281
635.965485	0.116235
636.172379	0.116112
636.379256	0.115740
636.586114	0.115743
636.792954	0.115821
636.999775	0.115836
637.206579	0.116015
637.413364	0.116145
637.620131	0.116306
637.826880	0.116503
638.033610	0.116323
638.240323	0.116605
638.447017	0.116885
638.653692	0.116917
638.860350	0.117164
639.066990	0.117270
639.273611	0.117424
639.480214	0.117293
639.686798	0.117227
639.893365	0.117463
640.099913	0.117562
640.306443	0.117586
640.512955	0.117514
640.719449	0.117404
640.925924	0.117609
641.132381	0.117810
641.338820	0.118129
641.545241	0.118412
641.751644	0.118839
641.958028	0.118876
642.164394	0.119210
642.370742	0.119642
642.577071	0.119947
642.783383	0.119782
642.989676	0.119744
643.195951	0.119647
643.402207	0.119645
643.608446	0.119473
643.814666	0.119535
644.020868	0.119351
644.227052	0.119416
644.433218	0.119529
644.639365	0.119825
644.845494	0.119893
645.051605	0.120150
645.257698	0.120338
645.463772	0.120667
645.669828	0.120697
645.875866	0.120755
646.081886	0.120798
646.287888	0.120883
646.493871	0.120910
646.699836	0.121119
646.905783	0.121216
647.111712	0.121121
647.317622	0.121103
647.523514	0.121520
647.729388	0.121499
647.935244	0.121685
648.141082	0.121662
648.346901	0.121794
648.552702	0.121732
648.758485	0.121736
648.964250	0.121941
649.169996	0.122115
649.375724	0.121989
649.581434	0.122341
649.787126	0.122436
649.992800	0.122568
650.198455	0.122738
650.404092	0.122875
650.609711	0.123041
650.815311	0.123185
651.020894	0.123369
651.226458	0.123674
651.432004	0.123679
651.637532	0.123612
651.843041	0.123763
652.048532	0.123855
652.254006	0.124042
652.459460	0.124243
652.664897	0.124335
652.870315	0.124241
653.075716	0.124385
653.281097	0.124393
653.486461	0.124511
653.691807	0.124642
653.897134	0.124754
654.102443	0.124712
654.307734	0.124545
654.513006	0.124610
654.718261	0.124626
654.923497	0.124480
655.128715	0.124858
655.333915	0.125040
655.539096	0.125072
655.744259	0.124908
655.949404	0.124892
656.154531	0.125063
656.359640	0.125108
656.564730	0.125352
656.769802	0.125420
656.974856	0.125294
657.179892	0.125407
657.384909	0.125543
657.589908	0.125784
657.794889	0.126164
657.999852	0.126317
658.204797	0.126358
658.409723	0.126509
658.614631	0.126753
658.819521	0.126873
659.024393	0.126685
659.229246	0.126758
659.434081	0.127015
659.638898	0.126969
659.843697	0.126914
660.048478	0.127401
660.253240	0.127498
660.457984	0.127327
660.662710	0.127578
660.867417	0.127879
661.072107	0.127927
661.276778	0.127751
661.481431	0.127980
661.686066	0.128214
661.890682	0.127967
662.095281	0.127886
662.299861	0.128238
662.504422	0.128332
662.708966	0.128593
662.913491	0.128708
663.117999	0.129004
663.322488	0.128931
663.526958	0.129029
663.731411	0.129163
663.935845	0.129404
664.140261	0.129398
664.344659	0.129330
664.549038	0.129157
664.753400	0.129373
664.957743	0.129507
665.162068	0.129717
665.366375	0.129820
665.570663	0.129861
665.774933	0.129763
665.979185	0.129686
666.183419	0.129726
666.387635	0.129880
666.591832	0.129764
666.796011	0.129613
667.000172	0.129415
667.204315	0.129422
667.408439	0.129565
667.612545	0.129754
667.816634	0.130090
668.020703	0.130149
668.224755	0.130237
668.428788	0.130150
668.632803	0.130342
668.836800	0.130677
669.040779	0.130799
669.244739	0.130825
669.448681	0.130937
669.652605	0.130903
669.856511	0.131169
670.060399	0.131342
670.264268	0.131648
670.468119	0.131616
670.671952	0.131486
670.875767	0.131460
671.079563	0.131626
671.283341	0.131734
671.487101	0.131720
671.690843	0.131719
671.894567	0.131852
672.098272	0.131876
672.301959	0.131994
672.505628	0.132360
672.709278	0.132543
672.912911	0.132618
673.116525	0.132702
673.320121	0.133155
673.523699	0.133318
673.727258	0.133333
673.930799	0.133546
674.134322	0.133862
674.337827	0.134115
674.541314	0.134299
674.744782	0.134314
674.948232	0.134392
675.151664	0.134403
675.355078	0.134419
675.558474	0.134726
675.761851	0.134823
675.965210	0.134932
676.168551	0.135067
676.371873	0.135105
676.575178	0.135320
676.778464	0.135545
676.981732	0.135583
677.184981	0.135658
677.388213	0.135565
677.591426	0.135680
677.794621	0.135573
677.997798	0.135483
678.200956	0.135604
678.404097	0.135922
678.607219	0.136038
678.810323	0.136244
679.013408	0.136526
679.216476	0.136855
679.419525	0.136977
679.622556	0.137331
679.825569	0.137556
680.028563	0.137688
680.231540	0.137634
680.434498	0.137829
680.637438	0.137989
680.840359	0.138125
681.043263	0.138072
681.246148	0.138260
681.449015	0.138304
681.651864	0.138262
681.854694	0.138559
682.057506	0.138647
682.260301	0.138682
682.463076	0.138680
682.665834	0.138867
682.868573	0.138895
683.071295	0.138896
683.273998	0.139132
683.476682	0.139306
683.679349	0.139206
683.881997	0.139343
684.084627	0.139250
684.287239	0.139388
684.489833	0.139255
684.692408	0.139265
684.894965	0.139271
685.097504	0.139085
685.300025	0.139185
685.502527	0.139229
685.705012	0.139125
685.907478	0.139333
686.109925	0.139269
686.312355	0.139489
686.514766	0.139590
686.717159	0.139786
686.919534	0.140040
687.121891	0.139830
687.324230	0.140127
687.526550	0.140292
687.728852	0.140344
687.931136	0.140473
688.133401	0.140360
688.335649	0.140425
688.537878	0.140592
688.740089	0.140633
688.942281	0.140748
689.144456	0.140573
689.346612	0.140514
689.548750	0.140478
689.750870	0.140493
689.952971	0.140612
690.155055	0.140782
690.357120	0.140660
690.559167	0.140609
690.761195	0.140826
690.963206	0.140992
691.165198	0.141082
691.367172	0.141286
691.569128	0.141315
691.771065	0.141320
691.972984	0.141306
692.174885	0.141538
692.376768	0.141728
692.578633	0.141781
692.780479	0.141887
692.982308	0.141986
693.184118	0.141877
693.385909	0.141985
