sample name	sample
index	1378
start time	 05-03-2021  02:46:47 PM


Wavelength (nm)	Absorbance
494.344910	0.928326
494.563924	0.928326
494.782919	0.928326
495.001897	0.073989
495.220856	0.027302
495.439797	0.033330
495.658719	0.060480
495.877624	-0.006584
496.096510	-0.070841
496.315378	0.045121
496.534227	0.082376
496.753059	0.003412
496.971872	0.053597
497.190667	0.070484
497.409444	0.062561
497.628203	0.058350
497.846943	0.062661
498.065665	0.065724
498.284369	0.064505
498.503055	0.064214
498.721723	0.063700
498.940372	0.063046
499.159003	0.062156
499.377616	0.061267
499.596210	0.061346
499.814787	0.059851
500.033345	0.058357
500.251885	0.057973
500.470406	0.058669
500.688910	0.058718
500.907395	0.058722
501.125862	0.059560
501.344311	0.059547
501.562742	0.059037
501.781154	0.058085
501.999548	0.059088
502.217924	0.059387
502.436282	0.058471
502.654621	0.057494
502.872942	0.058224
503.091245	0.057318
503.309530	0.057488
503.527797	0.058470
503.746045	0.058615
503.964275	0.057078
504.182487	0.056533
504.400681	0.056341
504.618856	0.056819
504.837013	0.057510
505.055152	0.057857
505.273273	0.058701
505.491376	0.058839
505.709460	0.059407
505.927526	0.059863
506.145574	0.060743
506.363604	0.061573
506.581615	0.061526
506.799608	0.059294
507.017583	0.059403
507.235540	0.057252
507.453478	0.056712
507.671399	0.057280
507.889301	0.058013
508.107185	0.057421
508.325050	0.056910
508.542898	0.057638
508.760727	0.058236
508.978538	0.056995
509.196330	0.059009
509.414105	0.059885
509.631861	0.059744
509.849599	0.059368
510.067319	0.059679
510.285021	0.061206
510.502704	0.061090
510.720369	0.061281
510.938016	0.062580
511.155645	0.062461
511.373255	0.062597
511.590848	0.062484
511.808422	0.061937
512.025977	0.061539
512.243515	0.060911
512.461034	0.060684
512.678536	0.059938
512.896018	0.059812
513.113483	0.059543
513.330930	0.058189
513.548358	0.058778
513.765768	0.059414
513.983160	0.060099
514.200533	0.059527
514.417889	0.059080
514.635226	0.060186
514.852545	0.060392
515.069845	0.060716
515.287128	0.061683
515.504392	0.061183
515.721638	0.061640
515.938866	0.061419
516.156075	0.061763
516.373267	0.062918
516.590440	0.063043
516.807594	0.062337
517.024731	0.062569
517.241850	0.061935
517.458950	0.061446
517.676032	0.060787
517.893095	0.060355
518.110141	0.060409
518.327168	0.059884
518.544177	0.058785
518.761168	0.059222
518.978141	0.058615
519.195095	0.058246
519.412031	0.058467
519.628949	0.059225
519.845849	0.059060
520.062731	0.059127
520.279594	0.059349
520.496439	0.059765
520.713266	0.060516
520.930074	0.061542
521.146865	0.062508
521.363637	0.062608
521.580391	0.062547
521.797127	0.063138
522.013844	0.062852
522.230543	0.062999
522.447224	0.063299
522.663887	0.062592
522.880532	0.062522
523.097158	0.061728
523.313766	0.061915
523.530356	0.061866
523.746928	0.060969
523.963481	0.061019
524.180017	0.060476
524.396534	0.060794
524.613032	0.061100
524.829513	0.061359
525.045975	0.062249
525.262420	0.062787
525.478845	0.063171
525.695253	0.063730
525.911643	0.063830
526.128014	0.064440
526.344367	0.064418
526.560702	0.064650
526.777018	0.064036
526.993316	0.064491
527.209597	0.064576
527.425858	0.063795
527.642102	0.064296
527.858328	0.064722
528.074535	0.065026
528.290724	0.065870
528.506894	0.066042
528.723047	0.065855
528.939181	0.065315
529.155297	0.065254
529.371395	0.066710
529.587475	0.067236
529.803536	0.067287
530.019579	0.067366
530.235604	0.066960
530.451611	0.067504
530.667600	0.067864
530.883570	0.067771
531.099522	0.067437
531.315456	0.067257
531.531372	0.067290
531.747269	0.067286
531.963148	0.067673
532.179009	0.067833
532.394852	0.067367
532.610676	0.067506
532.826482	0.068234
533.042271	0.068882
533.258040	0.068543
533.473792	0.067910
533.689525	0.068579
533.905240	0.068960
534.120937	0.069250
534.336616	0.069653
534.552277	0.070423
534.767919	0.070176
534.983543	0.069619
535.199149	0.070355
535.414736	0.070712
535.630306	0.070629
535.845857	0.070457
536.061390	0.070630
536.276904	0.070781
536.492401	0.071521
536.707879	0.071548
536.923339	0.072263
537.138781	0.071525
537.354204	0.071776
537.569610	0.071815
537.784997	0.071630
538.000366	0.071942
538.215716	0.071637
538.431049	0.071152
538.646363	0.071979
538.861659	0.072315
539.076937	0.072665
539.292196	0.073173
539.507438	0.072792
539.722661	0.073110
539.937866	0.072446
540.153052	0.073000
540.368221	0.072749
540.583371	0.072369
540.798503	0.072158
541.013617	0.072872
541.228712	0.072843
541.443789	0.073808
541.658848	0.074076
541.873889	0.074796
542.088912	0.074312
542.303916	0.074258
542.518902	0.074567
542.733870	0.074722
542.948820	0.074495
543.163752	0.074224
543.378665	0.074032
543.593560	0.073955
543.808437	0.073681
544.023295	0.074250
544.238136	0.074447
544.452958	0.074510
544.667762	0.074701
544.882548	0.074246
545.097315	0.074261
545.312064	0.074337
545.526795	0.074178
545.741508	0.074345
545.956203	0.074425
546.170879	0.074500
546.385537	0.074308
546.600177	0.074157
546.814799	0.074528
547.029402	0.074506
547.243988	0.074234
547.458555	0.074400
547.673103	0.074911
547.887634	0.074613
548.102146	0.074894
548.316640	0.074976
548.531116	0.075431
548.745574	0.075641
548.960013	0.075992
549.174435	0.076321
549.388838	0.076643
549.603222	0.076613
549.817589	0.077072
550.031937	0.077123
550.246267	0.077742
550.460579	0.077860
550.674873	0.078186
550.889148	0.078795
551.103405	0.079182
551.317644	0.079291
551.531865	0.079009
551.746068	0.078735
551.960252	0.078350
552.174418	0.077829
552.388566	0.078057
552.602696	0.077668
552.816807	0.077404
553.030900	0.076669
553.244975	0.076500
553.459032	0.076851
553.673070	0.077309
553.887091	0.077498
554.101093	0.077732
554.315077	0.077451
554.529042	0.078153
554.742990	0.078323
554.956919	0.078868
555.170830	0.078756
555.384722	0.078700
555.598597	0.078877
555.812453	0.079202
556.026291	0.079636
556.240111	0.080272
556.453913	0.079729
556.667696	0.080029
556.881461	0.080098
557.095208	0.080362
557.308937	0.080456
557.522647	0.080318
557.736339	0.080300
557.950013	0.079986
558.163669	0.079462
558.377307	0.079452
558.590926	0.079035
558.804527	0.078998
559.018110	0.079182
559.231675	0.078818
559.445221	0.078653
559.658749	0.078835
559.872259	0.078677
560.085751	0.078777
560.299225	0.078767
560.512680	0.078732
560.726117	0.079085
560.939536	0.078950
561.152937	0.079552
561.366319	0.079764
561.579683	0.079483
561.793029	0.079832
562.006357	0.079754
562.219667	0.080074
562.432958	0.080234
562.646231	0.079878
562.859486	0.079892
563.072723	0.079656
563.285941	0.079570
563.499141	0.079754
563.712323	0.080030
563.925487	0.080181
564.138632	0.080312
564.351760	0.080391
564.564869	0.080637
564.777960	0.080965
564.991032	0.080915
565.204087	0.081036
565.417123	0.081328
565.630141	0.080806
565.843140	0.080493
566.056122	0.080798
566.269085	0.080775
566.482030	0.080701
566.694957	0.080482
566.907866	0.080708
567.120756	0.080822
567.333628	0.080836
567.546482	0.081085
567.759318	0.081287
567.972135	0.080978
568.184935	0.081064
568.397716	0.080943
568.610478	0.081015
568.823223	0.080747
569.035949	0.080509
569.248657	0.080276
569.461347	0.080550
569.674019	0.080487
569.886672	0.080654
570.099308	0.080532
570.311925	0.080911
570.524523	0.080749
570.737104	0.081021
570.949666	0.081176
571.162210	0.081467
571.374736	0.081534
571.587244	0.081955
571.799733	0.081762
572.012205	0.081749
572.224658	0.081467
572.437092	0.081809
572.649509	0.081560
572.861907	0.081694
573.074287	0.081487
573.286649	0.080925
573.498993	0.080846
573.711318	0.080707
573.923625	0.080686
574.135914	0.080898
574.348185	0.080588
574.560438	0.080797
574.772672	0.080738
574.984888	0.080626
575.197086	0.080711
575.409266	0.080913
575.621427	0.081022
575.833570	0.081339
576.045695	0.081585
576.257802	0.081743
576.469890	0.081985
576.681961	0.082184
576.894013	0.082383
577.106046	0.082518
577.318062	0.082207
577.530059	0.082483
577.742039	0.082420
577.954000	0.082082
578.165942	0.081764
578.377867	0.081519
578.589773	0.081653
578.801661	0.081546
579.013531	0.081644
579.225382	0.081898
579.437216	0.081852
579.649031	0.081920
579.860828	0.082299
580.072606	0.082397
580.284367	0.082473
580.496109	0.082045
580.707833	0.082350
580.919539	0.082514
581.131227	0.082418
581.342896	0.082563
581.554547	0.082644
581.766180	0.082344
581.977795	0.082943
582.189391	0.082912
582.400969	0.083069
582.612529	0.083300
582.824071	0.083319
583.035595	0.083329
583.247100	0.083283
583.458587	0.083257
583.670056	0.083555
583.881506	0.083539
584.092939	0.083934
584.304353	0.084044
584.515749	0.083560
584.727127	0.083429
584.938486	0.083418
585.149828	0.083410
585.361151	0.083394
585.572456	0.083214
585.783742	0.083105
585.995011	0.082878
586.206261	0.082953
586.417493	0.083255
586.628706	0.083488
586.839902	0.083676
587.051079	0.083730
587.262238	0.083689
587.473379	0.083947
587.684502	0.083934
587.895606	0.083977
588.106692	0.084013
588.317760	0.084004
588.528810	0.083938
588.739841	0.083922
588.950855	0.083900
589.161850	0.083926
589.372827	0.083681
589.583785	0.083682
589.794726	0.083681
590.005648	0.083686
590.216552	0.083725
590.427437	0.083860
590.638305	0.084153
590.849154	0.084041
591.059985	0.083959
591.270798	0.084249
591.481592	0.084558
591.692369	0.084805
591.903127	0.084877
592.113867	0.084761
592.324588	0.084984
592.535292	0.084937
592.745977	0.084974
592.956644	0.085402
593.167293	0.085383
593.377923	0.085298
593.588536	0.085256
593.799130	0.085293
594.009706	0.085372
594.220263	0.085088
594.430803	0.085087
594.641324	0.085099
594.851827	0.085203
595.062312	0.085047
595.272778	0.085340
595.483227	0.085419
595.693657	0.085597
595.904069	0.085504
596.114462	0.085431
596.324838	0.085227
596.535195	0.085447
596.745534	0.085312
596.955855	0.085548
597.166157	0.085545
597.376441	0.085422
597.586707	0.085547
597.796955	0.085844
598.007185	0.086214
598.217396	0.086514
598.427589	0.086560
598.637764	0.086864
598.847921	0.086760
599.058060	0.086511
599.268180	0.086655
599.478282	0.086818
599.688366	0.086988
599.898431	0.087032
600.108479	0.087174
600.318508	0.087536
600.528519	0.087721
600.738511	0.087751
600.948486	0.088040
601.158442	0.088005
601.368380	0.087765
601.578300	0.087735
601.788202	0.087961
601.998085	0.088000
602.207950	0.087834
602.417797	0.087861
602.627626	0.088379
602.837436	0.088408
603.047228	0.088546
603.257002	0.088815
603.466758	0.088931
603.676496	0.088795
603.886215	0.088907
604.095916	0.088889
604.305599	0.088818
604.515264	0.088334
604.724910	0.088364
604.934538	0.088596
605.144148	0.088548
605.353740	0.088960
605.563314	0.089112
605.772869	0.089284
605.982406	0.089157
606.191925	0.089261
606.401425	0.089521
606.610908	0.089445
606.820372	0.089349
607.029818	0.089358
607.239246	0.089054
607.448655	0.089201
607.658047	0.088780
607.867420	0.088973
608.076775	0.088739
608.286111	0.089052
608.495430	0.089160
608.704730	0.089325
608.914012	0.089591
609.123275	0.089565
609.332521	0.089284
609.541748	0.089654
609.750957	0.089912
609.960148	0.089874
610.169321	0.089932
610.378475	0.089845
610.587611	0.089803
610.796729	0.089537
611.005829	0.089819
611.214910	0.089991
611.423974	0.090016
611.633019	0.090231
611.842045	0.090743
612.051054	0.090620
612.260044	0.090616
612.469017	0.090421
612.677970	0.090469
612.886906	0.090488
613.095824	0.090614
613.304723	0.090659
613.513604	0.090395
613.722467	0.090075
613.931311	0.090276
614.140138	0.090494
614.348946	0.090771
614.557736	0.090814
614.766507	0.090581
614.975261	0.090668
615.183996	0.090377
615.392713	0.090580
615.601412	0.090584
615.810092	0.090496
616.018754	0.090527
616.227399	0.090731
616.436024	0.090887
616.644632	0.090774
616.853222	0.090671
617.061793	0.090671
617.270346	0.090605
617.478880	0.090438
617.687397	0.090353
617.895895	0.090427
618.104375	0.090227
618.312837	0.090105
618.521281	0.090329
618.729706	0.090557
618.938113	0.090531
619.146502	0.090395
619.354873	0.090866
619.563226	0.091126
619.771560	0.091098
619.979876	0.091245
620.188174	0.091362
620.396453	0.091332
620.604715	0.091348
620.812958	0.092024
621.021183	0.092529
621.229390	0.092568
621.437578	0.092474
621.645748	0.092403
621.853900	0.092411
622.062034	0.092499
622.270150	0.092706
622.478247	0.092785
622.686326	0.092491
622.894387	0.092341
623.102430	0.092371
623.310454	0.092360
623.518461	0.092514
623.726449	0.092410
623.934418	0.092551
624.142370	0.092556
624.350303	0.092501
624.558218	0.092351
624.766115	0.092406
624.973994	0.092172
625.181855	0.092146
625.389697	0.092094
625.597521	0.092287
625.805327	0.092407
626.013114	0.092504
626.220883	0.092378
626.428634	0.092483
626.636367	0.092474
626.844082	0.092643
627.051778	0.092723
627.259457	0.092808
627.467117	0.093017
627.674758	0.092933
627.882382	0.093047
628.089987	0.093266
628.297574	0.093638
628.505143	0.093566
628.712694	0.093649
628.920226	0.093660
629.127740	0.093877
629.335236	0.093886
629.542714	0.093982
629.750174	0.093903
629.957615	0.093953
630.165038	0.094023
630.372443	0.094385
630.579829	0.094490
630.787198	0.094957
630.994548	0.095232
631.201880	0.095390
631.409194	0.095429
631.616489	0.095556
631.823766	0.095585
632.031025	0.095763
632.238266	0.095678
632.445489	0.096091
632.652693	0.096027
632.859879	0.095939
633.067047	0.095653
633.274197	0.095516
633.481329	0.095636
633.688442	0.095770
633.895537	0.095384
634.102614	0.095149
634.309672	0.094969
634.516713	0.094971
634.723735	0.095047
634.930739	0.095249
635.137724	0.095465
635.344692	0.095449
635.551641	0.095478
635.758572	0.095512
635.965485	0.095706
636.172379	0.095670
636.379256	0.095816
636.586114	0.095551
636.792954	0.095414
636.999775	0.095440
637.206579	0.095475
637.413364	0.095447
637.620131	0.095626
637.826880	0.095948
638.033610	0.095905
638.240323	0.095800
638.447017	0.095954
638.653692	0.096321
638.860350	0.096315
639.066990	0.096336
639.273611	0.096377
639.480214	0.096220
639.686798	0.096006
639.893365	0.095872
640.099913	0.095788
640.306443	0.095717
640.512955	0.095644
640.719449	0.095499
640.925924	0.095476
641.132381	0.095514
641.338820	0.095793
641.545241	0.095787
641.751644	0.096071
641.958028	0.096151
642.164394	0.096533
642.370742	0.096757
642.577071	0.097013
642.783383	0.097341
642.989676	0.097622
643.195951	0.098026
643.402207	0.098133
643.608446	0.098383
643.814666	0.098883
644.020868	0.098727
644.227052	0.098697
644.433218	0.098888
644.639365	0.098776
644.845494	0.098484
645.051605	0.098236
645.257698	0.098577
645.463772	0.098554
645.669828	0.098378
645.875866	0.098565
646.081886	0.098508
646.287888	0.098509
646.493871	0.098287
646.699836	0.098456
646.905783	0.098521
647.111712	0.098335
647.317622	0.098278
647.523514	0.098134
647.729388	0.097945
647.935244	0.098096
648.141082	0.097996
648.346901	0.098184
648.552702	0.098306
648.758485	0.098461
648.964250	0.098590
649.169996	0.098628
649.375724	0.098841
649.581434	0.099336
649.787126	0.099192
649.992800	0.099181
650.198455	0.099248
650.404092	0.099242
650.609711	0.099354
650.815311	0.099319
651.020894	0.099539
651.226458	0.099564
651.432004	0.099483
651.637532	0.099536
651.843041	0.099808
652.048532	0.100023
652.254006	0.100253
652.459460	0.100117
652.664897	0.100403
652.870315	0.100500
653.075716	0.100719
653.281097	0.100741
653.486461	0.101167
653.691807	0.101206
653.897134	0.101296
654.102443	0.101383
654.307734	0.101551
654.513006	0.101677
654.718261	0.101430
654.923497	0.101374
655.128715	0.101521
655.333915	0.101215
655.539096	0.101306
655.744259	0.101287
655.949404	0.101235
656.154531	0.101195
656.359640	0.100904
656.564730	0.101177
656.769802	0.101115
656.974856	0.100832
657.179892	0.100890
657.384909	0.100839
657.589908	0.100946
657.794889	0.101013
657.999852	0.101084
658.204797	0.101362
658.409723	0.101275
658.614631	0.101234
658.819521	0.101407
659.024393	0.101484
659.229246	0.101524
659.434081	0.101504
659.638898	0.101441
659.843697	0.101328
660.048478	0.101030
660.253240	0.101138
660.457984	0.101185
660.662710	0.101131
660.867417	0.101090
661.072107	0.101050
661.276778	0.101050
661.481431	0.101082
661.686066	0.101409
661.890682	0.101447
662.095281	0.101665
662.299861	0.102050
662.504422	0.102214
662.708966	0.102519
662.913491	0.102790
663.117999	0.102962
663.322488	0.103158
663.526958	0.102915
663.731411	0.102988
663.935845	0.102873
664.140261	0.102510
664.344659	0.102542
664.549038	0.102507
664.753400	0.102567
664.957743	0.102235
665.162068	0.102143
665.366375	0.102238
665.570663	0.102346
665.774933	0.102348
665.979185	0.102626
666.183419	0.102813
666.387635	0.102831
666.591832	0.102938
666.796011	0.103436
667.000172	0.103410
667.204315	0.103830
667.408439	0.103994
667.612545	0.104191
667.816634	0.104114
668.020703	0.104224
668.224755	0.104279
668.428788	0.104198
668.632803	0.104199
668.836800	0.104518
669.040779	0.104357
669.244739	0.104469
669.448681	0.104523
669.652605	0.104493
669.856511	0.104375
670.060399	0.104546
670.264268	0.104675
670.468119	0.104829
670.671952	0.104926
670.875767	0.104912
671.079563	0.104937
671.283341	0.105081
671.487101	0.105438
671.690843	0.105734
671.894567	0.105744
672.098272	0.105844
672.301959	0.105994
672.505628	0.106017
672.709278	0.106349
672.912911	0.106521
673.116525	0.106478
673.320121	0.106478
673.523699	0.106372
673.727258	0.106407
673.930799	0.106478
674.134322	0.106489
674.337827	0.106587
674.541314	0.106547
674.744782	0.106778
674.948232	0.106943
675.151664	0.107046
675.355078	0.107357
675.558474	0.107503
675.761851	0.107471
675.965210	0.107621
676.168551	0.107482
676.371873	0.107336
676.575178	0.107201
676.778464	0.106968
676.981732	0.106931
677.184981	0.106841
677.388213	0.106551
677.591426	0.106582
677.794621	0.106333
677.997798	0.106554
678.200956	0.106536
678.404097	0.106337
678.607219	0.106623
678.810323	0.106744
679.013408	0.106684
679.216476	0.106886
679.419525	0.107168
679.622556	0.107366
679.825569	0.107512
680.028563	0.107956
680.231540	0.108151
680.434498	0.108347
680.637438	0.108526
680.840359	0.108829
681.043263	0.109009
681.246148	0.108970
681.449015	0.108931
681.651864	0.108795
681.854694	0.108746
682.057506	0.108987
682.260301	0.109015
682.463076	0.109036
682.665834	0.108900
682.868573	0.109103
683.071295	0.109239
683.273998	0.109582
683.476682	0.109676
683.679349	0.109804
683.881997	0.109963
684.084627	0.109824
684.287239	0.109983
684.489833	0.110122
684.692408	0.110077
684.894965	0.110212
685.097504	0.110146
685.300025	0.110263
685.502527	0.110259
685.705012	0.110108
685.907478	0.110171
686.109925	0.110061
686.312355	0.110263
686.514766	0.110324
686.717159	0.110203
686.919534	0.110214
687.121891	0.110277
687.324230	0.110386
687.526550	0.110372
687.728852	0.110494
687.931136	0.110512
688.133401	0.110362
688.335649	0.110610
688.537878	0.110518
688.740089	0.110531
688.942281	0.110609
689.144456	0.110621
689.346612	0.110698
689.548750	0.110741
689.750870	0.110853
689.952971	0.110929
690.155055	0.110709
690.357120	0.110850
690.559167	0.110873
690.761195	0.110904
690.963206	0.111033
691.165198	0.111399
691.367172	0.111586
691.569128	0.111577
691.771065	0.111748
691.972984	0.112042
692.174885	0.112077
692.376768	0.112067
692.578633	0.112189
692.780479	0.112226
692.982308	0.112045
693.184118	0.111972
693.385909	0.112139
