sample name	sample
index	971
start time	 04-14-2021  02:32:56 PM


Wavelength (nm)	Absorbance
494.344910	0.235862
494.563924	0.235862
494.782919	0.235862
495.001897	0.015739
495.220856	0.030719
495.439797	0.005653
495.658719	-0.003580
495.877624	-0.022709
496.096510	-0.035336
496.315378	-0.029238
496.534227	-0.018901
496.753059	-0.017085
496.971872	-0.004890
497.190667	0.093284
497.409444	0.106603
497.628203	0.113055
497.846943	0.115745
498.065665	0.119387
498.284369	0.120110
498.503055	0.120073
498.721723	0.121918
498.940372	0.122075
499.159003	0.122055
499.377616	0.123803
499.596210	0.123789
499.814787	0.124988
500.033345	0.125206
500.251885	0.125367
500.470406	0.126772
500.688910	0.125836
500.907395	0.126114
501.125862	0.126420
501.344311	0.127288
501.562742	0.126986
501.781154	0.127752
501.999548	0.127556
502.217924	0.127913
502.436282	0.126953
502.654621	0.127483
502.872942	0.127855
503.091245	0.127250
503.309530	0.126375
503.527797	0.127087
503.746045	0.125818
503.964275	0.126107
504.182487	0.126046
504.400681	0.127096
504.618856	0.128188
504.837013	0.127984
505.055152	0.128685
505.273273	0.128321
505.491376	0.128079
505.709460	0.129135
505.927526	0.128770
506.145574	0.127990
506.363604	0.127864
506.581615	0.126812
506.799608	0.126337
507.017583	0.126078
507.235540	0.125586
507.453478	0.124671
507.671399	0.123958
507.889301	0.123947
508.107185	0.124233
508.325050	0.124572
508.542898	0.124516
508.760727	0.124853
508.978538	0.124604
509.196330	0.124982
509.414105	0.126125
509.631861	0.126267
509.849599	0.126495
510.067319	0.127473
510.285021	0.127217
510.502704	0.127839
510.720369	0.127446
510.938016	0.127861
511.155645	0.128402
511.373255	0.128599
511.590848	0.128072
511.808422	0.128412
512.025977	0.127336
512.243515	0.127132
512.461034	0.126349
512.678536	0.127201
512.896018	0.127365
513.113483	0.127822
513.330930	0.126933
513.548358	0.128206
513.765768	0.127666
513.983160	0.128359
514.200533	0.128821
514.417889	0.128933
514.635226	0.129098
514.852545	0.129022
515.069845	0.128416
515.287128	0.128718
515.504392	0.127693
515.721638	0.128693
515.938866	0.128995
516.156075	0.128594
516.373267	0.128023
516.590440	0.127002
516.807594	0.126753
517.024731	0.126803
517.241850	0.128267
517.458950	0.128290
517.676032	0.128255
517.893095	0.128261
518.110141	0.128034
518.327168	0.129138
518.544177	0.130492
518.761168	0.130937
518.978141	0.131971
519.195095	0.131179
519.412031	0.132498
519.628949	0.133030
519.845849	0.133179
520.062731	0.133801
520.279594	0.133609
520.496439	0.133647
520.713266	0.134158
520.930074	0.133278
521.146865	0.133759
521.363637	0.132557
521.580391	0.131887
521.797127	0.131697
522.013844	0.132063
522.230543	0.131851
522.447224	0.130963
522.663887	0.130824
522.880532	0.131808
523.097158	0.131589
523.313766	0.132372
523.530356	0.132305
523.746928	0.131936
523.963481	0.131787
524.180017	0.132832
524.396534	0.133564
524.613032	0.133590
524.829513	0.133299
525.045975	0.133040
525.262420	0.133470
525.478845	0.133938
525.695253	0.134149
525.911643	0.134101
526.128014	0.133533
526.344367	0.133735
526.560702	0.133132
526.777018	0.133191
526.993316	0.133848
527.209597	0.133220
527.425858	0.133851
527.642102	0.134070
527.858328	0.134526
528.074535	0.134857
528.290724	0.135504
528.506894	0.136635
528.723047	0.136823
528.939181	0.137267
529.155297	0.137865
529.371395	0.136726
529.587475	0.137693
529.803536	0.137477
530.019579	0.137267
530.235604	0.136576
530.451611	0.136888
530.667600	0.137381
530.883570	0.137752
531.099522	0.137808
531.315456	0.138933
531.531372	0.138523
531.747269	0.139050
531.963148	0.139650
532.179009	0.140220
532.394852	0.140706
532.610676	0.140730
532.826482	0.140056
533.042271	0.139803
533.258040	0.140136
533.473792	0.140037
533.689525	0.139656
533.905240	0.139845
534.120937	0.139580
534.336616	0.138972
534.552277	0.138829
534.767919	0.139023
534.983543	0.139360
535.199149	0.139016
535.414736	0.139754
535.630306	0.140039
535.845857	0.139947
536.061390	0.140370
536.276904	0.140688
536.492401	0.141109
536.707879	0.141195
536.923339	0.141655
537.138781	0.142586
537.354204	0.142271
537.569610	0.143301
537.784997	0.143711
538.000366	0.143918
538.215716	0.143707
538.431049	0.143089
538.646363	0.143412
538.861659	0.143446
539.076937	0.142823
539.292196	0.142994
539.507438	0.142508
539.722661	0.142699
539.937866	0.142972
540.153052	0.143219
540.368221	0.143819
540.583371	0.144337
540.798503	0.144107
541.013617	0.144388
541.228712	0.144776
541.443789	0.144982
541.658848	0.144634
541.873889	0.144511
542.088912	0.145098
542.303916	0.145338
542.518902	0.145498
542.733870	0.146121
542.948820	0.145857
543.163752	0.146149
543.378665	0.146053
543.593560	0.146593
543.808437	0.147073
544.023295	0.146827
544.238136	0.147238
544.452958	0.147064
544.667762	0.147309
544.882548	0.148224
545.097315	0.148412
545.312064	0.149497
545.526795	0.149768
545.741508	0.149848
545.956203	0.150473
546.170879	0.150651
546.385537	0.151029
546.600177	0.150742
546.814799	0.150590
547.029402	0.150272
547.243988	0.149473
547.458555	0.149505
547.673103	0.149161
547.887634	0.148990
548.102146	0.148965
548.316640	0.149092
548.531116	0.149482
548.745574	0.149709
548.960013	0.150174
549.174435	0.150224
549.388838	0.150211
549.603222	0.150943
549.817589	0.150695
550.031937	0.150440
550.246267	0.150413
550.460579	0.150206
550.674873	0.150226
550.889148	0.150490
551.103405	0.151010
551.317644	0.151910
551.531865	0.151535
551.746068	0.151650
551.960252	0.151909
552.174418	0.151943
552.388566	0.152233
552.602696	0.152144
552.816807	0.152085
553.030900	0.151853
553.244975	0.151561
553.459032	0.151995
553.673070	0.151849
553.887091	0.151990
554.101093	0.151990
554.315077	0.151788
554.529042	0.151865
554.742990	0.151806
554.956919	0.151834
555.170830	0.151819
555.384722	0.151768
555.598597	0.151989
555.812453	0.152209
556.026291	0.152381
556.240111	0.152921
556.453913	0.153276
556.667696	0.153520
556.881461	0.153973
557.095208	0.153719
557.308937	0.153858
557.522647	0.153897
557.736339	0.153792
557.950013	0.154018
558.163669	0.154251
558.377307	0.154212
558.590926	0.154076
558.804527	0.154295
559.018110	0.154198
559.231675	0.154281
559.445221	0.154916
559.658749	0.155494
559.872259	0.155718
560.085751	0.155351
560.299225	0.155598
560.512680	0.156054
560.726117	0.155811
560.939536	0.155951
561.152937	0.156124
561.366319	0.156257
561.579683	0.155390
561.793029	0.155289
562.006357	0.155499
562.219667	0.155416
562.432958	0.155258
562.646231	0.155121
562.859486	0.155485
563.072723	0.155653
563.285941	0.155434
563.499141	0.155999
563.712323	0.155678
563.925487	0.156037
564.138632	0.155848
564.351760	0.156415
564.564869	0.157154
564.777960	0.157274
564.991032	0.157011
565.204087	0.157270
565.417123	0.157443
565.630141	0.157810
565.843140	0.157937
566.056122	0.158162
566.269085	0.157980
566.482030	0.157951
566.694957	0.158234
566.907866	0.158670
567.120756	0.158589
567.333628	0.158983
567.546482	0.159203
567.759318	0.158833
567.972135	0.159320
568.184935	0.159172
568.397716	0.158732
568.610478	0.158539
568.823223	0.158237
569.035949	0.158478
569.248657	0.158118
569.461347	0.157960
569.674019	0.158200
569.886672	0.157734
570.099308	0.157807
570.311925	0.157949
570.524523	0.157940
570.737104	0.158115
570.949666	0.158117
571.162210	0.158235
571.374736	0.158231
571.587244	0.158194
571.799733	0.158276
572.012205	0.158420
572.224658	0.158597
572.437092	0.158683
572.649509	0.158957
572.861907	0.159236
573.074287	0.159298
573.286649	0.159431
573.498993	0.159598
573.711318	0.160261
573.923625	0.160341
574.135914	0.160725
574.348185	0.160937
574.560438	0.160887
574.772672	0.160851
574.984888	0.160923
575.197086	0.161385
575.409266	0.161451
575.621427	0.161375
575.833570	0.161060
576.045695	0.160793
576.257802	0.160840
576.469890	0.160400
576.681961	0.160477
576.894013	0.160611
577.106046	0.160463
577.318062	0.160235
577.530059	0.159903
577.742039	0.160613
577.954000	0.160711
578.165942	0.160901
578.377867	0.161361
578.589773	0.161080
578.801661	0.161084
579.013531	0.160910
579.225382	0.161727
579.437216	0.162152
579.649031	0.162362
579.860828	0.162295
580.072606	0.162356
580.284367	0.162315
580.496109	0.162748
580.707833	0.163149
580.919539	0.163319
581.131227	0.163150
581.342896	0.163040
581.554547	0.162647
581.766180	0.162851
581.977795	0.162604
582.189391	0.162943
582.400969	0.163065
582.612529	0.163096
582.824071	0.163431
583.035595	0.163681
583.247100	0.164052
583.458587	0.164140
583.670056	0.164342
583.881506	0.164602
584.092939	0.164595
584.304353	0.164663
584.515749	0.164391
584.727127	0.164120
584.938486	0.163665
585.149828	0.163434
585.361151	0.163603
585.572456	0.163726
585.783742	0.163941
585.995011	0.164066
586.206261	0.164199
586.417493	0.164455
586.628706	0.164785
586.839902	0.165393
587.051079	0.165609
587.262238	0.165809
587.473379	0.166045
587.684502	0.166186
587.895606	0.166494
588.106692	0.166272
588.317760	0.166239
588.528810	0.166038
588.739841	0.165914
588.950855	0.165864
589.161850	0.165759
589.372827	0.165979
589.583785	0.166315
589.794726	0.166454
590.005648	0.166765
590.216552	0.167071
590.427437	0.167555
590.638305	0.167648
590.849154	0.167962
591.059985	0.168116
591.270798	0.167972
591.481592	0.167758
591.692369	0.167599
591.903127	0.167413
592.113867	0.167358
592.324588	0.166869
592.535292	0.167075
592.745977	0.167200
592.956644	0.167164
593.167293	0.167697
593.377923	0.167869
593.588536	0.168163
593.799130	0.168467
594.009706	0.168948
594.220263	0.169262
594.430803	0.168926
594.641324	0.168640
594.851827	0.168677
595.062312	0.168277
595.272778	0.168061
595.483227	0.168000
595.693657	0.168006
595.904069	0.167995
596.114462	0.168193
596.324838	0.168317
596.535195	0.168623
596.745534	0.168631
596.955855	0.168753
597.166157	0.168622
597.376441	0.168590
597.586707	0.168304
597.796955	0.168121
598.007185	0.168235
598.217396	0.168572
598.427589	0.168571
598.637764	0.168920
598.847921	0.168737
599.058060	0.169239
599.268180	0.169233
599.478282	0.169817
599.688366	0.169686
599.898431	0.169784
600.108479	0.169658
600.318508	0.169734
600.528519	0.169739
600.738511	0.170036
600.948486	0.170103
601.158442	0.170180
601.368380	0.170103
601.578300	0.170546
601.788202	0.170256
601.998085	0.170671
602.207950	0.170979
602.417797	0.171263
602.627626	0.170929
602.837436	0.170982
603.047228	0.171130
603.257002	0.171100
603.466758	0.170911
603.676496	0.171561
603.886215	0.171298
604.095916	0.170956
604.305599	0.170820
604.515264	0.171231
604.724910	0.171354
604.934538	0.171472
605.144148	0.171758
605.353740	0.171973
605.563314	0.171761
605.772869	0.171913
605.982406	0.172025
606.191925	0.172079
606.401425	0.172029
606.610908	0.171852
606.820372	0.171911
607.029818	0.171884
607.239246	0.171688
607.448655	0.171857
607.658047	0.171961
607.867420	0.172145
608.076775	0.172039
608.286111	0.172009
608.495430	0.172117
608.704730	0.172291
608.914012	0.171885
609.123275	0.172157
609.332521	0.172296
609.541748	0.172041
609.750957	0.171984
609.960148	0.172419
610.169321	0.172807
610.378475	0.173082
610.587611	0.172872
610.796729	0.173251
611.005829	0.173508
611.214910	0.173688
611.423974	0.174013
611.633019	0.174182
611.842045	0.173941
612.051054	0.174024
612.260044	0.174230
612.469017	0.174186
612.677970	0.174198
612.886906	0.173912
613.095824	0.173830
613.304723	0.173580
613.513604	0.173495
613.722467	0.173260
613.931311	0.173169
614.140138	0.172739
614.348946	0.173100
614.557736	0.173226
614.766507	0.173085
614.975261	0.172831
615.183996	0.173337
615.392713	0.173405
615.601412	0.173834
615.810092	0.173885
616.018754	0.174233
616.227399	0.174138
616.436024	0.174239
616.644632	0.174525
616.853222	0.174762
617.061793	0.174696
617.270346	0.174779
617.478880	0.174825
617.687397	0.175065
617.895895	0.174893
618.104375	0.175197
618.312837	0.175311
618.521281	0.175470
618.729706	0.175637
618.938113	0.175764
619.146502	0.175882
619.354873	0.175668
619.563226	0.175397
619.771560	0.175554
619.979876	0.175414
620.188174	0.175485
620.396453	0.175558
620.604715	0.175368
620.812958	0.175299
621.021183	0.175027
621.229390	0.175411
621.437578	0.175508
621.645748	0.175679
621.853900	0.175708
622.062034	0.175657
622.270150	0.175443
622.478247	0.175680
622.686326	0.175655
622.894387	0.176140
623.102430	0.175873
623.310454	0.175889
623.518461	0.176060
623.726449	0.176094
623.934418	0.176304
624.142370	0.176530
624.350303	0.176335
624.558218	0.176405
624.766115	0.176269
624.973994	0.176573
625.181855	0.176762
625.389697	0.176492
625.597521	0.176444
625.805327	0.176375
626.013114	0.176603
626.220883	0.176768
626.428634	0.176853
626.636367	0.177003
626.844082	0.176939
627.051778	0.176974
627.259457	0.177194
627.467117	0.177334
627.674758	0.177338
627.882382	0.177408
628.089987	0.177486
628.297574	0.177650
628.505143	0.177715
628.712694	0.178226
628.920226	0.178265
629.127740	0.178309
629.335236	0.178421
629.542714	0.178536
629.750174	0.178659
629.957615	0.178775
630.165038	0.178938
630.372443	0.179147
630.579829	0.179147
630.787198	0.179442
630.994548	0.179573
631.201880	0.179774
631.409194	0.179719
631.616489	0.179612
631.823766	0.179831
632.031025	0.180023
632.238266	0.180066
632.445489	0.179907
632.652693	0.179773
632.859879	0.179705
633.067047	0.179813
633.274197	0.180334
633.481329	0.180507
633.688442	0.180521
633.895537	0.180483
634.102614	0.180568
634.309672	0.180695
634.516713	0.180755
634.723735	0.180959
634.930739	0.180929
635.137724	0.180905
635.344692	0.180673
635.551641	0.180723
635.758572	0.180606
635.965485	0.180755
636.172379	0.180649
636.379256	0.180912
636.586114	0.180874
636.792954	0.181013
636.999775	0.180861
637.206579	0.181105
637.413364	0.181046
637.620131	0.181288
637.826880	0.181106
638.033610	0.181415
638.240323	0.181521
638.447017	0.181791
638.653692	0.181757
638.860350	0.181889
639.066990	0.182006
639.273611	0.182301
639.480214	0.182532
639.686798	0.182508
639.893365	0.182478
640.099913	0.182537
640.306443	0.182467
640.512955	0.182563
640.719449	0.182636
640.925924	0.182776
641.132381	0.182776
641.338820	0.182517
641.545241	0.182952
641.751644	0.182935
641.958028	0.182937
642.164394	0.183090
642.370742	0.183163
642.577071	0.183407
642.783383	0.183344
642.989676	0.183412
643.195951	0.183630
643.402207	0.183610
643.608446	0.183870
643.814666	0.183960
644.020868	0.183969
644.227052	0.184099
644.433218	0.184031
644.639365	0.184172
644.845494	0.184457
645.051605	0.184695
645.257698	0.184460
645.463772	0.184481
645.669828	0.184659
645.875866	0.184819
646.081886	0.184907
646.287888	0.184984
646.493871	0.185012
646.699836	0.184919
646.905783	0.184847
647.111712	0.185437
647.317622	0.185436
647.523514	0.185301
647.729388	0.185456
647.935244	0.185667
648.141082	0.185639
648.346901	0.185826
648.552702	0.185949
648.758485	0.185765
648.964250	0.185653
649.169996	0.185605
649.375724	0.185854
649.581434	0.185791
649.787126	0.185623
649.992800	0.185805
650.198455	0.185838
650.404092	0.185944
650.609711	0.185969
650.815311	0.186152
651.020894	0.186383
651.226458	0.186409
651.432004	0.186828
651.637532	0.187009
651.843041	0.187419
652.048532	0.187667
652.254006	0.187762
652.459460	0.188189
652.664897	0.188049
652.870315	0.188295
653.075716	0.188544
653.281097	0.188538
653.486461	0.188827
653.691807	0.188936
653.897134	0.189173
654.102443	0.189399
654.307734	0.189568
654.513006	0.190067
654.718261	0.190010
654.923497	0.190033
655.128715	0.189964
655.333915	0.190001
655.539096	0.189806
655.744259	0.189894
655.949404	0.190189
656.154531	0.190284
656.359640	0.190189
656.564730	0.190298
656.769802	0.190462
656.974856	0.190492
657.179892	0.190761
657.384909	0.190955
657.589908	0.190880
657.794889	0.190822
657.999852	0.190934
658.204797	0.190946
658.409723	0.191213
658.614631	0.191207
658.819521	0.191544
659.024393	0.191313
659.229246	0.191370
659.434081	0.191505
659.638898	0.191437
659.843697	0.191271
660.048478	0.191483
660.253240	0.191542
660.457984	0.191565
660.662710	0.191526
660.867417	0.191675
661.072107	0.192063
661.276778	0.191914
661.481431	0.192112
661.686066	0.192464
661.890682	0.192355
662.095281	0.192480
662.299861	0.192670
662.504422	0.192718
662.708966	0.192962
662.913491	0.192760
663.117999	0.192880
663.322488	0.192847
663.526958	0.192859
663.731411	0.193001
663.935845	0.192785
664.140261	0.192821
664.344659	0.192982
664.549038	0.192728
664.753400	0.192844
664.957743	0.193353
665.162068	0.193376
665.366375	0.193485
665.570663	0.193565
665.774933	0.194065
665.979185	0.194329
666.183419	0.194254
666.387635	0.194642
666.591832	0.194604
666.796011	0.194397
667.000172	0.194527
667.204315	0.194629
667.408439	0.194832
667.612545	0.194736
667.816634	0.194834
668.020703	0.194855
668.224755	0.194736
668.428788	0.194937
668.632803	0.195174
668.836800	0.195291
669.040779	0.195401
669.244739	0.195786
669.448681	0.195872
669.652605	0.195877
669.856511	0.196149
670.060399	0.196470
670.264268	0.196427
670.468119	0.196583
670.671952	0.196615
670.875767	0.196576
671.079563	0.196339
671.283341	0.196571
671.487101	0.196641
671.690843	0.196881
671.894567	0.197004
672.098272	0.197373
672.301959	0.197190
672.505628	0.197381
672.709278	0.197598
672.912911	0.197803
673.116525	0.197904
673.320121	0.198111
673.523699	0.198147
673.727258	0.198326
673.930799	0.198349
674.134322	0.198602
674.337827	0.198657
674.541314	0.198816
674.744782	0.198794
674.948232	0.198639
675.151664	0.198587
675.355078	0.198524
675.558474	0.198355
675.761851	0.198473
675.965210	0.198708
676.168551	0.198976
676.371873	0.199020
676.575178	0.198941
676.778464	0.199317
676.981732	0.199621
677.184981	0.199908
677.388213	0.200275
677.591426	0.200168
677.794621	0.200333
677.997798	0.200361
678.200956	0.200545
678.404097	0.201049
678.607219	0.201071
678.810323	0.200879
679.013408	0.200838
679.216476	0.200750
679.419525	0.200823
679.622556	0.200561
679.825569	0.200685
680.028563	0.200575
680.231540	0.200584
680.434498	0.200650
680.637438	0.200849
680.840359	0.201044
681.043263	0.201370
681.246148	0.201937
681.449015	0.202109
681.651864	0.202153
681.854694	0.202252
682.057506	0.202335
682.260301	0.202579
682.463076	0.202767
682.665834	0.202958
682.868573	0.202957
683.071295	0.202969
683.273998	0.203342
683.476682	0.203484
683.679349	0.203895
683.881997	0.203950
684.084627	0.204075
684.287239	0.204174
684.489833	0.204205
684.692408	0.204301
684.894965	0.204225
685.097504	0.204441
685.300025	0.204542
685.502527	0.204472
685.705012	0.204550
685.907478	0.204508
686.109925	0.204674
686.312355	0.204719
686.514766	0.204922
686.717159	0.205181
686.919534	0.204958
687.121891	0.204987
687.324230	0.205070
687.526550	0.205210
687.728852	0.205328
687.931136	0.205148
688.133401	0.205195
688.335649	0.205343
688.537878	0.205261
688.740089	0.205500
688.942281	0.205666
689.144456	0.205781
689.346612	0.205791
689.548750	0.205847
689.750870	0.206169
689.952971	0.206369
690.155055	0.206092
690.357120	0.206186
690.559167	0.206234
690.761195	0.206604
690.963206	0.206849
691.165198	0.206934
691.367172	0.207049
691.569128	0.207009
691.771065	0.207067
691.972984	0.207473
692.174885	0.207689
692.376768	0.207874
692.578633	0.207640
692.780479	0.207726
692.982308	0.208079
693.184118	0.208351
693.385909	0.208677
