sample name	sample
index	284
start time	 02-25-2021  12:15:49 PM
880	0.395467
Peak Time (s)	92.535
Peak Height 	0.3955
calc peak height	90,93
Baseline Time (s)	11.539
Baseline Value 	-0.002116
subtract baseline	10,4
Abs	0.288613
Peak Time (s)	91.538
Peak Height 	0.2886
calc peak height	90,93
Baseline Time (s)	11.539
Baseline Value 	0.00211
subtract baseline	10,3
PK_550	0.133871
Peak Time (s)	91.037
Peak Height 	0.1339
calc peak height	90,93
Baseline Time (s)	10.035
Baseline Value 	-3.6465E-4
subtract baseline	10,2
PK_880	0.279102
Peak Time (s)	92.535
Peak Height 	0.2791
calc peak height	90,93
Baseline Time (s)	10.535
Baseline Value 	-3.8541E-4
subtract baseline	10,1


Time (s)	A880-A510	A880-A775	A880-A975	A880	I510	I775	I975	I880	
0.034500	-0.000906	-0.000391	-0.007316	0.004073	6834.456686	45432.398070	3982.086023	24051.383796
0.537500	-0.002262	-0.000810	-0.003763	0.002845	6833.306161	45511.542480	3994.007230	24111.213597
1.035500	-0.002063	-0.000181	-0.005024	0.003111	6832.703922	45547.106029	3990.184034	24098.237353
1.537000	-0.001238	-0.000431	-0.003750	0.000313	6865.344528	45797.757134	4000.404090	24235.115763
2.036000	-0.001118	-0.000016	-0.007340	0.001956	6851.592032	45676.820835	3987.288644	24154.628213
2.536000	0.001994	0.000462	-0.001227	0.000859	6889.722362	45832.064754	4005.402591	24208.332750
3.039000	0.000630	0.000315	-0.001141	-0.001466	6898.482481	46047.654828	4011.528679	24322.634807
3.536500	-0.001243	0.000383	-0.001369	0.001151	6857.731575	45795.469142	4004.305127	24194.038616
4.037000	-0.000976	-0.000372	-0.002742	0.000790	6863.407915	45756.555929	4001.745508	24211.735261
4.540000	-0.000023	-0.000146	-0.003252	0.000565	6874.068678	45801.035112	4001.026867	24222.765437
5.037500	0.000605	0.001013	-0.002686	0.000896	6876.764452	45882.859986	4001.618763	24206.530711
5.535000	-0.000181	-0.000848	0.001971	-0.000239	6879.936228	45811.146800	4016.342268	24262.253209
6.035000	0.001146	0.000011	-0.002152	-0.000251	6892.113879	45897.179907	4005.873370	24262.843453
6.535500	-0.000637	0.000451	-0.006236	0.000607	6868.118368	45855.808192	3993.415111	24220.682472
7.036000	0.000292	0.000464	-0.001360	0.000854	6874.306431	45832.774695	4005.077939	24208.594002
7.539000	-0.001300	0.000154	-0.000128	0.000067	6867.004554	45879.801297	4010.202357	24247.179143
8.036500	-0.001498	0.000391	-0.002621	0.000531	6861.016842	45857.381409	4002.704125	24224.403059
8.537000	0.000278	-0.000291	-0.005365	-0.000430	6885.834708	45884.985068	3998.207596	24271.604764
9.037000	-0.000552	-0.000963	-0.004959	-0.000632	6880.130453	45838.556951	3999.738796	24281.549633
9.535000	0.000442	0.000444	0.002010	-0.000060	6883.958471	45921.031891	4015.981261	24253.431614
10.035000	-0.001459	0.000000	-0.001215	0.002688	6841.926800	45606.413127	4000.808459	24118.863878
10.535000	0.000000	-0.000004	0.002164	0.000036	6879.079930	45867.348186	4016.131899	24248.741657
11.035500	0.001298	0.000346	0.000119	0.000220	6889.209453	45883.754279	4010.444211	24239.714037
11.538500	-0.000753	0.000129	0.000000	0.000000	6872.568637	45884.027694	4010.700111	24250.494181
12.036000	-0.001658	0.000049	-0.002946	0.002732	6839.743638	45606.895302	3996.338973	24116.708515
12.536000	-0.000765	-0.000207	-0.001316	-0.000166	6873.969120	45867.187016	4007.776025	24258.646933
13.036500	0.001343	0.000702	-0.001477	-0.001485	6905.170211	46087.946652	4010.719872	24323.575336
13.536000	0.000385	-0.000301	-0.002548	-0.000835	6890.496988	45924.037534	4006.348212	24291.537754
14.043000	-0.001921	-0.000544	-0.000696	0.002765	6837.083141	45545.468286	4001.924927	24115.085572
14.537500	-0.001364	-0.000141	-0.002749	0.002258	6846.653558	45634.754688	3998.025922	24139.848279
15.034500	-0.001202	-0.000104	-0.001694	0.000096	6867.636488	45851.518000	4006.153610	24245.774621
15.543500	0.000698	0.000648	0.001073	0.000066	6885.142298	45928.836598	4013.265737	24247.254313
16.035500	0.000444	-0.000545	-0.001276	-0.001278	6895.062774	45943.696848	4010.704621	24313.347653
16.536000	0.001260	0.000786	0.001310	0.000000	6890.853816	45949.025677	4014.039754	24250.482450
17.036000	-0.000194	-0.000537	0.000461	-0.000965	6886.414219	45913.596767	4014.336003	24297.960299
17.536500	-0.000972	0.000683	-0.003276	0.002010	6852.418092	45740.254078	3997.324788	24151.976122
18.037000	-0.001502	-0.000329	-0.001201	0.000598	6860.381499	45779.719944	4006.130475	24221.148787
18.537000	0.000575	0.000369	-0.002836	0.000935	6876.142153	45815.396946	4001.142045	24204.628024
19.037000	-0.001375	-0.000208	-0.001342	0.000579	6861.702285	45793.616687	4005.821763	24222.086605
19.535000	-0.000041	-0.000811	-0.004039	0.000059	6878.502444	45785.422896	4000.317763	24247.614832
20.035000	-0.000815	0.000264	-0.007949	0.001888	6854.940937	45711.022673	3985.939119	24157.950529
20.535500	0.000513	-0.000191	0.002750	0.000444	6880.031142	45808.564738	4016.586222	24228.713969
21.036000	0.000530	0.000946	0.000176	0.001584	6869.850233	45808.306612	4007.122900	24172.845279
21.539000	0.000666	0.000441	-0.003885	0.000825	6877.958654	45833.325902	3998.773413	24210.000029
22.036000	-0.001596	-0.000398	0.000246	0.001723	6849.381300	45662.067939	4006.945357	24166.006092
22.536500	-0.001561	-0.000503	-0.000616	0.000606	6859.778617	45761.734134	4007.593077	24220.729191
23.037000	0.000533	-0.000018	0.002000	0.001220	6873.171667	45749.141935	4012.688646	24190.665494
23.537000	0.000803	0.000209	-0.001309	0.000511	6882.054072	45841.392818	4006.077800	24225.409792
24.037500	-0.002222	-0.000059	-0.001228	0.002162	6839.803373	45652.375108	4002.104123	24144.576951
24.535000	-0.000844	0.000482	-0.005160	0.001354	6859.496149	45785.198609	3994.241423	24184.083734
25.035500	0.000683	0.000313	-0.002769	0.000512	6880.960465	45851.591554	4002.379784	24225.359230
25.536000	0.001652	0.000211	-0.003385	0.001326	6882.365296	45761.255053	3998.773947	24185.470873
26.038500	-0.000465	0.000321	-0.006040	0.001045	6865.719835	45799.793428	3992.810064	24199.229272
26.536000	0.000316	-0.000079	-0.002721	0.001117	6872.138339	45753.299412	4000.975330	24195.718772
27.036500	0.000313	-0.000021	-0.005309	0.000945	6873.667086	45775.835023	3994.894548	24204.114966
27.537000	0.000692	0.000431	-0.002290	0.001383	6873.137625	45777.268785	4001.389079	24182.659147
28.037000	-0.002924	-0.000020	-0.006398	0.003898	6817.947890	45485.706827	3984.796503	24059.853418
28.537000	0.000743	0.000219	0.002051	-0.000549	6891.152539	45947.217113	4017.338756	24277.496418
29.035000	0.001150	0.000572	-0.001727	-0.000060	6890.403606	45933.815399	4006.464887	24253.441902
29.535000	-0.002290	-0.000916	-0.007441	0.003157	6830.257660	45470.602788	3984.047894	24095.996471
30.038000	-0.002951	0.000009	-0.001620	0.003748	6819.047920	45503.347170	3997.118326	24067.180878
30.538500	-0.000154	-0.000607	-0.003164	-0.001254	6889.402986	45935.238872	4005.848048	24312.179501
31.036000	0.000889	0.000768	0.001734	-0.000421	6891.314747	45988.882128	4016.199893	24271.173077
31.543000	-0.001451	-0.000212	-0.004662	0.003304	6836.460298	45525.177289	3990.604997	24088.800249
32.036500	-0.002207	0.000055	-0.006019	0.004110	6822.457004	45472.339666	3985.212663	24049.536031
32.537000	0.000729	0.001379	0.000249	0.000678	6879.867995	45940.624665	4009.609033	24217.237701
33.064000	0.001465	-0.000021	-0.001738	-0.001005	6901.895765	45968.663349	4008.835997	24299.927089
33.537500	-0.000905	-0.000216	-0.002406	0.003682	6837.976890	45487.681433	3995.309813	24070.376134
34.035000	-0.003869	-0.000782	-0.005936	0.002586	6821.232020	45539.717689	3989.217533	24123.855399
34.535500	-0.000100	0.000069	-0.002975	-0.001208	6889.476061	45997.629981	4006.209210	24309.893855
35.035000	-0.000983	0.000246	-0.000974	0.001010	6861.355339	45795.807248	4005.660901	24200.955629
35.535500	-0.003250	0.000592	0.000684	0.003224	6821.063735	45611.894557	4004.253812	24092.722128
36.036000	-0.000535	0.000590	-0.000321	0.003417	6843.685098	45592.797160	4001.226943	24083.316429
36.536000	0.000965	0.000293	0.002015	0.001369	6875.743822	45765.092917	4012.347313	24183.376237
37.037000	-0.000765	-0.000156	-0.000101	0.001015	6863.277081	45755.680148	4007.863333	24200.683370
37.537000	-0.000448	0.000382	-0.003837	0.003295	6845.565880	45584.358079	3992.693389	24089.261142
38.034000	0.000106	0.000070	-0.004053	0.001205	6869.439452	45759.259263	3997.395932	24191.384186
38.535000	-0.001185	-0.000348	-0.005011	0.001095	6858.757394	45728.811937	3995.264730	24196.754748
39.035000	-0.001227	-0.000219	-0.004164	0.000854	6860.561889	45765.387389	3998.000308	24208.609522
39.535500	-0.002792	0.000204	-0.003780	0.003290	6824.565361	45567.309281	3992.847332	24089.480128
40.036000	-0.001347	0.000717	0.000166	0.002304	6846.392138	45714.668018	4005.270509	24137.618787
40.535500	-0.000557	-0.000862	0.002234	0.000465	6870.132751	45740.305092	4015.214009	24227.670745
41.036500	0.000163	0.000253	0.001160	0.001284	6869.241422	45769.558800	4010.384634	24187.531788
41.536500	-0.000615	0.000319	-0.001118	0.001762	6857.883704	45728.967047	4003.393623	24164.140517
42.039500	-0.001514	-0.000312	-0.005442	0.002121	6846.540166	45631.409766	3991.614034	24146.557069
42.537000	-0.001054	0.000383	-0.000329	0.001348	6857.649903	45775.966090	4006.438670	24184.364057
43.034500	-0.000280	0.000101	0.000579	0.001249	6865.545374	45757.905664	4008.994450	24189.211609
43.535000	-0.000479	-0.000244	-0.002701	0.000753	6868.236010	45772.794461	4001.940936	24213.529661
44.037500	-0.000395	0.000156	-0.002972	0.002521	6853.017268	45638.125903	3996.805397	24127.016271
44.538000	0.000832	0.000786	-0.004956	0.001630	6872.172381	45787.933547	3994.061625	24170.597112
45.037500	0.002174	0.000308	-0.000074	-0.003045	6927.081970	46203.938245	4018.290006	24400.609990
45.536000	0.002478	0.000416	-0.000412	-0.001046	6911.523397	46015.984624	4012.315313	24301.919992
46.036500	-0.002294	0.000066	-0.005678	0.002322	6837.711419	45648.851511	3990.519651	24136.721097
46.536500	-0.001388	-0.000061	0.002103	-0.001104	6876.829820	45974.494751	4018.895277	24304.816609
47.037000	0.000689	0.001037	-0.001647	-0.000213	6887.600220	45994.960101	4007.055664	24260.940162
47.537500	-0.002199	0.000115	-0.003755	0.004415	6819.807130	45448.321952	3990.096657	24034.718108
48.037000	-0.002667	-0.000234	-0.005870	0.003072	6827.646374	45545.837942	3988.171831	24100.150748
48.548500	0.002904	0.001305	0.002068	0.000289	6903.214229	45971.809087	4015.237902	24236.299642
49.038000	-0.001511	-0.000313	-0.000563	0.001625	6851.031740	45680.125857	4005.142628	24170.811018
49.535500	-0.003561	-0.000301	-0.008406	0.004484	6807.033859	45400.897863	3978.369656	24031.360268
50.047000	-0.001919	0.000953	-0.002293	0.003870	6827.197004	45583.961910	3995.124076	24061.258032
50.536000	0.000789	0.001564	-0.005926	0.000336	6883.513449	45992.737258	3994.873066	24233.983072
51.036500	0.000268	-0.000396	-0.003867	-0.001131	6892.121884	45943.997254	4003.755835	24306.119368
51.537000	0.000523	0.001059	0.001920	0.005399	6835.380624	45444.489838	4001.879999	23986.934997
52.037500	-0.000614	0.000853	-0.002464	0.004951	6829.200813	45468.121050	3991.983235	24008.661364
52.537000	-0.009774	-0.006086	0.000582	0.003229	6763.103223	44960.513559	4003.982575	24092.491410
53.034000	-0.031840	-0.018344	-0.013858	0.249129	5001.059184	26133.915937	3508.532311	14938.033520
53.535000	-0.052007	-0.009581	-0.020482	0.160398	5354.173683	31969.272250	3634.102577	17662.835963
54.035500	-0.021639	-0.071708	-0.016771	-0.228163	9280.300954	64486.471575	4703.897394	38993.212683
54.538000	-0.030923	-0.168811	-0.002308	-0.332604	10834.343168	65535.000000	5270.382448	48800.863128
55.036500	-0.036980	-0.143874	-0.001157	-0.307667	10290.322464	65535.000000	5144.323275	46240.485641
55.536000	-0.036111	-0.124953	-0.004404	-0.288746	9990.918707	65535.000000	5032.895945	44393.530817
56.036500	-0.022329	-0.099374	0.003984	-0.263156	9801.696836	65533.450257	4950.267699	42020.267556
56.537000	-0.010285	-0.089016	0.006410	-0.252804	9828.501663	65534.334718	4913.281815	41099.233779
57.037000	0.002219	-0.079319	0.009363	-0.241754	9851.605944	65339.588275	4876.188258	40140.014838
57.537000	0.005654	-0.053528	0.010790	-0.205185	9343.622925	63810.228063	4722.978582	37134.056198
58.035000	0.017671	-0.033186	0.021921	-0.170473	9017.410390	61829.426645	4626.907982	34505.688574
58.535500	0.027227	-0.015960	0.034483	-0.125087	8535.837078	58132.618666	4501.573165	31371.157716
59.035500	0.039334	-0.004205	0.045969	-0.069380	8000.976157	52821.100962	4347.020953	27945.792881
59.536000	0.046513	0.002877	0.049448	-0.011447	7442.373290	47310.481674	4177.110201	24820.247828
60.036000	0.059462	0.010852	0.061553	0.037391	7084.972904	43326.916496	4073.952727	22490.675090
60.536500	0.075302	0.020450	0.081066	0.088951	6757.405836	39608.007803	3990.810943	20299.563442
61.036500	0.094183	0.031608	0.101495	0.125868	6601.968279	37496.933433	3950.366020	18883.070047
61.537000	0.122244	0.044172	0.133545	0.172391	6449.410296	34898.330530	3916.107744	17261.206822
62.036500	0.147727	0.060367	0.157172	0.217806	6291.822186	32819.433772	3866.640913	15837.034414
62.534500	0.170114	0.074067	0.180848	0.252068	6201.312770	31438.144307	3843.487153	14856.969084
63.037500	0.189790	0.087949	0.192703	0.280225	6138.164914	30516.883521	3808.917755	14107.437869
63.535500	0.203345	0.101483	0.211071	0.302802	6072.332747	29948.803127	3800.201322	13540.582697
64.036000	0.216716	0.108353	0.215339	0.300676	6186.266809	30513.951194	3813.476426	13592.723703
64.535500	0.224276	0.112616	0.226439	0.304829	6211.856929	30520.876915	3828.121488	13491.116336
65.036500	0.228949	0.117514	0.232771	0.314171	6176.835773	30240.255294	3821.747315	13266.114805
65.541500	0.234955	0.122563	0.243457	0.322906	6156.537348	30009.583282	3825.875849	13060.053181
66.037000	0.238495	0.124801	0.235355	0.329253	6135.780363	29754.720153	3795.744608	12912.883918
66.534500	0.245171	0.128683	0.248481	0.336416	6132.200029	29552.924465	3808.056430	12749.377568
67.037500	0.247453	0.130021	0.248137	0.340596	6118.266105	29379.446956	3798.701986	12655.219458
67.538000	0.249235	0.131891	0.258255	0.344019	6106.265335	29285.115010	3812.582498	12578.763768
68.035000	0.247753	0.131311	0.257082	0.351559	6041.087929	28797.254926	3794.559543	12412.481124
68.536000	0.252332	0.134622	0.255692	0.349748	6087.113532	29103.919769	3795.422814	12452.161623
69.036000	0.254919	0.134350	0.261266	0.351624	6092.270836	28974.855103	3803.034347	12411.046639
69.536000	0.256289	0.135042	0.259859	0.358857	6049.954523	28585.855854	3785.348817	12254.260030
70.036500	0.256153	0.137371	0.270511	0.363093	6018.770576	28473.492632	3798.449820	12163.638106
70.536500	0.259391	0.138069	0.263622	0.359821	6065.318130	28707.886125	3791.040102	12233.547925
71.037000	0.261206	0.138693	0.264950	0.361346	6067.404402	28654.501672	3790.637472	12200.895071
71.536500	0.261383	0.137203	0.262237	0.366207	6033.819303	28281.317302	3775.329955	12097.570855
72.040500	0.262495	0.138738	0.273997	0.368682	6024.118052	28226.583626	3794.133692	12045.404363
72.534500	0.268837	0.140149	0.271033	0.365422	6093.143686	28499.870629	3794.738808	12114.172410
73.035000	0.267784	0.141054	0.274980	0.366827	6075.323440	28470.502993	3799.960742	12084.466856
73.536500	0.264690	0.138630	0.268421	0.369979	6030.505379	28144.924793	3780.175563	12018.180825
74.036000	0.266356	0.140583	0.263734	0.373092	6020.209745	28077.699481	3764.600131	11953.175686
74.536000	0.270615	0.141262	0.272323	0.369598	6075.761545	28320.318131	3788.848187	12026.170842
75.036500	0.269796	0.141279	0.273078	0.370391	6064.128473	28275.001931	3788.769675	12009.553822
75.540000	0.272298	0.142116	0.279061	0.370810	6079.162131	28299.417737	3800.163451	12000.778641
76.037000	0.274404	0.144208	0.278164	0.373587	6074.319559	28259.461566	3792.625473	11942.897618
76.540000	0.274800	0.144081	0.276679	0.374042	6073.886247	28225.511517	3788.668475	11933.430491
77.037500	0.273888	0.143598	0.282387	0.373706	6069.736481	28217.036603	3801.050546	11940.424178
77.537500	0.274353	0.144112	0.280126	0.374239	6069.236517	28215.867448	3795.303350	11929.343166
78.035500	0.275899	0.144223	0.283875	0.375292	6072.792740	28161.123170	3800.848060	11907.518678
78.536000	0.277838	0.144153	0.274894	0.376127	6080.784260	28108.689664	3780.831098	11890.257630
79.036500	0.277840	0.143602	0.279861	0.376174	6080.457077	28074.004240	3790.805392	11889.280884
79.536500	0.278205	0.143709	0.283115	0.377941	6070.322910	27978.232452	3793.845705	11852.868733
80.036500	0.272705	0.141053	0.279477	0.381662	6004.481898	27613.400113	3778.914465	11776.638169
80.539500	0.277473	0.142863	0.281633	0.378160	6063.465511	27916.842936	3790.370521	11848.346896
81.034500	0.277300	0.142145	0.279754	0.377501	6066.971584	27913.494737	3787.887245	11861.920717
81.537500	0.275438	0.141402	0.280735	0.380801	6029.980711	27682.193442	3783.187852	11794.217768
82.035000	0.275786	0.141383	0.280779	0.385204	6001.229439	27431.648924	3774.418004	11704.676041
82.537500	0.277467	0.141579	0.281160	0.379953	6050.543027	27740.643874	3785.763548	11811.563311
83.035500	0.276615	0.139448	0.280297	0.379761	6045.812365	27630.220614	3784.405674	11815.502459
83.536000	0.275688	0.141326	0.280911	0.384742	6003.797443	27454.418691	3775.607045	11714.019684
84.036000	0.273614	0.139320	0.280398	0.387494	5969.900231	27187.442866	3769.089000	11658.464465
84.536500	0.279671	0.139768	0.278251	0.382717	6046.526564	27480.838730	3774.335808	11755.142039
85.036500	0.278137	0.139523	0.287535	0.384397	6023.591754	27372.315422	3789.687719	11721.009851
85.537500	0.277133	0.137447	0.279604	0.384885	6013.007080	27228.531589	3772.704752	11711.120874
86.040000	0.274751	0.136823	0.284241	0.389506	5963.792605	26937.089786	3772.738560	11618.061217
86.535000	0.279180	0.135512	0.283621	0.384263	6031.977307	27155.283602	3782.023064	11723.737745
87.035000	0.276298	0.136413	0.281865	0.386269	5997.328197	27093.740350	3774.460075	11683.144388
87.538000	0.277482	0.135286	0.279854	0.387591	5996.357716	26958.012757	3767.814148	11656.517075
88.036000	0.275834	0.134649	0.281701	0.392187	5952.673085	26670.389701	3762.370569	11564.506362
88.539000	0.278427	0.134785	0.287397	0.388531	5996.393488	26878.471427	3781.030949	11637.615944
89.036000	0.278299	0.135624	0.285031	0.389719	5987.133800	26859.225438	3773.891469	11613.790191
89.536500	0.278110	0.134590	0.283604	0.391077	5976.282568	26727.854121	3768.338049	11586.634606
90.036500	0.277547	0.133513	0.286900	0.390318	5977.659878	26710.475365	3776.437265	11601.811543
90.540000	0.277454	0.131982	0.283904	0.391278	5970.290459	26574.595537	3768.535043	11582.630692
91.037000	0.278555	0.133871	0.286797	0.393056	5965.563602	26580.604864	3770.756119	11547.233643
91.538000	0.274821	0.130649	0.288613	0.394457	5929.958735	26330.405465	3771.581966	11519.435504
92.035500	0.275421	0.130699	0.284986	0.394114	5936.461332	26351.576180	3765.055504	11526.227589
92.535500	0.279102	0.131435	0.288218	0.395467	5952.587658	26318.352040	3768.782973	11499.452342
93.036000	0.277075	0.131073	0.287425	0.396102	5934.162060	26264.768019	3765.949208	11486.915216
93.539000	0.277976	0.129424	0.296437	0.396311	5938.942970	26165.197259	3783.574180	11482.794201
94.036500	0.277883	0.129819	0.288042	0.398434	5923.661924	26073.035898	3762.556598	11441.027368
94.537000	0.277826	0.128023	0.283789	0.398301	5924.183035	25984.636465	3754.462339	11443.643180
95.037500	0.280831	0.129450	0.290098	0.400204	5931.765552	25959.376921	3763.120314	11406.346301
95.603000	0.278969	0.129581	0.291009	0.401822	5907.866585	25880.765626	3761.726688	11374.792204
96.034500	0.276360	0.127022	0.288796	0.400798	5897.043170	25799.831219	3759.384943	11394.760838
96.537500	0.278900	0.127531	0.290247	0.402369	5903.656985	25744.021571	3759.147600	11364.149858
97.035500	0.278542	0.127397	0.291536	0.403757	5891.748066	25664.257382	3758.953463	11337.187025
