sample name	sample
index	929
start time	 04-12-2021  12:16:00 PM
880	0.428845
Peak Time (s)	122.537
Peak Height 	0.4288
calc peak height	120,123
Baseline Time (s)	11.536
Baseline Value 	-0.004928
subtract baseline	10,4
Abs	0.348923
Peak Time (s)	122.037
Peak Height 	0.3489
calc peak height	120,123
Baseline Time (s)	10.536
Baseline Value 	0.001541
subtract baseline	10,3
PK_550	0.199582
Peak Time (s)	120.535
Peak Height 	0.1996
calc peak height	120,123
Baseline Time (s)	10.536
Baseline Value 	-7.8589E-5
subtract baseline	10,2
PK_880	0.336399
Peak Time (s)	120.535
Peak Height 	0.3364
calc peak height	120,123
Baseline Time (s)	11.036
Baseline Value 	0.002085
subtract baseline	10,1


Time (s)	A880-A510	A880-A775	A880-A975	A880	I510	I775	I975	I880	
0.035000	-0.001302	-0.000455	0.000136	0.003167	7159.599875	43382.388458	3936.815031	23293.483157
0.538000	-0.002546	-0.000562	0.000889	0.004333	7135.940736	43263.998093	3935.786921	23238.778441
1.035500	0.000180	0.000662	-0.003804	0.005118	7154.984285	43304.857036	3922.241647	23202.018496
1.536500	-0.004742	0.000422	-0.009993	0.008162	7077.356641	43000.678526	3899.795184	23060.099959
2.036000	-0.001399	0.000818	0.005458	0.002105	7169.110557	43600.493303	3952.833752	23343.475384
2.539000	-0.000560	0.000125	0.000217	0.001169	7186.657326	43623.222494	3942.006325	23387.604209
3.039500	0.002088	0.000262	0.002804	-0.001047	7235.116840	43844.266294	3954.092302	23492.486485
3.537000	-0.000382	0.000118	-0.004776	0.002216	7178.059564	43524.637655	3926.996486	23338.250801
4.034500	-0.000653	0.000775	0.002810	0.001499	7182.472628	43653.223003	3947.683943	23372.044069
4.534500	-0.001400	0.000315	0.000097	0.001564	7174.442816	43604.013549	3940.716825	23368.961918
5.035000	0.000158	0.000251	-0.003394	0.000896	7196.487188	43660.635330	3933.684862	23400.507324
5.535500	-0.000997	0.000457	-0.001541	0.000939	7184.601935	43675.841927	3938.187640	23398.455581
6.035500	-0.000756	0.000254	-0.001951	0.000479	7191.558398	43700.039031	3938.314093	23420.213621
6.536000	-0.000033	-0.000112	0.004485	0.000702	7196.521230	43644.772478	3953.921593	23409.673491
7.039000	0.000964	0.001025	-0.000809	0.000968	7203.780517	43726.471997	3939.942205	23397.097144
7.536500	0.000005	0.000528	-0.004524	0.000438	7199.518841	43729.573240	3932.017227	23422.147989
8.037000	-0.000940	-0.000035	-0.001092	0.000058	7193.909598	43712.444131	3941.510069	23440.124354
8.537000	0.000206	-0.000288	0.001611	-0.000081	7206.678076	43701.673919	3948.642853	23446.694803
9.037500	-0.000207	-0.000669	-0.005599	-0.000650	7208.236221	43719.396879	3932.049829	23473.681399
9.535000	-0.000196	0.000129	0.000459	0.000076	7201.118094	43726.137204	3945.354300	23439.291205
10.035500	-0.000285	0.000438	-0.000815	0.000747	7193.567197	43692.102798	3940.480376	23407.531570
10.535500	0.001007	0.000000	0.000000	0.000285	7211.007492	43694.347926	3943.675768	23429.367369
11.035500	0.000000	-0.000277	-0.001042	-0.000027	7204.093026	43697.731684	3941.848923	23444.163937
11.535500	0.000369	0.000065	0.000074	0.000000	7207.499393	43727.232641	3944.576151	23442.878172
12.036500	0.000563	0.000454	0.002560	0.000758	7201.874932	43692.605720	3948.918222	23407.003474
12.537000	0.001021	-0.000240	0.000871	-0.000046	7214.452397	43702.954421	3946.696096	23445.076916
13.037000	0.001065	0.000708	0.000880	-0.001203	7226.434688	43900.949325	3949.627395	23499.891521
13.537000	-0.001598	0.000150	0.000219	-0.000226	7190.198035	43756.481569	3945.507279	23453.565969
14.037500	-0.000672	-0.000505	-0.001640	-0.000215	7199.275356	43693.911289	3940.821708	23453.047259
14.535000	0.000254	-0.000119	-0.000999	0.002950	7177.088046	43433.923716	3934.532881	23303.704402
15.035500	-0.000347	0.000331	0.000930	0.000759	7192.839856	43680.953298	3944.821086	23406.974565
15.549500	0.000771	0.001020	-0.001081	0.000509	7206.429156	43769.145765	3940.411177	23418.803775
16.036000	0.000977	0.000704	0.002612	0.000714	7206.438593	43720.180265	3949.162623	23409.104426
16.539000	0.000383	-0.000572	0.001255	0.000646	7201.205942	43606.865199	3945.918327	23412.308435
17.036500	0.001251	0.001177	-0.002232	0.000421	7212.086572	43792.198964	3937.757502	23422.956616
17.537000	0.002478	0.001209	0.005394	-0.002485	7253.468671	44069.500896	3964.331517	23560.841551
18.037000	0.000084	0.000061	0.003844	0.000953	7195.180779	43637.414826	3951.665212	23397.792367
18.537500	-0.000044	0.000600	-0.000057	0.001894	7184.592350	43599.764446	3939.508762	23353.411195
19.035000	-0.001108	-0.000125	0.001507	0.000969	7183.218795	43618.551770	3945.741007	23397.064294
19.535000	-0.001715	-0.000084	-0.001498	0.001479	7172.166865	43574.636427	3936.950125	23372.962402
20.035000	-0.003186	-0.000663	0.003424	0.000910	7163.270873	43573.654078	3950.714186	23399.826268
20.536000	-0.001127	0.000192	-0.002792	0.001847	7174.345037	43566.024274	3932.818889	23355.649678
21.036000	0.000427	0.000599	-0.002562	0.001823	7189.960133	43606.425908	3933.450600	23356.774663
21.536000	0.000622	-0.000373	-0.001745	0.001607	7194.034601	43535.586434	3936.017655	23366.942757
22.036500	0.000335	0.000771	-0.001131	0.002189	7185.419299	43588.159504	3936.097217	23339.506007
22.536500	-0.001249	0.000006	0.004970	0.001714	7174.450128	43561.057777	3952.587767	23361.885361
23.037000	-0.000157	0.000382	0.000975	0.002185	7180.596392	43552.253710	3941.362737	23339.716959
23.537500	0.000371	0.000108	0.000315	0.001722	7190.406045	43569.914396	3940.868891	23361.531372
24.035000	-0.002451	-0.000963	-0.000480	0.000859	7171.023949	43550.401713	3941.038756	23402.247099
24.535500	0.001492	-0.000630	0.003042	0.001491	7203.832396	43522.434532	3948.289059	23372.429433
25.035500	-0.001449	-0.000228	0.002182	0.001179	7177.759210	43589.211965	3946.911131	23387.139131
25.536000	-0.001672	0.000451	0.000546	0.001631	7171.090354	43610.404909	3941.673858	23365.793889
26.039000	-0.000037	0.001272	0.001753	0.002942	7174.295727	43564.608566	3941.414120	23304.068167
26.536500	0.000164	-0.000475	0.003309	0.001293	7192.606351	43555.462840	3949.459922	23381.759816
27.037000	-0.001389	-0.000085	-0.003524	0.001426	7175.915237	43579.472223	3932.048022	23375.492574
27.537000	0.000983	0.000385	0.004489	-0.000508	7218.679093	43805.144339	3956.997074	23466.943006
28.037500	0.000464	0.000153	-0.000615	-0.000805	7216.457096	43811.207902	3944.868424	23481.002810
28.537500	0.002551	-0.000490	0.002430	-0.000341	7232.690341	43707.245693	3951.366106	23459.048765
29.035000	0.001706	0.001020	-0.006406	0.000452	7216.313762	43774.528922	3927.326319	23421.481132
29.535500	-0.001386	-0.000407	-0.003035	-0.000101	7191.061497	43692.399816	3937.058089	23447.654434
30.036000	0.000849	-0.000289	-0.000230	-0.000304	7215.306274	43722.567519	3944.576530	23457.261437
30.536000	-0.000302	0.000121	0.004261	0.000010	7200.724901	43731.640058	3955.108397	23442.427414
31.056000	0.001773	0.000071	-0.001943	0.000188	7219.610442	43710.153301	3939.060292	23433.964681
31.536500	-0.000644	-0.000030	0.010532	0.002966	7168.064185	43440.758671	3963.532850	23302.941829
32.037500	-0.000804	0.000171	0.001762	0.000500	7190.871027	43690.213100	3947.561845	23419.208631
32.551000	-0.000565	-0.001295	-0.003642	0.000234	7195.878130	43577.778741	3934.712145	23431.780257
33.034500	-0.000426	0.000362	0.001652	0.000204	7197.561970	43735.977363	3948.029630	23433.216423
33.538000	0.000476	-0.000378	-0.000429	-0.000094	7209.493024	43694.474013	3943.549695	23447.314406
34.035000	0.000120	-0.000721	-0.001739	-0.001474	7219.704466	43791.894513	3943.727977	23512.775504
34.536000	-0.001911	-0.000420	0.000178	0.001192	7173.074103	43570.084795	3941.852451	23386.543113
35.036000	-0.001463	-0.000558	-0.002967	0.001641	7173.060664	43515.192311	3932.895146	23365.348783
35.538500	-0.001395	0.000018	-0.000169	0.002197	7168.240573	43516.994448	3938.471788	23339.114449
36.036500	-0.001782	-0.001090	-0.003300	0.001558	7170.731352	43473.209917	3932.275003	23369.263116
36.536500	-0.001528	-0.000356	-0.000702	0.002173	7167.160900	43484.285882	3937.203546	23340.260728
37.036500	0.000199	0.000040	-0.003430	0.002321	7182.765275	43507.492378	3930.062723	23333.286745
37.537000	-0.000289	-0.000227	0.001934	0.002226	7178.871839	43491.381343	3943.659467	23337.748604
38.034500	-0.000236	0.000928	-0.002458	0.002951	7172.246116	43531.635264	3930.910364	23303.668184
38.535000	0.000218	-0.000358	-0.002491	0.001895	7187.170582	43510.027235	3933.444213	23353.341227
39.035000	-0.001118	-0.000197	-0.000869	0.002129	7171.645458	43503.373263	3936.898966	23342.355936
39.535500	-0.001479	0.000510	-0.000782	0.002544	7163.991545	43530.590365	3936.081139	23322.784153
40.039000	-0.000513	-0.000931	-0.002132	0.001287	7185.954837	43513.351722	3935.850337	23382.026057
40.536500	-0.002360	-0.000309	-0.003095	0.002144	7159.252978	43491.360048	3931.329002	23341.610955
41.036500	-0.001851	-0.001085	0.001799	0.001384	7171.769621	43489.941629	3945.432898	23377.479970
41.536500	-0.000431	0.000114	0.001000	0.002636	7173.425792	43484.996446	3940.296533	23318.468578
42.037000	-0.002714	-0.000060	0.000899	0.001912	7158.051019	43536.336787	3941.854706	23352.556307
42.535000	-0.001682	-0.000206	0.001052	0.002203	7165.351809	43495.557771	3941.507367	23338.850004
43.035000	-0.001393	-0.000859	-0.000789	0.001924	7170.960607	43460.692829	3937.609567	23352.015005
43.535000	-0.000975	0.000233	0.004219	0.002866	7165.786752	43474.604330	3947.791529	23307.659191
44.035500	-0.002029	-0.000831	-0.003813	0.001861	7165.302994	43469.159064	3930.253555	23354.967179
44.536000	0.001847	0.000359	0.003987	-0.001472	7236.967335	43893.517350	3958.170795	23512.690107
45.036000	-0.000493	-0.000234	0.002326	-0.000163	7200.540459	43714.432763	3950.651975	23450.591417
45.536500	0.001002	0.000489	-0.001424	0.000425	7209.565901	43727.161595	3939.764662	23422.759344
46.036500	0.000113	0.000523	0.003375	0.000440	7200.569709	43728.936413	3951.776190	23422.049654
46.537000	-0.000365	0.000154	-0.003137	0.002152	7178.860278	43533.886727	3931.206389	23341.245478
47.040000	-0.002064	-0.000393	-0.001325	0.002746	7156.243608	43427.467334	3934.228903	23313.295129
47.535000	-0.001915	-0.000264	-0.000681	-0.000200	7186.799080	43715.160355	3943.185985	23452.364913
48.035000	-0.000691	-0.000081	0.002573	-0.000090	7197.856246	43722.028819	3951.091202	23447.161654
48.535500	-0.001521	-0.000573	-0.000714	0.002747	7161.578387	43410.501355	3935.745298	23313.236563
49.035500	-0.002052	-0.000399	0.000696	0.003638	7147.594214	43343.776547	3937.036297	23271.355035
49.538500	-0.000780	-0.000593	0.003025	0.000252	7193.575745	43641.837587	3951.370168	23430.957852
50.036000	-0.000479	-0.000035	0.005278	-0.000078	7199.835697	43725.216543	3957.908733	23446.581010
50.536500	-0.000807	-0.000518	0.002849	0.002206	7173.950609	43466.115793	3946.005256	23338.690461
51.037000	-0.001000	0.000467	-0.001839	0.002340	7170.723545	43545.641504	3933.960523	23332.395426
51.537000	-0.001329	0.001252	-0.001854	0.002782	7163.126996	43577.647252	3932.824518	23311.587270
52.034500	-0.053970	-0.006530	0.008113	0.393558	4425.469048	19169.084213	3303.550414	11190.538792
52.537500	-0.100766	-0.022482	-0.019795	0.056719	5889.942879	36921.926055	3768.439249	20925.736833
53.035500	-0.102631	-0.036287	-0.026049	-0.151446	7717.713895	56105.508864	4309.010333	32021.296943
53.535500	-0.072368	-0.145896	-0.002546	-0.331959	10737.380909	65535.000000	5180.785861	47037.543885
54.036000	-0.044364	-0.154594	0.017116	-0.340656	11429.924013	65535.000000	5337.718583	47930.723034
54.535500	-0.041714	-0.098797	0.022403	-0.284860	10445.574690	65535.000000	5065.147509	42499.592500
55.036000	-0.020582	-0.054355	0.021923	-0.231539	9905.399001	64268.213068	4807.646608	37922.426436
55.537000	-0.001707	-0.028614	0.028908	-0.191747	9575.235469	62315.717925	4665.584499	34854.678209
56.036500	0.014571	-0.009876	0.032139	-0.152733	9233.941498	59607.006980	4522.392411	32107.780310
56.537500	0.034152	0.003491	0.037343	-0.120883	9057.075100	57245.746377	4423.173155	30041.240035
57.037500	0.049017	0.015135	0.046584	-0.081751	8721.601493	53914.851214	4318.883875	27701.222035
57.534500	0.064680	0.023615	0.062737	-0.057692	8609.820800	52118.404031	4292.476128	26363.717816
58.035500	0.082442	0.032904	0.078040	-0.042956	8649.862941	51505.536469	4294.355493	25580.397420
58.535000	0.093537	0.042260	0.091762	-0.012852	8402.937383	49239.656611	4241.077103	24060.385784
59.039000	0.109278	0.053243	0.105122	0.028865	8082.505192	46076.042733	4153.472373	22120.808470
59.536000	0.126765	0.062135	0.118803	0.057987	7945.094309	44112.536977	4108.120701	20873.136041
60.039500	0.138694	0.071846	0.137703	0.085628	7765.258512	42447.144758	4083.154813	19763.825838
60.536500	0.148509	0.079253	0.148442	0.097020	7747.568310	42086.252566	4081.309634	19326.786290
61.037000	0.149699	0.086093	0.163161	0.175157	6957.881371	36158.780979	3914.715304	16619.213970
61.537000	0.155116	0.091353	0.177893	0.165379	7102.930801	37329.354946	3976.233565	16931.971641
62.035000	0.160432	0.097004	0.190515	0.191623	6904.447020	35736.544316	3941.615263	16108.170664
62.535000	0.172075	0.103382	0.200223	0.207191	6868.281416	35049.753963	3927.055013	15642.515086
63.035000	0.163139	0.105244	0.196470	0.214216	6724.510726	34670.201743	3900.778073	15437.767983
63.550000	0.180515	0.111995	0.210824	0.216073	6864.223204	35029.819970	3931.306160	15384.205216
64.036000	0.183485	0.114628	0.209264	0.221559	6841.236070	34819.729874	3913.987283	15227.290944
64.536000	0.195525	0.118979	0.216939	0.220765	6959.919322	35199.659807	3934.837995	15249.871298
65.044500	0.204125	0.124138	0.222220	0.222168	7028.028576	35479.916239	3944.522135	15209.980595
65.540000	0.213504	0.127924	0.222296	0.224039	7100.294712	35623.776025	3940.029358	15157.002894
66.037000	0.221001	0.131427	0.219910	0.225823	7156.119741	35753.344107	3929.659336	15106.672709
66.537000	0.222987	0.133317	0.223538	0.226311	7170.892473	35859.509585	3937.459222	15092.968185
67.040500	0.225943	0.135124	0.226170	0.231499	7148.904230	35604.173345	3931.106463	14947.965152
67.538000	0.232761	0.138504	0.233601	0.226679	7264.738244	36226.889928	3961.891517	15082.612328
68.035500	0.238262	0.139272	0.232951	0.225582	7331.807303	36370.152987	3963.032773	15113.480497
68.539000	0.241087	0.141470	0.234376	0.226007	7356.460490	36506.973819	3965.587055	15101.517972
69.039000	0.242335	0.144024	0.238584	0.230624	7321.901007	36347.827345	3964.540613	14972.313556
69.536500	0.252910	0.147404	0.247877	0.226096	7478.941424	36961.860802	4000.416037	15099.012256
70.036500	0.256587	0.148401	0.248673	0.225886	7520.247977	37056.524172	4003.068971	15104.911609
70.537000	0.259695	0.150615	0.250086	0.227784	7533.191608	37081.388278	4001.790212	15051.628081
71.037500	0.262104	0.152391	0.251628	0.233985	7492.774605	36735.176105	3989.554045	14879.115077
71.535000	0.267567	0.154078	0.255209	0.230045	7593.639786	37175.980346	4009.369142	14988.425401
72.038000	0.271214	0.156251	0.260707	0.231597	7616.424691	37224.992814	4019.906930	14945.261476
72.535500	0.273884	0.158302	0.262992	0.233853	7620.924220	37208.781986	4019.982671	14882.746802
73.038500	0.272363	0.159483	0.268172	0.239309	7545.442236	36873.099185	4019.242375	14732.954210
73.536000	0.280423	0.161535	0.271254	0.235080	7679.224118	37367.449049	4039.006158	14848.903507
74.036500	0.281818	0.161864	0.268068	0.235337	7691.808154	37373.161743	4029.655691	14841.815006
74.536500	0.283838	0.163401	0.273671	0.238644	7677.584795	37233.152620	4035.884028	14751.111115
75.037000	0.281599	0.164019	0.268425	0.244211	7592.187474	36844.483091	4006.848823	14599.950485
75.537000	0.287578	0.165691	0.273606	0.240756	7695.584195	37247.144743	4029.980032	14693.535711
76.035500	0.291792	0.167455	0.280493	0.243205	7715.178945	37193.101197	4042.047298	14627.132573
76.535000	0.292092	0.168743	0.283598	0.246705	7679.714102	37019.089454	4040.967874	14532.861449
77.035500	0.290454	0.168686	0.276134	0.250484	7620.272868	36719.335190	4010.662843	14431.940224
77.535500	0.295713	0.169631	0.282522	0.245899	7728.839097	37152.245788	4040.230075	14554.490505
78.036000	0.299271	0.170918	0.290733	0.247232	7753.729890	37148.645781	4059.149729	14518.728339
78.536000	0.298253	0.171486	0.287328	0.247050	7744.364666	37207.791890	4050.247576	14523.608107
79.036500	0.300741	0.172533	0.288806	0.247952	7762.145878	37219.178569	4051.833326	14499.453064
79.537000	0.303840	0.173396	0.291748	0.248782	7787.701758	37221.854876	4057.666384	14477.283700
80.037000	0.307019	0.174832	0.297594	0.250405	7805.306335	37207.080118	4069.417123	14434.031728
80.537000	0.308199	0.175763	0.296712	0.252902	7790.393530	37083.672646	4060.004289	14367.806852
81.037000	0.306140	0.176924	0.295052	0.259412	7694.537774	36665.665291	4037.551508	14196.940430
81.535000	0.311681	0.177681	0.298517	0.255276	7802.941004	37047.867799	4058.429660	14305.218871
82.035000	0.311032	0.178101	0.296959	0.256267	7784.389712	37003.018776	4051.386663	14279.163754
82.538000	0.317078	0.181188	0.306027	0.260372	7806.344555	36923.280093	4065.135473	14171.954589
83.036000	0.311392	0.180518	0.297818	0.267327	7665.137916	36331.738905	4023.616308	13992.631123
83.536500	0.316628	0.180985	0.305606	0.263180	7769.552156	36688.405029	4056.172608	14099.202638
84.036000	0.318045	0.182457	0.303841	0.266181	7751.778750	36569.839944	4043.063392	14021.983139
84.537000	0.322126	0.183960	0.307655	0.269917	7755.642837	36397.353170	4043.276619	13926.571449
85.037000	0.317026	0.183179	0.302277	0.276051	7631.236703	35868.774294	4012.196005	13771.682838
85.537000	0.323785	0.185816	0.312603	0.275003	7717.354300	36149.425321	4042.900808	13798.000949
86.034500	0.325181	0.186192	0.310860	0.277481	7705.322305	35989.022075	4031.412287	13735.894559
86.535000	0.326160	0.186336	0.314731	0.279632	7692.334255	35836.594925	4036.079817	13682.280712
87.035000	0.323368	0.186787	0.311537	0.288810	7561.614660	35182.133906	4002.913600	13456.467156
87.536000	0.325999	0.187187	0.316215	0.284974	7631.786322	35498.111249	4025.634812	13550.253168
88.036500	0.327352	0.186771	0.310921	0.287084	7623.512877	35309.271336	4005.849409	13498.560842
88.536500	0.329933	0.189360	0.317991	0.291587	7602.589731	35166.950874	4012.671587	13389.069041
89.036500	0.325999	0.188872	0.311530	0.299188	7478.913311	34572.198579	3975.791567	13206.799718
89.537000	0.332421	0.189346	0.316759	0.296127	7580.342390	34830.699014	3997.387670	13279.815601
90.037000	0.330419	0.189302	0.318043	0.298049	7538.096039	34686.642755	3995.711841	13233.897822
90.535000	0.330601	0.190989	0.321474	0.301917	7498.767059	34527.641301	3994.564491	13142.128114
91.035500	0.327824	0.190148	0.315380	0.309168	7393.429574	33944.395527	3960.082694	12972.266178
91.535000	0.331865	0.191516	0.322231	0.306920	7459.208874	34203.684713	3983.477773	13024.620457
92.038500	0.332979	0.190979	0.325517	0.308616	7453.084153	34043.320543	3987.617135	12985.106634
92.536000	0.334852	0.191809	0.322912	0.311839	7438.906052	33872.410373	3972.521571	12910.414541
93.036000	0.331566	0.193011	0.321462	0.319815	7322.299536	33393.554089	3948.529862	12727.940400
93.536000	0.333602	0.193015	0.324804	0.317201	7370.079782	33577.697752	3963.628576	12787.366905
94.037000	0.337301	0.193773	0.322097	0.320928	7369.787086	33368.917382	3947.325862	12702.730845
94.537000	0.337826	0.193117	0.328639	0.323741	7346.223454	33126.858343	3956.746356	12639.349307
95.037000	0.333469	0.193292	0.324785	0.330830	7230.155638	32649.981700	3929.334839	12481.385946
95.537500	0.334417	0.193530	0.324555	0.328059	7267.529328	32856.640667	3935.639141	12542.834201
96.037500	0.335618	0.194582	0.329379	0.331627	7243.707487	32683.763583	3938.769155	12463.798014
96.536000	0.336868	0.195752	0.325937	0.335858	7213.876146	32474.757864	3919.789993	12370.901213
97.036000	0.339232	0.196423	0.333431	0.338614	7209.967098	32333.347150	3931.469501	12310.886603
