sample name	sample
index	689
start time	 03-22-2021  12:19:55 PM


Wavelength (nm)	Absorbance
494.344910	0.534207
494.563924	0.534207
494.782919	0.534207
495.001897	-0.454129
495.220856	0.037896
495.439797	0.060499
495.658719	0.006852
495.877624	-0.013049
496.096510	0.054642
496.315378	0.036769
496.534227	-0.032167
496.753059	0.010584
496.971872	0.000000
497.190667	0.093643
497.409444	0.096009
497.628203	0.095792
497.846943	0.100157
498.065665	0.101153
498.284369	0.102007
498.503055	0.101394
498.721723	0.101987
498.940372	0.102740
499.159003	0.102289
499.377616	0.101778
499.596210	0.103494
499.814787	0.101621
500.033345	0.100964
500.251885	0.101542
500.470406	0.102106
500.688910	0.102244
500.907395	0.101974
501.125862	0.102422
501.344311	0.103700
501.562742	0.104230
501.781154	0.104206
501.999548	0.104829
502.217924	0.104110
502.436282	0.104471
502.654621	0.103967
502.872942	0.103448
503.091245	0.103895
503.309530	0.103845
503.527797	0.102534
503.746045	0.103664
503.964275	0.103731
504.182487	0.104163
504.400681	0.103110
504.618856	0.103536
504.837013	0.104585
505.055152	0.104756
505.273273	0.104756
505.491376	0.105606
505.709460	0.105699
505.927526	0.105635
506.145574	0.105483
506.363604	0.106344
506.581615	0.106565
506.799608	0.106470
507.017583	0.106163
507.235540	0.106394
507.453478	0.106444
507.671399	0.106543
507.889301	0.106420
508.107185	0.106396
508.325050	0.106491
508.542898	0.106894
508.760727	0.106592
508.978538	0.107571
509.196330	0.107342
509.414105	0.107334
509.631861	0.107779
509.849599	0.108518
510.067319	0.108176
510.285021	0.108727
510.502704	0.108377
510.720369	0.108707
510.938016	0.108220
511.155645	0.108525
511.373255	0.109100
511.590848	0.109227
511.808422	0.109476
512.025977	0.110322
512.243515	0.109909
512.461034	0.109963
512.678536	0.109319
512.896018	0.109540
513.113483	0.109654
513.330930	0.108797
513.548358	0.108427
513.765768	0.108433
513.983160	0.108082
514.200533	0.108093
514.417889	0.107888
514.635226	0.108211
514.852545	0.108130
515.069845	0.108196
515.287128	0.108741
515.504392	0.109473
515.721638	0.109056
515.938866	0.109260
516.156075	0.109631
516.373267	0.110210
516.590440	0.110860
516.807594	0.111107
517.024731	0.111450
517.241850	0.111328
517.458950	0.111018
517.676032	0.111623
517.893095	0.112191
518.110141	0.112324
518.327168	0.112065
518.544177	0.111972
518.761168	0.112045
518.978141	0.112175
519.195095	0.112849
519.412031	0.113002
519.628949	0.112547
519.845849	0.112731
520.062731	0.112707
520.279594	0.112892
520.496439	0.113307
520.713266	0.113928
520.930074	0.113800
521.146865	0.113837
521.363637	0.114045
521.580391	0.114608
521.797127	0.114452
522.013844	0.115068
522.230543	0.115018
522.447224	0.114891
522.663887	0.114544
522.880532	0.114962
523.097158	0.114567
523.313766	0.114460
523.530356	0.115030
523.746928	0.114776
523.963481	0.113871
524.180017	0.113918
524.396534	0.114373
524.613032	0.114921
524.829513	0.115626
525.045975	0.115729
525.262420	0.116546
525.478845	0.116452
525.695253	0.117201
525.911643	0.117888
526.128014	0.118782
526.344367	0.118928
526.560702	0.118464
526.777018	0.117536
526.993316	0.118327
527.209597	0.117961
527.425858	0.117424
527.642102	0.117449
527.858328	0.117931
528.074535	0.117676
528.290724	0.117982
528.506894	0.118472
528.723047	0.118809
528.939181	0.118841
529.155297	0.118744
529.371395	0.119860
529.587475	0.120499
529.803536	0.120211
530.019579	0.121138
530.235604	0.121305
530.451611	0.121284
530.667600	0.121772
530.883570	0.121861
531.099522	0.121964
531.315456	0.122142
531.531372	0.122233
531.747269	0.122805
531.963148	0.122228
532.179009	0.122269
532.394852	0.122624
532.610676	0.123037
532.826482	0.123621
533.042271	0.123743
533.258040	0.123298
533.473792	0.123190
533.689525	0.123209
533.905240	0.123923
534.120937	0.124288
534.336616	0.124372
534.552277	0.124320
534.767919	0.123852
534.983543	0.124255
535.199149	0.124892
535.414736	0.125018
535.630306	0.125268
535.845857	0.125330
536.061390	0.125479
536.276904	0.125507
536.492401	0.125442
536.707879	0.126211
536.923339	0.126426
537.138781	0.126470
537.354204	0.126807
537.569610	0.127456
537.784997	0.127537
538.000366	0.127428
538.215716	0.128073
538.431049	0.128418
538.646363	0.128443
538.861659	0.128925
539.076937	0.129153
539.292196	0.129190
539.507438	0.129319
539.722661	0.129475
539.937866	0.129789
540.153052	0.129625
540.368221	0.129787
540.583371	0.130003
540.798503	0.130136
541.013617	0.129821
541.228712	0.130005
541.443789	0.130113
541.658848	0.130126
541.873889	0.130189
542.088912	0.130403
542.303916	0.130980
542.518902	0.131079
542.733870	0.130926
542.948820	0.131389
543.163752	0.131860
543.378665	0.131926
543.593560	0.132278
543.808437	0.132657
544.023295	0.133030
544.238136	0.132835
544.452958	0.133201
544.667762	0.133257
544.882548	0.133581
545.097315	0.133600
545.312064	0.133944
545.526795	0.134125
545.741508	0.134243
545.956203	0.133966
546.170879	0.134120
546.385537	0.134021
546.600177	0.134601
546.814799	0.134598
547.029402	0.134551
547.243988	0.134337
547.458555	0.134228
547.673103	0.134351
547.887634	0.134800
548.102146	0.135009
548.316640	0.134739
548.531116	0.135315
548.745574	0.135381
548.960013	0.135742
549.174435	0.135316
549.388838	0.135319
549.603222	0.135291
549.817589	0.135450
550.031937	0.135568
550.246267	0.135887
550.460579	0.135791
550.674873	0.136309
550.889148	0.136478
551.103405	0.137568
551.317644	0.138212
551.531865	0.138651
551.746068	0.138762
551.960252	0.138590
552.174418	0.138680
552.388566	0.138633
552.602696	0.138964
552.816807	0.138924
553.030900	0.138982
553.244975	0.139073
553.459032	0.139098
553.673070	0.139309
553.887091	0.139811
554.101093	0.140560
554.315077	0.140442
554.529042	0.140228
554.742990	0.140634
554.956919	0.140574
555.170830	0.140775
555.384722	0.140628
555.598597	0.140991
555.812453	0.140993
556.026291	0.140997
556.240111	0.141653
556.453913	0.141930
556.667696	0.141765
556.881461	0.142107
557.095208	0.142108
557.308937	0.142464
557.522647	0.142505
557.736339	0.142765
557.950013	0.142845
558.163669	0.142717
558.377307	0.142844
558.590926	0.143269
558.804527	0.143153
559.018110	0.143125
559.231675	0.143433
559.445221	0.143585
559.658749	0.143715
559.872259	0.143451
560.085751	0.143469
560.299225	0.143738
560.512680	0.143912
560.726117	0.144256
560.939536	0.144465
561.152937	0.144602
561.366319	0.144337
561.579683	0.144520
561.793029	0.145142
562.006357	0.145040
562.219667	0.144947
562.432958	0.145089
562.646231	0.145018
562.859486	0.145061
563.072723	0.145112
563.285941	0.145743
563.499141	0.145974
563.712323	0.145990
563.925487	0.146361
564.138632	0.146561
564.351760	0.146389
564.564869	0.146829
564.777960	0.147052
564.991032	0.146881
565.204087	0.147078
565.417123	0.147249
565.630141	0.147002
565.843140	0.147090
566.056122	0.147250
566.269085	0.147371
566.482030	0.147159
566.694957	0.147168
566.907866	0.147428
567.120756	0.146909
567.333628	0.146598
567.546482	0.146922
567.759318	0.147059
567.972135	0.146903
568.184935	0.146964
568.397716	0.147059
568.610478	0.147396
568.823223	0.147422
569.035949	0.148001
569.248657	0.148298
569.461347	0.148506
569.674019	0.148414
569.886672	0.148437
570.099308	0.148492
570.311925	0.148548
570.524523	0.148079
570.737104	0.148189
570.949666	0.148219
571.162210	0.148013
571.374736	0.147804
571.587244	0.148143
571.799733	0.148367
572.012205	0.148623
572.224658	0.148687
572.437092	0.149190
572.649509	0.149367
572.861907	0.149328
573.074287	0.149674
573.286649	0.149967
573.498993	0.150054
573.711318	0.150173
573.923625	0.150552
574.135914	0.150707
574.348185	0.150942
574.560438	0.151109
574.772672	0.151344
574.984888	0.151598
575.197086	0.151358
575.409266	0.151422
575.621427	0.151534
575.833570	0.151335
576.045695	0.151633
576.257802	0.151817
576.469890	0.152277
576.681961	0.152293
576.894013	0.152325
577.106046	0.152985
577.318062	0.153300
577.530059	0.153825
577.742039	0.153753
577.954000	0.153642
578.165942	0.153682
578.377867	0.153518
578.589773	0.153641
578.801661	0.153685
579.013531	0.153697
579.225382	0.153730
579.437216	0.153472
579.649031	0.153776
579.860828	0.153916
580.072606	0.153563
580.284367	0.153257
580.496109	0.153273
580.707833	0.153289
580.919539	0.153355
581.131227	0.153270
581.342896	0.153461
581.554547	0.153572
581.766180	0.153812
581.977795	0.154460
582.189391	0.155379
582.400969	0.155718
582.612529	0.156092
582.824071	0.156429
583.035595	0.156447
583.247100	0.156520
583.458587	0.156814
583.670056	0.156604
583.881506	0.156628
584.092939	0.156223
584.304353	0.156473
584.515749	0.156404
584.727127	0.156498
584.938486	0.156944
585.149828	0.156844
585.361151	0.156818
585.572456	0.157446
585.783742	0.157465
585.995011	0.157487
586.206261	0.157628
586.417493	0.157634
586.628706	0.157634
586.839902	0.157795
587.051079	0.157903
587.262238	0.157973
587.473379	0.157852
587.684502	0.157978
587.895606	0.158372
588.106692	0.158067
588.317760	0.157946
588.528810	0.157936
588.739841	0.157752
588.950855	0.157885
589.161850	0.158069
589.372827	0.158286
589.583785	0.158262
589.794726	0.158351
590.005648	0.158771
590.216552	0.158946
590.427437	0.159197
590.638305	0.159456
590.849154	0.159801
591.059985	0.160058
591.270798	0.160108
591.481592	0.160421
591.692369	0.160614
591.903127	0.160577
592.113867	0.160967
592.324588	0.161297
592.535292	0.161031
592.745977	0.160768
592.956644	0.160587
593.167293	0.160772
593.377923	0.160997
593.588536	0.160832
593.799130	0.160970
594.009706	0.161150
594.220263	0.160859
594.430803	0.161086
594.641324	0.161457
594.851827	0.161912
595.062312	0.161945
595.272778	0.161980
595.483227	0.162491
595.693657	0.162618
595.904069	0.162821
596.114462	0.163136
596.324838	0.163497
596.535195	0.163799
596.745534	0.163544
596.955855	0.163536
597.166157	0.163397
597.376441	0.163226
597.586707	0.163458
597.796955	0.163186
598.007185	0.163180
598.217396	0.163306
598.427589	0.163531
598.637764	0.163896
598.847921	0.164336
599.058060	0.164449
599.268180	0.164612
599.478282	0.164642
599.688366	0.165038
599.898431	0.165059
600.108479	0.164939
600.318508	0.164998
600.528519	0.165269
600.738511	0.165007
600.948486	0.165298
601.158442	0.165356
601.368380	0.165374
601.578300	0.165434
601.788202	0.165982
601.998085	0.166435
602.207950	0.166167
602.417797	0.166042
602.627626	0.166626
602.837436	0.166785
603.047228	0.166651
603.257002	0.166506
603.466758	0.166792
603.676496	0.166699
603.886215	0.166995
604.095916	0.167652
604.305599	0.167982
604.515264	0.167832
604.724910	0.167944
604.934538	0.168387
605.144148	0.168699
605.353740	0.168515
605.563314	0.168665
605.772869	0.168075
605.982406	0.167802
606.191925	0.167490
606.401425	0.167463
606.610908	0.167521
606.820372	0.167426
607.029818	0.167351
607.239246	0.167717
607.448655	0.167383
607.658047	0.167549
607.867420	0.167440
608.076775	0.167795
608.286111	0.168140
608.495430	0.168282
608.704730	0.168619
608.914012	0.168814
609.123275	0.168686
609.332521	0.169053
609.541748	0.169392
609.750957	0.169580
609.960148	0.169845
610.169321	0.169519
610.378475	0.169338
610.587611	0.169183
610.796729	0.169504
611.005829	0.169615
611.214910	0.169511
611.423974	0.169676
611.633019	0.169977
611.842045	0.169724
612.051054	0.169956
612.260044	0.170250
612.469017	0.170425
612.677970	0.170467
612.886906	0.170470
613.095824	0.170565
613.304723	0.170613
613.513604	0.170642
613.722467	0.170901
613.931311	0.171119
614.140138	0.171089
614.348946	0.171259
614.557736	0.171078
614.766507	0.171283
614.975261	0.171252
615.183996	0.171285
615.392713	0.171119
615.601412	0.170940
615.810092	0.170931
616.018754	0.171056
616.227399	0.170824
616.436024	0.171121
616.644632	0.171216
616.853222	0.171698
617.061793	0.171877
617.270346	0.171957
617.478880	0.172095
617.687397	0.172121
617.895895	0.172421
618.104375	0.172927
618.312837	0.172941
618.521281	0.172952
618.729706	0.172947
618.938113	0.172885
619.146502	0.173198
619.354873	0.173353
619.563226	0.173440
619.771560	0.173443
619.979876	0.173480
620.188174	0.173711
620.396453	0.174043
620.604715	0.174163
620.812958	0.174269
621.021183	0.174378
621.229390	0.174736
621.437578	0.174968
621.645748	0.175103
621.853900	0.175191
622.062034	0.175184
622.270150	0.175363
622.478247	0.175240
622.686326	0.175512
622.894387	0.175436
623.102430	0.175227
623.310454	0.175199
623.518461	0.175337
623.726449	0.175157
623.934418	0.175121
624.142370	0.174898
624.350303	0.175194
624.558218	0.175170
624.766115	0.175362
624.973994	0.175389
625.181855	0.175395
625.389697	0.175169
625.597521	0.175193
625.805327	0.175541
626.013114	0.175721
626.220883	0.175629
626.428634	0.175726
626.636367	0.175912
626.844082	0.175997
627.051778	0.176129
627.259457	0.176335
627.467117	0.176608
627.674758	0.176534
627.882382	0.177056
628.089987	0.177328
628.297574	0.177495
628.505143	0.177631
628.712694	0.177880
628.920226	0.178073
629.127740	0.178175
629.335236	0.178383
629.542714	0.178337
629.750174	0.177906
629.957615	0.177876
630.165038	0.177946
630.372443	0.177863
630.579829	0.177958
630.787198	0.178110
630.994548	0.178180
631.201880	0.178002
631.409194	0.178021
631.616489	0.178081
631.823766	0.178295
632.031025	0.178322
632.238266	0.178343
632.445489	0.178563
632.652693	0.178609
632.859879	0.178830
633.067047	0.178969
633.274197	0.179146
633.481329	0.179413
633.688442	0.179658
633.895537	0.179772
634.102614	0.180052
634.309672	0.179919
634.516713	0.180119
634.723735	0.180110
634.930739	0.180210
635.137724	0.180327
635.344692	0.180459
635.551641	0.180280
635.758572	0.180268
635.965485	0.180350
636.172379	0.180500
636.379256	0.180818
636.586114	0.180849
636.792954	0.181102
636.999775	0.181378
637.206579	0.181469
637.413364	0.181513
637.620131	0.181487
637.826880	0.181585
638.033610	0.181896
638.240323	0.181567
638.447017	0.181874
638.653692	0.181734
638.860350	0.181702
639.066990	0.181472
639.273611	0.181507
639.480214	0.181884
639.686798	0.181879
639.893365	0.181755
640.099913	0.181820
640.306443	0.181528
640.512955	0.181792
640.719449	0.181761
640.925924	0.182102
641.132381	0.182527
641.338820	0.182399
641.545241	0.182507
641.751644	0.182450
641.958028	0.182628
642.164394	0.182816
642.370742	0.183020
642.577071	0.183096
642.783383	0.183272
642.989676	0.183123
643.195951	0.183245
643.402207	0.183243
643.608446	0.183507
643.814666	0.183584
644.020868	0.183900
644.227052	0.183699
644.433218	0.184014
644.639365	0.184169
644.845494	0.184586
645.051605	0.185009
645.257698	0.185461
645.463772	0.185564
645.669828	0.185844
645.875866	0.186074
646.081886	0.186578
646.287888	0.186675
646.493871	0.186587
646.699836	0.186578
646.905783	0.186404
647.111712	0.186532
647.317622	0.186817
647.523514	0.186773
647.729388	0.186746
647.935244	0.186565
648.141082	0.186891
648.346901	0.186910
648.552702	0.186961
648.758485	0.186926
648.964250	0.186865
649.169996	0.186766
649.375724	0.186882
649.581434	0.186760
649.787126	0.186826
649.992800	0.186434
650.198455	0.186711
650.404092	0.186645
650.609711	0.186882
650.815311	0.186828
651.020894	0.186905
651.226458	0.187127
651.432004	0.187390
651.637532	0.187632
651.843041	0.187659
652.048532	0.187568
652.254006	0.187726
652.459460	0.187930
652.664897	0.188028
652.870315	0.188098
653.075716	0.187906
653.281097	0.187998
653.486461	0.188016
653.691807	0.188384
653.897134	0.188562
654.102443	0.188704
654.307734	0.188697
654.513006	0.188911
654.718261	0.189010
654.923497	0.189304
655.128715	0.189533
655.333915	0.189656
655.539096	0.189864
655.744259	0.189914
655.949404	0.190180
656.154531	0.190399
656.359640	0.190470
656.564730	0.190738
656.769802	0.190970
656.974856	0.191045
657.179892	0.191290
657.384909	0.191433
657.589908	0.191596
657.794889	0.191580
657.999852	0.191800
658.204797	0.192021
658.409723	0.191921
658.614631	0.191947
658.819521	0.191933
659.024393	0.191952
659.229246	0.192121
659.434081	0.192337
659.638898	0.192564
659.843697	0.192432
660.048478	0.192412
660.253240	0.192677
660.457984	0.192814
660.662710	0.192858
660.867417	0.192767
661.072107	0.192735
661.276778	0.192603
661.481431	0.192421
661.686066	0.192742
661.890682	0.192891
662.095281	0.192794
662.299861	0.192634
662.504422	0.192738
662.708966	0.193170
662.913491	0.193203
663.117999	0.193593
663.322488	0.193542
663.526958	0.193579
663.731411	0.193665
663.935845	0.193926
664.140261	0.194537
664.344659	0.194830
664.549038	0.194719
664.753400	0.195043
664.957743	0.195211
665.162068	0.195633
665.366375	0.195784
665.570663	0.195948
665.774933	0.196286
665.979185	0.196187
666.183419	0.196230
666.387635	0.196291
666.591832	0.196291
666.796011	0.196164
667.000172	0.196473
667.204315	0.196715
667.408439	0.196784
667.612545	0.196797
667.816634	0.196998
668.020703	0.197069
668.224755	0.197439
668.428788	0.197567
668.632803	0.197954
668.836800	0.198040
669.040779	0.198098
669.244739	0.198418
669.448681	0.198439
669.652605	0.198306
669.856511	0.198423
670.060399	0.198555
670.264268	0.198661
670.468119	0.198688
670.671952	0.198738
670.875767	0.198850
671.079563	0.199021
671.283341	0.199599
671.487101	0.200120
671.690843	0.200333
671.894567	0.200437
672.098272	0.200919
672.301959	0.201173
672.505628	0.201266
672.709278	0.201256
672.912911	0.201300
673.116525	0.201112
673.320121	0.200999
673.523699	0.201098
673.727258	0.201138
673.930799	0.200857
674.134322	0.200826
674.337827	0.200749
674.541314	0.200921
674.744782	0.200933
674.948232	0.200917
675.151664	0.200876
675.355078	0.200944
675.558474	0.201009
675.761851	0.201243
675.965210	0.201383
676.168551	0.201735
676.371873	0.201936
676.575178	0.202033
676.778464	0.202078
676.981732	0.202313
677.184981	0.202520
677.388213	0.202691
677.591426	0.202820
677.794621	0.203018
677.997798	0.203204
678.200956	0.203317
678.404097	0.203537
678.607219	0.203887
678.810323	0.203928
679.013408	0.203982
679.216476	0.204154
679.419525	0.204097
679.622556	0.204040
679.825569	0.204017
680.028563	0.204167
680.231540	0.204091
680.434498	0.204203
680.637438	0.204450
680.840359	0.204547
681.043263	0.204643
681.246148	0.204743
681.449015	0.204860
681.651864	0.204945
681.854694	0.205107
682.057506	0.205332
682.260301	0.205311
682.463076	0.205243
682.665834	0.205508
682.868573	0.205497
683.071295	0.205634
683.273998	0.205904
683.476682	0.206122
683.679349	0.206190
683.881997	0.206320
684.084627	0.206358
684.287239	0.206570
684.489833	0.206545
684.692408	0.206849
684.894965	0.206903
685.097504	0.207122
685.300025	0.207170
685.502527	0.207234
685.705012	0.207266
685.907478	0.207587
686.109925	0.207645
686.312355	0.207759
686.514766	0.207739
686.717159	0.207918
686.919534	0.207693
687.121891	0.207798
687.324230	0.207778
687.526550	0.207902
687.728852	0.207854
687.931136	0.207916
688.133401	0.208086
688.335649	0.208086
688.537878	0.208224
688.740089	0.208396
688.942281	0.208315
689.144456	0.208180
689.346612	0.208115
689.548750	0.208122
689.750870	0.208410
689.952971	0.208240
690.155055	0.208331
690.357120	0.208282
690.559167	0.208516
690.761195	0.208713
690.963206	0.209049
691.165198	0.209513
691.367172	0.209609
691.569128	0.209647
691.771065	0.209974
691.972984	0.210211
692.174885	0.210472
692.376768	0.210402
692.578633	0.210667
692.780479	0.210674
692.982308	0.210435
693.184118	0.210728
693.385909	0.210805
