sample name	sample
index	1514
start time	 05-18-2021  03:10:25 PM


Wavelength (nm)	Absorbance
494.344910	0.195191
494.563924	0.195191
494.782919	0.195191
495.001897	0.634056
495.220856	0.083002
495.439797	0.103055
495.658719	0.141307
495.877624	0.091800
496.096510	0.249566
496.315378	0.065410
496.534227	-0.039651
496.753059	0.142095
496.971872	0.089864
497.190667	0.171369
497.409444	0.168244
497.628203	0.165570
497.846943	0.166531
498.065665	0.164203
498.284369	0.167110
498.503055	0.169371
498.721723	0.169119
498.940372	0.168019
499.159003	0.167804
499.377616	0.168499
499.596210	0.169417
499.814787	0.170012
500.033345	0.169853
500.251885	0.169462
500.470406	0.169891
500.688910	0.170799
500.907395	0.171837
501.125862	0.173662
501.344311	0.173204
501.562742	0.173831
501.781154	0.174356
501.999548	0.175855
502.217924	0.176519
502.436282	0.175855
502.654621	0.174776
502.872942	0.175665
503.091245	0.173861
503.309530	0.174374
503.527797	0.174988
503.746045	0.174392
503.964275	0.174662
504.182487	0.174614
504.400681	0.174221
504.618856	0.174691
504.837013	0.174479
505.055152	0.174384
505.273273	0.174552
505.491376	0.172682
505.709460	0.172455
505.927526	0.171969
506.145574	0.171861
506.363604	0.172866
506.581615	0.173383
506.799608	0.173769
507.017583	0.174686
507.235540	0.174497
507.453478	0.174861
507.671399	0.176011
507.889301	0.175310
508.107185	0.174548
508.325050	0.173887
508.542898	0.174092
508.760727	0.173537
508.978538	0.172636
509.196330	0.172812
509.414105	0.172877
509.631861	0.171369
509.849599	0.170689
510.067319	0.171201
510.285021	0.172129
510.502704	0.172293
510.720369	0.172794
510.938016	0.173705
511.155645	0.173634
511.373255	0.174234
511.590848	0.175520
511.808422	0.177361
512.025977	0.178165
512.243515	0.177536
512.461034	0.177748
512.678536	0.178625
512.896018	0.179130
513.113483	0.180232
513.330930	0.180193
513.548358	0.179992
513.765768	0.178914
513.983160	0.178861
514.200533	0.179569
514.417889	0.178623
514.635226	0.177587
514.852545	0.177250
515.069845	0.176351
515.287128	0.177548
515.504392	0.178070
515.721638	0.178132
515.938866	0.178308
516.156075	0.178340
516.373267	0.179161
516.590440	0.180159
516.807594	0.180840
517.024731	0.181486
517.241850	0.181632
517.458950	0.182309
517.676032	0.183965
517.893095	0.183847
518.110141	0.184554
518.327168	0.184006
518.544177	0.184156
518.761168	0.183412
518.978141	0.183210
519.195095	0.182894
519.412031	0.183277
519.628949	0.182896
519.845849	0.183409
520.062731	0.183515
520.279594	0.185068
520.496439	0.185786
520.713266	0.186322
520.930074	0.187314
521.146865	0.187109
521.363637	0.187257
521.580391	0.187032
521.797127	0.187276
522.013844	0.187277
522.230543	0.186624
522.447224	0.186243
522.663887	0.187021
522.880532	0.187031
523.097158	0.187380
523.313766	0.187605
523.530356	0.189084
523.746928	0.189845
523.963481	0.189755
524.180017	0.190343
524.396534	0.190824
524.613032	0.190737
524.829513	0.191351
525.045975	0.191572
525.262420	0.191093
525.478845	0.190944
525.695253	0.190605
525.911643	0.190870
526.128014	0.190901
526.344367	0.191385
526.560702	0.192015
526.777018	0.191843
526.993316	0.193294
527.209597	0.192967
527.425858	0.192228
527.642102	0.192486
527.858328	0.193320
528.074535	0.194167
528.290724	0.193714
528.506894	0.194119
528.723047	0.194492
528.939181	0.193127
529.155297	0.194154
529.371395	0.194868
529.587475	0.194797
529.803536	0.194853
530.019579	0.195204
530.235604	0.196041
530.451611	0.195733
530.667600	0.195417
530.883570	0.196498
531.099522	0.196871
531.315456	0.197675
531.531372	0.197639
531.747269	0.197522
531.963148	0.197161
532.179009	0.197273
532.394852	0.197262
532.610676	0.198298
532.826482	0.198198
533.042271	0.198718
533.258040	0.198575
533.473792	0.200015
533.689525	0.200794
533.905240	0.201174
534.120937	0.201216
534.336616	0.202247
534.552277	0.201917
534.767919	0.202207
534.983543	0.202124
535.199149	0.203160
535.414736	0.203458
535.630306	0.204167
535.845857	0.204839
536.061390	0.205120
536.276904	0.205254
536.492401	0.206316
536.707879	0.206812
536.923339	0.207167
537.138781	0.206947
537.354204	0.206883
537.569610	0.206326
537.784997	0.206339
538.000366	0.207116
538.215716	0.206831
538.431049	0.206445
538.646363	0.206698
538.861659	0.207012
539.076937	0.206814
539.292196	0.206886
539.507438	0.207711
539.722661	0.207656
539.937866	0.207866
540.153052	0.208048
540.368221	0.208675
540.583371	0.209405
540.798503	0.209033
541.013617	0.209853
541.228712	0.210628
541.443789	0.210414
541.658848	0.210516
541.873889	0.210105
542.088912	0.210479
542.303916	0.210464
542.518902	0.210230
542.733870	0.210830
542.948820	0.210782
543.163752	0.210284
543.378665	0.210743
543.593560	0.211176
543.808437	0.211737
544.023295	0.212029
544.238136	0.211994
544.452958	0.212551
544.667762	0.212784
544.882548	0.213101
545.097315	0.213781
545.312064	0.213596
545.526795	0.214217
545.741508	0.214603
545.956203	0.214409
546.170879	0.215246
546.385537	0.214748
546.600177	0.215505
546.814799	0.215389
547.029402	0.215724
547.243988	0.216255
547.458555	0.216461
547.673103	0.216561
547.887634	0.217162
548.102146	0.216869
548.316640	0.217782
548.531116	0.217628
548.745574	0.218103
548.960013	0.218352
549.174435	0.218781
549.388838	0.218567
549.603222	0.218685
549.817589	0.218981
550.031937	0.219249
550.246267	0.219015
550.460579	0.218889
550.674873	0.219022
550.889148	0.218830
551.103405	0.218579
551.317644	0.218602
551.531865	0.218641
551.746068	0.218774
551.960252	0.218685
552.174418	0.218754
552.388566	0.218934
552.602696	0.219178
552.816807	0.219480
553.030900	0.219943
553.244975	0.220532
553.459032	0.220311
553.673070	0.220518
553.887091	0.221362
554.101093	0.221870
554.315077	0.222393
554.529042	0.222423
554.742990	0.222227
554.956919	0.222097
555.170830	0.221733
555.384722	0.222396
555.598597	0.222546
555.812453	0.222060
556.026291	0.221681
556.240111	0.221870
556.453913	0.221709
556.667696	0.221812
556.881461	0.221921
557.095208	0.222725
557.308937	0.222694
557.522647	0.223076
557.736339	0.223560
557.950013	0.223822
558.163669	0.223831
558.377307	0.224325
558.590926	0.225081
558.804527	0.225222
559.018110	0.225247
559.231675	0.225657
559.445221	0.225473
559.658749	0.225517
559.872259	0.226302
560.085751	0.226883
560.299225	0.226819
560.512680	0.226749
560.726117	0.227538
560.939536	0.227499
561.152937	0.227451
561.366319	0.227957
561.579683	0.228264
561.793029	0.228050
562.006357	0.227236
562.219667	0.227831
562.432958	0.227435
562.646231	0.227189
562.859486	0.227157
563.072723	0.226865
563.285941	0.226563
563.499141	0.226376
563.712323	0.226508
563.925487	0.227025
564.138632	0.226518
564.351760	0.227343
564.564869	0.227468
564.777960	0.227787
564.991032	0.228054
565.204087	0.228047
565.417123	0.228238
565.630141	0.228165
565.843140	0.228135
566.056122	0.228557
566.269085	0.228330
566.482030	0.228301
566.694957	0.228726
566.907866	0.229369
567.120756	0.230068
567.333628	0.230033
567.546482	0.230368
567.759318	0.230657
567.972135	0.231006
568.184935	0.230831
568.397716	0.230804
568.610478	0.230803
568.823223	0.230876
569.035949	0.230829
569.248657	0.231072
569.461347	0.231010
569.674019	0.230979
569.886672	0.230609
570.099308	0.231219
570.311925	0.231715
570.524523	0.231266
570.737104	0.231112
570.949666	0.231218
571.162210	0.231619
571.374736	0.232330
571.587244	0.232603
571.799733	0.233015
572.012205	0.233040
572.224658	0.233364
572.437092	0.233636
572.649509	0.233857
572.861907	0.233904
573.074287	0.233381
573.286649	0.232707
573.498993	0.232500
573.711318	0.233119
573.923625	0.232981
574.135914	0.232224
574.348185	0.232349
574.560438	0.232423
574.772672	0.232350
574.984888	0.233134
575.197086	0.233613
575.409266	0.234191
575.621427	0.233601
575.833570	0.233807
576.045695	0.234434
576.257802	0.234615
576.469890	0.234885
576.681961	0.235204
576.894013	0.235389
577.106046	0.235393
577.318062	0.235490
577.530059	0.236090
577.742039	0.236353
577.954000	0.236629
578.165942	0.237213
578.377867	0.237302
578.589773	0.237255
578.801661	0.237278
579.013531	0.237529
579.225382	0.237629
579.437216	0.237790
579.649031	0.238197
579.860828	0.238270
580.072606	0.238363
580.284367	0.238407
580.496109	0.238626
580.707833	0.238659
580.919539	0.238884
581.131227	0.239100
581.342896	0.239273
581.554547	0.239180
581.766180	0.238723
581.977795	0.238476
582.189391	0.238699
582.400969	0.238909
582.612529	0.239057
582.824071	0.238588
583.035595	0.238816
583.247100	0.238513
583.458587	0.238345
583.670056	0.238801
583.881506	0.239302
584.092939	0.239366
584.304353	0.239627
584.515749	0.239939
584.727127	0.240274
584.938486	0.240221
585.149828	0.240421
585.361151	0.240778
585.572456	0.241054
585.783742	0.240616
585.995011	0.240907
586.206261	0.240452
586.417493	0.240402
586.628706	0.240753
586.839902	0.240966
587.051079	0.240963
587.262238	0.240899
587.473379	0.241063
587.684502	0.241461
587.895606	0.241387
588.106692	0.241764
588.317760	0.242063
588.528810	0.241972
588.739841	0.242205
588.950855	0.242497
589.161850	0.242860
589.372827	0.242827
589.583785	0.243441
589.794726	0.243657
590.005648	0.243477
590.216552	0.243355
590.427437	0.243404
590.638305	0.243317
590.849154	0.243381
591.059985	0.243192
591.270798	0.243378
591.481592	0.243137
591.692369	0.243432
591.903127	0.243848
592.113867	0.244114
592.324588	0.244854
592.535292	0.244599
592.745977	0.244826
592.956644	0.245363
593.167293	0.245628
593.377923	0.245631
593.588536	0.245696
593.799130	0.246039
594.009706	0.245950
594.220263	0.245742
594.430803	0.246355
594.641324	0.246818
594.851827	0.246605
595.062312	0.246632
595.272778	0.246720
595.483227	0.246771
595.693657	0.246963
595.904069	0.247386
596.114462	0.247532
596.324838	0.247594
596.535195	0.247615
596.745534	0.248280
596.955855	0.248631
597.166157	0.249113
597.376441	0.249439
597.586707	0.249547
597.796955	0.249519
598.007185	0.249932
598.217396	0.250043
598.427589	0.249948
598.637764	0.249991
598.847921	0.249985
599.058060	0.250057
599.268180	0.250120
599.478282	0.250147
599.688366	0.250192
599.898431	0.250006
600.108479	0.250169
600.318508	0.250659
600.528519	0.250728
600.738511	0.250974
600.948486	0.251174
601.158442	0.250978
601.368380	0.251361
601.578300	0.251571
601.788202	0.251654
601.998085	0.251992
602.207950	0.252039
602.417797	0.252374
602.627626	0.252799
602.837436	0.252865
603.047228	0.253139
603.257002	0.252956
603.466758	0.253061
603.676496	0.253407
603.886215	0.253669
604.095916	0.253626
604.305599	0.253555
604.515264	0.253157
604.724910	0.253179
604.934538	0.253693
605.144148	0.254156
605.353740	0.254748
605.563314	0.254971
605.772869	0.254799
605.982406	0.254761
606.191925	0.254880
606.401425	0.255131
606.610908	0.255649
606.820372	0.255628
607.029818	0.255877
607.239246	0.255881
607.448655	0.256189
607.658047	0.256684
607.867420	0.257235
608.076775	0.257402
608.286111	0.257749
608.495430	0.257788
608.704730	0.257813
608.914012	0.257639
609.123275	0.257459
609.332521	0.257413
609.541748	0.257269
609.750957	0.257270
609.960148	0.257319
610.169321	0.257433
610.378475	0.257545
610.587611	0.257535
610.796729	0.257789
611.005829	0.257921
611.214910	0.258115
611.423974	0.258248
611.633019	0.258466
611.842045	0.258319
612.051054	0.258265
612.260044	0.258255
612.469017	0.258566
612.677970	0.258829
612.886906	0.259107
613.095824	0.259157
613.304723	0.259084
613.513604	0.259093
613.722467	0.260018
613.931311	0.260393
614.140138	0.260647
614.348946	0.260884
614.557736	0.260795
614.766507	0.260912
614.975261	0.261201
615.183996	0.261599
615.392713	0.261563
615.601412	0.261260
615.810092	0.261184
616.018754	0.260983
616.227399	0.260696
616.436024	0.260911
616.644632	0.261344
616.853222	0.261337
617.061793	0.261498
617.270346	0.262037
617.478880	0.262165
617.687397	0.262209
617.895895	0.262786
618.104375	0.263352
618.312837	0.263440
618.521281	0.263057
618.729706	0.263154
618.938113	0.263193
619.146502	0.263097
619.354873	0.263180
619.563226	0.263630
619.771560	0.263625
619.979876	0.263728
620.188174	0.263822
620.396453	0.264411
620.604715	0.264707
620.812958	0.264968
621.021183	0.265334
621.229390	0.265796
621.437578	0.265785
621.645748	0.265893
621.853900	0.265866
622.062034	0.265993
622.270150	0.266296
622.478247	0.266341
622.686326	0.266610
622.894387	0.266780
623.102430	0.266548
623.310454	0.266663
623.518461	0.267116
623.726449	0.267652
623.934418	0.267750
624.142370	0.267696
624.350303	0.267647
624.558218	0.267846
624.766115	0.267671
624.973994	0.268193
625.181855	0.268459
625.389697	0.268351
625.597521	0.268144
625.805327	0.268653
626.013114	0.268669
626.220883	0.269196
626.428634	0.269022
626.636367	0.269375
626.844082	0.269373
627.051778	0.269382
627.259457	0.269546
627.467117	0.269798
627.674758	0.269888
627.882382	0.269977
628.089987	0.270176
628.297574	0.270654
628.505143	0.270741
628.712694	0.270953
628.920226	0.271382
629.127740	0.271487
629.335236	0.271579
629.542714	0.271754
629.750174	0.271932
629.957615	0.271945
630.165038	0.271977
630.372443	0.272236
630.579829	0.272306
630.787198	0.272371
630.994548	0.272619
631.201880	0.272957
631.409194	0.273055
631.616489	0.273234
631.823766	0.273267
632.031025	0.273557
632.238266	0.273619
632.445489	0.273565
632.652693	0.273660
632.859879	0.273630
633.067047	0.273513
633.274197	0.273611
633.481329	0.273977
633.688442	0.274112
633.895537	0.273912
634.102614	0.274179
634.309672	0.274384
634.516713	0.274343
634.723735	0.274449
634.930739	0.274742
635.137724	0.274692
635.344692	0.274534
635.551641	0.274721
635.758572	0.275044
635.965485	0.275084
636.172379	0.275324
636.379256	0.275802
636.586114	0.276080
636.792954	0.276231
636.999775	0.276559
637.206579	0.276536
637.413364	0.276621
637.620131	0.276633
637.826880	0.276752
638.033610	0.276888
638.240323	0.276736
638.447017	0.276614
638.653692	0.276624
638.860350	0.276738
639.066990	0.277222
639.273611	0.277340
639.480214	0.277572
639.686798	0.277435
639.893365	0.277582
640.099913	0.277717
640.306443	0.277891
640.512955	0.278121
640.719449	0.278300
640.925924	0.278374
641.132381	0.278600
641.338820	0.278605
641.545241	0.278946
641.751644	0.279112
641.958028	0.279381
642.164394	0.279561
642.370742	0.279832
642.577071	0.279955
642.783383	0.279947
642.989676	0.280079
643.195951	0.280231
643.402207	0.280461
643.608446	0.280482
643.814666	0.280719
644.020868	0.280785
644.227052	0.280740
644.433218	0.280853
644.639365	0.281389
644.845494	0.281507
645.051605	0.281792
645.257698	0.281890
645.463772	0.282158
645.669828	0.282223
645.875866	0.282387
646.081886	0.282902
646.287888	0.283110
646.493871	0.282965
646.699836	0.283195
646.905783	0.283240
647.111712	0.283123
647.317622	0.283049
647.523514	0.283040
647.729388	0.283000
647.935244	0.282927
648.141082	0.283163
648.346901	0.283126
648.552702	0.283281
648.758485	0.283720
648.964250	0.284137
649.169996	0.284527
649.375724	0.284776
649.581434	0.285457
649.787126	0.285808
649.992800	0.285821
650.198455	0.285998
650.404092	0.286227
650.609711	0.286215
650.815311	0.286423
651.020894	0.286471
651.226458	0.286477
651.432004	0.286497
651.637532	0.286447
651.843041	0.286683
652.048532	0.286806
652.254006	0.286980
652.459460	0.287093
652.664897	0.287120
652.870315	0.287547
653.075716	0.287881
653.281097	0.287729
653.486461	0.287802
653.691807	0.287881
653.897134	0.288361
654.102443	0.288358
654.307734	0.288536
654.513006	0.288875
654.718261	0.289051
654.923497	0.288924
655.128715	0.289377
655.333915	0.289564
655.539096	0.289702
655.744259	0.289920
655.949404	0.289913
656.154531	0.290122
656.359640	0.290036
656.564730	0.290060
656.769802	0.290686
656.974856	0.290768
657.179892	0.291350
657.384909	0.291495
657.589908	0.291561
657.794889	0.292152
657.999852	0.292035
658.204797	0.292486
658.409723	0.292451
658.614631	0.292705
658.819521	0.293011
659.024393	0.292821
659.229246	0.293280
659.434081	0.293144
659.638898	0.293236
659.843697	0.293918
660.048478	0.293975
660.253240	0.294251
660.457984	0.294279
660.662710	0.294352
660.867417	0.294475
661.072107	0.294453
661.276778	0.294891
661.481431	0.294958
661.686066	0.295121
661.890682	0.295523
662.095281	0.295944
662.299861	0.296171
662.504422	0.296515
662.708966	0.296755
662.913491	0.296827
663.117999	0.297195
663.322488	0.297475
663.526958	0.297320
663.731411	0.297165
663.935845	0.297187
664.140261	0.297373
664.344659	0.297586
664.549038	0.297787
664.753400	0.297931
664.957743	0.298105
665.162068	0.298329
665.366375	0.298616
665.570663	0.299101
665.774933	0.299343
665.979185	0.299469
666.183419	0.299405
666.387635	0.299386
666.591832	0.299758
666.796011	0.299658
667.000172	0.299801
667.204315	0.299834
667.408439	0.300047
667.612545	0.300161
667.816634	0.300162
668.020703	0.300249
668.224755	0.300738
668.428788	0.300993
668.632803	0.301287
668.836800	0.301476
669.040779	0.301878
669.244739	0.301971
669.448681	0.302188
669.652605	0.302570
669.856511	0.303077
670.060399	0.303322
670.264268	0.303648
670.468119	0.303916
670.671952	0.304236
670.875767	0.304540
671.079563	0.304850
671.283341	0.305158
671.487101	0.305519
671.690843	0.305970
671.894567	0.306039
672.098272	0.306194
672.301959	0.306406
672.505628	0.306351
672.709278	0.306415
672.912911	0.306534
673.116525	0.306703
673.320121	0.306864
673.523699	0.306876
673.727258	0.307116
673.930799	0.307209
674.134322	0.307424
674.337827	0.307790
674.541314	0.308110
674.744782	0.308310
674.948232	0.308246
675.151664	0.308279
675.355078	0.308467
675.558474	0.308601
675.761851	0.308708
675.965210	0.308884
676.168551	0.309016
676.371873	0.309081
676.575178	0.309115
676.778464	0.309510
676.981732	0.309756
677.184981	0.309783
677.388213	0.310347
677.591426	0.310444
677.794621	0.310655
677.997798	0.310964
678.200956	0.311104
678.404097	0.311513
678.607219	0.311917
678.810323	0.311968
679.013408	0.312368
679.216476	0.312187
679.419525	0.312386
679.622556	0.312604
679.825569	0.312813
680.028563	0.313130
680.231540	0.312932
680.434498	0.312861
680.637438	0.313209
680.840359	0.313216
681.043263	0.313539
681.246148	0.313762
681.449015	0.313794
681.651864	0.313857
681.854694	0.313832
682.057506	0.314269
682.260301	0.314595
682.463076	0.314808
682.665834	0.315200
682.868573	0.315462
683.071295	0.315607
683.273998	0.315756
683.476682	0.315850
683.679349	0.316246
683.881997	0.316364
684.084627	0.316268
684.287239	0.316113
684.489833	0.315962
684.692408	0.315780
684.894965	0.316089
685.097504	0.316337
685.300025	0.316701
685.502527	0.316712
685.705012	0.316773
685.907478	0.317118
686.109925	0.317326
686.312355	0.317694
686.514766	0.317858
686.717159	0.317911
686.919534	0.317964
687.121891	0.317908
687.324230	0.318049
687.526550	0.318362
687.728852	0.318313
687.931136	0.318272
688.133401	0.318305
688.335649	0.318517
688.537878	0.318575
688.740089	0.318717
688.942281	0.318809
689.144456	0.318974
689.346612	0.319234
689.548750	0.319342
689.750870	0.319839
689.952971	0.319705
690.155055	0.320022
690.357120	0.320343
690.559167	0.320907
690.761195	0.321256
690.963206	0.321540
691.165198	0.321409
691.367172	0.321606
691.569128	0.321445
691.771065	0.321792
691.972984	0.321874
692.174885	0.321927
692.376768	0.321656
692.578633	0.321495
692.780479	0.321633
692.982308	0.321647
693.184118	0.321710
693.385909	0.321887
