sample name	sample
index	915
start time	 04-12-2021  11:07:18 AM


Wavelength (nm)	Absorbance
494.344910	-0.347911
494.563924	-0.347911
494.782919	-0.347911
495.001897	-0.575037
495.220856	-0.235612
495.439797	-0.244349
495.658719	-0.278588
495.877624	-0.235871
496.096510	-0.145802
496.315378	-0.169319
496.534227	-0.224279
496.753059	-0.156664
496.971872	-0.111958
497.190667	0.073895
497.409444	0.085560
497.628203	0.090940
497.846943	0.090171
498.065665	0.090558
498.284369	0.089938
498.503055	0.090223
498.721723	0.090838
498.940372	0.091163
499.159003	0.090820
499.377616	0.090600
499.596210	0.089993
499.814787	0.089354
500.033345	0.089235
500.251885	0.089366
500.470406	0.090713
500.688910	0.090849
500.907395	0.089969
501.125862	0.089669
501.344311	0.090470
501.562742	0.091075
501.781154	0.092227
501.999548	0.092158
502.217924	0.092297
502.436282	0.091069
502.654621	0.091111
502.872942	0.092425
503.091245	0.093093
503.309530	0.093271
503.527797	0.093679
503.746045	0.092838
503.964275	0.093901
504.182487	0.093910
504.400681	0.094170
504.618856	0.093863
504.837013	0.094218
505.055152	0.094463
505.273273	0.094425
505.491376	0.094324
505.709460	0.095882
505.927526	0.094562
506.145574	0.094535
506.363604	0.095105
506.581615	0.096046
506.799608	0.095183
507.017583	0.094777
507.235540	0.095055
507.453478	0.094471
507.671399	0.094541
507.889301	0.094947
508.107185	0.095821
508.325050	0.096122
508.542898	0.096024
508.760727	0.095808
508.978538	0.096443
509.196330	0.096675
509.414105	0.097755
509.631861	0.097418
509.849599	0.098196
510.067319	0.098477
510.285021	0.098081
510.502704	0.097924
510.720369	0.098768
510.938016	0.098388
511.155645	0.098387
511.373255	0.098067
511.590848	0.098159
511.808422	0.098179
512.025977	0.098312
512.243515	0.098828
512.461034	0.099117
512.678536	0.098752
512.896018	0.099781
513.113483	0.099824
513.330930	0.100416
513.548358	0.100436
513.765768	0.100762
513.983160	0.100832
514.200533	0.101145
514.417889	0.100916
514.635226	0.101033
514.852545	0.100225
515.069845	0.100331
515.287128	0.100347
515.504392	0.100554
515.721638	0.100244
515.938866	0.100087
516.156075	0.100273
516.373267	0.100893
516.590440	0.101436
516.807594	0.101467
517.024731	0.101831
517.241850	0.101850
517.458950	0.102346
517.676032	0.102659
517.893095	0.103126
518.110141	0.103701
518.327168	0.102940
518.544177	0.103292
518.761168	0.104376
518.978141	0.104638
519.195095	0.104689
519.412031	0.105107
519.628949	0.105754
519.845849	0.105569
520.062731	0.105104
520.279594	0.106327
520.496439	0.106166
520.713266	0.106731
520.930074	0.107325
521.146865	0.107927
521.363637	0.108256
521.580391	0.108852
521.797127	0.109458
522.013844	0.110251
522.230543	0.110513
522.447224	0.110636
522.663887	0.110568
522.880532	0.110797
523.097158	0.110652
523.313766	0.111638
523.530356	0.111371
523.746928	0.112066
523.963481	0.112419
524.180017	0.113314
524.396534	0.114153
524.613032	0.114397
524.829513	0.114440
525.045975	0.114890
525.262420	0.114799
525.478845	0.115013
525.695253	0.115131
525.911643	0.115067
526.128014	0.114888
526.344367	0.115204
526.560702	0.115329
526.777018	0.116028
526.993316	0.116442
527.209597	0.116867
527.425858	0.117756
527.642102	0.118076
527.858328	0.118545
528.074535	0.119186
528.290724	0.119617
528.506894	0.119991
528.723047	0.120698
528.939181	0.120950
529.155297	0.121138
529.371395	0.121252
529.587475	0.121148
529.803536	0.121473
530.019579	0.121541
530.235604	0.121600
530.451611	0.122208
530.667600	0.122070
530.883570	0.122285
531.099522	0.122184
531.315456	0.122496
531.531372	0.123481
531.747269	0.123513
531.963148	0.123395
532.179009	0.123969
532.394852	0.124419
532.610676	0.124971
532.826482	0.125462
533.042271	0.125767
533.258040	0.126556
533.473792	0.127306
533.689525	0.128107
533.905240	0.128817
534.120937	0.129071
534.336616	0.128964
534.552277	0.128956
534.767919	0.129619
534.983543	0.130390
535.199149	0.130425
535.414736	0.130305
535.630306	0.130631
535.845857	0.131180
536.061390	0.131823
536.276904	0.132362
536.492401	0.132845
536.707879	0.133449
536.923339	0.133768
537.138781	0.133553
537.354204	0.134288
537.569610	0.134449
537.784997	0.134487
538.000366	0.134383
538.215716	0.134444
538.431049	0.134897
538.646363	0.135254
538.861659	0.135623
539.076937	0.136522
539.292196	0.136477
539.507438	0.137453
539.722661	0.138001
539.937866	0.138266
540.153052	0.139131
540.368221	0.139048
540.583371	0.139164
540.798503	0.139630
541.013617	0.139703
541.228712	0.139802
541.443789	0.139519
541.658848	0.139797
541.873889	0.140607
542.088912	0.140802
542.303916	0.141812
542.518902	0.141815
542.733870	0.141786
542.948820	0.142583
543.163752	0.143448
543.378665	0.143730
543.593560	0.144055
543.808437	0.144143
544.023295	0.144646
544.238136	0.144723
544.452958	0.145369
544.667762	0.146256
544.882548	0.146496
545.097315	0.146416
545.312064	0.147192
545.526795	0.147699
545.741508	0.148175
545.956203	0.148320
546.170879	0.148436
546.385537	0.148850
546.600177	0.148316
546.814799	0.148565
547.029402	0.148787
547.243988	0.148460
547.458555	0.148606
547.673103	0.148811
547.887634	0.148911
548.102146	0.149470
548.316640	0.149838
548.531116	0.150454
548.745574	0.150621
548.960013	0.151237
549.174435	0.151620
549.388838	0.151864
549.603222	0.152383
549.817589	0.152647
550.031937	0.152716
550.246267	0.152822
550.460579	0.153249
550.674873	0.153256
550.889148	0.153523
551.103405	0.153792
551.317644	0.153881
551.531865	0.154282
551.746068	0.155066
551.960252	0.155209
552.174418	0.155145
552.388566	0.155546
552.602696	0.156433
552.816807	0.156465
553.030900	0.156580
553.244975	0.157003
553.459032	0.156921
553.673070	0.157331
553.887091	0.157882
554.101093	0.158630
554.315077	0.158785
554.529042	0.158628
554.742990	0.158884
554.956919	0.159167
555.170830	0.159182
555.384722	0.159387
555.598597	0.159206
555.812453	0.159018
556.026291	0.158874
556.240111	0.158988
556.453913	0.158907
556.667696	0.159419
556.881461	0.160008
557.095208	0.160516
557.308937	0.160857
557.522647	0.161020
557.736339	0.161459
557.950013	0.161821
558.163669	0.162242
558.377307	0.162989
558.590926	0.162810
558.804527	0.162728
559.018110	0.163168
559.231675	0.163282
559.445221	0.163714
559.658749	0.163942
559.872259	0.164533
560.085751	0.164790
560.299225	0.164830
560.512680	0.165125
560.726117	0.165668
560.939536	0.165608
561.152937	0.166063
561.366319	0.166353
561.579683	0.166569
561.793029	0.166681
562.006357	0.166390
562.219667	0.166816
562.432958	0.167132
562.646231	0.167288
562.859486	0.167544
563.072723	0.167954
563.285941	0.168124
563.499141	0.168850
563.712323	0.168594
563.925487	0.169039
564.138632	0.168922
564.351760	0.168883
564.564869	0.169038
564.777960	0.169388
564.991032	0.169620
565.204087	0.169757
565.417123	0.169671
565.630141	0.170109
565.843140	0.170265
566.056122	0.170403
566.269085	0.170881
566.482030	0.171054
566.694957	0.171105
566.907866	0.170804
567.120756	0.171035
567.333628	0.171067
567.546482	0.170938
567.759318	0.171093
567.972135	0.171582
568.184935	0.172285
568.397716	0.172696
568.610478	0.172985
568.823223	0.173391
569.035949	0.173592
569.248657	0.173824
569.461347	0.174124
569.674019	0.174143
569.886672	0.174236
570.099308	0.173803
570.311925	0.173599
570.524523	0.174094
570.737104	0.174313
570.949666	0.174784
571.162210	0.174566
571.374736	0.174944
571.587244	0.175226
571.799733	0.175374
572.012205	0.175536
572.224658	0.176274
572.437092	0.175987
572.649509	0.175988
572.861907	0.175991
573.074287	0.176231
573.286649	0.176368
573.498993	0.176656
573.711318	0.176676
573.923625	0.176702
574.135914	0.176559
574.348185	0.176790
574.560438	0.176673
574.772672	0.176570
574.984888	0.176974
575.197086	0.177536
575.409266	0.177982
575.621427	0.178537
575.833570	0.178776
576.045695	0.178694
576.257802	0.178604
576.469890	0.179322
576.681961	0.179684
576.894013	0.179826
577.106046	0.179617
577.318062	0.179500
577.530059	0.179620
577.742039	0.179858
577.954000	0.180424
578.165942	0.181036
578.377867	0.181160
578.589773	0.181468
578.801661	0.181995
579.013531	0.182589
579.225382	0.182923
579.437216	0.182946
579.649031	0.183510
579.860828	0.183739
580.072606	0.183929
580.284367	0.184351
580.496109	0.184655
580.707833	0.184810
580.919539	0.184924
581.131227	0.185080
581.342896	0.185411
581.554547	0.185810
581.766180	0.185935
581.977795	0.185794
582.189391	0.185770
582.400969	0.185817
582.612529	0.185920
582.824071	0.185811
583.035595	0.185921
583.247100	0.186175
583.458587	0.185900
583.670056	0.186211
583.881506	0.186734
584.092939	0.186820
584.304353	0.187118
584.515749	0.187224
584.727127	0.187681
584.938486	0.188003
585.149828	0.188117
585.361151	0.188470
585.572456	0.188854
585.783742	0.188740
585.995011	0.189378
586.206261	0.189448
586.417493	0.189927
586.628706	0.190248
586.839902	0.190533
587.051079	0.190886
587.262238	0.191072
587.473379	0.191075
587.684502	0.191621
587.895606	0.191532
588.106692	0.191884
588.317760	0.191991
588.528810	0.192170
588.739841	0.192583
588.950855	0.192962
589.161850	0.193448
589.372827	0.194060
589.583785	0.194128
589.794726	0.194491
590.005648	0.194696
590.216552	0.194928
590.427437	0.195083
590.638305	0.194790
590.849154	0.195410
591.059985	0.195276
591.270798	0.195171
591.481592	0.195499
591.692369	0.195853
591.903127	0.195913
592.113867	0.196103
592.324588	0.196543
592.535292	0.197089
592.745977	0.196917
592.956644	0.197362
593.167293	0.197514
593.377923	0.197634
593.588536	0.197823
593.799130	0.197911
594.009706	0.198297
594.220263	0.198361
594.430803	0.198631
594.641324	0.198683
594.851827	0.198755
595.062312	0.199017
595.272778	0.199512
595.483227	0.199580
595.693657	0.200084
595.904069	0.200124
596.114462	0.200577
596.324838	0.200706
596.535195	0.200694
596.745534	0.200974
596.955855	0.200953
597.166157	0.200916
597.376441	0.200826
597.586707	0.200534
597.796955	0.200974
598.007185	0.200735
598.217396	0.201082
598.427589	0.201538
598.637764	0.202044
598.847921	0.202300
599.058060	0.202828
599.268180	0.203093
599.478282	0.203558
599.688366	0.203623
599.898431	0.203918
600.108479	0.204187
600.318508	0.204115
600.528519	0.204182
600.738511	0.204475
600.948486	0.204081
601.158442	0.204439
601.368380	0.204715
601.578300	0.204913
601.788202	0.205225
601.998085	0.205456
602.207950	0.205971
602.417797	0.206072
602.627626	0.206517
602.837436	0.207092
603.047228	0.207342
603.257002	0.207509
603.466758	0.207768
603.676496	0.207647
603.886215	0.207589
604.095916	0.207503
604.305599	0.207615
604.515264	0.207716
604.724910	0.207814
604.934538	0.208129
605.144148	0.208105
605.353740	0.208297
605.563314	0.208798
605.772869	0.209100
605.982406	0.209373
606.191925	0.209359
606.401425	0.209222
606.610908	0.209504
606.820372	0.209367
607.029818	0.209763
607.239246	0.209730
607.448655	0.209830
607.658047	0.209860
607.867420	0.210126
608.076775	0.210190
608.286111	0.210848
608.495430	0.210784
608.704730	0.210964
608.914012	0.210907
609.123275	0.210846
609.332521	0.210656
609.541748	0.211004
609.750957	0.210943
609.960148	0.211264
610.169321	0.211068
610.378475	0.211054
610.587611	0.211174
610.796729	0.211424
611.005829	0.211708
611.214910	0.212147
611.423974	0.212068
611.633019	0.212396
611.842045	0.212641
612.051054	0.212730
612.260044	0.213248
612.469017	0.213588
612.677970	0.214024
612.886906	0.214336
613.095824	0.214586
613.304723	0.214716
613.513604	0.214949
613.722467	0.215064
613.931311	0.215618
614.140138	0.215574
614.348946	0.215529
614.557736	0.215539
614.766507	0.215885
614.975261	0.216240
615.183996	0.216584
615.392713	0.216778
615.601412	0.216949
615.810092	0.216831
616.018754	0.217235
616.227399	0.217702
616.436024	0.217495
616.644632	0.217619
616.853222	0.217619
617.061793	0.217839
617.270346	0.217987
617.478880	0.218518
617.687397	0.218709
617.895895	0.218957
618.104375	0.218937
618.312837	0.219324
618.521281	0.219562
618.729706	0.219738
618.938113	0.219923
619.146502	0.220120
619.354873	0.220120
619.563226	0.220260
619.771560	0.220185
619.979876	0.220295
620.188174	0.220701
620.396453	0.220607
620.604715	0.220829
620.812958	0.221030
621.021183	0.220951
621.229390	0.221205
621.437578	0.221621
621.645748	0.221875
621.853900	0.222255
622.062034	0.222287
622.270150	0.222651
622.478247	0.222889
622.686326	0.222998
622.894387	0.223278
623.102430	0.223184
623.310454	0.223066
623.518461	0.223286
623.726449	0.223570
623.934418	0.223671
624.142370	0.223730
624.350303	0.223714
624.558218	0.223803
624.766115	0.223879
624.973994	0.224200
625.181855	0.224824
625.389697	0.225082
625.597521	0.225350
625.805327	0.225777
626.013114	0.226200
626.220883	0.226443
626.428634	0.226560
626.636367	0.227042
626.844082	0.227365
627.051778	0.227310
627.259457	0.227464
627.467117	0.227819
627.674758	0.228038
627.882382	0.228113
628.089987	0.228182
628.297574	0.228349
628.505143	0.228365
628.712694	0.228289
628.920226	0.228442
629.127740	0.228431
629.335236	0.228376
629.542714	0.228518
629.750174	0.228645
629.957615	0.228934
630.165038	0.229322
630.372443	0.229417
630.579829	0.229884
630.787198	0.230176
630.994548	0.230355
631.201880	0.230140
631.409194	0.230153
631.616489	0.230163
631.823766	0.230415
632.031025	0.230576
632.238266	0.230742
632.445489	0.230873
632.652693	0.230792
632.859879	0.231189
633.067047	0.231486
633.274197	0.231648
633.481329	0.231769
633.688442	0.231685
633.895537	0.231859
634.102614	0.232127
634.309672	0.232196
634.516713	0.232492
634.723735	0.232450
634.930739	0.232740
635.137724	0.233218
635.344692	0.233459
635.551641	0.233914
635.758572	0.233909
635.965485	0.234172
636.172379	0.234247
636.379256	0.234471
636.586114	0.234834
636.792954	0.235019
636.999775	0.235076
637.206579	0.235320
637.413364	0.235389
637.620131	0.235585
637.826880	0.235679
638.033610	0.235985
638.240323	0.236035
638.447017	0.236164
638.653692	0.236269
638.860350	0.236139
639.066990	0.236276
639.273611	0.236442
639.480214	0.236626
639.686798	0.236852
639.893365	0.236908
640.099913	0.237288
640.306443	0.237451
640.512955	0.237589
640.719449	0.238081
640.925924	0.238326
641.132381	0.238723
641.338820	0.239115
641.545241	0.239349
641.751644	0.239743
641.958028	0.239913
642.164394	0.240032
642.370742	0.240336
642.577071	0.240329
642.783383	0.240607
642.989676	0.240715
643.195951	0.240624
643.402207	0.240799
643.608446	0.240974
643.814666	0.241044
644.020868	0.241332
644.227052	0.241565
644.433218	0.241985
644.639365	0.242042
644.845494	0.242146
645.051605	0.242633
645.257698	0.242908
645.463772	0.242924
645.669828	0.243180
645.875866	0.243407
646.081886	0.243750
646.287888	0.243967
646.493871	0.244428
646.699836	0.244823
646.905783	0.244965
647.111712	0.245175
647.317622	0.245708
647.523514	0.245814
647.729388	0.246244
647.935244	0.246431
648.141082	0.246673
648.346901	0.247009
648.552702	0.246963
648.758485	0.247391
648.964250	0.247584
649.169996	0.247853
649.375724	0.248301
649.581434	0.248617
649.787126	0.248771
649.992800	0.248910
650.198455	0.248740
650.404092	0.249059
650.609711	0.249233
650.815311	0.249188
651.020894	0.249416
651.226458	0.249536
651.432004	0.249505
651.637532	0.249654
651.843041	0.249864
652.048532	0.250391
652.254006	0.250854
652.459460	0.250920
652.664897	0.251399
652.870315	0.251205
653.075716	0.251702
653.281097	0.251879
653.486461	0.252143
653.691807	0.252440
653.897134	0.252663
654.102443	0.252859
654.307734	0.252774
654.513006	0.252854
654.718261	0.253336
654.923497	0.253458
655.128715	0.253910
655.333915	0.253970
655.539096	0.254209
655.744259	0.254296
655.949404	0.254312
656.154531	0.254834
656.359640	0.255213
656.564730	0.255319
656.769802	0.255496
656.974856	0.255471
657.179892	0.255941
657.384909	0.256198
657.589908	0.256621
657.794889	0.256800
657.999852	0.257203
658.204797	0.257511
658.409723	0.257783
658.614631	0.257897
658.819521	0.258238
659.024393	0.258588
659.229246	0.258623
659.434081	0.258545
659.638898	0.259064
659.843697	0.259346
660.048478	0.259505
660.253240	0.259645
660.457984	0.259691
660.662710	0.259861
660.867417	0.259996
661.072107	0.260345
661.276778	0.260806
661.481431	0.260945
661.686066	0.261312
661.890682	0.261761
662.095281	0.262161
662.299861	0.262659
662.504422	0.263130
662.708966	0.263286
662.913491	0.263361
663.117999	0.263430
663.322488	0.263467
663.526958	0.263211
663.731411	0.263084
663.935845	0.263301
664.140261	0.263463
664.344659	0.263446
664.549038	0.263675
664.753400	0.263840
664.957743	0.264361
665.162068	0.264984
665.366375	0.265434
665.570663	0.266019
665.774933	0.266280
665.979185	0.266550
666.183419	0.266778
666.387635	0.267215
666.591832	0.267595
666.796011	0.267764
667.000172	0.267928
667.204315	0.268162
667.408439	0.268320
667.612545	0.268436
667.816634	0.268811
668.020703	0.269045
668.224755	0.269248
668.428788	0.269722
668.632803	0.269850
668.836800	0.270023
669.040779	0.270170
669.244739	0.270468
669.448681	0.270936
669.652605	0.271321
669.856511	0.271609
670.060399	0.271731
670.264268	0.272134
670.468119	0.272522
670.671952	0.272503
670.875767	0.272938
671.079563	0.273379
671.283341	0.273735
671.487101	0.273938
671.690843	0.274393
671.894567	0.274660
672.098272	0.274743
672.301959	0.275038
672.505628	0.275552
672.709278	0.275822
672.912911	0.275789
673.116525	0.275838
673.320121	0.275971
673.523699	0.276275
673.727258	0.276509
673.930799	0.276878
674.134322	0.277211
674.337827	0.277378
674.541314	0.277651
674.744782	0.278106
674.948232	0.278644
675.151664	0.279016
675.355078	0.279103
675.558474	0.279616
675.761851	0.279899
675.965210	0.279803
676.168551	0.280324
676.371873	0.280467
676.575178	0.280813
676.778464	0.281076
676.981732	0.281219
677.184981	0.281606
677.388213	0.281798
677.591426	0.281846
677.794621	0.282465
677.997798	0.282711
678.200956	0.283007
678.404097	0.283039
678.607219	0.283231
678.810323	0.283377
679.013408	0.283380
679.216476	0.283728
679.419525	0.284105
679.622556	0.284074
679.825569	0.284089
680.028563	0.284358
680.231540	0.284655
680.434498	0.284816
680.637438	0.285035
680.840359	0.285420
681.043263	0.285410
681.246148	0.285471
681.449015	0.285838
681.651864	0.285915
681.854694	0.286271
682.057506	0.286704
682.260301	0.287033
682.463076	0.287397
682.665834	0.287682
682.868573	0.288063
683.071295	0.288371
683.273998	0.288637
683.476682	0.289170
683.679349	0.289248
683.881997	0.289241
684.084627	0.289422
684.287239	0.289643
684.489833	0.289976
684.692408	0.290022
684.894965	0.290367
685.097504	0.290692
685.300025	0.290830
685.502527	0.291299
685.705012	0.291537
685.907478	0.291752
686.109925	0.291843
686.312355	0.291842
686.514766	0.292394
686.717159	0.292514
686.919534	0.292593
687.121891	0.293017
687.324230	0.293188
687.526550	0.293424
687.728852	0.293652
687.931136	0.294181
688.133401	0.294689
688.335649	0.294779
688.537878	0.294965
688.740089	0.295168
688.942281	0.295251
689.144456	0.295586
689.346612	0.295803
689.548750	0.295981
689.750870	0.296257
689.952971	0.296349
690.155055	0.296700
690.357120	0.297174
690.559167	0.297620
690.761195	0.297875
690.963206	0.297865
691.165198	0.298129
691.367172	0.298599
691.569128	0.298743
691.771065	0.298968
691.972984	0.298928
692.174885	0.299091
692.376768	0.299314
692.578633	0.299441
692.780479	0.299598
692.982308	0.299814
693.184118	0.299915
693.385909	0.299821
