sample name	sample
index	1439
start time	 05-10-2021  12:54:54 PM
880	0.332204
Peak Time (s)	91.039
Peak Height 	0.3322
calc peak height	90,93
Baseline Time (s)	9.537
Baseline Value 	-0.004009
subtract baseline	10,4
Abs	0.201991
Peak Time (s)	90.538
Peak Height 	0.202
calc peak height	90,93
Baseline Time (s)	11.539
Baseline Value 	0.003044
subtract baseline	10,3
PK_550	0.106263
Peak Time (s)	92.535
Peak Height 	0.1063
calc peak height	90,93
Baseline Time (s)	11.036
Baseline Value 	8.7392E-4
subtract baseline	10,2
PK_880	0.183662
Peak Time (s)	92.036
Peak Height 	0.1837
calc peak height	90,93
Baseline Time (s)	10.038
Baseline Value 	0.001488
subtract baseline	10,1


Time (s)	A880-A510	A880-A775	A880-A975	A880	I510	I775	I975	I880	
0.035000	0.000170	-0.000101	-0.003612	0.002152	6480.424574	43939.559294	3933.744439	22574.943529
0.535000	-0.000721	-0.000923	-0.003522	0.003755	6459.642736	43711.317036	3929.857088	22502.337166
1.035500	-0.003378	-0.001197	0.001401	0.002895	6444.734971	43766.394476	3944.797349	22541.261739
1.536000	-0.003096	-0.001073	-0.006857	0.005617	6424.598359	43522.876497	3916.597011	22418.267406
2.036000	0.000521	-0.000952	-0.006495	0.000372	6498.283654	44027.441505	3930.907885	22655.942991
2.536500	-0.000689	-0.000884	0.000899	-0.000126	6492.301476	44080.906470	3951.367466	22678.631089
3.036500	0.000889	-0.000624	-0.000905	-0.002198	6523.042773	44302.434277	3952.066724	22773.421739
3.537000	-0.000883	-0.000351	0.000195	0.003832	6457.653009	43757.804882	3939.236629	22498.820198
4.034500	-0.000046	-0.000053	0.001899	-0.000288	6499.065691	44175.125439	3954.410481	22686.053370
4.537500	0.002637	0.000249	0.001823	0.000063	6518.705353	44170.475424	3953.291466	22670.006644
5.034500	0.000665	-0.000224	-0.001938	-0.000420	6506.159509	44171.457445	3944.735138	22692.090368
5.535000	0.000884	0.000603	-0.002997	0.000005	6504.424186	44209.676390	3940.882490	22672.677234
6.038000	0.000787	-0.001143	0.001112	-0.000840	6510.724653	44124.086145	3953.795227	22711.272243
6.536000	-0.002178	0.000210	-0.001177	-0.000278	6481.111796	44199.161117	3946.345452	22685.592622
7.036000	0.001531	0.000115	-0.003061	-0.000311	6512.533644	44193.295181	3941.535167	22687.097106
7.536000	0.000052	0.000086	0.004629	-0.000541	6502.016710	44212.388366	3962.261837	22697.599874
8.034000	0.000487	-0.000715	-0.004065	-0.000768	6507.584449	44157.849626	3940.118009	22707.966477
8.537500	0.000930	-0.000172	0.002933	0.000164	6503.468231	44120.921217	3955.937549	22665.411318
9.034000	-0.001478	-0.000217	-0.001253	-0.000412	6488.090048	44171.410661	3946.497673	22691.718362
9.537000	0.000892	0.000191	0.001950	0.000000	6504.530414	44170.995411	3953.789512	22672.898328
10.038000	0.000000	0.000599	-0.001689	0.000015	6496.906295	44208.325410	3944.250605	22672.219739
10.535000	-0.000152	-0.000009	-0.002763	-0.000521	6500.132518	44201.438599	3942.852916	22696.673933
11.035500	-0.000045	0.000000	0.001896	0.000375	6493.501805	44117.231689	3952.664782	22655.779951
11.539000	0.000479	0.000036	0.000000	-0.000563	6505.798482	44209.743590	3950.160608	22698.623851
12.039500	0.001535	0.000115	-0.000694	0.000192	6508.325823	44145.493415	3946.378433	22664.132022
12.539500	-0.001132	-0.000412	0.000425	-0.000408	6490.955096	44152.431624	3950.863929	22691.513093
13.039500	0.000066	0.000011	-0.001963	0.000301	6495.055207	44125.321273	3942.794010	22659.150697
13.540000	0.001474	0.000005	0.004880	-0.000590	6514.400889	44209.288185	3963.052913	22699.814504
14.034500	-0.003167	-0.000594	-0.001123	0.001357	6459.236945	43968.055581	3942.234270	22611.067748
14.535000	-0.001975	-0.000222	-0.004053	0.001638	6466.825984	43976.712631	3933.934307	22598.319578
15.041000	-0.000297	-0.000032	-0.001521	0.000203	6492.827380	44130.483640	3944.198619	22663.616497
15.535500	-0.001398	-0.000105	-0.001424	0.003110	6459.374202	43848.913215	3936.918503	22531.518473
16.036000	-0.002302	-0.000795	-0.004248	-0.001532	6490.571489	44222.862660	3941.622699	22742.936589
16.536500	-0.001601	-0.000364	0.001384	-0.000638	6488.948718	44178.790597	3953.978244	22702.021581
17.036500	0.001656	-0.000253	0.004109	-0.002782	6534.481422	44393.512250	3966.814656	22800.215369
17.539000	-0.000258	-0.000369	-0.002037	0.000785	6488.282148	44043.437879	3941.346659	22637.112005
18.037500	0.001734	0.000731	0.000834	0.001033	6502.928592	44124.275239	3948.170645	22625.844947
18.537000	-0.002866	-0.000713	0.002945	-0.000167	6474.436763	44101.043438	3956.838845	22680.506922
19.035000	-0.000499	0.000279	-0.000614	0.001240	6482.455409	44061.705234	3943.861195	22616.408324
19.535000	0.002457	0.000347	0.004457	0.001269	6507.020452	44065.356804	3957.037871	22615.065101
20.035500	-0.002545	-0.000513	0.001255	0.000379	6472.561663	44068.247640	3950.976627	22655.596043
20.536000	0.001536	0.000093	0.001966	0.001105	6500.652937	44056.938525	3950.938241	22622.555809
21.036000	-0.001220	-0.000921	-0.002474	-0.000220	6488.642237	44086.302664	3942.821363	22682.917794
21.536000	-0.001489	-0.000536	0.001191	0.000444	6480.841235	44059.924777	3950.640408	22652.656892
22.039500	-0.000674	-0.000815	0.001069	0.000374	6488.236890	44040.159791	3950.504040	22655.819360
22.536500	-0.001363	-0.000901	0.001323	0.000050	6485.188734	44062.729900	3952.017888	22670.628385
23.034000	0.000089	-0.000089	-0.001087	0.000946	6489.841232	44054.761660	3943.396647	22629.785087
23.537500	-0.002231	0.000312	-0.002710	0.000898	6470.851093	44097.265340	3939.311992	22631.964638
24.035000	-0.001740	-0.000340	0.002633	0.000338	6479.625639	44088.536182	3954.694337	22657.476742
24.535500	-0.001084	-0.000203	-0.002740	0.000586	6483.035712	44078.038048	3940.041907	22646.160773
25.035500	-0.001290	-0.000457	0.002476	0.000163	6484.848656	44094.018546	3954.739488	22665.443595
25.536000	0.000340	-0.000112	0.000575	0.000596	6494.889441	44085.714342	3948.634298	22645.744033
26.036000	-0.000581	0.000159	0.004194	0.000760	6485.793988	44095.897954	3957.685970	22638.263370
26.536500	-0.000987	-0.000811	-0.003436	0.000146	6487.529410	44062.068481	3939.378265	22666.228101
27.036500	0.000444	-0.000002	0.000188	-0.001824	6516.125886	44326.098613	3953.952027	22756.310885
27.537000	0.000606	-0.000086	0.002768	0.000585	6497.208575	44089.160192	3954.399740	22646.217742
28.034500	0.000814	-0.000169	0.002188	-0.000861	6511.122243	44218.551539	3956.674006	22712.235577
28.535000	0.004000	0.000267	0.002130	-0.000294	6533.262565	44206.063272	3955.031227	22686.297171
29.035500	0.000044	-0.000462	-0.003611	-0.000835	6504.417565	44188.282852	3941.468533	22711.037134
29.535500	-0.001225	-0.000558	-0.000906	0.000002	6486.745743	44099.716079	3946.321335	22672.803484
30.036000	0.001496	0.000048	0.000923	-0.000525	6514.038824	44207.192326	3952.474242	22696.857305
30.535500	0.000950	0.000090	0.004610	0.002007	6488.166186	43971.335664	3955.501267	22581.533293
31.036000	0.000028	0.000148	-0.003700	0.001684	6483.149005	44007.328525	3934.723575	22596.208697
31.536500	-0.000414	0.000222	-0.002429	0.001322	6482.476704	44048.501917	3938.941362	22612.652694
32.037000	0.001278	0.000735	0.004235	0.000159	6506.441335	44207.579121	3959.376448	22665.651361
32.537500	0.002410	-0.000102	-0.003662	-0.000506	6521.593870	44191.210107	3940.483010	22695.993481
33.036500	0.000939	-0.000330	0.000769	-0.000785	6511.535495	44195.965207	3952.751711	22708.727246
33.535000	0.001170	0.000137	-0.002477	0.000444	6503.134131	44123.656375	3941.089778	22652.640136
34.035000	0.000928	0.000406	0.002449	0.000309	6502.227931	44162.007944	3954.286818	22658.795837
34.535500	-0.001438	-0.000799	-0.001592	0.001351	6473.686990	43949.343038	3941.034935	22611.357214
35.036000	-0.000743	0.000371	-0.002929	0.001898	6474.925956	44008.254258	3936.162285	22586.511845
35.537000	0.000316	-0.000948	0.000347	0.001327	6488.557156	43937.556600	3946.134859	22612.469475
36.036500	0.000120	0.000092	-0.000270	0.002005	6481.242234	43971.692704	3942.768017	22581.647537
36.537000	-0.001178	-0.000543	0.000630	0.001621	6473.604923	43947.940751	3946.106456	22599.069609
37.037000	0.001446	-0.000329	0.002727	0.001848	6493.662778	43946.785658	3950.986095	22588.771713
37.537500	-0.000247	-0.000655	0.003412	0.001762	6480.203619	43924.116398	3953.002430	22592.667578
38.035000	-0.000441	-0.000116	0.002077	0.002173	6475.150123	43936.196282	3948.440075	22574.025080
38.535000	-0.000380	0.000093	-0.000035	0.002209	6475.352895	43952.513568	3942.847132	22572.369349
39.035500	-0.002515	-0.001196	0.000853	0.001109	6466.726871	43934.638776	3948.020455	22622.349187
39.538500	-0.000873	-0.001032	-0.004035	0.000948	6481.768978	43965.384620	3935.758829	22629.683987
40.036000	-0.000358	-0.000701	-0.000738	0.001495	6481.500196	43944.929157	3942.874777	22604.799215
40.536000	-0.000365	0.000418	-0.002830	0.001579	6480.744197	44042.767012	3937.240658	22600.973953
41.036500	-0.000029	-0.000055	0.000441	0.001675	6482.749538	43989.003692	3945.474142	22596.636504
41.537000	-0.001342	-0.000565	-0.001009	0.001243	6475.390643	43981.573183	3942.825873	22616.257588
42.037000	-0.002279	-0.000672	0.000599	0.001125	6468.561555	43982.608029	3947.317221	22621.627943
42.534500	-0.000445	-0.000127	0.002082	0.001223	6483.058390	44024.933254	3950.935160	22617.200553
43.035000	-0.000965	-0.000321	-0.003979	0.001115	6479.601725	44016.749717	3935.470619	22622.073255
43.535500	0.000655	0.000166	-0.001600	0.002163	6484.390442	43963.750484	3938.909362	22574.450809
44.038000	0.002264	0.000220	0.004908	-0.001697	6530.443615	44335.161318	3966.060089	22750.496600
44.536000	-0.000604	-0.001247	0.002925	-0.000995	6500.315922	44128.880192	3958.966071	22718.334906
45.036000	-0.000952	0.000483	0.000770	0.000493	6484.918865	44151.890214	3949.413497	22650.421724
45.536500	0.001717	0.000782	-0.001981	0.000887	6504.013701	44142.953468	3941.230208	22632.486296
46.036500	0.000424	-0.000060	0.001675	-0.000563	6505.324754	44200.576715	3954.545352	22698.596959
46.537000	0.001183	-0.000210	0.004932	-0.000512	6511.291318	44181.496017	3962.986192	22696.251633
47.037500	0.000872	0.000666	0.000097	0.000867	6497.078434	44133.810232	3946.683324	22633.397350
47.537500	-0.000568	-0.000299	-0.001770	0.001574	6479.091188	43975.490833	3939.996756	22601.221817
48.038000	-0.000406	0.001057	0.001868	0.002377	6473.731359	44027.759873	3947.360875	22564.726164
48.538000	-0.000678	0.000104	0.001248	-0.000379	6494.522090	44198.652391	3952.943524	22690.181693
49.035500	0.001875	0.000662	0.004737	0.000660	6507.246051	44152.964172	3959.378100	22642.788911
49.536000	0.000140	-0.000896	-0.001174	-0.001118	6507.612908	44173.882896	3948.543908	22723.975924
50.036000	0.003508	0.000106	0.002281	-0.002897	6551.204256	44438.726076	3962.283182	22805.498908
50.537000	-0.000013	0.000024	0.001914	0.000486	6492.846501	44109.055916	3952.422928	22650.738983
51.036500	0.000670	-0.009744	0.009433	0.009294	6425.327430	42385.169557	3949.050751	22253.345521
51.537500	0.007346	-0.020436	0.027388	0.185638	5269.193912	28582.432801	3602.569137	15780.835710
52.037500	-0.012632	-0.043690	-0.026987	-0.171288	8105.103778	58228.015049	4395.396948	32253.288312
52.534500	-0.050474	-0.079611	-0.032750	-0.243120	8532.880377	62993.843280	4655.030479	37540.336192
53.036000	-0.032246	-0.118342	-0.051900	-0.299850	9603.398336	65535.000000	4821.317285	42379.912145
53.535500	-0.004416	-0.062312	-0.022094	-0.230630	8989.524704	63662.663899	4647.277397	36557.147199
54.036000	0.003580	-0.038823	-0.005504	-0.181590	8435.904630	60193.052749	4515.380141	32958.861983
54.535500	0.001072	-0.025476	-0.004234	-0.134739	7835.833347	55942.325966	4345.989607	29880.694673
55.036000	-0.007758	-0.033926	-0.011562	-0.175272	8213.373755	60006.112698	4467.613324	32524.133713
55.539500	0.002675	-0.028723	0.003997	-0.167866	8250.892804	59717.332352	4498.929474	32022.569716
56.036500	0.011626	-0.021735	0.014660	-0.144525	8074.871932	57619.133557	4450.488877	30496.486185
56.540000	0.024154	-0.006886	0.032532	-0.056049	7236.661990	49092.448662	4205.131877	25402.439853
57.034500	0.032964	0.002896	0.041766	-0.003826	6819.407564	44795.676382	4074.147466	22848.246216
57.535000	0.046917	0.012918	0.053454	0.041284	6544.646125	41547.086290	3980.901853	20876.104185
58.035500	0.057242	0.020156	0.065218	0.075563	6346.395353	39216.527604	3922.010243	19508.608705
58.535500	0.072411	0.029382	0.081527	0.105707	6227.905041	37510.670543	3887.308608	18392.138772
59.035500	0.086817	0.037995	0.104155	0.173541	5836.933440	33103.847515	3781.329901	16145.847974
59.536000	0.090326	0.041075	0.102014	0.153582	6002.763571	34747.219166	3821.791038	16770.759391
60.039000	0.105300	0.049425	0.116287	0.157876	6081.244253	35045.681650	3845.183949	16633.872320
60.536500	0.114407	0.054833	0.117780	0.137469	6308.441806	37011.919414	3898.452872	17296.631061
61.037000	0.121812	0.060805	0.135675	0.175541	6072.674159	34584.369925	3849.278898	16084.792270
61.537500	0.128576	0.067058	0.141796	0.207973	5887.754628	32733.294096	3788.495219	15133.069694
62.037500	0.134792	0.067148	0.154108	0.262269	5569.436871	29237.348437	3698.816075	13690.519556
62.535000	0.138894	0.076455	0.159856	0.295658	5392.120362	27818.857754	3644.334356	12888.939468
63.035000	0.141981	0.079362	0.156726	0.279538	5507.046200	28933.033348	3669.506550	13268.228810
63.536000	0.146350	0.082681	0.159520	0.276741	5551.250510	29301.656767	3680.574625	13335.488975
64.038500	0.148927	0.085242	0.163107	0.276927	5566.159609	29446.205437	3687.377662	13331.002630
64.535500	0.152722	0.088183	0.164332	0.278204	5581.949167	29547.935300	3687.272021	13300.250934
65.036500	0.150058	0.088260	0.157853	0.279623	5556.393682	29465.926953	3671.558346	13266.208206
65.536500	0.153166	0.089584	0.162875	0.281143	5566.303338	29453.898778	3678.491054	13229.827973
66.045500	0.153869	0.092418	0.176499	0.283961	5553.110886	29454.876734	3700.239309	13162.755663
66.537500	0.158011	0.092264	0.167773	0.285290	5570.674850	29364.533110	3679.986345	13131.279446
67.038000	0.157586	0.093843	0.175618	0.291020	5532.391402	29113.147344	3684.206920	12996.626222
67.535500	0.163281	0.094691	0.171415	0.291825	5562.766187	29115.791515	3674.244038	12977.859880
68.035500	0.163475	0.095609	0.179715	0.293114	5555.927958	29093.348502	3688.221550	12947.848470
68.536000	0.165428	0.097081	0.180014	0.295722	5551.852601	29025.071515	3683.593766	12887.451528
69.036000	0.163149	0.096693	0.175671	0.297289	5528.035355	28907.858711	3671.856850	12851.320212
69.536500	0.169009	0.099002	0.182068	0.298331	5557.904790	28983.778482	3682.484579	12827.376213
70.036500	0.169425	0.099662	0.185957	0.299878	5550.860627	28930.630273	3687.174574	12791.928030
70.539500	0.171195	0.101001	0.186585	0.302100	5548.050571	28877.855803	3683.979113	12741.234562
71.037000	0.171448	0.100934	0.181746	0.306407	5522.986059	28617.926696	3665.875547	12643.706400
71.534500	0.173718	0.101983	0.192748	0.307012	5533.255062	28644.178661	3686.486884	12630.093291
72.035000	0.173006	0.101729	0.190148	0.308304	5520.902801	28552.848513	3678.713146	12601.055709
72.535000	0.173644	0.102292	0.187454	0.311233	5506.851432	28413.665036	3667.606150	12535.578634
73.035500	0.171963	0.101499	0.185715	0.316031	5467.518945	28087.851489	3654.873056	12429.256189
73.536000	0.176271	0.102133	0.183485	0.316731	5489.352737	28084.078794	3649.227972	12413.849551
74.036000	0.178150	0.104266	0.189516	0.320506	5477.856873	27989.195971	3653.572056	12331.153273
74.537000	0.176089	0.103602	0.189250	0.321080	5461.960049	27917.856433	3651.951673	12318.631100
75.039500	0.174672	0.104194	0.193968	0.326302	5422.338621	27652.951307	3650.979766	12205.553477
75.536500	0.176255	0.105153	0.191449	0.324588	5441.938954	27805.518351	3649.433229	12242.519951
76.034500	0.177434	0.104724	0.192817	0.325729	5442.165442	27715.821827	3649.869530	12217.897272
76.534500	0.177469	0.106029	0.193871	0.327789	5430.113831	27672.795852	3647.937938	12173.613205
77.037000	0.176256	0.106256	0.192797	0.333416	5389.801475	27367.190172	3635.190797	12053.704994
77.535500	0.178759	0.107266	0.200005	0.331764	5414.208855	27517.345132	3652.086766	12088.729433
78.036000	0.182564	0.107275	0.198836	0.332274	5433.741894	27489.055244	3648.859443	12077.915807
78.536000	0.177993	0.106473	0.196473	0.332313	5406.463142	27441.542165	3644.262454	12077.082907
79.036000	0.179329	0.105950	0.193623	0.337452	5384.179485	27124.181633	3629.150589	11968.639264
79.537000	0.183346	0.108794	0.197173	0.334796	5423.410636	27432.375418	3640.864215	12024.523779
80.037000	0.182449	0.107355	0.198845	0.334073	5422.380420	27392.069660	3645.431372	12039.805008
80.537500	0.182276	0.108172	0.201790	0.334146	5420.923415	27433.950740	3650.937833	12038.253690
81.035000	0.179619	0.108073	0.201803	0.338338	5380.702810	27193.116668	3642.934859	11950.067575
81.535500	0.181189	0.107343	0.195930	0.333064	5420.896191	27448.234901	3641.796082	12061.155184
82.039000	0.179594	0.109212	0.203993	0.333326	5409.926625	27539.069672	3656.776314	12055.602571
82.536000	0.183088	0.108876	0.193096	0.333195	5431.376514	27527.483993	3636.170984	12058.368303
83.036000	0.179973	0.108788	0.195602	0.337172	5389.576963	27298.452562	3633.395728	11974.518461
83.536000	0.180874	0.108583	0.195479	0.331242	5429.827608	27621.616188	3644.408065	12099.839683
84.036500	0.184348	0.107973	0.200140	0.330754	5453.467774	27614.661737	3654.296412	12110.222975
84.537000	0.182068	0.108202	0.196374	0.330846	5439.286214	27622.467671	3646.876468	12108.266771
85.037000	0.182384	0.108321	0.202708	0.330554	5442.916698	27645.825432	3659.661100	12114.487264
85.534500	0.180875	0.107045	0.200004	0.329210	5441.929023	27649.687850	3657.021541	12143.175912
86.035000	0.179231	0.107829	0.201810	0.329219	5432.085822	27693.904769	3660.513406	12142.998796
86.535500	0.184287	0.107710	0.194563	0.329473	5460.791786	27672.638491	3646.039345	12137.570478
87.039000	0.183893	0.107836	0.194650	0.328963	5461.491706	27708.908227	3647.181806	12148.474222
87.535500	0.179035	0.107236	0.201511	0.327812	5439.292291	27740.300238	3662.671445	12173.114498
88.036500	0.182235	0.107214	0.197445	0.327455	5460.585308	27759.423123	3655.464504	12180.778472
88.539000	0.181553	0.106970	0.198656	0.327855	5454.094026	27722.687379	3657.036052	12172.197761
89.036000	0.181976	0.107294	0.194558	0.328002	5455.746986	27732.803919	3648.848099	12169.048589
89.538000	0.182500	0.106316	0.199052	0.328070	5458.482287	27673.110906	3657.386387	12167.584204
90.037500	0.182153	0.106187	0.199261	0.327604	5459.194806	27692.309762	3658.695357	12177.576418
90.537500	0.179945	0.105387	0.201991	0.326760	5451.017411	27694.839309	3665.666451	12195.707667
91.039000	0.180410	0.104958	0.196075	0.332204	5421.370017	27362.296277	3643.708876	12079.386028
91.535500	0.181924	0.106028	0.201945	0.328084	5454.937428	27655.898264	3662.986921	12167.275155
92.036000	0.183662	0.106131	0.197019	0.328353	5463.762173	27646.464566	3652.905935	12161.511529
92.535500	0.182426	0.106263	0.196553	0.328891	5453.116529	27623.435445	3650.973001	12150.008424
93.036000	0.177360	0.105237	0.192227	0.333226	5397.375050	27320.537456	3634.471623	12057.708427
93.536500	0.183238	0.104855	0.203782	0.328789	5458.598348	27549.298841	3665.199200	12152.188219
94.037500	0.181656	0.105220	0.204458	0.329235	5446.442732	27544.674882	3665.649771	12142.637589
94.537500	0.180851	0.104265	0.202569	0.328549	5445.736092	27529.504924	3663.298422	12157.334562
95.037000	0.178179	0.102993	0.192248	0.334596	5394.147937	27118.551447	3631.930647	12028.740210
95.534500	0.183291	0.104596	0.202343	0.330081	5451.162425	27461.515361	3659.871177	12124.570412
96.039000	0.180205	0.102765	0.193925	0.329198	5438.009104	27408.078814	3645.345493	12143.445796
96.535500	0.180416	0.103474	0.198833	0.329730	5436.095564	27418.067692	3653.750270	12132.077845
