sample name	sample
index	959
start time	 04-12-2021  04:04:07 PM


Wavelength (nm)	Absorbance
494.344910	0.429230
494.563924	0.429230
494.782919	0.429230
495.001897	0.080602
495.220856	0.130521
495.439797	0.088210
495.658719	0.074990
495.877624	0.056132
496.096510	0.072015
496.315378	0.084046
496.534227	0.089246
496.753059	0.115548
496.971872	0.131750
497.190667	0.096938
497.409444	0.087747
497.628203	0.087033
497.846943	0.086816
498.065665	0.086423
498.284369	0.085250
498.503055	0.084198
498.721723	0.084194
498.940372	0.083335
499.159003	0.082893
499.377616	0.083502
499.596210	0.083178
499.814787	0.082317
500.033345	0.082088
500.251885	0.081980
500.470406	0.082808
500.688910	0.082161
500.907395	0.083514
501.125862	0.083011
501.344311	0.083645
501.562742	0.083861
501.781154	0.085082
501.999548	0.084902
502.217924	0.085598
502.436282	0.085479
502.654621	0.086732
502.872942	0.086035
503.091245	0.085934
503.309530	0.085837
503.527797	0.085286
503.746045	0.085264
503.964275	0.085223
504.182487	0.085480
504.400681	0.085082
504.618856	0.084830
504.837013	0.085221
505.055152	0.086420
505.273273	0.086372
505.491376	0.087632
505.709460	0.087149
505.927526	0.088115
506.145574	0.087621
506.363604	0.087887
506.581615	0.087878
506.799608	0.088389
507.017583	0.088002
507.235540	0.087572
507.453478	0.086983
507.671399	0.087719
507.889301	0.087166
508.107185	0.086712
508.325050	0.087635
508.542898	0.088607
508.760727	0.088658
508.978538	0.089121
509.196330	0.089506
509.414105	0.089720
509.631861	0.089724
509.849599	0.090691
510.067319	0.090687
510.285021	0.090486
510.502704	0.090067
510.720369	0.089592
510.938016	0.089604
511.155645	0.089775
511.373255	0.089965
511.590848	0.089414
511.808422	0.089073
512.025977	0.090020
512.243515	0.090227
512.461034	0.090927
512.678536	0.091092
512.896018	0.091981
513.113483	0.092237
513.330930	0.091845
513.548358	0.092434
513.765768	0.092550
513.983160	0.092012
514.200533	0.091943
514.417889	0.090739
514.635226	0.090690
514.852545	0.090269
515.069845	0.090288
515.287128	0.091363
515.504392	0.090993
515.721638	0.090658
515.938866	0.091287
516.156075	0.091271
516.373267	0.092145
516.590440	0.093295
516.807594	0.093595
517.024731	0.093961
517.241850	0.093772
517.458950	0.094719
517.676032	0.095370
517.893095	0.095958
518.110141	0.095799
518.327168	0.096059
518.544177	0.095224
518.761168	0.095499
518.978141	0.095474
519.195095	0.095630
519.412031	0.095543
519.628949	0.095256
519.845849	0.094636
520.062731	0.095182
520.279594	0.095111
520.496439	0.095319
520.713266	0.094784
520.930074	0.094761
521.146865	0.094668
521.363637	0.094628
521.580391	0.094905
521.797127	0.095261
522.013844	0.095306
522.230543	0.095089
522.447224	0.095430
522.663887	0.095623
522.880532	0.095518
523.097158	0.095980
523.313766	0.096251
523.530356	0.095994
523.746928	0.096580
523.963481	0.096947
524.180017	0.097127
524.396534	0.097228
524.613032	0.097634
524.829513	0.097841
525.045975	0.097661
525.262420	0.097975
525.478845	0.099199
525.695253	0.099171
525.911643	0.098996
526.128014	0.099974
526.344367	0.100049
526.560702	0.099815
526.777018	0.100113
526.993316	0.099933
527.209597	0.099703
527.425858	0.100098
527.642102	0.100067
527.858328	0.100236
528.074535	0.100142
528.290724	0.100499
528.506894	0.101338
528.723047	0.101983
528.939181	0.102925
529.155297	0.103842
529.371395	0.103290
529.587475	0.103791
529.803536	0.104306
530.019579	0.104124
530.235604	0.104283
530.451611	0.103883
530.667600	0.103915
530.883570	0.104045
531.099522	0.103504
531.315456	0.104219
531.531372	0.104305
531.747269	0.104612
531.963148	0.105126
532.179009	0.105291
532.394852	0.105876
532.610676	0.105875
532.826482	0.105680
533.042271	0.106296
533.258040	0.105837
533.473792	0.106047
533.689525	0.106271
533.905240	0.106262
534.120937	0.106280
534.336616	0.106665
534.552277	0.106849
534.767919	0.106930
534.983543	0.107068
535.199149	0.107386
535.414736	0.107770
535.630306	0.107894
535.845857	0.108427
536.061390	0.109169
536.276904	0.109680
536.492401	0.110372
536.707879	0.111305
536.923339	0.111861
537.138781	0.111970
537.354204	0.111340
537.569610	0.111515
537.784997	0.111485
538.000366	0.111015
538.215716	0.111048
538.431049	0.110953
538.646363	0.111086
538.861659	0.110414
539.076937	0.110314
539.292196	0.111217
539.507438	0.110955
539.722661	0.110922
539.937866	0.111713
540.153052	0.111744
540.368221	0.111493
540.583371	0.111040
540.798503	0.111649
541.013617	0.111525
541.228712	0.111544
541.443789	0.111331
541.658848	0.111169
541.873889	0.110908
542.088912	0.111166
542.303916	0.111452
542.518902	0.111478
542.733870	0.111482
542.948820	0.112416
543.163752	0.112430
543.378665	0.113072
543.593560	0.113758
543.808437	0.113810
544.023295	0.113160
544.238136	0.113334
544.452958	0.113570
544.667762	0.113624
544.882548	0.113949
545.097315	0.113773
545.312064	0.113941
545.526795	0.114283
545.741508	0.114582
545.956203	0.115325
546.170879	0.115526
546.385537	0.115708
546.600177	0.115889
546.814799	0.115437
547.029402	0.116103
547.243988	0.116312
547.458555	0.115926
547.673103	0.116283
547.887634	0.116370
548.102146	0.116346
548.316640	0.116659
548.531116	0.117163
548.745574	0.117448
548.960013	0.117253
549.174435	0.117229
549.388838	0.117647
549.603222	0.117816
549.817589	0.117830
550.031937	0.118076
550.246267	0.117867
550.460579	0.117661
550.674873	0.117721
550.889148	0.118238
551.103405	0.118294
551.317644	0.118492
551.531865	0.118140
551.746068	0.118323
551.960252	0.118543
552.174418	0.118813
552.388566	0.119145
552.602696	0.119492
552.816807	0.119382
553.030900	0.119680
553.244975	0.119463
553.459032	0.120008
553.673070	0.120564
553.887091	0.120528
554.101093	0.120597
554.315077	0.120517
554.529042	0.120402
554.742990	0.120858
554.956919	0.121325
555.170830	0.121920
555.384722	0.121861
555.598597	0.121595
555.812453	0.121704
556.026291	0.121916
556.240111	0.122072
556.453913	0.122224
556.667696	0.122341
556.881461	0.122214
557.095208	0.122451
557.308937	0.122510
557.522647	0.122894
557.736339	0.122987
557.950013	0.123234
558.163669	0.123290
558.377307	0.123266
558.590926	0.123360
558.804527	0.123654
559.018110	0.123317
559.231675	0.123629
559.445221	0.123475
559.658749	0.123697
559.872259	0.123932
560.085751	0.123773
560.299225	0.124052
560.512680	0.123972
560.726117	0.123452
560.939536	0.123635
561.152937	0.123395
561.366319	0.123280
561.579683	0.123470
561.793029	0.123152
562.006357	0.123441
562.219667	0.123484
562.432958	0.123561
562.646231	0.124022
562.859486	0.123975
563.072723	0.124385
563.285941	0.124591
563.499141	0.124320
563.712323	0.124341
563.925487	0.124248
564.138632	0.124364
564.351760	0.124346
564.564869	0.124682
564.777960	0.124672
564.991032	0.124348
565.204087	0.124521
565.417123	0.125086
565.630141	0.125396
565.843140	0.125823
566.056122	0.125886
566.269085	0.125949
566.482030	0.125826
566.694957	0.126131
566.907866	0.126279
567.120756	0.126151
567.333628	0.126154
567.546482	0.126346
567.759318	0.126481
567.972135	0.126760
568.184935	0.126819
568.397716	0.127058
568.610478	0.126911
568.823223	0.127030
569.035949	0.127122
569.248657	0.127224
569.461347	0.127544
569.674019	0.127501
569.886672	0.127320
570.099308	0.127857
570.311925	0.127390
570.524523	0.127741
570.737104	0.128137
570.949666	0.128568
571.162210	0.128393
571.374736	0.128024
571.587244	0.128189
571.799733	0.128434
572.012205	0.128451
572.224658	0.129178
572.437092	0.129378
572.649509	0.129392
572.861907	0.129451
573.074287	0.129411
573.286649	0.129717
573.498993	0.129588
573.711318	0.129575
573.923625	0.129360
574.135914	0.129220
574.348185	0.129090
574.560438	0.129322
574.772672	0.129137
574.984888	0.129190
575.197086	0.129217
575.409266	0.129355
575.621427	0.129410
575.833570	0.129281
576.045695	0.129231
576.257802	0.129408
576.469890	0.129244
576.681961	0.129122
576.894013	0.129619
577.106046	0.129516
577.318062	0.129618
577.530059	0.129669
577.742039	0.129938
577.954000	0.129907
578.165942	0.129874
578.377867	0.129944
578.589773	0.130451
578.801661	0.130553
579.013531	0.130741
579.225382	0.130881
579.437216	0.130891
579.649031	0.130517
579.860828	0.130516
580.072606	0.130622
580.284367	0.130800
580.496109	0.130886
580.707833	0.130686
580.919539	0.130704
581.131227	0.130693
581.342896	0.130674
581.554547	0.131003
581.766180	0.131506
581.977795	0.131553
582.189391	0.131035
582.400969	0.131074
582.612529	0.131227
582.824071	0.131576
583.035595	0.131778
583.247100	0.132104
583.458587	0.132206
583.670056	0.131980
583.881506	0.132159
584.092939	0.132691
584.304353	0.132837
584.515749	0.133209
584.727127	0.132769
584.938486	0.132858
585.149828	0.132940
585.361151	0.132896
585.572456	0.132713
585.783742	0.132637
585.995011	0.132792
586.206261	0.132271
586.417493	0.132092
586.628706	0.132523
586.839902	0.132479
587.051079	0.132431
587.262238	0.133128
587.473379	0.133317
587.684502	0.133605
587.895606	0.133789
588.106692	0.134202
588.317760	0.134305
588.528810	0.134511
588.739841	0.134582
588.950855	0.134589
589.161850	0.134487
589.372827	0.134730
589.583785	0.134695
589.794726	0.134840
590.005648	0.135254
590.216552	0.135215
590.427437	0.135112
590.638305	0.135290
590.849154	0.135598
591.059985	0.135390
591.270798	0.135484
591.481592	0.135400
591.692369	0.135242
591.903127	0.134775
592.113867	0.134716
592.324588	0.135093
592.535292	0.135022
592.745977	0.135206
592.956644	0.135357
593.167293	0.135320
593.377923	0.135654
593.588536	0.136108
593.799130	0.136344
594.009706	0.136430
594.220263	0.136089
594.430803	0.136435
594.641324	0.136759
594.851827	0.137096
595.062312	0.137087
595.272778	0.136999
595.483227	0.136864
595.693657	0.137316
595.904069	0.137490
596.114462	0.137648
596.324838	0.137675
596.535195	0.137482
596.745534	0.137199
596.955855	0.137822
597.166157	0.138228
597.376441	0.138105
597.586707	0.137939
597.796955	0.138424
598.007185	0.138937
598.217396	0.138655
598.427589	0.138857
598.637764	0.139223
598.847921	0.139051
599.058060	0.139064
599.268180	0.139454
599.478282	0.139679
599.688366	0.139628
599.898431	0.139288
600.108479	0.139629
600.318508	0.139380
600.528519	0.139476
600.738511	0.139549
600.948486	0.139129
601.158442	0.139255
601.368380	0.139141
601.578300	0.139036
601.788202	0.139265
601.998085	0.139373
602.207950	0.139478
602.417797	0.139218
602.627626	0.139267
602.837436	0.139792
603.047228	0.139812
603.257002	0.139876
603.466758	0.140070
603.676496	0.140288
603.886215	0.140195
604.095916	0.140606
604.305599	0.140968
604.515264	0.141304
604.724910	0.141213
604.934538	0.141091
605.144148	0.141159
605.353740	0.141007
605.563314	0.140886
605.772869	0.141302
605.982406	0.141139
606.191925	0.141124
606.401425	0.141008
606.610908	0.141111
606.820372	0.141124
607.029818	0.141038
607.239246	0.141224
607.448655	0.141100
607.658047	0.141112
607.867420	0.141158
608.076775	0.140969
608.286111	0.141072
608.495430	0.140945
608.704730	0.141183
608.914012	0.141305
609.123275	0.141585
609.332521	0.141917
609.541748	0.141809
609.750957	0.142066
609.960148	0.142420
610.169321	0.142143
610.378475	0.142470
610.587611	0.142509
610.796729	0.142825
611.005829	0.142948
611.214910	0.143095
611.423974	0.143166
611.633019	0.143186
611.842045	0.143255
612.051054	0.143526
612.260044	0.143602
612.469017	0.143879
612.677970	0.143754
612.886906	0.143284
613.095824	0.143446
613.304723	0.143476
613.513604	0.143594
613.722467	0.143413
613.931311	0.143704
614.140138	0.143525
614.348946	0.143155
614.557736	0.143386
614.766507	0.143430
614.975261	0.143328
615.183996	0.143410
615.392713	0.143389
615.601412	0.143881
615.810092	0.143826
616.018754	0.144154
616.227399	0.144251
616.436024	0.144543
616.644632	0.145258
616.853222	0.145219
617.061793	0.145203
617.270346	0.145141
617.478880	0.145268
617.687397	0.145298
617.895895	0.145147
618.104375	0.145343
618.312837	0.145170
618.521281	0.144859
618.729706	0.145093
618.938113	0.145300
619.146502	0.145316
619.354873	0.144978
619.563226	0.144832
619.771560	0.144968
619.979876	0.145178
620.188174	0.145274
620.396453	0.145405
620.604715	0.145290
620.812958	0.145534
621.021183	0.145808
621.229390	0.146137
621.437578	0.146325
621.645748	0.146443
621.853900	0.146584
622.062034	0.146509
622.270150	0.146424
622.478247	0.146431
622.686326	0.146422
622.894387	0.146431
623.102430	0.146357
623.310454	0.146536
623.518461	0.146649
623.726449	0.146334
623.934418	0.146323
624.142370	0.146456
624.350303	0.146536
624.558218	0.146262
624.766115	0.146113
624.973994	0.146304
625.181855	0.146245
625.389697	0.146151
625.597521	0.146545
625.805327	0.146617
626.013114	0.146901
626.220883	0.147152
626.428634	0.147582
626.636367	0.147637
626.844082	0.147476
627.051778	0.147652
627.259457	0.148001
627.467117	0.147911
627.674758	0.148257
627.882382	0.147962
628.089987	0.147862
628.297574	0.147909
628.505143	0.148228
628.712694	0.148307
628.920226	0.148344
629.127740	0.148138
629.335236	0.148261
629.542714	0.148300
629.750174	0.148683
629.957615	0.149034
630.165038	0.149012
630.372443	0.149161
630.579829	0.149500
630.787198	0.149493
630.994548	0.149759
631.201880	0.149877
631.409194	0.149807
631.616489	0.149985
631.823766	0.149814
632.031025	0.150136
632.238266	0.150217
632.445489	0.150167
632.652693	0.150298
632.859879	0.150338
633.067047	0.150397
633.274197	0.150855
633.481329	0.150767
633.688442	0.151030
633.895537	0.150828
634.102614	0.150785
634.309672	0.151194
634.516713	0.151264
634.723735	0.151469
634.930739	0.151394
635.137724	0.151243
635.344692	0.151399
635.551641	0.151184
635.758572	0.151293
635.965485	0.151723
636.172379	0.151734
636.379256	0.152023
636.586114	0.152117
636.792954	0.152189
636.999775	0.152108
637.206579	0.152011
637.413364	0.152304
637.620131	0.152488
637.826880	0.152111
638.033610	0.151827
638.240323	0.151707
638.447017	0.151465
638.653692	0.151808
638.860350	0.152053
639.066990	0.152156
639.273611	0.152485
639.480214	0.152536
639.686798	0.152770
639.893365	0.153108
640.099913	0.153231
640.306443	0.153270
640.512955	0.153074
640.719449	0.153271
640.925924	0.153437
641.132381	0.153325
641.338820	0.153416
641.545241	0.153505
641.751644	0.153575
641.958028	0.153583
642.164394	0.153952
642.370742	0.154208
642.577071	0.154188
642.783383	0.154190
642.989676	0.154210
643.195951	0.154268
643.402207	0.154270
643.608446	0.154280
643.814666	0.154517
644.020868	0.154666
644.227052	0.154537
644.433218	0.154760
644.639365	0.155013
644.845494	0.155087
645.051605	0.155137
645.257698	0.155126
645.463772	0.155137
645.669828	0.155194
645.875866	0.155162
646.081886	0.155312
646.287888	0.155094
646.493871	0.155179
646.699836	0.155209
646.905783	0.155475
647.111712	0.155647
647.317622	0.156005
647.523514	0.156064
647.729388	0.156088
647.935244	0.156482
648.141082	0.156646
648.346901	0.156770
648.552702	0.156897
648.758485	0.156873
648.964250	0.156997
649.169996	0.156803
649.375724	0.157028
649.581434	0.157182
649.787126	0.157276
649.992800	0.157760
650.198455	0.157821
650.404092	0.157803
650.609711	0.157973
650.815311	0.158237
651.020894	0.158602
651.226458	0.158672
651.432004	0.158958
651.637532	0.158885
651.843041	0.158694
652.048532	0.158856
652.254006	0.159270
652.459460	0.159411
652.664897	0.159412
652.870315	0.159314
653.075716	0.159378
653.281097	0.159514
653.486461	0.159850
653.691807	0.160025
653.897134	0.160186
654.102443	0.160183
654.307734	0.160194
654.513006	0.160316
654.718261	0.160406
654.923497	0.160482
655.128715	0.160688
655.333915	0.160732
655.539096	0.160647
655.744259	0.160546
655.949404	0.160685
656.154531	0.160731
656.359640	0.160874
656.564730	0.161013
656.769802	0.161019
656.974856	0.160955
657.179892	0.160981
657.384909	0.161199
657.589908	0.161426
657.794889	0.161542
657.999852	0.161911
658.204797	0.162055
658.409723	0.162320
658.614631	0.162684
658.819521	0.162727
659.024393	0.162794
659.229246	0.162979
659.434081	0.162917
659.638898	0.163177
659.843697	0.163030
660.048478	0.163190
660.253240	0.163290
660.457984	0.163286
660.662710	0.163191
660.867417	0.163399
661.072107	0.163343
661.276778	0.163486
661.481431	0.163273
661.686066	0.163411
661.890682	0.163334
662.095281	0.163369
662.299861	0.163351
662.504422	0.163793
662.708966	0.163838
662.913491	0.164054
663.117999	0.164211
663.322488	0.164411
663.526958	0.164532
663.731411	0.164775
663.935845	0.164732
664.140261	0.165191
664.344659	0.165160
664.549038	0.165166
664.753400	0.165114
664.957743	0.165272
665.162068	0.165522
665.366375	0.165470
665.570663	0.165635
665.774933	0.165939
665.979185	0.165688
666.183419	0.165799
666.387635	0.165900
666.591832	0.166210
666.796011	0.166506
667.000172	0.166703
667.204315	0.167006
667.408439	0.166999
667.612545	0.167007
667.816634	0.167160
668.020703	0.167184
668.224755	0.167374
668.428788	0.167317
668.632803	0.167237
668.836800	0.167166
669.040779	0.167249
669.244739	0.167502
669.448681	0.167515
669.652605	0.167785
669.856511	0.167928
670.060399	0.168240
670.264268	0.168383
670.468119	0.168571
670.671952	0.168428
670.875767	0.168600
671.079563	0.168411
671.283341	0.168546
671.487101	0.168592
671.690843	0.168719
671.894567	0.168758
672.098272	0.168942
672.301959	0.168838
672.505628	0.169353
672.709278	0.169266
672.912911	0.169603
673.116525	0.169778
673.320121	0.169831
673.523699	0.170120
673.727258	0.169973
673.930799	0.170284
674.134322	0.170399
674.337827	0.170321
674.541314	0.170581
674.744782	0.170595
674.948232	0.170745
675.151664	0.170802
675.355078	0.170915
675.558474	0.171237
675.761851	0.171034
675.965210	0.171379
676.168551	0.171414
676.371873	0.171403
676.575178	0.171491
676.778464	0.171424
676.981732	0.171673
677.184981	0.171482
677.388213	0.171525
677.591426	0.171860
677.794621	0.171896
677.997798	0.172102
678.200956	0.172410
678.404097	0.172787
678.607219	0.173181
678.810323	0.173108
679.013408	0.173225
679.216476	0.173216
679.419525	0.173194
679.622556	0.173266
679.825569	0.173392
680.028563	0.173405
680.231540	0.173342
680.434498	0.173382
680.637438	0.173612
680.840359	0.173725
681.043263	0.173907
681.246148	0.174053
681.449015	0.174182
681.651864	0.174374
681.854694	0.174345
682.057506	0.174363
682.260301	0.174490
682.463076	0.174561
682.665834	0.174670
682.868573	0.174915
683.071295	0.174890
683.273998	0.174977
683.476682	0.175045
683.679349	0.175222
683.881997	0.175213
684.084627	0.174983
684.287239	0.174994
684.489833	0.175177
684.692408	0.175173
684.894965	0.175072
685.097504	0.175151
685.300025	0.175165
685.502527	0.175264
685.705012	0.175374
685.907478	0.175562
686.109925	0.175727
686.312355	0.175655
686.514766	0.175903
686.717159	0.176328
686.919534	0.176527
687.121891	0.176598
687.324230	0.176678
687.526550	0.176879
687.728852	0.176951
687.931136	0.177007
688.133401	0.177154
688.335649	0.176990
688.537878	0.176918
688.740089	0.176741
688.942281	0.176953
689.144456	0.176879
689.346612	0.177131
689.548750	0.177364
689.750870	0.177474
689.952971	0.177569
690.155055	0.177557
690.357120	0.177484
690.559167	0.177596
690.761195	0.177607
690.963206	0.177815
691.165198	0.177713
691.367172	0.177743
691.569128	0.177775
691.771065	0.177992
691.972984	0.178195
692.174885	0.178503
692.376768	0.178581
692.578633	0.178597
692.780479	0.178744
692.982308	0.178759
693.184118	0.178770
693.385909	0.178791
