sample name	sample
index	636
start time	 03-19-2021  03:22:56 PM


Wavelength (nm)	Absorbance
494.344910	0.245859
494.563924	0.245859
494.782919	0.245859
495.001897	NaN
495.220856	0.022084
495.439797	-0.037772
495.658719	0.072450
495.877624	-0.062205
496.096510	0.054653
496.315378	-0.000875
496.534227	-0.115537
496.753059	-0.071623
496.971872	-0.097216
497.190667	0.040390
497.409444	0.046720
497.628203	0.043558
497.846943	0.047149
498.065665	0.046921
498.284369	0.046897
498.503055	0.047484
498.721723	0.047647
498.940372	0.047965
499.159003	0.048057
499.377616	0.048219
499.596210	0.048903
499.814787	0.047670
500.033345	0.046297
500.251885	0.046603
500.470406	0.046784
500.688910	0.046936
500.907395	0.046788
501.125862	0.045615
501.344311	0.044949
501.562742	0.044577
501.781154	0.044286
501.999548	0.045662
502.217924	0.045065
502.436282	0.043995
502.654621	0.044198
502.872942	0.044262
503.091245	0.045000
503.309530	0.044857
503.527797	0.044533
503.746045	0.045803
503.964275	0.045666
504.182487	0.046154
504.400681	0.047421
504.618856	0.046726
504.837013	0.045916
505.055152	0.045630
505.273273	0.045733
505.491376	0.046314
505.709460	0.045357
505.927526	0.045196
506.145574	0.045622
506.363604	0.044797
506.581615	0.045438
506.799608	0.045997
507.017583	0.046021
507.235540	0.045839
507.453478	0.045999
507.671399	0.047326
507.889301	0.047012
508.107185	0.046878
508.325050	0.046532
508.542898	0.045691
508.760727	0.045131
508.978538	0.045013
509.196330	0.045257
509.414105	0.044631
509.631861	0.043555
509.849599	0.044062
510.067319	0.044061
510.285021	0.044486
510.502704	0.044803
510.720369	0.045427
510.938016	0.045566
511.155645	0.045471
511.373255	0.045553
511.590848	0.046399
511.808422	0.046072
512.025977	0.045664
512.243515	0.045954
512.461034	0.045859
512.678536	0.044922
512.896018	0.044807
513.113483	0.045563
513.330930	0.046215
513.548358	0.045543
513.765768	0.046030
513.983160	0.046225
514.200533	0.045044
514.417889	0.044608
514.635226	0.045612
514.852545	0.045450
515.069845	0.044693
515.287128	0.044356
515.504392	0.044681
515.721638	0.044042
515.938866	0.044239
516.156075	0.044750
516.373267	0.045377
516.590440	0.045516
516.807594	0.045570
517.024731	0.046321
517.241850	0.046644
517.458950	0.046453
517.676032	0.046774
517.893095	0.046469
518.110141	0.047200
518.327168	0.046961
518.544177	0.045879
518.761168	0.045985
518.978141	0.045068
519.195095	0.044908
519.412031	0.044944
519.628949	0.044899
519.845849	0.044888
520.062731	0.044188
520.279594	0.044196
520.496439	0.044201
520.713266	0.044532
520.930074	0.044578
521.146865	0.043737
521.363637	0.043483
521.580391	0.043788
521.797127	0.044262
522.013844	0.045119
522.230543	0.045868
522.447224	0.046339
522.663887	0.046175
522.880532	0.046119
523.097158	0.046845
523.313766	0.047040
523.530356	0.046706
523.746928	0.046529
523.963481	0.045706
524.180017	0.045306
524.396534	0.046123
524.613032	0.046221
524.829513	0.046431
525.045975	0.045858
525.262420	0.045745
525.478845	0.046190
525.695253	0.046074
525.911643	0.046642
526.128014	0.046414
526.344367	0.046181
526.560702	0.045769
526.777018	0.046223
526.993316	0.047416
527.209597	0.047664
527.425858	0.047786
527.642102	0.047888
527.858328	0.047182
528.074535	0.047347
528.290724	0.047025
528.506894	0.046967
528.723047	0.046966
528.939181	0.046844
529.155297	0.046715
529.371395	0.046320
529.587475	0.046043
529.803536	0.046151
530.019579	0.046462
530.235604	0.046282
530.451611	0.046949
530.667600	0.046741
530.883570	0.046660
531.099522	0.046960
531.315456	0.047185
531.531372	0.047746
531.747269	0.048446
531.963148	0.048494
532.179009	0.048952
532.394852	0.049045
532.610676	0.049320
532.826482	0.049245
533.042271	0.049357
533.258040	0.048890
533.473792	0.048872
533.689525	0.048615
533.905240	0.048791
534.120937	0.049162
534.336616	0.048953
534.552277	0.048817
534.767919	0.048960
534.983543	0.048743
535.199149	0.049171
535.414736	0.049058
535.630306	0.049567
535.845857	0.049070
536.061390	0.048803
536.276904	0.048502
536.492401	0.048637
536.707879	0.048369
536.923339	0.048505
537.138781	0.048402
537.354204	0.048442
537.569610	0.048502
537.784997	0.048926
538.000366	0.049307
538.215716	0.049479
538.431049	0.049518
538.646363	0.049872
538.861659	0.049757
539.076937	0.049834
539.292196	0.050003
539.507438	0.049488
539.722661	0.049690
539.937866	0.049631
540.153052	0.049974
540.368221	0.050094
540.583371	0.049602
540.798503	0.049682
541.013617	0.049828
541.228712	0.049855
541.443789	0.049930
541.658848	0.049772
541.873889	0.049803
542.088912	0.049478
542.303916	0.049288
542.518902	0.049606
542.733870	0.049978
542.948820	0.050051
543.163752	0.050006
543.378665	0.050582
543.593560	0.050582
543.808437	0.050455
544.023295	0.050996
544.238136	0.051270
544.452958	0.051407
544.667762	0.051232
544.882548	0.051552
545.097315	0.051694
545.312064	0.051732
545.526795	0.051909
545.741508	0.052001
545.956203	0.052302
546.170879	0.052134
546.385537	0.052150
546.600177	0.052715
546.814799	0.052585
547.029402	0.052318
547.243988	0.052041
547.458555	0.051977
547.673103	0.051975
547.887634	0.051870
548.102146	0.052372
548.316640	0.052238
548.531116	0.051732
548.745574	0.052080
548.960013	0.052392
549.174435	0.052623
549.388838	0.052832
549.603222	0.052804
549.817589	0.052624
550.031937	0.052501
550.246267	0.052895
550.460579	0.053289
550.674873	0.053049
550.889148	0.053033
551.103405	0.053215
551.317644	0.053290
551.531865	0.053543
551.746068	0.053857
551.960252	0.054111
552.174418	0.054047
552.388566	0.054071
552.602696	0.054217
552.816807	0.054675
553.030900	0.054721
553.244975	0.055064
553.459032	0.055139
553.673070	0.054914
553.887091	0.054709
554.101093	0.054717
554.315077	0.054687
554.529042	0.055032
554.742990	0.054837
554.956919	0.054854
555.170830	0.054693
555.384722	0.055171
555.598597	0.055153
555.812453	0.055306
556.026291	0.055729
556.240111	0.055835
556.453913	0.055580
556.667696	0.055513
556.881461	0.055302
557.095208	0.054984
557.308937	0.054695
557.522647	0.055027
557.736339	0.054941
557.950013	0.054514
558.163669	0.054369
558.377307	0.054261
558.590926	0.054298
558.804527	0.054539
559.018110	0.054947
559.231675	0.054786
559.445221	0.054715
559.658749	0.054647
559.872259	0.054919
560.085751	0.055144
560.299225	0.055597
560.512680	0.055780
560.726117	0.055762
560.939536	0.055957
561.152937	0.056193
561.366319	0.056419
561.579683	0.056770
561.793029	0.056714
562.006357	0.056766
562.219667	0.056910
562.432958	0.057088
562.646231	0.057344
562.859486	0.057190
563.072723	0.056950
563.285941	0.056997
563.499141	0.056775
563.712323	0.057219
563.925487	0.057155
564.138632	0.056779
564.351760	0.056539
564.564869	0.056295
564.777960	0.056167
564.991032	0.056394
565.204087	0.056533
565.417123	0.056776
565.630141	0.056564
565.843140	0.057109
566.056122	0.057283
566.269085	0.057436
566.482030	0.057600
566.694957	0.057801
566.907866	0.057797
567.120756	0.057568
567.333628	0.057759
567.546482	0.057724
567.759318	0.057495
567.972135	0.057572
568.184935	0.057504
568.397716	0.057765
568.610478	0.057950
568.823223	0.057894
569.035949	0.058173
569.248657	0.058061
569.461347	0.058072
569.674019	0.058236
569.886672	0.058246
570.099308	0.058630
570.311925	0.058723
570.524523	0.058322
570.737104	0.058474
570.949666	0.058374
571.162210	0.058335
571.374736	0.058868
571.587244	0.058936
571.799733	0.059336
572.012205	0.059527
572.224658	0.059548
572.437092	0.059641
572.649509	0.059835
572.861907	0.060149
573.074287	0.060645
573.286649	0.060101
573.498993	0.059735
573.711318	0.059481
573.923625	0.059417
574.135914	0.059362
574.348185	0.059967
574.560438	0.060104
574.772672	0.060040
574.984888	0.060163
575.197086	0.060512
575.409266	0.060661
575.621427	0.060802
575.833570	0.061038
576.045695	0.061175
576.257802	0.060972
576.469890	0.061031
576.681961	0.060602
576.894013	0.060301
577.106046	0.060297
577.318062	0.060494
577.530059	0.060641
577.742039	0.060411
577.954000	0.060632
578.165942	0.060956
578.377867	0.061107
578.589773	0.061514
578.801661	0.061493
579.013531	0.061766
579.225382	0.061843
579.437216	0.061884
579.649031	0.062192
579.860828	0.062060
580.072606	0.061905
580.284367	0.061759
580.496109	0.061799
580.707833	0.061871
580.919539	0.061544
581.131227	0.061551
581.342896	0.061594
581.554547	0.061475
581.766180	0.061508
581.977795	0.061739
582.189391	0.061746
582.400969	0.062003
582.612529	0.062384
582.824071	0.062700
583.035595	0.062536
583.247100	0.062353
583.458587	0.062250
583.670056	0.062053
583.881506	0.062061
584.092939	0.062348
584.304353	0.062507
584.515749	0.062252
584.727127	0.062122
584.938486	0.062435
585.149828	0.062552
585.361151	0.062492
585.572456	0.062691
585.783742	0.062767
585.995011	0.062679
586.206261	0.062550
586.417493	0.062731
586.628706	0.063087
586.839902	0.063263
587.051079	0.063597
587.262238	0.063771
587.473379	0.064039
587.684502	0.064072
587.895606	0.064051
588.106692	0.063758
588.317760	0.063857
588.528810	0.063552
588.739841	0.063421
588.950855	0.063271
589.161850	0.063448
589.372827	0.063464
589.583785	0.063348
589.794726	0.063511
590.005648	0.063597
590.216552	0.063252
590.427437	0.063446
590.638305	0.063650
590.849154	0.063851
591.059985	0.064011
591.270798	0.063784
591.481592	0.063998
591.692369	0.063981
591.903127	0.064426
592.113867	0.065083
592.324588	0.065311
592.535292	0.065372
592.745977	0.065109
592.956644	0.064974
593.167293	0.064904
593.377923	0.064703
593.588536	0.064708
593.799130	0.064681
594.009706	0.064442
594.220263	0.064614
594.430803	0.064654
594.641324	0.064700
594.851827	0.064955
595.062312	0.065299
595.272778	0.065380
595.483227	0.065682
595.693657	0.065974
595.904069	0.065854
596.114462	0.065831
596.324838	0.065880
596.535195	0.066148
596.745534	0.066143
596.955855	0.066341
597.166157	0.066678
597.376441	0.066549
597.586707	0.066337
597.796955	0.066663
598.007185	0.066723
598.217396	0.066546
598.427589	0.066536
598.637764	0.066716
598.847921	0.066491
599.058060	0.066215
599.268180	0.066349
599.478282	0.066367
599.688366	0.066224
599.898431	0.066077
600.108479	0.066438
600.318508	0.066467
600.528519	0.066544
600.738511	0.066810
600.948486	0.067146
601.158442	0.067083
601.368380	0.067084
601.578300	0.067018
601.788202	0.067006
601.998085	0.066956
602.207950	0.067033
602.417797	0.067038
602.627626	0.067125
602.837436	0.067085
603.047228	0.067285
603.257002	0.067403
603.466758	0.067702
603.676496	0.068055
603.886215	0.067901
604.095916	0.067566
604.305599	0.067418
604.515264	0.067439
604.724910	0.067609
604.934538	0.067387
605.144148	0.067188
605.353740	0.067195
605.563314	0.066932
605.772869	0.067030
605.982406	0.067244
606.191925	0.067424
606.401425	0.067387
606.610908	0.067152
606.820372	0.067466
607.029818	0.067556
607.239246	0.067790
607.448655	0.068028
607.658047	0.068249
607.867420	0.068630
608.076775	0.068446
608.286111	0.068444
608.495430	0.068594
608.704730	0.068488
608.914012	0.068729
609.123275	0.068507
609.332521	0.068658
609.541748	0.068717
609.750957	0.068793
609.960148	0.068891
610.169321	0.068941
610.378475	0.068931
610.587611	0.068822
610.796729	0.068870
611.005829	0.069154
611.214910	0.069168
611.423974	0.069195
611.633019	0.068864
611.842045	0.068959
612.051054	0.068986
612.260044	0.069090
612.469017	0.069385
612.677970	0.069661
612.886906	0.069493
613.095824	0.069471
613.304723	0.069371
613.513604	0.069805
613.722467	0.070065
613.931311	0.070382
614.140138	0.070430
614.348946	0.070422
614.557736	0.070334
614.766507	0.070364
614.975261	0.070394
615.183996	0.070496
615.392713	0.070336
615.601412	0.070169
615.810092	0.070127
616.018754	0.070155
616.227399	0.069949
616.436024	0.069806
616.644632	0.069895
616.853222	0.069929
617.061793	0.069996
617.270346	0.070056
617.478880	0.070007
617.687397	0.070006
617.895895	0.070240
618.104375	0.070680
618.312837	0.070712
618.521281	0.070873
618.729706	0.070769
618.938113	0.070819
619.146502	0.070941
619.354873	0.071154
619.563226	0.071115
619.771560	0.070976
619.979876	0.070902
620.188174	0.071173
620.396453	0.071299
620.604715	0.071636
620.812958	0.071693
621.021183	0.071742
621.229390	0.071870
621.437578	0.071827
621.645748	0.071981
621.853900	0.071925
622.062034	0.071971
622.270150	0.071803
622.478247	0.071642
622.686326	0.071643
622.894387	0.071744
623.102430	0.071631
623.310454	0.071802
623.518461	0.071863
623.726449	0.071897
623.934418	0.071686
624.142370	0.071817
624.350303	0.071788
624.558218	0.071715
624.766115	0.071557
624.973994	0.071671
625.181855	0.071650
625.389697	0.071431
625.597521	0.071489
625.805327	0.071734
626.013114	0.071682
626.220883	0.071803
626.428634	0.071924
626.636367	0.071899
626.844082	0.071754
627.051778	0.071808
627.259457	0.072008
627.467117	0.072138
627.674758	0.072219
627.882382	0.072261
628.089987	0.072184
628.297574	0.072233
628.505143	0.072510
628.712694	0.072556
628.920226	0.072616
629.127740	0.072500
629.335236	0.072533
629.542714	0.072583
629.750174	0.072680
629.957615	0.072946
630.165038	0.072935
630.372443	0.072871
630.579829	0.073104
630.787198	0.073111
630.994548	0.073151
631.201880	0.073250
631.409194	0.073093
631.616489	0.072965
631.823766	0.072862
632.031025	0.073139
632.238266	0.073086
632.445489	0.072951
632.652693	0.072993
632.859879	0.073036
633.067047	0.072963
633.274197	0.072952
633.481329	0.073166
633.688442	0.073415
633.895537	0.073163
634.102614	0.073440
634.309672	0.073631
634.516713	0.073857
634.723735	0.074013
634.930739	0.074175
635.137724	0.074313
635.344692	0.074267
635.551641	0.074272
635.758572	0.074413
635.965485	0.074182
636.172379	0.074212
636.379256	0.073971
636.586114	0.074014
636.792954	0.074025
636.999775	0.074179
637.206579	0.074053
637.413364	0.073961
637.620131	0.074048
637.826880	0.074146
638.033610	0.074271
638.240323	0.074531
638.447017	0.074593
638.653692	0.074572
638.860350	0.074520
639.066990	0.074513
639.273611	0.074760
639.480214	0.074710
639.686798	0.074677
639.893365	0.074776
640.099913	0.074716
640.306443	0.074768
640.512955	0.074935
640.719449	0.074744
640.925924	0.074952
641.132381	0.074856
641.338820	0.074993
641.545241	0.074953
641.751644	0.074898
641.958028	0.074887
642.164394	0.075052
642.370742	0.074971
642.577071	0.075318
642.783383	0.075545
642.989676	0.075485
643.195951	0.075424
643.402207	0.075943
643.608446	0.075870
643.814666	0.076055
644.020868	0.076018
644.227052	0.076199
644.433218	0.076221
644.639365	0.076357
644.845494	0.076528
645.051605	0.076673
645.257698	0.076557
645.463772	0.076719
645.669828	0.076950
645.875866	0.077052
646.081886	0.076883
646.287888	0.076821
646.493871	0.076720
646.699836	0.076793
646.905783	0.076890
647.111712	0.076987
647.317622	0.076881
647.523514	0.076695
647.729388	0.076635
647.935244	0.076677
648.141082	0.076971
648.346901	0.077110
648.552702	0.077192
648.758485	0.077236
648.964250	0.077062
649.169996	0.077414
649.375724	0.077436
649.581434	0.077647
649.787126	0.077892
649.992800	0.077704
650.198455	0.077618
650.404092	0.077631
650.609711	0.077688
650.815311	0.077901
651.020894	0.077586
651.226458	0.077739
651.432004	0.077779
651.637532	0.077709
651.843041	0.077837
652.048532	0.077842
652.254006	0.077727
652.459460	0.077695
652.664897	0.077698
652.870315	0.078017
653.075716	0.078138
653.281097	0.078097
653.486461	0.078275
653.691807	0.078255
653.897134	0.078381
654.102443	0.078619
654.307734	0.078652
654.513006	0.078723
654.718261	0.078728
654.923497	0.078496
655.128715	0.078363
655.333915	0.078509
655.539096	0.078573
655.744259	0.078569
655.949404	0.078514
656.154531	0.078664
656.359640	0.078686
656.564730	0.078751
656.769802	0.079104
656.974856	0.079393
657.179892	0.079416
657.384909	0.079447
657.589908	0.079603
657.794889	0.079676
657.999852	0.079747
658.204797	0.079823
658.409723	0.079766
658.614631	0.079598
658.819521	0.079502
659.024393	0.079581
659.229246	0.079758
659.434081	0.079730
659.638898	0.079921
659.843697	0.079859
660.048478	0.080050
660.253240	0.080198
660.457984	0.080339
660.662710	0.080472
660.867417	0.080439
661.072107	0.080471
661.276778	0.080553
661.481431	0.080464
661.686066	0.080542
661.890682	0.080477
662.095281	0.080545
662.299861	0.080532
662.504422	0.080555
662.708966	0.080465
662.913491	0.080450
663.117999	0.080561
663.322488	0.080537
663.526958	0.080642
663.731411	0.080818
663.935845	0.080696
664.140261	0.080675
664.344659	0.080524
664.549038	0.080628
664.753400	0.080797
664.957743	0.080714
665.162068	0.080803
665.366375	0.080885
665.570663	0.080839
665.774933	0.081092
665.979185	0.081107
666.183419	0.081461
666.387635	0.081647
666.591832	0.081505
666.796011	0.081656
667.000172	0.081790
667.204315	0.081620
667.408439	0.081544
667.612545	0.081515
667.816634	0.081697
668.020703	0.081723
668.224755	0.081738
668.428788	0.081801
668.632803	0.081819
668.836800	0.081853
669.040779	0.082084
669.244739	0.082070
669.448681	0.082107
669.652605	0.082117
669.856511	0.082080
670.060399	0.081950
670.264268	0.082076
670.468119	0.082083
670.671952	0.082138
670.875767	0.082242
671.079563	0.082611
671.283341	0.082810
671.487101	0.083028
671.690843	0.083260
671.894567	0.083474
672.098272	0.083626
672.301959	0.083907
672.505628	0.084007
672.709278	0.084151
672.912911	0.084003
673.116525	0.083980
673.320121	0.083848
673.523699	0.083673
673.727258	0.083740
673.930799	0.083776
674.134322	0.083605
674.337827	0.083685
674.541314	0.083641
674.744782	0.083622
674.948232	0.083555
675.151664	0.083702
675.355078	0.083848
675.558474	0.083907
675.761851	0.084062
675.965210	0.084235
676.168551	0.084281
676.371873	0.084329
676.575178	0.084601
676.778464	0.084678
676.981732	0.084611
677.184981	0.084568
677.388213	0.084534
677.591426	0.084338
677.794621	0.084346
677.997798	0.084354
678.200956	0.084385
678.404097	0.084409
678.607219	0.084454
678.810323	0.084848
679.013408	0.084994
679.216476	0.085018
679.419525	0.085207
679.622556	0.085194
679.825569	0.085283
680.028563	0.085360
680.231540	0.085546
680.434498	0.085515
680.637438	0.085303
680.840359	0.085424
681.043263	0.085402
681.246148	0.085336
681.449015	0.085529
681.651864	0.085341
681.854694	0.085350
682.057506	0.085346
682.260301	0.085632
682.463076	0.085773
682.665834	0.085754
682.868573	0.085952
683.071295	0.086062
683.273998	0.086006
683.476682	0.086312
683.679349	0.086165
683.881997	0.086001
684.084627	0.085833
684.287239	0.085926
684.489833	0.085932
684.692408	0.085806
684.894965	0.085758
685.097504	0.085758
685.300025	0.085685
685.502527	0.085860
685.705012	0.085927
685.907478	0.085948
686.109925	0.085881
686.312355	0.085838
686.514766	0.085968
686.717159	0.086231
686.919534	0.086461
687.121891	0.086442
687.324230	0.086475
687.526550	0.086518
687.728852	0.086575
687.931136	0.086598
688.133401	0.086747
688.335649	0.087035
688.537878	0.086803
688.740089	0.086742
688.942281	0.086906
689.144456	0.086861
689.346612	0.086973
689.548750	0.087188
689.750870	0.087303
689.952971	0.087342
690.155055	0.087164
690.357120	0.087422
690.559167	0.087286
690.761195	0.087354
690.963206	0.087596
691.165198	0.087615
691.367172	0.087435
691.569128	0.087411
691.771065	0.087526
691.972984	0.087510
692.174885	0.087554
692.376768	0.087853
692.578633	0.087670
692.780479	0.087701
692.982308	0.087769
693.184118	0.088241
693.385909	0.088241
