sample name	sample
index	1199
start time	 04-26-2021  12:38:53 PM


Wavelength (nm)	Absorbance
494.344910	-0.348853
494.563924	-0.348853
494.782919	-0.348853
495.001897	NaN
495.220856	-0.074141
495.439797	0.048087
495.658719	0.239463
495.877624	0.282281
496.096510	0.196778
496.315378	0.131442
496.534227	0.144548
496.753059	0.150407
496.971872	0.055732
497.190667	0.107337
497.409444	0.115895
497.628203	0.114743
497.846943	0.120106
498.065665	0.121964
498.284369	0.124147
498.503055	0.124647
498.721723	0.125066
498.940372	0.126180
499.159003	0.128243
499.377616	0.129100
499.596210	0.128855
499.814787	0.128937
500.033345	0.129318
500.251885	0.128646
500.470406	0.128274
500.688910	0.128263
500.907395	0.128851
501.125862	0.128124
501.344311	0.127932
501.562742	0.128853
501.781154	0.129712
501.999548	0.129301
502.217924	0.129183
502.436282	0.130085
502.654621	0.130484
502.872942	0.129884
503.091245	0.129249
503.309530	0.129230
503.527797	0.129427
503.746045	0.127857
503.964275	0.126226
504.182487	0.126669
504.400681	0.126673
504.618856	0.126316
504.837013	0.125642
505.055152	0.127145
505.273273	0.127268
505.491376	0.127215
505.709460	0.127679
505.927526	0.130607
506.145574	0.131115
506.363604	0.130220
506.581615	0.129996
506.799608	0.130973
507.017583	0.130484
507.235540	0.129980
507.453478	0.129587
507.671399	0.129335
507.889301	0.127406
508.107185	0.127877
508.325050	0.129045
508.542898	0.129558
508.760727	0.128825
508.978538	0.128497
509.196330	0.130075
509.414105	0.130089
509.631861	0.130965
509.849599	0.131935
510.067319	0.131683
510.285021	0.131855
510.502704	0.132701
510.720369	0.133088
510.938016	0.133331
511.155645	0.132762
511.373255	0.133577
511.590848	0.132847
511.808422	0.133005
512.025977	0.131657
512.243515	0.131553
512.461034	0.130849
512.678536	0.131437
512.896018	0.131304
513.113483	0.130600
513.330930	0.130843
513.548358	0.132077
513.765768	0.132729
513.983160	0.133555
514.200533	0.133946
514.417889	0.135137
514.635226	0.135035
514.852545	0.135112
515.069845	0.135167
515.287128	0.134807
515.504392	0.135253
515.721638	0.135371
515.938866	0.135885
516.156075	0.135823
516.373267	0.135885
516.590440	0.136754
516.807594	0.137607
517.024731	0.138888
517.241850	0.138839
517.458950	0.138866
517.676032	0.138690
517.893095	0.139623
518.110141	0.139407
518.327168	0.139221
518.544177	0.138413
518.761168	0.139202
518.978141	0.138873
519.195095	0.139554
519.412031	0.138892
519.628949	0.139221
519.845849	0.139230
520.062731	0.139394
520.279594	0.139194
520.496439	0.140248
520.713266	0.139662
520.930074	0.139850
521.146865	0.140180
521.363637	0.141626
521.580391	0.142037
521.797127	0.142186
522.013844	0.142901
522.230543	0.143232
522.447224	0.143507
522.663887	0.144275
522.880532	0.144928
523.097158	0.145653
523.313766	0.145308
523.530356	0.145780
523.746928	0.145773
523.963481	0.145114
524.180017	0.146078
524.396534	0.145963
524.613032	0.145801
524.829513	0.146285
525.045975	0.146413
525.262420	0.146671
525.478845	0.146208
525.695253	0.145866
525.911643	0.147477
526.128014	0.147059
526.344367	0.147474
526.560702	0.147587
526.777018	0.147091
526.993316	0.146890
527.209597	0.147709
527.425858	0.148329
527.642102	0.149084
527.858328	0.149517
528.074535	0.149676
528.290724	0.150190
528.506894	0.150945
528.723047	0.151742
528.939181	0.152186
529.155297	0.152045
529.371395	0.152269
529.587475	0.153048
529.803536	0.152334
530.019579	0.153190
530.235604	0.153205
530.451611	0.153469
530.667600	0.153330
530.883570	0.153786
531.099522	0.153997
531.315456	0.154703
531.531372	0.154610
531.747269	0.155224
531.963148	0.155443
532.179009	0.155867
532.394852	0.155945
532.610676	0.157237
532.826482	0.157326
533.042271	0.157832
533.258040	0.157456
533.473792	0.158032
533.689525	0.158908
533.905240	0.159039
534.120937	0.159735
534.336616	0.159933
534.552277	0.160152
534.767919	0.160935
534.983543	0.161177
535.199149	0.161745
535.414736	0.162173
535.630306	0.162117
535.845857	0.162338
536.061390	0.161995
536.276904	0.162396
536.492401	0.162316
536.707879	0.162292
536.923339	0.161790
537.138781	0.161980
537.354204	0.161923
537.569610	0.161918
537.784997	0.162105
538.000366	0.162760
538.215716	0.162808
538.431049	0.163158
538.646363	0.163228
538.861659	0.164393
539.076937	0.164770
539.292196	0.164668
539.507438	0.165053
539.722661	0.165701
539.937866	0.165933
540.153052	0.166447
540.368221	0.166535
540.583371	0.166806
540.798503	0.166651
541.013617	0.167068
541.228712	0.167642
541.443789	0.168127
541.658848	0.168056
541.873889	0.168717
542.088912	0.169013
542.303916	0.169161
542.518902	0.169781
542.733870	0.170438
542.948820	0.170650
543.163752	0.171188
543.378665	0.171293
543.593560	0.172201
543.808437	0.172003
544.023295	0.172322
544.238136	0.172359
544.452958	0.172794
544.667762	0.173339
544.882548	0.173264
545.097315	0.173086
545.312064	0.173494
545.526795	0.173658
545.741508	0.174226
545.956203	0.173963
546.170879	0.175032
546.385537	0.174713
546.600177	0.174292
546.814799	0.174784
547.029402	0.175113
547.243988	0.174975
547.458555	0.174432
547.673103	0.174204
547.887634	0.174740
548.102146	0.174144
548.316640	0.174551
548.531116	0.174857
548.745574	0.174534
548.960013	0.175040
549.174435	0.175213
549.388838	0.175448
549.603222	0.175611
549.817589	0.175683
550.031937	0.175895
550.246267	0.176005
550.460579	0.175834
550.674873	0.176033
550.889148	0.176208
551.103405	0.176544
551.317644	0.176633
551.531865	0.176897
551.746068	0.177182
551.960252	0.177532
552.174418	0.177804
552.388566	0.178573
552.602696	0.178580
552.816807	0.178592
553.030900	0.179234
553.244975	0.179566
553.459032	0.179678
553.673070	0.179822
553.887091	0.179688
554.101093	0.180230
554.315077	0.180028
554.529042	0.180275
554.742990	0.179989
554.956919	0.179525
555.170830	0.179897
555.384722	0.179854
555.598597	0.180148
555.812453	0.180326
556.026291	0.180516
556.240111	0.180514
556.453913	0.181164
556.667696	0.181848
556.881461	0.182295
557.095208	0.182207
557.308937	0.182942
557.522647	0.182634
557.736339	0.183050
557.950013	0.182501
558.163669	0.182856
558.377307	0.183114
558.590926	0.183513
558.804527	0.183620
559.018110	0.184114
559.231675	0.183638
559.445221	0.183918
559.658749	0.183904
559.872259	0.184345
560.085751	0.184631
560.299225	0.184318
560.512680	0.184404
560.726117	0.183841
560.939536	0.183419
561.152937	0.183733
561.366319	0.183920
561.579683	0.184139
561.793029	0.184351
562.006357	0.184212
562.219667	0.185008
562.432958	0.184195
562.646231	0.184436
562.859486	0.185139
563.072723	0.185568
563.285941	0.185493
563.499141	0.185897
563.712323	0.186177
563.925487	0.186050
564.138632	0.185622
564.351760	0.186324
564.564869	0.186771
564.777960	0.186331
564.991032	0.186035
565.204087	0.186278
565.417123	0.185871
565.630141	0.185352
565.843140	0.185632
566.056122	0.185341
566.269085	0.185209
566.482030	0.185278
566.694957	0.185367
566.907866	0.185390
567.120756	0.185478
567.333628	0.185739
567.546482	0.186059
567.759318	0.186424
567.972135	0.186935
568.184935	0.187307
568.397716	0.187477
568.610478	0.187524
568.823223	0.187803
569.035949	0.187868
569.248657	0.187757
569.461347	0.188248
569.674019	0.188091
569.886672	0.188290
570.099308	0.188040
570.311925	0.188085
570.524523	0.188301
570.737104	0.188534
570.949666	0.188518
571.162210	0.188718
571.374736	0.188417
571.587244	0.189037
571.799733	0.188764
572.012205	0.189047
572.224658	0.189065
572.437092	0.189652
572.649509	0.189946
572.861907	0.189969
573.074287	0.190044
573.286649	0.189940
573.498993	0.189358
573.711318	0.189713
573.923625	0.189963
574.135914	0.190238
574.348185	0.190004
574.560438	0.189565
574.772672	0.189734
574.984888	0.190135
575.197086	0.190595
575.409266	0.191371
575.621427	0.191846
575.833570	0.192399
576.045695	0.193115
576.257802	0.193489
576.469890	0.193642
576.681961	0.194247
576.894013	0.194482
577.106046	0.194344
577.318062	0.193893
577.530059	0.193765
577.742039	0.193436
577.954000	0.193183
578.165942	0.193125
578.377867	0.193672
578.589773	0.193371
578.801661	0.193383
579.013531	0.193755
579.225382	0.193970
579.437216	0.194035
579.649031	0.194093
579.860828	0.193948
580.072606	0.194184
580.284367	0.194036
580.496109	0.193990
580.707833	0.193958
580.919539	0.194471
581.131227	0.194895
581.342896	0.194798
581.554547	0.194780
581.766180	0.195017
581.977795	0.195000
582.189391	0.195143
582.400969	0.195936
582.612529	0.196041
582.824071	0.195758
583.035595	0.195685
583.247100	0.196413
583.458587	0.197219
583.670056	0.197279
583.881506	0.197728
584.092939	0.197991
584.304353	0.198122
584.515749	0.198382
584.727127	0.198477
584.938486	0.198546
585.149828	0.198472
585.361151	0.198490
585.572456	0.199016
585.783742	0.198959
585.995011	0.199110
586.206261	0.199164
586.417493	0.199206
586.628706	0.199550
586.839902	0.200082
587.051079	0.200147
587.262238	0.200415
587.473379	0.200012
587.684502	0.200331
587.895606	0.200539
588.106692	0.200561
588.317760	0.200702
588.528810	0.200825
588.739841	0.200869
588.950855	0.201125
589.161850	0.201084
589.372827	0.201597
589.583785	0.201711
589.794726	0.201540
590.005648	0.201548
590.216552	0.201337
590.427437	0.201326
590.638305	0.201331
590.849154	0.201208
591.059985	0.201260
591.270798	0.201376
591.481592	0.201241
591.692369	0.201401
591.903127	0.201771
592.113867	0.202647
592.324588	0.202957
592.535292	0.203543
592.745977	0.204086
592.956644	0.204265
593.167293	0.204304
593.377923	0.204827
593.588536	0.205330
593.799130	0.205216
594.009706	0.205028
594.220263	0.205002
594.430803	0.204593
594.641324	0.204649
594.851827	0.204595
595.062312	0.204708
595.272778	0.204512
595.483227	0.204406
595.693657	0.204610
595.904069	0.204882
596.114462	0.205214
596.324838	0.205447
596.535195	0.205247
596.745534	0.205357
596.955855	0.205650
597.166157	0.205840
597.376441	0.205819
597.586707	0.205954
597.796955	0.206072
598.007185	0.205791
598.217396	0.205907
598.427589	0.206076
598.637764	0.206331
598.847921	0.206210
599.058060	0.206286
599.268180	0.206616
599.478282	0.206875
599.688366	0.207244
599.898431	0.207672
600.108479	0.207767
600.318508	0.208273
600.528519	0.208450
600.738511	0.208647
600.948486	0.208816
601.158442	0.209176
601.368380	0.209212
601.578300	0.209087
601.788202	0.209037
601.998085	0.209601
602.207950	0.209686
602.417797	0.209815
602.627626	0.210066
602.837436	0.210116
603.047228	0.210201
603.257002	0.210684
603.466758	0.211019
603.676496	0.211232
603.886215	0.211348
604.095916	0.211490
604.305599	0.211879
604.515264	0.211989
604.724910	0.212191
604.934538	0.211750
605.144148	0.211554
605.353740	0.211383
605.563314	0.211807
605.772869	0.211462
605.982406	0.211505
606.191925	0.211116
606.401425	0.211053
606.610908	0.211156
606.820372	0.211791
607.029818	0.211649
607.239246	0.211906
607.448655	0.211360
607.658047	0.211563
607.867420	0.211319
608.076775	0.211451
608.286111	0.211379
608.495430	0.211299
608.704730	0.211262
608.914012	0.211637
609.123275	0.211859
609.332521	0.212738
609.541748	0.213002
609.750957	0.213483
609.960148	0.213675
610.169321	0.214202
610.378475	0.214516
610.587611	0.214606
610.796729	0.214764
611.005829	0.214260
611.214910	0.214095
611.423974	0.213915
611.633019	0.213837
611.842045	0.213861
612.051054	0.213773
612.260044	0.214178
612.469017	0.214406
612.677970	0.214464
612.886906	0.215056
613.095824	0.214955
613.304723	0.215419
613.513604	0.215745
613.722467	0.216414
613.931311	0.216753
614.140138	0.216665
614.348946	0.216998
614.557736	0.216969
614.766507	0.217080
614.975261	0.217566
615.183996	0.217827
615.392713	0.217926
615.601412	0.217888
615.810092	0.218005
616.018754	0.218404
616.227399	0.218696
616.436024	0.219187
616.644632	0.219387
616.853222	0.219507
617.061793	0.219643
617.270346	0.219882
617.478880	0.219956
617.687397	0.220191
617.895895	0.220316
618.104375	0.219930
618.312837	0.220200
618.521281	0.220339
618.729706	0.220363
618.938113	0.220232
619.146502	0.220385
619.354873	0.220364
619.563226	0.220502
619.771560	0.220219
619.979876	0.220540
620.188174	0.220431
620.396453	0.220559
620.604715	0.220703
620.812958	0.221153
621.021183	0.221082
621.229390	0.221469
621.437578	0.221526
621.645748	0.222206
621.853900	0.222319
622.062034	0.222624
622.270150	0.222952
622.478247	0.223138
622.686326	0.223053
622.894387	0.223265
623.102430	0.223426
623.310454	0.223560
623.518461	0.223575
623.726449	0.223665
623.934418	0.223548
624.142370	0.223362
624.350303	0.223646
624.558218	0.223932
624.766115	0.224365
624.973994	0.224178
625.181855	0.224106
625.389697	0.224130
625.597521	0.224432
625.805327	0.224548
626.013114	0.224711
626.220883	0.224756
626.428634	0.224871
626.636367	0.224598
626.844082	0.225011
627.051778	0.225278
627.259457	0.225426
627.467117	0.225515
627.674758	0.225884
627.882382	0.226101
628.089987	0.226115
628.297574	0.226018
628.505143	0.226373
628.712694	0.226349
628.920226	0.226301
629.127740	0.226616
629.335236	0.226716
629.542714	0.226781
629.750174	0.227098
629.957615	0.227201
630.165038	0.227625
630.372443	0.227465
630.579829	0.227622
630.787198	0.227932
630.994548	0.227707
631.201880	0.227524
631.409194	0.227773
631.616489	0.227418
631.823766	0.227394
632.031025	0.227303
632.238266	0.227848
632.445489	0.227799
632.652693	0.228029
632.859879	0.228233
633.067047	0.228676
633.274197	0.228734
633.481329	0.228999
633.688442	0.229505
633.895537	0.229560
634.102614	0.229576
634.309672	0.230011
634.516713	0.230102
634.723735	0.230251
634.930739	0.230401
635.137724	0.230578
635.344692	0.230916
635.551641	0.230854
635.758572	0.231195
635.965485	0.231153
636.172379	0.230988
636.379256	0.230789
636.586114	0.230914
636.792954	0.231134
636.999775	0.231332
637.206579	0.231376
637.413364	0.231693
637.620131	0.231958
637.826880	0.232340
638.033610	0.232421
638.240323	0.232623
638.447017	0.232867
638.653692	0.232819
638.860350	0.232845
639.066990	0.232923
639.273611	0.233022
639.480214	0.232921
639.686798	0.232820
639.893365	0.233031
640.099913	0.233417
640.306443	0.233474
640.512955	0.233803
640.719449	0.233873
640.925924	0.234072
641.132381	0.234205
641.338820	0.234308
641.545241	0.234557
641.751644	0.234784
641.958028	0.235032
642.164394	0.235171
642.370742	0.235354
642.577071	0.235412
642.783383	0.235719
642.989676	0.235705
643.195951	0.235958
643.402207	0.235989
643.608446	0.236387
643.814666	0.236424
644.020868	0.236791
644.227052	0.236718
644.433218	0.237127
644.639365	0.237141
644.845494	0.237406
645.051605	0.237557
645.257698	0.237542
645.463772	0.237722
645.669828	0.237661
645.875866	0.237704
646.081886	0.237977
646.287888	0.237932
646.493871	0.238289
646.699836	0.238386
646.905783	0.238791
647.111712	0.239268
647.317622	0.239274
647.523514	0.239594
647.729388	0.239705
647.935244	0.240002
648.141082	0.240316
648.346901	0.240301
648.552702	0.240429
648.758485	0.240562
648.964250	0.240814
649.169996	0.240976
649.375724	0.241363
649.581434	0.241445
649.787126	0.241276
649.992800	0.241512
650.198455	0.241627
650.404092	0.241672
650.609711	0.241538
650.815311	0.241576
651.020894	0.241731
651.226458	0.241765
651.432004	0.241953
651.637532	0.242345
651.843041	0.242185
652.048532	0.242271
652.254006	0.242470
652.459460	0.242664
652.664897	0.242618
652.870315	0.242603
653.075716	0.242671
653.281097	0.242828
653.486461	0.242713
653.691807	0.242864
653.897134	0.243086
654.102443	0.243241
654.307734	0.243134
654.513006	0.243450
654.718261	0.243663
654.923497	0.243776
655.128715	0.243941
655.333915	0.244432
655.539096	0.244620
655.744259	0.245118
655.949404	0.245318
656.154531	0.245784
656.359640	0.246058
656.564730	0.246528
656.769802	0.246898
656.974856	0.247172
657.179892	0.247275
657.384909	0.247496
657.589908	0.247170
657.794889	0.247434
657.999852	0.247813
658.204797	0.247898
658.409723	0.247754
658.614631	0.247908
658.819521	0.247806
659.024393	0.248054
659.229246	0.248414
659.434081	0.248404
659.638898	0.248315
659.843697	0.248127
660.048478	0.248219
660.253240	0.248312
660.457984	0.248419
660.662710	0.248555
660.867417	0.248758
661.072107	0.248575
661.276778	0.249219
661.481431	0.249961
661.686066	0.250303
661.890682	0.250605
662.095281	0.250930
662.299861	0.250918
662.504422	0.251290
662.708966	0.251503
662.913491	0.252160
663.117999	0.252121
663.322488	0.251984
663.526958	0.252282
663.731411	0.252446
663.935845	0.252805
664.140261	0.253128
664.344659	0.253366
664.549038	0.253591
664.753400	0.253622
664.957743	0.254030
665.162068	0.254384
665.366375	0.254566
665.570663	0.254914
665.774933	0.254997
665.979185	0.255158
666.183419	0.255387
666.387635	0.255402
666.591832	0.255518
666.796011	0.255675
667.000172	0.255605
667.204315	0.255509
667.408439	0.255432
667.612545	0.255526
667.816634	0.255739
668.020703	0.255826
668.224755	0.255955
668.428788	0.256016
668.632803	0.256265
668.836800	0.256700
669.040779	0.257013
669.244739	0.257295
669.448681	0.257571
669.652605	0.257828
669.856511	0.258146
670.060399	0.258524
670.264268	0.258737
670.468119	0.258979
670.671952	0.259010
670.875767	0.259346
671.079563	0.259576
671.283341	0.259786
671.487101	0.260168
671.690843	0.260467
671.894567	0.260558
672.098272	0.260861
672.301959	0.261067
672.505628	0.261565
672.709278	0.262001
672.912911	0.262280
673.116525	0.262723
673.320121	0.262946
673.523699	0.263186
673.727258	0.263382
673.930799	0.263667
674.134322	0.263895
674.337827	0.263911
674.541314	0.263892
674.744782	0.264023
674.948232	0.263853
675.151664	0.263996
675.355078	0.264088
675.558474	0.264101
675.761851	0.264036
675.965210	0.263895
676.168551	0.264030
676.371873	0.264066
676.575178	0.264157
676.778464	0.264245
676.981732	0.264395
677.184981	0.264408
677.388213	0.264538
677.591426	0.265175
677.794621	0.265574
677.997798	0.265678
678.200956	0.265907
678.404097	0.265931
678.607219	0.266380
678.810323	0.266536
679.013408	0.266575
679.216476	0.266955
679.419525	0.266936
679.622556	0.266952
679.825569	0.267266
680.028563	0.267491
680.231540	0.267952
680.434498	0.268082
680.637438	0.268060
680.840359	0.268685
681.043263	0.268770
681.246148	0.268908
681.449015	0.269177
681.651864	0.269358
681.854694	0.269355
682.057506	0.269441
682.260301	0.269541
682.463076	0.269615
682.665834	0.269619
682.868573	0.269889
683.071295	0.270014
683.273998	0.270197
683.476682	0.270280
683.679349	0.270583
683.881997	0.270674
684.084627	0.270674
684.287239	0.270921
684.489833	0.270909
684.692408	0.270988
684.894965	0.271096
685.097504	0.271365
685.300025	0.271458
685.502527	0.271900
685.705012	0.272120
685.907478	0.272511
686.109925	0.272739
686.312355	0.273120
686.514766	0.273425
686.717159	0.273891
686.919534	0.273966
687.121891	0.274161
687.324230	0.274179
687.526550	0.274456
687.728852	0.274461
687.931136	0.274546
688.133401	0.274727
688.335649	0.274772
688.537878	0.274862
688.740089	0.274969
688.942281	0.275346
689.144456	0.275351
689.346612	0.275526
689.548750	0.275798
689.750870	0.276346
689.952971	0.276390
690.155055	0.276763
690.357120	0.276803
690.559167	0.276947
690.761195	0.277022
690.963206	0.277415
691.165198	0.277545
691.367172	0.277803
691.569128	0.277842
691.771065	0.278147
691.972984	0.278289
692.174885	0.278461
692.376768	0.278619
692.578633	0.278919
692.780479	0.278879
692.982308	0.278902
693.184118	0.278939
693.385909	0.278935
