sample name	sample
index	517
start time	 03-11-2021  03:39:50 PM


Wavelength (nm)	Absorbance
494.344910	0.644497
494.563924	0.644497
494.782919	0.644497
495.001897	0.215090
495.220856	0.132767
495.439797	-0.020337
495.658719	-0.090484
495.877624	-0.156122
496.096510	-0.178451
496.315378	-0.173946
496.534227	-0.019639
496.753059	-0.015863
496.971872	-0.053604
497.190667	0.119529
497.409444	0.149033
497.628203	0.153368
497.846943	0.156042
498.065665	0.157791
498.284369	0.159974
498.503055	0.158813
498.721723	0.158737
498.940372	0.159397
499.159003	0.160605
499.377616	0.161300
499.596210	0.160822
499.814787	0.161366
500.033345	0.161442
500.251885	0.162084
500.470406	0.162357
500.688910	0.162741
500.907395	0.162722
501.125862	0.161686
501.344311	0.161321
501.562742	0.162149
501.781154	0.162250
501.999548	0.162284
502.217924	0.160761
502.436282	0.161631
502.654621	0.161053
502.872942	0.162345
503.091245	0.163818
503.309530	0.164017
503.527797	0.164160
503.746045	0.163403
503.964275	0.163269
504.182487	0.164064
504.400681	0.164486
504.618856	0.166158
504.837013	0.165127
505.055152	0.164170
505.273273	0.163849
505.491376	0.163333
505.709460	0.164539
505.927526	0.164473
506.145574	0.163365
506.363604	0.163029
506.581615	0.163027
506.799608	0.164113
507.017583	0.164766
507.235540	0.165200
507.453478	0.165739
507.671399	0.165631
507.889301	0.165930
508.107185	0.167199
508.325050	0.166571
508.542898	0.164478
508.760727	0.165083
508.978538	0.166484
509.196330	0.166214
509.414105	0.166893
509.631861	0.166895
509.849599	0.167982
510.067319	0.167290
510.285021	0.167568
510.502704	0.168589
510.720369	0.167821
510.938016	0.167706
511.155645	0.168641
511.373255	0.167595
511.590848	0.166896
511.808422	0.166104
512.025977	0.166830
512.243515	0.167527
512.461034	0.168551
512.678536	0.168380
512.896018	0.167577
513.113483	0.166937
513.330930	0.167519
513.548358	0.168451
513.765768	0.168873
513.983160	0.168981
514.200533	0.169519
514.417889	0.169754
514.635226	0.170649
514.852545	0.170990
515.069845	0.171936
515.287128	0.173044
515.504392	0.173888
515.721638	0.173863
515.938866	0.173873
516.156075	0.173406
516.373267	0.173229
516.590440	0.173792
516.807594	0.173592
517.024731	0.173598
517.241850	0.172541
517.458950	0.172327
517.676032	0.173184
517.893095	0.173136
518.110141	0.173620
518.327168	0.174232
518.544177	0.173649
518.761168	0.173430
518.978141	0.172417
519.195095	0.173365
519.412031	0.172953
519.628949	0.172586
519.845849	0.173951
520.062731	0.174266
520.279594	0.173660
520.496439	0.174461
520.713266	0.175706
520.930074	0.177455
521.146865	0.177167
521.363637	0.178236
521.580391	0.178947
521.797127	0.178148
522.013844	0.177995
522.230543	0.178139
522.447224	0.177526
522.663887	0.177425
522.880532	0.177430
523.097158	0.178331
523.313766	0.177947
523.530356	0.178208
523.746928	0.178892
523.963481	0.179092
524.180017	0.179746
524.396534	0.180588
524.613032	0.180803
524.829513	0.181213
525.045975	0.181514
525.262420	0.181772
525.478845	0.182202
525.695253	0.182647
525.911643	0.183176
526.128014	0.183114
526.344367	0.183010
526.560702	0.183442
526.777018	0.183243
526.993316	0.183113
527.209597	0.183580
527.425858	0.183967
527.642102	0.184121
527.858328	0.184792
528.074535	0.186133
528.290724	0.187012
528.506894	0.187455
528.723047	0.187994
528.939181	0.188194
529.155297	0.188482
529.371395	0.188206
529.587475	0.188402
529.803536	0.188657
530.019579	0.188540
530.235604	0.188569
530.451611	0.188518
530.667600	0.188999
530.883570	0.189780
531.099522	0.190160
531.315456	0.190613
531.531372	0.191183
531.747269	0.191226
531.963148	0.191775
532.179009	0.192042
532.394852	0.193079
532.610676	0.192517
532.826482	0.193143
533.042271	0.193851
533.258040	0.194466
533.473792	0.194201
533.689525	0.194859
533.905240	0.194661
534.120937	0.194823
534.336616	0.194601
534.552277	0.195252
534.767919	0.195095
534.983543	0.194727
535.199149	0.193995
535.414736	0.194925
535.630306	0.194844
535.845857	0.195510
536.061390	0.195778
536.276904	0.196040
536.492401	0.196548
536.707879	0.196068
536.923339	0.196941
537.138781	0.197812
537.354204	0.197678
537.569610	0.197796
537.784997	0.198153
538.000366	0.198739
538.215716	0.199348
538.431049	0.199710
538.646363	0.200821
538.861659	0.200620
539.076937	0.200913
539.292196	0.201552
539.507438	0.201891
539.722661	0.202405
539.937866	0.202366
540.153052	0.202461
540.368221	0.202611
540.583371	0.202354
540.798503	0.202669
541.013617	0.203188
541.228712	0.203544
541.443789	0.203546
541.658848	0.203839
541.873889	0.204419
542.088912	0.205196
542.303916	0.205017
542.518902	0.206335
542.733870	0.206779
542.948820	0.207054
543.163752	0.206784
543.378665	0.207483
543.593560	0.207543
543.808437	0.207809
544.023295	0.207520
544.238136	0.208490
544.452958	0.208135
544.667762	0.208413
544.882548	0.207993
545.097315	0.209050
545.312064	0.209054
545.526795	0.208948
545.741508	0.208375
545.956203	0.208243
546.170879	0.208106
546.385537	0.208313
546.600177	0.208524
546.814799	0.208807
547.029402	0.208389
547.243988	0.208657
547.458555	0.208635
547.673103	0.209318
547.887634	0.209699
548.102146	0.210329
548.316640	0.210919
548.531116	0.211117
548.745574	0.211517
548.960013	0.211914
549.174435	0.212063
549.388838	0.212397
549.603222	0.212902
549.817589	0.213066
550.031937	0.213176
550.246267	0.213430
550.460579	0.213382
550.674873	0.213624
550.889148	0.213817
551.103405	0.214261
551.317644	0.214635
551.531865	0.214389
551.746068	0.214932
551.960252	0.214673
552.174418	0.214645
552.388566	0.215035
552.602696	0.215686
552.816807	0.215641
553.030900	0.215902
553.244975	0.216337
553.459032	0.216679
553.673070	0.217230
553.887091	0.217631
554.101093	0.217807
554.315077	0.217996
554.529042	0.217870
554.742990	0.218574
554.956919	0.218794
555.170830	0.218964
555.384722	0.219238
555.598597	0.219008
555.812453	0.219500
556.026291	0.219761
556.240111	0.219929
556.453913	0.220221
556.667696	0.220255
556.881461	0.220499
557.095208	0.220602
557.308937	0.221064
557.522647	0.221035
557.736339	0.220888
557.950013	0.220702
558.163669	0.220695
558.377307	0.220866
558.590926	0.221202
558.804527	0.221623
559.018110	0.221808
559.231675	0.222181
559.445221	0.222903
559.658749	0.223405
559.872259	0.223975
560.085751	0.224733
560.299225	0.224820
560.512680	0.224830
560.726117	0.224485
560.939536	0.224823
561.152937	0.224444
561.366319	0.223748
561.579683	0.223469
561.793029	0.223543
562.006357	0.223401
562.219667	0.223804
562.432958	0.223564
562.646231	0.224115
562.859486	0.224435
563.072723	0.224570
563.285941	0.225582
563.499141	0.226032
563.712323	0.226097
563.925487	0.226221
564.138632	0.226275
564.351760	0.226943
564.564869	0.226903
564.777960	0.226980
564.991032	0.227590
565.204087	0.227391
565.417123	0.227643
565.630141	0.228031
565.843140	0.228416
566.056122	0.228918
566.269085	0.228987
566.482030	0.229032
566.694957	0.228753
566.907866	0.228588
567.120756	0.229131
567.333628	0.229400
567.546482	0.229492
567.759318	0.229677
567.972135	0.229562
568.184935	0.229685
568.397716	0.230346
568.610478	0.230798
568.823223	0.230828
569.035949	0.231171
569.248657	0.231242
569.461347	0.231716
569.674019	0.231517
569.886672	0.232006
570.099308	0.231940
570.311925	0.231699
570.524523	0.231965
570.737104	0.232767
570.949666	0.232327
571.162210	0.232272
571.374736	0.231709
571.587244	0.232120
571.799733	0.231973
572.012205	0.232677
572.224658	0.233022
572.437092	0.233310
572.649509	0.233020
572.861907	0.233678
573.074287	0.234117
573.286649	0.234858
573.498993	0.235186
573.711318	0.235285
573.923625	0.235147
574.135914	0.235311
574.348185	0.235247
574.560438	0.235717
574.772672	0.235548
574.984888	0.236026
575.197086	0.236424
575.409266	0.236378
575.621427	0.236725
575.833570	0.237100
576.045695	0.237045
576.257802	0.237142
576.469890	0.237158
576.681961	0.237493
576.894013	0.237242
577.106046	0.236903
577.318062	0.237084
577.530059	0.237436
577.742039	0.237585
577.954000	0.237984
578.165942	0.238350
578.377867	0.238859
578.589773	0.239015
578.801661	0.239364
579.013531	0.239798
579.225382	0.239588
579.437216	0.239811
579.649031	0.240096
579.860828	0.239969
580.072606	0.240186
580.284367	0.239887
580.496109	0.240015
580.707833	0.239945
580.919539	0.239757
581.131227	0.240626
581.342896	0.240686
581.554547	0.240770
581.766180	0.241407
581.977795	0.242049
582.189391	0.242648
582.400969	0.242768
582.612529	0.242903
582.824071	0.243521
583.035595	0.243136
583.247100	0.243388
583.458587	0.243349
583.670056	0.243664
583.881506	0.243235
584.092939	0.243153
584.304353	0.243629
584.515749	0.244161
584.727127	0.244390
584.938486	0.244758
585.149828	0.244658
585.361151	0.245003
585.572456	0.245034
585.783742	0.245081
585.995011	0.245149
586.206261	0.245015
586.417493	0.244833
586.628706	0.244476
586.839902	0.245148
587.051079	0.245419
587.262238	0.245473
587.473379	0.245475
587.684502	0.245660
587.895606	0.245986
588.106692	0.246409
588.317760	0.246788
588.528810	0.247200
588.739841	0.246912
588.950855	0.247371
589.161850	0.247495
589.372827	0.247824
589.583785	0.248047
589.794726	0.248322
590.005648	0.248524
590.216552	0.248357
590.427437	0.248376
590.638305	0.248487
590.849154	0.248316
591.059985	0.248948
591.270798	0.248973
591.481592	0.249289
591.692369	0.249421
591.903127	0.249296
592.113867	0.249960
592.324588	0.250296
592.535292	0.250424
592.745977	0.250425
592.956644	0.250310
593.167293	0.250586
593.377923	0.250591
593.588536	0.250648
593.799130	0.250626
594.009706	0.250809
594.220263	0.251342
594.430803	0.252136
594.641324	0.252508
594.851827	0.252788
595.062312	0.252969
595.272778	0.253220
595.483227	0.253464
595.693657	0.254043
595.904069	0.254281
596.114462	0.254198
596.324838	0.254247
596.535195	0.254464
596.745534	0.254555
596.955855	0.254624
597.166157	0.254653
597.376441	0.255109
597.586707	0.255103
597.796955	0.254919
598.007185	0.255277
598.217396	0.255401
598.427589	0.255365
598.637764	0.255675
598.847921	0.255592
599.058060	0.255811
599.268180	0.255723
599.478282	0.255973
599.688366	0.256414
599.898431	0.256624
600.108479	0.256558
600.318508	0.257044
600.528519	0.257154
600.738511	0.257649
600.948486	0.258053
601.158442	0.258218
601.368380	0.258322
601.578300	0.258488
601.788202	0.258531
601.998085	0.258800
602.207950	0.258781
602.417797	0.258851
602.627626	0.259057
602.837436	0.259431
603.047228	0.259684
603.257002	0.260217
603.466758	0.260364
603.676496	0.260513
603.886215	0.260575
604.095916	0.260695
604.305599	0.261121
604.515264	0.261250
604.724910	0.261432
604.934538	0.261560
605.144148	0.261774
605.353740	0.262176
605.563314	0.262464
605.772869	0.262966
605.982406	0.263409
606.191925	0.263643
606.401425	0.263883
606.610908	0.263838
606.820372	0.263768
607.029818	0.263667
607.239246	0.263538
607.448655	0.263670
607.658047	0.263625
607.867420	0.263759
608.076775	0.263567
608.286111	0.263699
608.495430	0.264030
608.704730	0.264463
608.914012	0.264532
609.123275	0.264716
609.332521	0.264389
609.541748	0.264567
609.750957	0.264320
609.960148	0.264510
610.169321	0.264809
610.378475	0.264803
610.587611	0.264898
610.796729	0.265201
611.005829	0.265624
611.214910	0.266353
611.423974	0.266364
611.633019	0.266945
611.842045	0.267518
612.051054	0.267518
612.260044	0.267520
612.469017	0.267694
612.677970	0.267735
612.886906	0.267633
613.095824	0.267658
613.304723	0.267892
613.513604	0.267726
613.722467	0.267538
613.931311	0.267614
614.140138	0.267965
614.348946	0.268110
614.557736	0.268120
614.766507	0.268129
614.975261	0.268367
615.183996	0.268546
615.392713	0.268658
615.601412	0.268678
615.810092	0.268962
616.018754	0.268912
616.227399	0.268923
616.436024	0.269225
616.644632	0.269546
616.853222	0.269454
617.061793	0.269259
617.270346	0.269638
617.478880	0.269971
617.687397	0.270031
617.895895	0.270379
618.104375	0.270627
618.312837	0.270728
618.521281	0.271203
618.729706	0.271502
618.938113	0.272080
619.146502	0.272478
619.354873	0.272716
619.563226	0.272752
619.771560	0.272938
619.979876	0.273183
620.188174	0.273536
620.396453	0.273458
620.604715	0.273782
620.812958	0.273805
621.021183	0.273789
621.229390	0.273608
621.437578	0.273863
621.645748	0.273842
621.853900	0.274052
622.062034	0.274105
622.270150	0.274006
622.478247	0.273833
622.686326	0.274130
622.894387	0.274345
623.102430	0.274711
623.310454	0.274952
623.518461	0.274924
623.726449	0.274752
623.934418	0.274953
624.142370	0.275403
624.350303	0.275542
624.558218	0.275479
624.766115	0.275760
624.973994	0.276073
625.181855	0.276142
625.389697	0.276806
625.597521	0.276854
625.805327	0.276673
626.013114	0.276520
626.220883	0.276836
626.428634	0.276906
626.636367	0.276627
626.844082	0.276504
627.051778	0.276812
627.259457	0.276799
627.467117	0.277186
627.674758	0.277795
627.882382	0.278297
628.089987	0.278383
628.297574	0.278889
628.505143	0.279168
628.712694	0.279583
628.920226	0.279880
629.127740	0.280096
629.335236	0.280308
629.542714	0.280211
629.750174	0.280060
629.957615	0.280354
630.165038	0.280238
630.372443	0.280270
630.579829	0.280250
630.787198	0.280093
630.994548	0.280208
631.201880	0.280460
631.409194	0.280735
631.616489	0.281267
631.823766	0.281575
632.031025	0.281741
632.238266	0.281991
632.445489	0.282388
632.652693	0.282761
632.859879	0.283047
633.067047	0.283017
633.274197	0.283222
633.481329	0.283201
633.688442	0.283074
633.895537	0.283129
634.102614	0.283487
634.309672	0.283383
634.516713	0.283207
634.723735	0.283049
634.930739	0.283279
635.137724	0.283351
635.344692	0.283556
635.551641	0.283467
635.758572	0.283926
635.965485	0.284059
636.172379	0.284422
636.379256	0.284730
636.586114	0.284986
636.792954	0.284995
636.999775	0.285257
637.206579	0.285714
637.413364	0.286067
637.620131	0.286139
637.826880	0.286150
638.033610	0.286003
638.240323	0.286131
638.447017	0.286419
638.653692	0.286913
638.860350	0.286865
639.066990	0.286730
639.273611	0.286887
639.480214	0.287261
639.686798	0.287263
639.893365	0.287409
640.099913	0.287357
640.306443	0.287468
640.512955	0.287748
640.719449	0.287904
640.925924	0.287951
641.132381	0.288194
641.338820	0.288122
641.545241	0.288776
641.751644	0.289333
641.958028	0.289967
642.164394	0.290050
642.370742	0.289820
642.577071	0.289937
642.783383	0.290229
642.989676	0.290475
643.195951	0.290458
643.402207	0.290371
643.608446	0.290247
643.814666	0.290335
644.020868	0.290793
644.227052	0.291209
644.433218	0.291430
644.639365	0.291565
644.845494	0.291358
645.051605	0.291977
645.257698	0.292056
645.463772	0.292390
645.669828	0.292622
645.875866	0.292601
646.081886	0.292820
646.287888	0.293065
646.493871	0.293045
646.699836	0.293316
646.905783	0.293222
647.111712	0.293640
647.317622	0.293737
647.523514	0.293897
647.729388	0.294115
647.935244	0.294209
648.141082	0.294658
648.346901	0.294877
648.552702	0.295355
648.758485	0.295826
648.964250	0.296165
649.169996	0.296473
649.375724	0.296580
649.581434	0.296840
649.787126	0.297036
649.992800	0.296879
650.198455	0.297135
650.404092	0.297112
650.609711	0.296889
650.815311	0.296549
651.020894	0.296732
651.226458	0.296937
651.432004	0.297125
651.637532	0.297384
651.843041	0.297675
652.048532	0.297944
652.254006	0.298437
652.459460	0.298678
652.664897	0.298881
652.870315	0.298705
653.075716	0.298626
653.281097	0.298523
653.486461	0.298636
653.691807	0.298844
653.897134	0.299121
654.102443	0.299271
654.307734	0.299615
654.513006	0.300065
654.718261	0.300654
654.923497	0.301070
655.128715	0.301737
655.333915	0.302116
655.539096	0.302344
655.744259	0.302510
655.949404	0.302794
656.154531	0.302994
656.359640	0.303104
656.564730	0.303233
656.769802	0.303542
656.974856	0.303463
657.179892	0.303449
657.384909	0.303452
657.589908	0.303686
657.794889	0.303628
657.999852	0.303856
658.204797	0.304205
658.409723	0.304343
658.614631	0.304409
658.819521	0.304914
659.024393	0.305162
659.229246	0.305747
659.434081	0.305912
659.638898	0.306200
659.843697	0.306689
660.048478	0.306869
660.253240	0.307034
660.457984	0.307249
660.662710	0.307077
660.867417	0.307249
661.072107	0.307229
661.276778	0.307514
661.481431	0.307833
661.686066	0.307771
661.890682	0.308062
662.095281	0.308261
662.299861	0.308425
662.504422	0.308564
662.708966	0.308901
662.913491	0.309109
663.117999	0.309162
663.322488	0.309227
663.526958	0.309556
663.731411	0.309908
663.935845	0.310246
664.140261	0.310577
664.344659	0.311005
664.549038	0.311232
664.753400	0.311633
664.957743	0.311982
665.162068	0.312231
665.366375	0.312305
665.570663	0.311993
665.774933	0.312220
665.979185	0.312389
666.183419	0.312689
666.387635	0.312990
666.591832	0.313058
666.796011	0.313296
667.000172	0.313574
667.204315	0.313625
667.408439	0.313937
667.612545	0.314211
667.816634	0.314495
668.020703	0.314538
668.224755	0.314607
668.428788	0.314850
668.632803	0.315010
668.836800	0.315063
669.040779	0.315511
669.244739	0.315914
669.448681	0.315958
669.652605	0.316148
669.856511	0.316543
670.060399	0.316632
670.264268	0.316970
670.468119	0.317104
670.671952	0.317551
670.875767	0.317700
671.079563	0.318164
671.283341	0.318202
671.487101	0.318273
671.690843	0.318368
671.894567	0.318809
672.098272	0.318951
672.301959	0.319112
672.505628	0.319340
672.709278	0.319568
672.912911	0.319397
673.116525	0.319900
673.320121	0.320168
673.523699	0.320295
673.727258	0.320283
673.930799	0.320247
674.134322	0.320645
674.337827	0.320732
674.541314	0.321075
674.744782	0.321620
674.948232	0.321492
675.151664	0.321938
675.355078	0.322375
675.558474	0.322818
675.761851	0.323085
675.965210	0.323025
676.168551	0.323270
676.371873	0.323428
676.575178	0.323343
676.778464	0.323877
676.981732	0.324080
677.184981	0.324352
677.388213	0.324359
677.591426	0.324897
677.794621	0.325331
677.997798	0.325371
678.200956	0.325674
678.404097	0.326076
678.607219	0.326448
678.810323	0.326320
679.013408	0.326661
679.216476	0.326838
679.419525	0.326966
679.622556	0.327190
679.825569	0.327935
680.028563	0.327804
680.231540	0.327868
680.434498	0.327826
680.637438	0.328395
680.840359	0.328456
681.043263	0.328822
681.246148	0.329082
681.449015	0.329339
681.651864	0.329409
681.854694	0.329986
682.057506	0.330512
682.260301	0.330853
682.463076	0.330946
682.665834	0.331113
682.868573	0.331465
683.071295	0.331538
683.273998	0.331613
683.476682	0.331738
683.679349	0.331826
683.881997	0.331643
684.084627	0.331906
684.287239	0.332077
684.489833	0.331940
684.692408	0.331931
684.894965	0.331963
685.097504	0.332343
685.300025	0.332628
685.502527	0.332895
685.705012	0.333315
685.907478	0.333501
686.109925	0.333828
686.312355	0.334387
686.514766	0.334804
686.717159	0.335103
686.919534	0.335467
687.121891	0.335437
687.324230	0.335628
687.526550	0.335969
687.728852	0.335955
687.931136	0.335843
688.133401	0.336064
688.335649	0.335947
688.537878	0.336255
688.740089	0.336278
688.942281	0.336674
689.144456	0.336938
689.346612	0.336911
689.548750	0.337249
689.750870	0.337659
689.952971	0.337364
690.155055	0.337660
690.357120	0.337825
690.559167	0.337874
690.761195	0.337707
690.963206	0.337999
691.165198	0.338056
691.367172	0.338265
691.569128	0.338357
691.771065	0.338923
691.972984	0.339113
692.174885	0.339380
692.376768	0.339787
692.578633	0.340029
692.780479	0.339930
692.982308	0.340205
693.184118	0.340676
693.385909	0.340773
