sample name	sample
index	747
start time	 03-25-2021  04:04:53 PM


Wavelength (nm)	Absorbance
494.344910	0.075209
494.563924	0.075209
494.782919	0.075209
495.001897	-0.125855
495.220856	0.085086
495.439797	0.160656
495.658719	0.205114
495.877624	0.145239
496.096510	0.155674
496.315378	0.148274
496.534227	0.118970
496.753059	0.050372
496.971872	0.077876
497.190667	0.057942
497.409444	0.043991
497.628203	0.044549
497.846943	0.046016
498.065665	0.045892
498.284369	0.045622
498.503055	0.045511
498.721723	0.045658
498.940372	0.045914
499.159003	0.045137
499.377616	0.045720
499.596210	0.045003
499.814787	0.045127
500.033345	0.045213
500.251885	0.044775
500.470406	0.045583
500.688910	0.045748
500.907395	0.044958
501.125862	0.045310
501.344311	0.045506
501.562742	0.046247
501.781154	0.045733
501.999548	0.046044
502.217924	0.047280
502.436282	0.046644
502.654621	0.046940
502.872942	0.047263
503.091245	0.047430
503.309530	0.047208
503.527797	0.046661
503.746045	0.047294
503.964275	0.047736
504.182487	0.047571
504.400681	0.047203
504.618856	0.046398
504.837013	0.046237
505.055152	0.045553
505.273273	0.046364
505.491376	0.047022
505.709460	0.046822
505.927526	0.045984
506.145574	0.046299
506.363604	0.045980
506.581615	0.047230
506.799608	0.047242
507.017583	0.047663
507.235540	0.047290
507.453478	0.046898
507.671399	0.047688
507.889301	0.048086
508.107185	0.047633
508.325050	0.048660
508.542898	0.048002
508.760727	0.047618
508.978538	0.047154
509.196330	0.046514
509.414105	0.046532
509.631861	0.046102
509.849599	0.045867
510.067319	0.045703
510.285021	0.045750
510.502704	0.046001
510.720369	0.046094
510.938016	0.046581
511.155645	0.047290
511.373255	0.047930
511.590848	0.047761
511.808422	0.047438
512.025977	0.047757
512.243515	0.047826
512.461034	0.047090
512.678536	0.047189
512.896018	0.047456
513.113483	0.047128
513.330930	0.046773
513.548358	0.046859
513.765768	0.046823
513.983160	0.046492
514.200533	0.046270
514.417889	0.047292
514.635226	0.048319
514.852545	0.048214
515.069845	0.048374
515.287128	0.048094
515.504392	0.047505
515.721638	0.048283
515.938866	0.048486
516.156075	0.048573
516.373267	0.048312
516.590440	0.047715
516.807594	0.048011
517.024731	0.047295
517.241850	0.048033
517.458950	0.048198
517.676032	0.047668
517.893095	0.048033
518.110141	0.048473
518.327168	0.048319
518.544177	0.048375
518.761168	0.048026
518.978141	0.049148
519.195095	0.049034
519.412031	0.049554
519.628949	0.050025
519.845849	0.049867
520.062731	0.049982
520.279594	0.050448
520.496439	0.050364
520.713266	0.050960
520.930074	0.050849
521.146865	0.051097
521.363637	0.051014
521.580391	0.051476
521.797127	0.051292
522.013844	0.050839
522.230543	0.051177
522.447224	0.051980
522.663887	0.051607
522.880532	0.051863
523.097158	0.051919
523.313766	0.052167
523.530356	0.052031
523.746928	0.052490
523.963481	0.053223
524.180017	0.053297
524.396534	0.053593
524.613032	0.053876
524.829513	0.053564
525.045975	0.053715
525.262420	0.053659
525.478845	0.053851
525.695253	0.054332
525.911643	0.053999
526.128014	0.053566
526.344367	0.053131
526.560702	0.053441
526.777018	0.053977
526.993316	0.054087
527.209597	0.054409
527.425858	0.054564
527.642102	0.054170
527.858328	0.054683
528.074535	0.054945
528.290724	0.055649
528.506894	0.055935
528.723047	0.056096
528.939181	0.056626
529.155297	0.056701
529.371395	0.056778
529.587475	0.057010
529.803536	0.057020
530.019579	0.057523
530.235604	0.057194
530.451611	0.057145
530.667600	0.057110
530.883570	0.056408
531.099522	0.056566
531.315456	0.057020
531.531372	0.057798
531.747269	0.058334
531.963148	0.058373
532.179009	0.058066
532.394852	0.058074
532.610676	0.058610
532.826482	0.059418
533.042271	0.059834
533.258040	0.059745
533.473792	0.059487
533.689525	0.059028
533.905240	0.059045
534.120937	0.059511
534.336616	0.059626
534.552277	0.059435
534.767919	0.059752
534.983543	0.059652
535.199149	0.059306
535.414736	0.059256
535.630306	0.059610
535.845857	0.059841
536.061390	0.060140
536.276904	0.060761
536.492401	0.061466
536.707879	0.061089
536.923339	0.061263
537.138781	0.062128
537.354204	0.062496
537.569610	0.062568
537.784997	0.062750
538.000366	0.062943
538.215716	0.062508
538.431049	0.062214
538.646363	0.062524
538.861659	0.062661
539.076937	0.062409
539.292196	0.062150
539.507438	0.062375
539.722661	0.062334
539.937866	0.062823
540.153052	0.063055
540.368221	0.063210
540.583371	0.063179
540.798503	0.063533
541.013617	0.063751
541.228712	0.064289
541.443789	0.064317
541.658848	0.064802
541.873889	0.064409
542.088912	0.064488
542.303916	0.064647
542.518902	0.065249
542.733870	0.065276
542.948820	0.065646
543.163752	0.065864
543.378665	0.066688
543.593560	0.066717
543.808437	0.067311
544.023295	0.067721
544.238136	0.067652
544.452958	0.067331
544.667762	0.067578
544.882548	0.067500
545.097315	0.067721
545.312064	0.067146
545.526795	0.067121
545.741508	0.067122
545.956203	0.067044
546.170879	0.067369
546.385537	0.067716
546.600177	0.067800
546.814799	0.068028
547.029402	0.068008
547.243988	0.068292
547.458555	0.068617
547.673103	0.068670
547.887634	0.068751
548.102146	0.068692
548.316640	0.068597
548.531116	0.068913
548.745574	0.068636
548.960013	0.068720
549.174435	0.068640
549.388838	0.068726
549.603222	0.069099
549.817589	0.069456
550.031937	0.069278
550.246267	0.069649
550.460579	0.069340
550.674873	0.069967
550.889148	0.069691
551.103405	0.069786
551.317644	0.069912
551.531865	0.069948
551.746068	0.070168
551.960252	0.070639
552.174418	0.070924
552.388566	0.071303
552.602696	0.071659
552.816807	0.072297
553.030900	0.072385
553.244975	0.072307
553.459032	0.072101
553.673070	0.072074
553.887091	0.072347
554.101093	0.072282
554.315077	0.072380
554.529042	0.072053
554.742990	0.072016
554.956919	0.072140
555.170830	0.072642
555.384722	0.072937
555.598597	0.073125
555.812453	0.073382
556.026291	0.073461
556.240111	0.073497
556.453913	0.073575
556.667696	0.073985
556.881461	0.074111
557.095208	0.074066
557.308937	0.074123
557.522647	0.074332
557.736339	0.074276
557.950013	0.074388
558.163669	0.074152
558.377307	0.074155
558.590926	0.074223
558.804527	0.074343
559.018110	0.074472
559.231675	0.074159
559.445221	0.074085
559.658749	0.074121
559.872259	0.074320
560.085751	0.075224
560.299225	0.075675
560.512680	0.075611
560.726117	0.076235
560.939536	0.076088
561.152937	0.076660
561.366319	0.076876
561.579683	0.076818
561.793029	0.076886
562.006357	0.076650
562.219667	0.076701
562.432958	0.076782
562.646231	0.076581
562.859486	0.076906
563.072723	0.077162
563.285941	0.077146
563.499141	0.077596
563.712323	0.077460
563.925487	0.077085
564.138632	0.076760
564.351760	0.076878
564.564869	0.076931
564.777960	0.077026
564.991032	0.076855
565.204087	0.076963
565.417123	0.077024
565.630141	0.077248
565.843140	0.077579
566.056122	0.077565
566.269085	0.077690
566.482030	0.077647
566.694957	0.077717
566.907866	0.078077
567.120756	0.078050
567.333628	0.077994
567.546482	0.078073
567.759318	0.078236
567.972135	0.078784
568.184935	0.078879
568.397716	0.078887
568.610478	0.079055
568.823223	0.078727
569.035949	0.078684
569.248657	0.078715
569.461347	0.078633
569.674019	0.078672
569.886672	0.078837
570.099308	0.078642
570.311925	0.078931
570.524523	0.079083
570.737104	0.079147
570.949666	0.079547
571.162210	0.079876
571.374736	0.079840
571.587244	0.079863
571.799733	0.079756
572.012205	0.080123
572.224658	0.080041
572.437092	0.079825
572.649509	0.080119
572.861907	0.080067
573.074287	0.080000
573.286649	0.080431
573.498993	0.080331
573.711318	0.080489
573.923625	0.080237
574.135914	0.080478
574.348185	0.080419
574.560438	0.080430
574.772672	0.080808
574.984888	0.080738
575.197086	0.081371
575.409266	0.081862
575.621427	0.081992
575.833570	0.082218
576.045695	0.082404
576.257802	0.082518
576.469890	0.082453
576.681961	0.082374
576.894013	0.082495
577.106046	0.082074
577.318062	0.082014
577.530059	0.081899
577.742039	0.082060
577.954000	0.082153
578.165942	0.082372
578.377867	0.082850
578.589773	0.082829
578.801661	0.082653
579.013531	0.083054
579.225382	0.083174
579.437216	0.083457
579.649031	0.083881
579.860828	0.083985
580.072606	0.084287
580.284367	0.084358
580.496109	0.084642
580.707833	0.084982
580.919539	0.084793
581.131227	0.085126
581.342896	0.085317
581.554547	0.085160
581.766180	0.085297
581.977795	0.085031
582.189391	0.084979
582.400969	0.085060
582.612529	0.085486
582.824071	0.085711
583.035595	0.085737
583.247100	0.086007
583.458587	0.086242
583.670056	0.086559
583.881506	0.087350
584.092939	0.087707
584.304353	0.087643
584.515749	0.087511
584.727127	0.087605
584.938486	0.087719
585.149828	0.087511
585.361151	0.087533
585.572456	0.087390
585.783742	0.087199
585.995011	0.087287
586.206261	0.087472
586.417493	0.087833
586.628706	0.087703
586.839902	0.087855
587.051079	0.088054
587.262238	0.088072
587.473379	0.087928
587.684502	0.088280
587.895606	0.088459
588.106692	0.088709
588.317760	0.088588
588.528810	0.088848
588.739841	0.088867
588.950855	0.088905
589.161850	0.089254
589.372827	0.089629
589.583785	0.089494
589.794726	0.089513
590.005648	0.089723
590.216552	0.090033
590.427437	0.090328
590.638305	0.090283
590.849154	0.090419
591.059985	0.090055
591.270798	0.090063
591.481592	0.090221
591.692369	0.089995
591.903127	0.090131
592.113867	0.090019
592.324588	0.090081
592.535292	0.090238
592.745977	0.090301
592.956644	0.090633
593.167293	0.090724
593.377923	0.090634
593.588536	0.090988
593.799130	0.090929
594.009706	0.091103
594.220263	0.090832
594.430803	0.090897
594.641324	0.091065
594.851827	0.091272
595.062312	0.091330
595.272778	0.091534
595.483227	0.091588
595.693657	0.091632
595.904069	0.091754
596.114462	0.091920
596.324838	0.092077
596.535195	0.092241
596.745534	0.092161
596.955855	0.092268
597.166157	0.092276
597.376441	0.092347
597.586707	0.092279
597.796955	0.092274
598.007185	0.092295
598.217396	0.092370
598.427589	0.092572
598.637764	0.092867
598.847921	0.092975
599.058060	0.093134
599.268180	0.093146
599.478282	0.093403
599.688366	0.093694
599.898431	0.094239
600.108479	0.094689
600.318508	0.094741
600.528519	0.094763
600.738511	0.094936
600.948486	0.095199
601.158442	0.095348
601.368380	0.095233
601.578300	0.095275
601.788202	0.095176
601.998085	0.095103
602.207950	0.094958
602.417797	0.095188
602.627626	0.095278
602.837436	0.095285
603.047228	0.095117
603.257002	0.095387
603.466758	0.095290
603.676496	0.095397
603.886215	0.095523
604.095916	0.095842
604.305599	0.095794
604.515264	0.095708
604.724910	0.095618
604.934538	0.096121
605.144148	0.096236
605.353740	0.096310
605.563314	0.096225
605.772869	0.096324
605.982406	0.096545
606.191925	0.096922
606.401425	0.097198
606.610908	0.097363
606.820372	0.097592
607.029818	0.097658
607.239246	0.097718
607.448655	0.097944
607.658047	0.097711
607.867420	0.097765
608.076775	0.097590
608.286111	0.097972
608.495430	0.097966
608.704730	0.097565
608.914012	0.097666
609.123275	0.097624
609.332521	0.097613
609.541748	0.097977
609.750957	0.097875
609.960148	0.098052
610.169321	0.097762
610.378475	0.097948
610.587611	0.098192
610.796729	0.098294
611.005829	0.098758
611.214910	0.098780
611.423974	0.098784
611.633019	0.098692
611.842045	0.098756
612.051054	0.099073
612.260044	0.099329
612.469017	0.099557
612.677970	0.099942
612.886906	0.100161
613.095824	0.100330
613.304723	0.100183
613.513604	0.100484
613.722467	0.100647
613.931311	0.100607
614.140138	0.100649
614.348946	0.100627
614.557736	0.100468
614.766507	0.100196
614.975261	0.100275
615.183996	0.100610
615.392713	0.100571
615.601412	0.100503
615.810092	0.100488
616.018754	0.100370
616.227399	0.100317
616.436024	0.100119
616.644632	0.100340
616.853222	0.100532
617.061793	0.100567
617.270346	0.100674
617.478880	0.100853
617.687397	0.100660
617.895895	0.100546
618.104375	0.100659
618.312837	0.100947
618.521281	0.100785
618.729706	0.100787
618.938113	0.100773
619.146502	0.100771
619.354873	0.100833
619.563226	0.101131
619.771560	0.101464
619.979876	0.101797
620.188174	0.101863
620.396453	0.102264
620.604715	0.102258
620.812958	0.102279
621.021183	0.102435
621.229390	0.102464
621.437578	0.102644
621.645748	0.102535
621.853900	0.102512
622.062034	0.102595
622.270150	0.102616
622.478247	0.102827
622.686326	0.103153
622.894387	0.103456
623.102430	0.103650
623.310454	0.103712
623.518461	0.104115
623.726449	0.104354
623.934418	0.104366
624.142370	0.104513
624.350303	0.104581
624.558218	0.104820
624.766115	0.104554
624.973994	0.104635
625.181855	0.104779
625.389697	0.104713
625.597521	0.104540
625.805327	0.104751
626.013114	0.104867
626.220883	0.104840
626.428634	0.104571
626.636367	0.104727
626.844082	0.104395
627.051778	0.104727
627.259457	0.104827
627.467117	0.105097
627.674758	0.105163
627.882382	0.105097
628.089987	0.105561
628.297574	0.105655
628.505143	0.106023
628.712694	0.106457
628.920226	0.106374
629.127740	0.106674
629.335236	0.106632
629.542714	0.106928
629.750174	0.107109
629.957615	0.107035
630.165038	0.107244
630.372443	0.107321
630.579829	0.107337
630.787198	0.107415
630.994548	0.107336
631.201880	0.107420
631.409194	0.107326
631.616489	0.107180
631.823766	0.107228
632.031025	0.107269
632.238266	0.107079
632.445489	0.107324
632.652693	0.107469
632.859879	0.107621
633.067047	0.107723
633.274197	0.107798
633.481329	0.108121
633.688442	0.108319
633.895537	0.108631
634.102614	0.108909
634.309672	0.109067
634.516713	0.109056
634.723735	0.108916
634.930739	0.109170
635.137724	0.109403
635.344692	0.109429
635.551641	0.109235
635.758572	0.109328
635.965485	0.109240
636.172379	0.109346
636.379256	0.109503
636.586114	0.109780
636.792954	0.109920
636.999775	0.109829
637.206579	0.110167
637.413364	0.110463
637.620131	0.110391
637.826880	0.110591
638.033610	0.110541
638.240323	0.110475
638.447017	0.110583
638.653692	0.110567
638.860350	0.110698
639.066990	0.110783
639.273611	0.110825
639.480214	0.110810
639.686798	0.111136
639.893365	0.111098
640.099913	0.111363
640.306443	0.111696
640.512955	0.111662
640.719449	0.111642
640.925924	0.111338
641.132381	0.111285
641.338820	0.111288
641.545241	0.111040
641.751644	0.111150
641.958028	0.111021
642.164394	0.110771
642.370742	0.110942
642.577071	0.111147
642.783383	0.111181
642.989676	0.111359
643.195951	0.111578
643.402207	0.111791
643.608446	0.111907
643.814666	0.112214
644.020868	0.112455
644.227052	0.112584
644.433218	0.112636
644.639365	0.113041
644.845494	0.112997
645.051605	0.113101
645.257698	0.113130
645.463772	0.113486
645.669828	0.113406
645.875866	0.113585
646.081886	0.113510
646.287888	0.113565
646.493871	0.113617
646.699836	0.113768
646.905783	0.113949
647.111712	0.114027
647.317622	0.113721
647.523514	0.114000
647.729388	0.113933
647.935244	0.114188
648.141082	0.114326
648.346901	0.114516
648.552702	0.114721
648.758485	0.114936
648.964250	0.115100
649.169996	0.115438
649.375724	0.115452
649.581434	0.115740
649.787126	0.115930
649.992800	0.116278
650.198455	0.116035
650.404092	0.116056
650.609711	0.115880
650.815311	0.116059
651.020894	0.116189
651.226458	0.116441
651.432004	0.116295
651.637532	0.116417
651.843041	0.116421
652.048532	0.116823
652.254006	0.117098
652.459460	0.117605
652.664897	0.117720
652.870315	0.118048
653.075716	0.117881
653.281097	0.118086
653.486461	0.118096
653.691807	0.117969
653.897134	0.117827
654.102443	0.117759
654.307734	0.117690
654.513006	0.117893
654.718261	0.117871
654.923497	0.118171
655.128715	0.118240
655.333915	0.118297
655.539096	0.118471
655.744259	0.118656
655.949404	0.118787
656.154531	0.118812
656.359640	0.118856
656.564730	0.118622
656.769802	0.118506
656.974856	0.118528
657.179892	0.118664
657.384909	0.119034
657.589908	0.119232
657.794889	0.119351
657.999852	0.119525
658.204797	0.119593
658.409723	0.120010
658.614631	0.120334
658.819521	0.120521
659.024393	0.120631
659.229246	0.120734
659.434081	0.120748
659.638898	0.120884
659.843697	0.120774
660.048478	0.121011
660.253240	0.121053
660.457984	0.121158
660.662710	0.121169
660.867417	0.121247
661.072107	0.121211
661.276778	0.121383
661.481431	0.121575
661.686066	0.121838
661.890682	0.121895
662.095281	0.121725
662.299861	0.121584
662.504422	0.121811
662.708966	0.121916
662.913491	0.122074
663.117999	0.122194
663.322488	0.122325
663.526958	0.122593
663.731411	0.122561
663.935845	0.122722
664.140261	0.123077
664.344659	0.123384
664.549038	0.123605
664.753400	0.123673
664.957743	0.123838
665.162068	0.123890
665.366375	0.123729
665.570663	0.124045
665.774933	0.124329
665.979185	0.124259
666.183419	0.124529
666.387635	0.124597
666.591832	0.124676
666.796011	0.124939
667.000172	0.125015
667.204315	0.125420
667.408439	0.125440
667.612545	0.125611
667.816634	0.126032
668.020703	0.125862
668.224755	0.126194
668.428788	0.126259
668.632803	0.126222
668.836800	0.126469
669.040779	0.126474
669.244739	0.126653
669.448681	0.126774
669.652605	0.126775
669.856511	0.126961
670.060399	0.126939
670.264268	0.127131
670.468119	0.127184
670.671952	0.127219
670.875767	0.127165
671.079563	0.127258
671.283341	0.127534
671.487101	0.127648
671.690843	0.127762
671.894567	0.127703
672.098272	0.127937
672.301959	0.128056
672.505628	0.128149
672.709278	0.128318
672.912911	0.128387
673.116525	0.128275
673.320121	0.128248
673.523699	0.128253
673.727258	0.128435
673.930799	0.128305
674.134322	0.128350
674.337827	0.128461
674.541314	0.128459
674.744782	0.128521
674.948232	0.128723
675.151664	0.128978
675.355078	0.129206
675.558474	0.129357
675.761851	0.129803
675.965210	0.130103
676.168551	0.130259
676.371873	0.130545
676.575178	0.130702
676.778464	0.130683
676.981732	0.130837
677.184981	0.130930
677.388213	0.131030
677.591426	0.131096
677.794621	0.131088
677.997798	0.131272
678.200956	0.131391
678.404097	0.131351
678.607219	0.131639
678.810323	0.131644
679.013408	0.131620
679.216476	0.131760
679.419525	0.131898
679.622556	0.132252
679.825569	0.132420
680.028563	0.132706
680.231540	0.132969
680.434498	0.133025
680.637438	0.133326
680.840359	0.133696
681.043263	0.133802
681.246148	0.133849
681.449015	0.133844
681.651864	0.133928
681.854694	0.133959
682.057506	0.134091
682.260301	0.134261
682.463076	0.134324
682.665834	0.134317
682.868573	0.134453
683.071295	0.134594
683.273998	0.134620
683.476682	0.134702
683.679349	0.134779
683.881997	0.135004
684.084627	0.135052
684.287239	0.135152
684.489833	0.135241
684.692408	0.135360
684.894965	0.135409
685.097504	0.135675
685.300025	0.135734
685.502527	0.135815
685.705012	0.135649
685.907478	0.135805
686.109925	0.135814
686.312355	0.135891
686.514766	0.135928
686.717159	0.135880
686.919534	0.135819
687.121891	0.135877
687.324230	0.136035
687.526550	0.136412
687.728852	0.136591
687.931136	0.136840
688.133401	0.136920
688.335649	0.137147
688.537878	0.137507
688.740089	0.137811
688.942281	0.138220
689.144456	0.138367
689.346612	0.138456
689.548750	0.138543
689.750870	0.138784
689.952971	0.139151
690.155055	0.139378
690.357120	0.139441
690.559167	0.139624
690.761195	0.139540
690.963206	0.139776
691.165198	0.139894
691.367172	0.139998
691.569128	0.139823
691.771065	0.139894
691.972984	0.139774
692.174885	0.139900
692.376768	0.139796
692.578633	0.139827
692.780479	0.139841
692.982308	0.139726
693.184118	0.139861
693.385909	0.140119
