sample name	sample
index	244
start time	 02-22-2021  11:38:36 AM
880	0.144383
Peak Time (s)	92.537
Peak Height 	0.1444
calc peak height	90,93
Baseline Time (s)	8.535
Baseline Value 	-0.002794
subtract baseline	10,4
Abs	0.144939
Peak Time (s)	90.535
Peak Height 	0.1449
calc peak height	90,93
Baseline Time (s)	9.536
Baseline Value 	0.003846
subtract baseline	10,3
PK_550	0.078923
Peak Time (s)	90.535
Peak Height 	0.07892
calc peak height	90,93
Baseline Time (s)	11.537
Baseline Value 	-3.7319E-6
subtract baseline	10,2
PK_880	0.146887
Peak Time (s)	90.035
Peak Height 	0.1469
calc peak height	90,93
Baseline Time (s)	10.536
Baseline Value 	0.001673
subtract baseline	10,1


Time (s)	A880-A510	A880-A775	A880-A975	A880	I510	I775	I975	I880	
0.041000	-0.000482	0.000964	-0.002316	0.002182	6903.912569	46813.310646	4004.410097	24652.354704
0.536000	-0.003503	0.000900	-0.001745	0.005436	6846.243665	46479.039891	3997.316526	24489.725712
1.036000	-0.003501	-0.000149	-0.004175	0.004346	6856.222295	46483.167155	3993.793332	24544.092027
1.536500	-0.000095	0.000118	-0.004692	0.000542	6922.722416	46893.625731	4002.458898	24734.764646
2.037000	-0.000002	-0.000232	-0.000885	0.000332	6925.538104	46879.467988	4013.141918	24745.337504
2.536000	-0.000695	0.000022	-0.002023	0.000557	6917.004622	46882.441605	4009.508436	24734.036032
3.037000	0.001066	0.000263	0.001734	-0.001438	6952.044207	47109.550195	4024.929168	24834.721880
3.534500	-0.000830	-0.000644	-0.004920	-0.000495	6925.531484	46921.521391	4004.606109	24787.070435
4.035500	-0.001096	0.000136	-0.001846	0.000331	6915.383333	46916.901258	4010.583505	24745.427896
4.534500	-0.000642	0.000991	0.000006	0.001072	6912.714190	46928.437993	4013.544635	24708.089110
5.035000	-0.002002	-0.000573	-0.004910	-0.000024	6910.268966	46881.032690	4003.382882	24763.285504
5.536000	-0.002457	-0.000571	-0.001455	-0.000153	6907.250208	46894.310715	4012.918484	24769.831918
6.036000	-0.001679	-0.000416	0.003049	-0.000064	6913.633187	46900.938009	4024.768994	24765.312876
6.536500	-0.002630	-0.000129	-0.003873	-0.000055	6904.743767	46929.215354	4006.215373	24764.873307
7.037000	0.000020	0.000180	0.005274	0.000515	6924.041374	46902.771201	4029.222024	24736.161470
7.537000	-0.001379	-0.000283	-0.001412	0.000132	6914.601049	46894.613903	4012.271057	24755.458673
8.034500	-0.001164	-0.001006	-0.006519	-0.000573	6923.154839	46892.826415	4000.579826	24791.020442
8.535000	-0.001180	0.000268	-0.002767	0.000000	6917.677664	46963.865970	4009.010391	24762.092774
9.041000	-0.001500	-0.000392	-0.001296	0.000478	6910.269262	46848.473905	4011.657145	24738.001169
9.535500	-0.001053	0.000209	0.000000	0.000266	6916.388252	46930.913761	4015.688094	24748.705333
10.036000	0.000011	0.000178	0.000403	0.000349	6925.501888	46919.331397	4016.542120	24744.489170
10.536000	0.000000	-0.000109	-0.004066	-0.000366	6932.061354	46962.788130	4006.527855	24780.560415
11.036000	0.000768	-0.000075	0.000678	-0.000108	6936.820129	46940.043887	4018.508638	24767.560531
11.537000	0.000790	0.000000	0.002835	-0.000021	6936.214085	46938.810241	4024.077396	24763.163073
12.039500	-0.001432	0.000366	-0.001713	-0.000187	6917.069743	46992.837363	4012.318550	24771.538241
12.537000	-0.000018	0.000364	-0.008439	0.000229	6926.358631	46950.422691	3993.407382	24750.574361
13.035000	-0.004859	-0.000192	-0.000462	0.004170	6845.432082	46496.528475	4004.057489	24552.881253
13.535000	-0.000347	-0.000611	0.001044	-0.000719	6932.114468	46947.651552	4021.133859	24798.375008
14.035000	-0.001688	0.000125	-0.001618	0.000147	6911.595978	46934.425750	4011.681795	24754.695077
14.535500	-0.001439	-0.000412	-0.002019	0.002363	6893.391681	46656.089723	4004.718429	24643.276790
15.036000	-0.004900	-0.000774	-0.004784	0.004958	6837.866314	46359.112767	3990.589677	24513.538321
15.549000	-0.000258	0.000248	-0.004311	0.000131	6925.021490	46948.444771	4004.557050	24755.466945
16.039000	0.000090	-0.000377	0.000705	-0.001011	6938.909711	47000.949653	4021.004015	24813.106450
16.537000	0.000735	0.000452	-0.003761	-0.000034	6935.820942	46986.016214	4006.455953	24763.806979
17.034000	-0.003671	-0.000103	-0.002567	0.004674	6851.667923	46454.865639	3997.159347	24527.711773
17.536500	0.001554	-0.000356	-0.003887	-0.003335	6974.434586	47239.753328	4014.919860	24930.852286
18.034000	-0.000572	-0.000293	-0.001478	-0.001539	6937.664865	47063.246133	4016.562329	24839.825300
18.534500	-0.000883	-0.000039	0.000015	0.001063	6910.567096	46825.016772	4013.595502	24708.571456
19.035500	-0.002251	-0.000427	-0.001917	0.001445	6894.379998	46747.283566	4007.427859	24689.383953
19.535500	-0.002500	-0.000022	0.000098	0.001352	6892.929366	46797.446457	4013.043421	24694.015260
20.036500	0.000101	0.000220	-0.006103	0.001343	6917.105910	46822.980167	3996.621847	24694.509606
20.536000	-0.002484	-0.000077	-0.000680	0.001282	6893.728992	46799.081729	4011.153918	24697.547779
21.036000	-0.000171	0.000143	-0.001270	0.001675	6911.495086	46781.599938	4008.537046	24677.804539
21.536500	-0.002783	-0.000387	-0.001541	0.000902	6894.470811	46806.091276	4009.872903	24716.653637
22.040000	-0.001457	-0.000105	-0.001360	0.001174	6904.217863	46807.139068	4009.631050	24702.976852
22.534500	-0.002235	-0.000521	0.003353	0.000779	6900.677896	46805.084519	4023.317649	24722.864421
23.034500	-0.001361	-0.000179	0.000809	0.001216	6904.720891	46795.473207	4015.309649	24700.888174
23.535000	-0.001579	0.000075	-0.003372	0.001275	6902.160199	46815.211587	4004.016469	24697.922734
24.041500	-0.000172	0.000167	0.000470	0.001389	6914.131076	46812.926525	4013.938400	24692.162592
24.536000	-0.001456	-0.000394	-0.000826	0.001091	6904.996936	46786.367691	4011.275481	24707.163742
25.036500	-0.001611	0.000151	-0.002941	0.001607	6898.793853	46789.215478	4004.277413	24681.229520
25.536500	-0.000134	0.000379	-0.000930	0.001276	6915.537488	46845.769107	4010.503874	24697.855141
26.037000	-0.000139	0.000086	-0.002969	0.001312	6915.154078	46812.491005	4004.984709	24696.031382
26.536500	-0.001929	0.000075	0.001214	0.001173	6899.867005	46825.421237	4016.510188	24703.035174
27.037000	-0.002529	-0.000444	-0.000821	0.000983	6896.074313	46792.178695	4011.576756	24712.613963
27.535000	-0.001316	-0.000400	-0.001605	0.000676	6910.144012	46827.712251	4010.306570	24728.057988
28.035000	-0.002894	-0.000124	-0.003578	0.003249	6871.839615	46595.903146	3998.251922	24598.886147
28.535500	0.000832	-0.000237	0.002559	0.000263	6933.957058	46885.979009	4022.567525	24748.850556
29.052000	-0.001680	0.000022	0.004203	0.000063	6912.451485	46932.549180	4027.544387	24758.931688
29.535500	-0.000565	0.000420	-0.000928	0.000146	6922.031488	46964.478095	4013.526526	24754.726781
30.036000	-0.006267	-0.000238	-0.001773	0.004645	6828.286806	46444.240685	3999.331277	24529.169148
30.537000	-0.000293	0.000302	0.003281	-0.000130	6927.132416	46980.428967	4025.573806	24768.636154
31.036000	-0.003684	-0.001338	-0.006211	0.004911	6849.390984	46307.492163	3986.982256	24515.918452
31.537000	-0.000823	0.000176	-0.001966	0.002645	6896.472150	46686.972513	4004.109630	24629.131102
32.034500	-0.001130	0.000084	-0.000126	0.004409	6877.392780	46500.263561	4004.313544	24540.947728
32.553000	-0.000585	-0.000253	0.004029	-0.000229	6925.332714	46934.190677	4027.861137	24773.620366
33.035000	-0.005375	-0.000981	-0.007607	0.004377	6838.842625	46396.701330	3984.731522	24542.540228
33.535000	-0.001731	0.000392	-0.000685	0.000029	6912.286708	46973.455967	4014.488672	24760.624270
34.036000	-0.002867	-0.000660	-0.005395	0.004097	6864.307890	46456.905650	3991.244988	24556.524831
34.536000	-0.000577	0.000081	-0.006128	0.000055	6922.771775	46939.293314	3999.952780	24759.336879
35.036000	-0.002826	-0.000486	-0.007088	0.002259	6881.565620	46659.079179	3991.624104	24648.478965
35.536500	-0.001980	0.000188	-0.000844	0.001828	6893.339506	46770.632813	4009.261246	24670.115330
36.036500	-0.001493	-0.000363	-0.006372	0.002885	6888.084522	46608.517903	3991.862119	24617.136002
36.534500	-0.000949	-0.000116	-0.002231	0.001333	6907.445619	46789.910148	4006.890359	24694.973538
37.037000	-0.001238	0.000541	-0.002360	0.002380	6895.099385	46750.595785	4003.769503	24642.438476
37.537000	-0.000455	-0.000212	0.001567	0.001740	6908.256856	46739.122662	4015.937383	24674.552252
38.035000	-0.001995	0.000006	0.001547	0.002074	6890.930300	46727.427339	4014.987854	24657.771534
38.536000	-0.000511	0.000131	-0.007225	0.002215	6903.339233	46725.788313	3991.380753	24650.706014
39.035000	-0.001253	-0.000112	-0.004656	0.002454	6894.276142	46677.222828	3997.507289	24638.736424
39.536000	-0.001844	0.000057	-0.002002	0.001634	6896.391219	46777.094633	4006.698185	24679.881608
40.036500	-0.001876	-0.000073	-0.002279	0.001562	6896.754964	46771.134306	4006.155349	24683.489145
40.537000	-0.002210	-0.000103	-0.000644	0.001735	6892.074797	46750.681021	4010.043905	24674.800865
41.036500	-0.002816	-0.000075	-0.000563	0.001790	6885.984514	46747.975545	4010.113483	24672.042174
41.534500	0.000531	0.000544	0.000685	0.002531	6910.066243	46735.704919	4011.465487	24634.883392
42.035000	-0.001664	-0.000032	-0.000413	0.001745	6897.022659	46756.781352	4010.630464	24674.285347
42.535500	0.000136	-0.000380	-0.004095	0.002046	6910.903173	46691.373741	4000.063671	24659.206049
43.035500	-0.001609	-0.000034	-0.002963	0.002237	6892.991621	46706.925165	4002.550183	24649.596129
43.536000	-0.001210	0.000079	-0.004210	0.002170	6897.290848	46725.088259	3999.430153	24652.950387
44.036000	-0.001642	-0.000124	-0.002788	0.003540	6880.679578	46566.665038	3999.570049	24584.355040
44.536500	-0.000797	-0.000845	-0.002188	-0.001538	6935.550332	47006.996004	4014.657419	24839.751452
45.036500	-0.003839	-0.000520	-0.004799	0.004259	6853.925939	46454.655744	3992.382870	24548.430797
45.536500	-0.000844	-0.000645	0.002308	-0.000485	6925.312456	46920.436483	4023.909097	24786.582948
46.040000	-0.000052	-0.000708	-0.000312	-0.000262	6930.606670	46891.410762	4016.264806	24775.284904
46.535000	-0.000852	0.000315	-0.003111	0.000008	6920.650917	46967.782715	4008.074305	24761.693394
47.035000	-0.002985	-0.000314	-0.002201	0.004824	6856.574923	46418.640159	3997.729002	24520.231896
47.535500	-0.002136	0.000211	-0.000279	0.000029	6908.531270	46955.108686	4015.574414	24760.613105
48.052500	-0.003669	-0.000260	-0.005100	0.004436	6853.871787	46462.983587	3991.130551	24539.604872
48.536000	-0.002064	-0.000538	-0.000020	0.002255	6888.623666	46654.334993	4010.320392	24648.690313
49.036500	-0.003946	-0.000114	-0.006997	0.004773	6848.252465	46443.791121	3985.287423	24522.766605
49.557500	-0.000181	-0.000462	0.001061	-0.000081	6927.722600	46898.056055	4019.463951	24766.180823
50.037000	-0.003326	0.000456	-0.000144	0.004900	6852.756243	46488.266880	4002.963933	24516.439025
50.537000	-0.002818	0.000323	-0.003619	0.000212	6900.531993	46947.956298	4006.181789	24751.421581
51.037500	-0.003762	-0.000081	-0.001463	0.005031	6847.583969	46421.276238	3999.129549	24509.915380
51.535000	-0.001292	0.000493	0.002174	0.000580	6911.247648	46927.841816	4020.678245	24732.867879
52.035500	-0.005526	-0.000977	-0.000517	0.006989	6813.754990	46136.216658	3996.461810	24412.552451
52.535500	-0.007258	-0.014223	0.023166	0.242991	5157.126254	27253.276933	3554.241754	15379.817534
53.035500	-0.040705	-0.030308	-0.003105	0.002347	6546.923903	43746.555295	4001.882478	24644.078589
53.536000	-0.031073	-0.028175	-0.004369	-0.087613	7491.042097	53396.245358	4262.231363	29656.212693
54.036000	-0.019248	-0.034417	0.005044	-0.143496	8268.319708	59511.470320	4490.888337	33334.916697
54.537000	-0.009630	-0.020687	0.000537	-0.105775	7930.940171	56468.789575	4339.119109	30800.305672
55.034000	-0.010265	-0.015504	-0.000865	-0.089453	7737.667894	55112.151594	4279.681357	29769.938736
55.536500	0.001094	-0.009395	0.013430	-0.065217	7595.877198	52977.546025	4247.393128	28309.769169
56.034500	0.008414	-0.005211	0.014177	-0.053439	7547.754502	52109.452105	4212.419964	27629.036590
56.535000	0.017436	-0.001427	0.018747	-0.036589	7464.438265	50650.832819	4174.513401	26686.697877
57.035000	0.024705	0.002578	0.024826	-0.039820	7576.523808	51453.036769	4203.151313	26864.522067
57.535500	0.034526	0.007402	0.027899	-0.007630	7340.947521	48487.693866	4115.589548	25150.155525
58.035500	0.039425	0.011489	0.043538	0.017414	7138.938199	46339.884119	4088.539039	23901.545362
58.536000	0.052478	0.017414	0.061063	0.031241	7131.358399	45556.573310	4099.105384	23242.383359
59.036500	0.064053	0.024328	0.068746	0.061400	6953.435450	43333.165235	4036.248185	21875.444280
59.537000	0.071626	0.031566	0.076493	0.084325	6812.089332	41898.524185	3995.604926	20898.069274
60.036500	0.083916	0.039254	0.087207	0.097927	6800.248942	41371.085514	3988.031040	20342.113094
60.537000	0.090116	0.043965	0.089637	0.105127	6791.241436	41151.194261	3975.630860	20054.781192
61.035500	0.096381	0.049556	0.103969	0.116616	6744.512799	40635.054158	3983.005273	19606.028848
61.538000	0.104230	0.055541	0.108278	0.127178	6720.472227	40239.439354	3966.849358	19203.843366
62.037500	0.107953	0.056567	0.115433	0.122856	6792.209841	40702.127949	3996.682473	19367.250663
62.536000	0.112069	0.061757	0.121645	0.138461	6690.173977	39806.250432	3972.206387	18784.881375
63.039000	0.113323	0.064252	0.124304	0.117541	6889.561587	41850.947805	4034.660869	19570.426110
63.536500	0.120877	0.072835	0.120394	0.112084	7011.383313	43130.981251	4038.877158	19781.636124
64.036500	0.118338	0.071049	0.117255	0.120500	6908.564720	42196.690438	4007.736657	19456.984934
64.537000	0.119141	0.071084	0.121908	0.119185	6928.241636	42319.170878	4023.718713	19507.310368
65.046500	0.125988	0.073483	0.122838	0.122408	6962.124075	42244.344015	4017.551983	19384.264687
65.535000	0.124234	0.074494	0.124989	0.126106	6911.253083	42001.683709	4013.409541	19244.214758
66.038500	0.120477	0.073528	0.123348	0.134046	6804.231609	41207.947312	3988.088138	18947.544446
66.535000	0.126775	0.074162	0.126219	0.132779	6873.118207	41376.025167	3998.957342	18994.518205
67.036000	0.124306	0.075271	0.126858	0.136228	6819.126479	41169.210871	3991.566559	18866.950862
67.535500	0.126267	0.073925	0.127845	0.137195	6828.144757	40965.917314	3991.619147	18831.366386
68.035500	0.125840	0.074591	0.128430	0.141634	6784.198557	40636.586030	3981.555736	18669.011852
68.536500	0.127329	0.075283	0.129250	0.142232	6792.204308	40644.708867	3982.134256	18647.272341
69.037000	0.129164	0.075574	0.133332	0.143422	6798.014939	40566.628490	3989.678242	18604.081792
69.536500	0.129957	0.075826	0.130471	0.144624	6794.331440	40484.406860	3979.093719	18560.604755
70.037500	0.128893	0.076139	0.128339	0.148283	6752.038447	40195.885482	3964.175165	18428.938479
70.538000	0.130146	0.075045	0.134843	0.144817	6794.290925	40400.071794	3989.980275	18553.603582
71.035000	0.129347	0.076481	0.130664	0.150536	6736.044042	40032.033310	3964.358268	18348.395975
71.535500	0.131644	0.077969	0.137207	0.147063	6787.567374	40458.746056	3990.292378	18472.716622
72.036500	0.133522	0.078190	0.136392	0.146970	6805.326155	40485.883928	3988.400998	18476.045193
72.536000	0.132802	0.076369	0.135494	0.145352	6813.442778	40468.336878	3990.286284	18534.315582
73.037000	0.132367	0.076685	0.138750	0.148251	6783.386282	40245.545525	3991.221095	18430.065870
73.536000	0.135043	0.077462	0.140127	0.145218	6834.989211	40574.629670	4002.838393	18539.141054
74.037000	0.134181	0.077122	0.141627	0.144873	6830.287404	40575.081725	4007.734557	18551.582886
74.537000	0.135708	0.077136	0.136015	0.144384	6848.644126	40618.726417	3994.192123	18569.253358
75.037000	0.137053	0.077491	0.138494	0.144917	6856.067993	40603.308697	3999.318883	18550.018088
75.535000	0.135268	0.077343	0.138161	0.143748	6850.429500	40692.029958	4001.525379	18592.261670
76.035500	0.136370	0.076120	0.134628	0.142786	6869.337275	40669.379558	3994.747060	18627.153153
76.535500	0.140297	0.078438	0.139031	0.144512	6889.585945	40720.879989	4001.808992	18564.646988
77.035500	0.134785	0.077414	0.138379	0.147622	6810.843646	40362.507144	3991.895858	18452.614459
77.536000	0.139204	0.078284	0.143258	0.143732	6886.703061	40775.474814	4015.130229	18592.866800
78.036500	0.138445	0.077399	0.140355	0.142920	6887.177382	40769.043408	4009.545325	18622.270675
78.536500	0.139737	0.078181	0.142371	0.143202	6896.507773	40812.730710	4014.175674	18612.079027
79.037500	0.137264	0.077442	0.143093	0.146284	6845.510049	40480.510568	4007.881890	18500.707367
79.537000	0.141125	0.077284	0.148447	0.142896	6912.190362	40761.134257	4031.366067	18623.146291
80.038000	0.140548	0.077997	0.143483	0.144843	6888.848030	40653.656599	4012.761442	18552.681216
80.535000	0.142213	0.078424	0.142517	0.143152	6919.916065	40838.273923	4014.698663	18613.871502
81.035500	0.142540	0.077915	0.141447	0.145671	6899.594517	40574.641792	4005.139323	18522.809620
81.536000	0.140617	0.077705	0.141195	0.142595	6910.271831	40824.157287	4012.654838	18634.083396
82.037500	0.140856	0.078199	0.142625	0.145329	6887.200851	40629.002845	4009.176727	18535.130556
82.536000	0.142742	0.078223	0.146120	0.143119	6925.146295	40823.623494	4024.467253	18615.080532
83.036000	0.142168	0.078562	0.140433	0.147185	6882.196862	40499.486638	3998.450500	18468.324006
83.536500	0.144538	0.077462	0.142622	0.142125	6951.184006	40844.005147	4017.731024	18651.159811
84.037000	0.143153	0.079099	0.144355	0.144603	6915.165887	40770.560210	4015.734898	18561.340679
84.534000	0.142448	0.079189	0.145722	0.143054	6923.013728	40913.823379	4023.571449	18617.439033
85.035500	0.141757	0.078151	0.143181	0.146833	6881.642993	40494.407805	4006.654600	18480.956817
85.535000	0.144451	0.079249	0.142135	0.142522	6946.658785	40965.684805	4015.363820	18636.746829
86.035500	0.146211	0.079617	0.144526	0.143128	6957.469156	40944.800451	4020.151349	18614.761378
86.535500	0.143093	0.078057	0.144367	0.142191	6937.058920	40890.283079	4022.244457	18648.766384
87.036000	0.145681	0.078845	0.144943	0.142579	6957.642382	40925.194786	4022.749199	18634.652132
87.536000	0.144759	0.077541	0.145168	0.141511	6959.021866	40904.658646	4026.240014	18673.505567
88.036500	0.145328	0.078888	0.148696	0.142840	6951.893017	40906.185043	4032.194945	18625.206123
88.537000	0.144543	0.079049	0.147633	0.142584	6946.941747	40942.728708	4030.006559	18634.500586
89.034500	0.145690	0.079180	0.150046	0.143129	6952.578757	40906.462376	4035.081453	18614.720257
89.537500	0.144393	0.077888	0.143654	0.142283	6948.349740	40867.360765	4020.077639	18645.410920
90.035500	0.146887	0.078573	0.144443	0.143016	6964.865997	40863.178441	4020.228793	18618.804756
90.535500	0.143435	0.078923	0.144939	0.143331	6929.617266	40866.228451	4020.715065	18607.377033
91.035500	0.146498	0.077960	0.144550	0.143177	6959.692240	40795.553737	4020.083423	18612.956659
91.536000	0.144244	0.078370	0.143371	0.143653	6934.157606	40789.806710	4015.643682	18595.726566
92.036000	0.144744	0.077620	0.142755	0.143549	6939.796791	40733.555409	4014.275377	18599.499518
92.536500	0.144285	0.077982	0.141876	0.144383	6927.735941	40692.451727	4009.703330	18569.314421
93.037000	0.146216	0.078279	0.147809	0.145395	6936.297536	40630.169254	4022.884361	18532.743055
93.537000	0.146340	0.077282	0.146303	0.145599	6935.554038	40525.960711	4018.286925	18525.384823
94.037500	0.145445	0.077212	0.144202	0.146891	6915.207538	40408.229842	4009.217747	18478.898613
94.535000	0.146054	0.076111	0.142136	0.146172	6927.551548	40375.167385	4005.635871	18504.753455
95.125500	0.144148	0.076212	0.149225	0.146583	6906.039158	40348.486896	4023.499100	18489.964434
95.535500	0.144783	0.075856	0.145359	0.147324	6905.053904	40253.979643	4011.147600	18463.342055
96.035500	0.146357	0.076255	0.143745	0.148886	6905.164875	40154.108150	4002.706604	18407.338965
96.536000	0.145775	0.075688	0.142934	0.148841	6900.192754	40109.291098	4000.680354	18408.950865
97.036000	0.144994	0.075450	0.145109	0.152823	6856.389395	39749.437890	3995.914705	18267.094322
