sample name	sample
index	64
start time	 02-11-2021  03:21:12 PM


Wavelength (nm)	Absorbance
494.344910	-1.761889
494.563924	-1.761889
494.782919	-1.761889
495.001897	NaN
495.220856	-0.237310
495.439797	0.142288
495.658719	NaN
495.877624	NaN
496.096510	NaN
496.315378	NaN
496.534227	NaN
496.753059	NaN
496.971872	NaN
497.190667	0.179121
497.409444	0.166689
497.628203	0.164910
497.846943	0.159698
498.065665	0.156256
498.284369	0.155575
498.503055	0.153906
498.721723	0.152288
498.940372	0.150494
499.159003	0.152786
499.377616	0.151568
499.596210	0.152073
499.814787	0.153544
500.033345	0.155736
500.251885	0.155951
500.470406	0.157776
500.688910	0.158553
500.907395	0.161074
501.125862	0.164173
501.344311	0.166114
501.562742	0.165107
501.781154	0.167748
501.999548	0.165722
502.217924	0.165420
502.436282	0.162945
502.654621	0.162766
502.872942	0.163301
503.091245	0.159097
503.309530	0.158219
503.527797	0.157169
503.746045	0.157321
503.964275	0.158598
504.182487	0.160022
504.400681	0.161811
504.618856	0.163432
504.837013	0.162410
505.055152	0.163232
505.273273	0.164041
505.491376	0.164124
505.709460	0.162466
505.927526	0.161323
506.145574	0.160120
506.363604	0.163281
506.581615	0.162997
506.799608	0.162527
507.017583	0.163369
507.235540	0.163019
507.453478	0.164003
507.671399	0.163229
507.889301	0.164709
508.107185	0.164462
508.325050	0.161264
508.542898	0.162033
508.760727	0.162731
508.978538	0.162397
509.196330	0.163585
509.414105	0.163843
509.631861	0.165570
509.849599	0.165863
510.067319	0.167291
510.285021	0.170079
510.502704	0.168887
510.720369	0.168756
510.938016	0.168391
511.155645	0.168127
511.373255	0.167620
511.590848	0.166963
511.808422	0.166410
512.025977	0.165311
512.243515	0.163109
512.461034	0.163481
512.678536	0.164217
512.896018	0.163678
513.113483	0.163173
513.330930	0.163583
513.548358	0.164241
513.765768	0.164919
513.983160	0.165843
514.200533	0.165842
514.417889	0.165977
514.635226	0.166299
514.852545	0.168680
515.069845	0.170646
515.287128	0.172854
515.504392	0.172154
515.721638	0.171582
515.938866	0.171707
516.156075	0.173741
516.373267	0.174233
516.590440	0.175299
516.807594	0.175020
517.024731	0.175850
517.241850	0.173894
517.458950	0.174452
517.676032	0.176834
517.893095	0.177478
518.110141	0.176492
518.327168	0.178067
518.544177	0.177697
518.761168	0.177476
518.978141	0.174840
519.195095	0.176221
519.412031	0.175757
519.628949	0.173394
519.845849	0.174762
520.062731	0.175693
520.279594	0.174900
520.496439	0.175879
520.713266	0.176473
520.930074	0.177710
521.146865	0.175962
521.363637	0.177292
521.580391	0.178898
521.797127	0.177085
522.013844	0.175979
522.230543	0.177048
522.447224	0.175741
522.663887	0.175660
522.880532	0.176609
523.097158	0.177647
523.313766	0.177008
523.530356	0.177278
523.746928	0.179030
523.963481	0.179670
524.180017	0.177910
524.396534	0.178872
524.613032	0.178973
524.829513	0.177669
525.045975	0.178311
525.262420	0.178036
525.478845	0.178328
525.695253	0.177805
525.911643	0.178634
526.128014	0.181593
526.344367	0.181608
526.560702	0.181950
526.777018	0.181860
526.993316	0.182935
527.209597	0.185030
527.425858	0.185185
527.642102	0.185819
527.858328	0.186312
528.074535	0.185464
528.290724	0.186452
528.506894	0.187208
528.723047	0.189323
528.939181	0.188091
529.155297	0.188518
529.371395	0.188786
529.587475	0.187887
529.803536	0.188993
530.019579	0.190053
530.235604	0.190215
530.451611	0.190412
530.667600	0.190282
530.883570	0.191502
531.099522	0.191017
531.315456	0.191259
531.531372	0.192789
531.747269	0.191956
531.963148	0.190467
532.179009	0.190009
532.394852	0.190522
532.610676	0.191202
532.826482	0.190869
533.042271	0.191204
533.258040	0.191785
533.473792	0.192168
533.689525	0.191743
533.905240	0.192733
534.120937	0.194263
534.336616	0.194862
534.552277	0.195077
534.767919	0.196474
534.983543	0.196482
535.199149	0.196320
535.414736	0.196225
535.630306	0.197224
535.845857	0.197794
536.061390	0.198442
536.276904	0.198167
536.492401	0.197411
536.707879	0.197630
536.923339	0.197380
537.138781	0.197918
537.354204	0.198330
537.569610	0.198783
537.784997	0.199069
538.000366	0.197957
538.215716	0.198138
538.431049	0.198716
538.646363	0.199622
538.861659	0.201644
539.076937	0.201691
539.292196	0.201711
539.507438	0.202178
539.722661	0.201996
539.937866	0.201732
540.153052	0.201632
540.368221	0.201808
540.583371	0.200857
540.798503	0.199672
541.013617	0.199631
541.228712	0.200653
541.443789	0.200473
541.658848	0.200733
541.873889	0.201924
542.088912	0.202508
542.303916	0.203583
542.518902	0.203605
542.733870	0.205014
542.948820	0.205979
543.163752	0.205866
543.378665	0.206290
543.593560	0.206595
543.808437	0.206193
544.023295	0.206282
544.238136	0.206937
544.452958	0.207386
544.667762	0.207841
544.882548	0.208373
545.097315	0.208618
545.312064	0.209204
545.526795	0.208842
545.741508	0.209560
545.956203	0.210148
546.170879	0.209007
546.385537	0.210140
546.600177	0.210153
546.814799	0.209857
547.029402	0.209906
547.243988	0.210510
547.458555	0.211263
547.673103	0.211335
547.887634	0.211415
548.102146	0.212743
548.316640	0.212069
548.531116	0.212434
548.745574	0.212922
548.960013	0.213349
549.174435	0.212374
549.388838	0.213408
549.603222	0.212585
549.817589	0.212818
550.031937	0.212031
550.246267	0.212397
550.460579	0.211469
550.674873	0.212218
550.889148	0.212231
551.103405	0.212864
551.317644	0.212202
551.531865	0.214125
551.746068	0.215099
551.960252	0.216355
552.174418	0.216724
552.388566	0.217408
552.602696	0.217168
552.816807	0.217701
553.030900	0.218534
553.244975	0.219130
553.459032	0.218598
553.673070	0.217788
553.887091	0.217352
554.101093	0.216858
554.315077	0.216923
554.529042	0.216750
554.742990	0.216535
554.956919	0.215381
555.170830	0.215597
555.384722	0.216367
555.598597	0.217477
555.812453	0.217999
556.026291	0.219515
556.240111	0.220524
556.453913	0.220507
556.667696	0.221024
556.881461	0.221869
557.095208	0.221781
557.308937	0.222330
557.522647	0.221422
557.736339	0.221151
557.950013	0.220568
558.163669	0.219922
558.377307	0.220221
558.590926	0.220421
558.804527	0.221421
559.018110	0.221238
559.231675	0.220590
559.445221	0.221909
559.658749	0.222808
559.872259	0.223554
560.085751	0.224302
560.299225	0.224717
560.512680	0.225025
560.726117	0.224546
560.939536	0.226177
561.152937	0.227454
561.366319	0.227007
561.579683	0.226939
561.793029	0.227164
562.006357	0.227259
562.219667	0.227376
562.432958	0.226837
562.646231	0.227519
562.859486	0.227745
563.072723	0.227178
563.285941	0.228371
563.499141	0.228631
563.712323	0.228907
563.925487	0.228343
564.138632	0.228688
564.351760	0.229614
564.564869	0.229476
564.777960	0.228479
564.991032	0.229111
565.204087	0.228746
565.417123	0.228927
565.630141	0.229075
565.843140	0.230436
566.056122	0.230965
566.269085	0.230913
566.482030	0.230978
566.694957	0.231435
566.907866	0.231203
567.120756	0.230551
567.333628	0.230842
567.546482	0.230784
567.759318	0.230399
567.972135	0.230445
568.184935	0.230988
568.397716	0.231055
568.610478	0.231151
568.823223	0.231847
569.035949	0.232614
569.248657	0.232419
569.461347	0.232665
569.674019	0.233129
569.886672	0.232999
570.099308	0.232586
570.311925	0.231919
570.524523	0.232158
570.737104	0.232013
570.949666	0.232036
571.162210	0.232239
571.374736	0.232396
571.587244	0.232463
571.799733	0.233029
572.012205	0.233512
572.224658	0.234620
572.437092	0.235143
572.649509	0.234985
572.861907	0.234746
573.074287	0.234418
573.286649	0.234057
573.498993	0.234149
573.711318	0.233560
573.923625	0.233683
574.135914	0.233380
574.348185	0.233247
574.560438	0.233412
574.772672	0.234622
574.984888	0.235237
575.197086	0.235853
575.409266	0.236304
575.621427	0.236834
575.833570	0.236793
576.045695	0.237131
576.257802	0.237341
576.469890	0.237178
576.681961	0.237064
576.894013	0.237498
577.106046	0.237374
577.318062	0.236583
577.530059	0.237585
577.742039	0.237519
577.954000	0.238257
578.165942	0.238465
578.377867	0.239247
578.589773	0.239451
578.801661	0.239713
579.013531	0.239710
579.225382	0.240487
579.437216	0.240709
579.649031	0.241862
579.860828	0.241799
580.072606	0.242002
580.284367	0.241826
580.496109	0.241512
580.707833	0.241780
580.919539	0.242414
581.131227	0.242713
581.342896	0.242293
581.554547	0.242337
581.766180	0.243242
581.977795	0.243501
582.189391	0.243659
582.400969	0.244349
582.612529	0.243526
582.824071	0.243894
583.035595	0.244162
583.247100	0.243888
583.458587	0.243562
583.670056	0.243321
583.881506	0.243212
584.092939	0.243482
584.304353	0.243404
584.515749	0.243892
584.727127	0.243796
584.938486	0.243842
585.149828	0.243828
585.361151	0.244794
585.572456	0.244354
585.783742	0.244548
585.995011	0.244789
586.206261	0.245297
586.417493	0.245474
586.628706	0.245709
586.839902	0.245694
587.051079	0.246193
587.262238	0.246289
587.473379	0.247336
587.684502	0.246966
587.895606	0.247395
588.106692	0.246407
588.317760	0.246986
588.528810	0.246928
588.739841	0.246744
588.950855	0.247178
589.161850	0.246235
589.372827	0.245390
589.583785	0.246850
589.794726	0.247247
590.005648	0.248013
590.216552	0.248386
590.427437	0.249217
590.638305	0.249813
590.849154	0.250190
591.059985	0.250920
591.270798	0.251415
591.481592	0.251218
591.692369	0.250633
591.903127	0.251085
592.113867	0.251107
592.324588	0.250339
592.535292	0.250326
592.745977	0.249497
592.956644	0.249921
593.167293	0.250118
593.377923	0.250446
593.588536	0.250758
593.799130	0.250310
594.009706	0.249910
594.220263	0.251272
594.430803	0.251426
594.641324	0.252530
594.851827	0.252208
595.062312	0.251991
595.272778	0.251810
595.483227	0.251686
595.693657	0.252409
595.904069	0.252838
596.114462	0.252648
596.324838	0.252791
596.535195	0.252635
596.745534	0.252965
596.955855	0.253549
597.166157	0.252996
597.376441	0.253660
597.586707	0.253732
597.796955	0.254309
598.007185	0.254390
598.217396	0.254762
598.427589	0.255229
598.637764	0.255343
598.847921	0.255511
599.058060	0.257196
599.268180	0.257503
599.478282	0.257812
599.688366	0.257875
599.898431	0.258185
600.108479	0.258136
600.318508	0.258175
600.528519	0.259275
600.738511	0.259837
600.948486	0.259502
601.158442	0.259783
601.368380	0.260046
601.578300	0.260283
601.788202	0.260119
601.998085	0.260179
602.207950	0.259665
602.417797	0.258672
602.627626	0.258295
602.837436	0.258097
603.047228	0.257868
603.257002	0.257977
603.466758	0.257951
603.676496	0.258043
603.886215	0.257996
604.095916	0.258623
604.305599	0.258630
604.515264	0.258800
604.724910	0.258750
604.934538	0.258667
605.144148	0.259386
605.353740	0.259482
605.563314	0.259668
605.772869	0.260630
605.982406	0.260999
606.191925	0.261567
606.401425	0.261820
606.610908	0.262708
606.820372	0.263186
607.029818	0.262983
607.239246	0.263090
607.448655	0.263293
607.658047	0.262909
607.867420	0.262978
608.076775	0.263135
608.286111	0.262626
608.495430	0.262343
608.704730	0.263018
608.914012	0.262647
609.123275	0.262819
609.332521	0.262460
609.541748	0.262607
609.750957	0.262528
609.960148	0.262978
610.169321	0.263992
610.378475	0.264035
610.587611	0.263359
610.796729	0.264104
611.005829	0.264875
611.214910	0.265318
611.423974	0.265400
611.633019	0.265843
611.842045	0.266101
612.051054	0.266562
612.260044	0.266632
612.469017	0.267195
612.677970	0.266919
612.886906	0.266197
613.095824	0.265686
613.304723	0.265745
613.513604	0.265657
613.722467	0.265649
613.931311	0.265165
614.140138	0.265649
614.348946	0.265584
614.557736	0.265796
614.766507	0.266501
614.975261	0.267401
615.183996	0.268262
615.392713	0.268268
615.601412	0.268249
615.810092	0.268569
616.018754	0.268687
616.227399	0.269196
616.436024	0.269538
616.644632	0.270197
616.853222	0.270400
617.061793	0.270382
617.270346	0.270710
617.478880	0.271155
617.687397	0.271413
617.895895	0.270923
618.104375	0.271205
618.312837	0.271326
618.521281	0.270466
618.729706	0.270600
618.938113	0.270665
619.146502	0.270773
619.354873	0.270749
619.563226	0.271044
619.771560	0.271950
619.979876	0.272201
620.188174	0.272265
620.396453	0.272952
620.604715	0.273301
620.812958	0.273403
621.021183	0.274030
621.229390	0.274091
621.437578	0.274142
621.645748	0.273915
621.853900	0.273969
622.062034	0.274537
622.270150	0.275044
622.478247	0.275195
622.686326	0.275793
622.894387	0.275737
623.102430	0.276139
623.310454	0.277327
623.518461	0.278043
623.726449	0.278411
623.934418	0.278492
624.142370	0.278334
624.350303	0.278841
624.558218	0.278530
624.766115	0.278552
624.973994	0.278936
625.181855	0.278213
625.389697	0.278081
625.597521	0.277817
625.805327	0.277679
626.013114	0.278065
626.220883	0.278047
626.428634	0.278738
626.636367	0.279250
626.844082	0.278928
627.051778	0.278787
627.259457	0.278781
627.467117	0.278490
627.674758	0.278803
627.882382	0.278611
628.089987	0.278689
628.297574	0.278495
628.505143	0.278574
628.712694	0.279041
628.920226	0.279364
629.127740	0.279833
629.335236	0.280704
629.542714	0.281006
629.750174	0.280967
629.957615	0.281327
630.165038	0.281588
630.372443	0.281537
630.579829	0.281660
630.787198	0.281979
630.994548	0.282473
631.201880	0.282591
631.409194	0.282665
631.616489	0.283386
631.823766	0.283366
632.031025	0.283515
632.238266	0.283662
632.445489	0.284458
632.652693	0.284604
632.859879	0.284553
633.067047	0.284561
633.274197	0.284726
633.481329	0.284791
633.688442	0.285076
633.895537	0.285431
634.102614	0.286047
634.309672	0.285673
634.516713	0.285645
634.723735	0.286064
634.930739	0.286592
635.137724	0.286818
635.344692	0.286951
635.551641	0.287310
635.758572	0.287262
635.965485	0.286884
636.172379	0.286777
636.379256	0.286912
636.586114	0.286904
636.792954	0.286942
636.999775	0.286719
637.206579	0.287128
637.413364	0.287661
637.620131	0.287870
637.826880	0.288413
638.033610	0.288673
638.240323	0.289026
638.447017	0.289250
638.653692	0.289471
638.860350	0.290053
639.066990	0.289878
639.273611	0.289534
639.480214	0.289839
639.686798	0.289911
639.893365	0.290457
640.099913	0.290993
640.306443	0.291286
640.512955	0.291441
640.719449	0.292018
640.925924	0.292402
641.132381	0.292204
641.338820	0.292755
641.545241	0.292932
641.751644	0.292984
641.958028	0.293568
642.164394	0.293644
642.370742	0.293867
642.577071	0.293866
642.783383	0.294173
642.989676	0.295006
643.195951	0.295011
643.402207	0.295411
643.608446	0.295574
643.814666	0.295228
644.020868	0.295710
644.227052	0.295585
644.433218	0.295542
644.639365	0.295357
644.845494	0.295080
645.051605	0.295181
645.257698	0.295537
645.463772	0.295632
645.669828	0.296039
645.875866	0.295768
646.081886	0.296432
646.287888	0.296776
646.493871	0.297454
646.699836	0.297746
646.905783	0.298111
647.111712	0.297999
647.317622	0.298201
647.523514	0.298156
647.729388	0.298429
647.935244	0.298334
648.141082	0.298359
648.346901	0.298277
648.552702	0.298703
648.758485	0.299205
648.964250	0.299528
649.169996	0.299589
649.375724	0.299837
649.581434	0.300154
649.787126	0.300325
649.992800	0.300687
650.198455	0.301064
650.404092	0.300636
650.609711	0.300422
650.815311	0.300681
651.020894	0.301068
651.226458	0.301417
651.432004	0.301358
651.637532	0.301774
651.843041	0.301951
652.048532	0.302140
652.254006	0.302973
652.459460	0.303146
652.664897	0.303451
652.870315	0.303977
653.075716	0.304286
653.281097	0.304429
653.486461	0.304723
653.691807	0.304736
653.897134	0.305237
654.102443	0.305517
654.307734	0.305654
654.513006	0.305692
654.718261	0.305622
654.923497	0.305839
655.128715	0.306246
655.333915	0.306094
655.539096	0.306564
655.744259	0.306465
655.949404	0.306556
656.154531	0.306991
656.359640	0.307264
656.564730	0.307331
656.769802	0.307232
656.974856	0.307546
657.179892	0.307974
657.384909	0.308156
657.589908	0.308768
657.794889	0.309100
657.999852	0.308942
658.204797	0.309405
658.409723	0.309722
658.614631	0.309842
658.819521	0.309707
659.024393	0.310424
659.229246	0.310724
659.434081	0.310167
659.638898	0.310578
659.843697	0.310781
660.048478	0.310658
660.253240	0.310748
660.457984	0.311148
660.662710	0.311319
660.867417	0.310852
661.072107	0.311154
661.276778	0.311851
661.481431	0.311678
661.686066	0.312215
661.890682	0.312692
662.095281	0.313464
662.299861	0.313626
662.504422	0.314370
662.708966	0.314782
662.913491	0.314965
663.117999	0.314826
663.322488	0.315204
663.526958	0.315417
663.731411	0.315206
663.935845	0.315209
664.140261	0.315433
664.344659	0.315387
664.549038	0.315347
664.753400	0.315139
664.957743	0.315613
665.162068	0.316205
665.366375	0.316279
665.570663	0.316849
665.774933	0.317339
665.979185	0.317900
666.183419	0.318054
666.387635	0.318868
666.591832	0.319511
666.796011	0.319551
667.000172	0.319311
667.204315	0.319647
667.408439	0.320070
667.612545	0.320133
667.816634	0.320121
668.020703	0.320695
668.224755	0.320993
668.428788	0.321312
668.632803	0.322162
668.836800	0.322596
669.040779	0.322678
669.244739	0.322883
669.448681	0.323409
669.652605	0.324200
669.856511	0.324383
670.060399	0.324244
670.264268	0.324323
670.468119	0.324201
670.671952	0.324364
670.875767	0.324440
671.079563	0.324526
671.283341	0.324525
671.487101	0.324111
671.690843	0.324700
671.894567	0.325115
672.098272	0.325847
672.301959	0.326444
672.505628	0.326563
672.709278	0.327413
672.912911	0.327616
673.116525	0.328363
673.320121	0.328669
673.523699	0.329009
673.727258	0.329467
673.930799	0.329857
674.134322	0.329920
674.337827	0.330283
674.541314	0.330491
674.744782	0.331021
674.948232	0.330750
675.151664	0.331308
675.355078	0.331312
675.558474	0.331584
675.761851	0.331371
675.965210	0.331572
676.168551	0.331629
676.371873	0.331600
676.575178	0.331748
676.778464	0.331752
676.981732	0.332164
677.184981	0.332241
677.388213	0.332268
677.591426	0.332702
677.794621	0.332997
677.997798	0.333264
678.200956	0.333659
678.404097	0.334165
678.607219	0.334833
678.810323	0.334462
679.013408	0.334551
679.216476	0.334769
679.419525	0.334990
679.622556	0.335186
679.825569	0.335754
680.028563	0.336018
680.231540	0.335939
680.434498	0.336070
680.637438	0.336564
680.840359	0.337178
681.043263	0.337544
681.246148	0.337821
681.449015	0.337811
681.651864	0.337765
681.854694	0.337617
682.057506	0.337838
682.260301	0.337618
682.463076	0.337872
682.665834	0.337674
682.868573	0.337545
683.071295	0.337767
683.273998	0.337954
683.476682	0.338209
683.679349	0.338857
683.881997	0.339071
684.084627	0.339619
684.287239	0.340211
684.489833	0.340843
684.692408	0.341617
684.894965	0.341679
685.097504	0.342018
685.300025	0.342394
685.502527	0.342639
685.705012	0.342845
685.907478	0.342908
686.109925	0.342703
686.312355	0.342934
686.514766	0.342564
686.717159	0.342805
686.919534	0.343389
687.121891	0.343913
687.324230	0.343914
687.526550	0.343798
687.728852	0.343721
687.931136	0.343749
688.133401	0.343867
688.335649	0.344253
688.537878	0.344327
688.740089	0.344459
688.942281	0.344193
689.144456	0.344597
689.346612	0.345141
689.548750	0.345922
689.750870	0.346538
689.952971	0.346465
690.155055	0.347002
690.357120	0.346998
690.559167	0.346820
690.761195	0.347292
690.963206	0.347251
691.165198	0.347402
691.367172	0.347659
691.569128	0.347631
691.771065	0.348083
691.972984	0.348101
692.174885	0.348508
692.376768	0.348387
692.578633	0.348270
692.780479	0.348582
692.982308	0.349164
693.184118	0.349300
693.385909	0.349208
693.587683	0.348672
693.789438	0.348704
