sample name	sample
index	1184
start time	 04-26-2021  11:52:36 AM
880	0.413667
Peak Time (s)	91.038
Peak Height 	0.4137
calc peak height	90,93
Baseline Time (s)	9.036
Baseline Value 	-0.006342
subtract baseline	10,4
Abs	0.278652
Peak Time (s)	92.537
Peak Height 	0.2787
calc peak height	90,93
Baseline Time (s)	10.537
Baseline Value 	0.002221
subtract baseline	10,3
PK_550	0.167630
Peak Time (s)	92.537
Peak Height 	0.1676
calc peak height	90,93
Baseline Time (s)	10.037
Baseline Value 	8.6823E-4
subtract baseline	10,2
PK_880	0.271011
Peak Time (s)	92.037
Peak Height 	0.271
calc peak height	90,93
Baseline Time (s)	10.537
Baseline Value 	0.002406
subtract baseline	10,1


Time (s)	A880-A510	A880-A775	A880-A975	A880	I510	I775	I975	I880	
0.039000	-0.000430	-0.000480	-0.001327	0.004113	6153.848590	43630.511133	3851.414610	22550.864137
0.536500	-0.002925	-0.001250	0.000625	0.004662	6131.131769	43507.190893	3854.587160	22526.060705
1.039500	-0.003096	-0.000396	-0.003483	0.004320	6132.401764	43619.008310	3846.097484	22541.495978
1.537500	-0.004064	-0.000086	-0.000426	0.007042	6105.066044	43393.627168	3846.851963	22418.760156
2.037500	-0.001433	-0.000386	-0.001256	0.002046	6161.827561	43833.652363	3856.252024	22644.653311
2.537500	-0.000826	0.000124	-0.001548	0.001743	6168.667519	43910.288997	3856.277053	22658.432011
3.035000	-0.001244	0.000238	0.000545	-0.000734	6184.196694	44155.549676	3866.693725	22771.493963
3.538000	-0.002579	-0.000872	-0.001996	0.005369	6128.451954	43476.406431	3847.083678	22494.135893
4.035500	-0.000344	0.000307	0.008372	0.001216	6176.267527	43977.378316	3880.254405	22682.446819
4.536000	-0.002397	-0.000913	0.001365	0.000277	6167.885383	43950.883130	3866.258405	22725.306842
5.036500	-0.000367	-0.000308	-0.000161	0.000638	6180.454251	43973.819654	3861.944446	22708.795825
5.535500	-0.001457	-0.000896	0.000023	-0.000049	6177.418743	43983.288655	3863.933962	22740.197834
6.040000	-0.000257	0.000048	0.000207	0.000470	6182.559396	44023.447891	3863.167983	22716.474868
6.537000	0.001339	-0.000766	0.003267	-0.000245	6200.069999	44013.999746	3871.825132	22749.126127
7.034500	0.000864	-0.000717	0.001212	-0.000320	6197.027575	44025.751594	3867.274810	22752.551742
7.535500	0.000091	-0.000045	-0.003032	0.000145	6187.651036	44045.402523	3856.536705	22731.319477
8.035500	-0.001339	-0.000005	0.002154	0.000337	6175.392305	44030.999361	3867.927177	22722.525499
8.535500	-0.000544	0.000247	0.001681	-0.000000	6183.944118	44086.876045	3867.616882	22737.959687
9.036000	0.000671	0.000007	-0.001364	0.000000	6193.139673	44064.046620	3860.656150	22737.941487
9.536000	-0.004731	-0.000451	-0.001687	0.004780	6116.850404	43570.827183	3849.102939	22520.713904
10.036500	0.000852	0.000000	0.005192	-0.000337	6197.074957	44095.371504	3876.482300	22753.367495
10.536500	0.000000	0.000441	0.000000	0.000330	6185.561009	44073.875097	3863.014935	22722.869620
11.037000	-0.000817	-0.000661	0.001529	-0.000283	6184.021393	44027.650851	3867.918915	22750.890748
11.537000	0.000902	-0.000576	-0.002507	0.000111	6194.051555	43998.386395	3857.805911	22732.883190
12.034500	-0.000202	-0.000413	0.004233	0.000070	6185.999756	44017.685063	3873.324623	22734.736759
12.534500	0.000674	-0.000317	0.002844	0.000110	6192.329177	44022.962585	3870.035331	22732.936402
13.035500	-0.000216	0.000343	0.003886	0.000436	6183.130459	44054.594044	3871.682757	22718.032082
13.538500	-0.000003	-0.000589	0.005066	0.000310	6185.687544	43978.285152	3874.693239	22723.769631
14.036500	-0.002241	-0.000567	-0.000141	0.002576	6151.801746	43766.756972	3857.580892	22620.585620
14.536000	-0.002391	0.000222	-0.001148	0.002524	6151.066153	43845.897537	3855.413025	22622.943457
15.036500	0.000213	-0.000543	0.004593	-0.000065	6190.157478	44018.096174	3874.469047	22740.903559
15.542000	-0.005040	-0.001429	-0.001128	0.005194	6111.498431	43440.747080	3849.428417	22501.995932
16.037000	-0.000194	-0.000356	0.000693	-0.000128	6187.558593	44041.755750	3865.645251	22743.787147
16.537500	0.000084	0.000169	-0.000188	0.000610	6184.083746	44021.660696	3861.946924	22710.098797
17.035000	0.000327	0.000052	0.005071	-0.002753	6211.447431	44329.942097	3881.806795	22864.125875
17.535000	-0.002770	-0.000519	-0.002819	0.003038	6144.392405	43727.797891	3850.475686	22599.601402
18.035500	-0.000648	-0.000706	0.002375	0.001048	6175.238645	43897.496077	3866.803273	22690.089828
18.536000	-0.001866	0.000016	0.002450	0.002030	6158.704106	43873.086258	3864.729238	22645.416364
19.036000	-0.000915	0.000476	0.004499	0.001833	6167.319014	43934.958388	3869.878220	22654.338669
19.536500	-0.002000	0.000467	0.000346	0.003731	6144.969644	43755.379340	3856.065547	22568.194970
20.037000	-0.000787	0.000441	-0.000808	0.001816	6168.409705	43933.355252	3857.789765	22655.123443
20.534000	-0.002699	0.000008	0.005114	0.001744	6154.604737	43899.310995	3871.499741	22658.429605
21.037000	-0.002344	0.000129	0.001933	0.001258	6160.907279	43956.589873	3865.312044	22680.545064
21.538000	-0.001594	-0.001080	-0.000969	0.002469	6157.446908	43728.564980	3855.942710	22625.423304
22.035000	-0.003930	-0.000631	0.001607	0.000717	6153.066108	43935.808938	3865.803480	22705.187868
22.534500	-0.002026	-0.000306	0.003239	0.000843	6166.412517	43954.720096	3869.257251	22699.458018
23.036000	-0.001161	0.000536	-0.002347	0.001792	6165.785227	43944.596708	3854.355308	22656.221566
23.535500	-0.001789	-0.000538	-0.001407	0.002480	6155.906699	43778.479579	3854.927666	22624.954346
24.036000	-0.001324	-0.000157	0.002805	0.001294	6168.301303	43926.156134	3867.226646	22678.911176
24.536000	-0.003042	-0.000589	0.004118	0.000800	6159.105155	43932.010809	3871.378917	22701.418101
25.040000	-0.001306	0.000015	0.001923	0.001259	6168.700869	43945.672809	3865.286947	22680.490677
25.538000	-0.005067	0.000063	-0.003649	0.002985	6127.668286	43787.520458	3848.725699	22601.993806
26.034500	-0.000950	0.000114	-0.001623	0.001721	6167.904405	43911.506895	3856.157434	22659.467659
26.535000	-0.001413	-0.000089	0.003911	0.001433	6166.581543	43919.398194	3869.446517	22672.555016
27.035500	0.001206	0.000111	0.004734	-0.000758	6202.956688	44145.779703	3876.397402	22772.617261
27.537000	-0.003056	0.000218	-0.003475	0.006106	6119.441334	43509.387259	3842.118762	22460.900263
28.036000	0.000916	-0.000041	0.001628	0.000057	6194.561994	44054.126920	3867.363685	22735.327149
28.536500	-0.001775	-0.000099	-0.001093	0.000059	6174.206996	44048.435265	3861.140976	22735.261785
29.036500	0.001695	0.000380	0.000915	0.000311	6198.553752	44069.907887	3865.150734	22723.743488
29.539500	-0.000857	-0.000473	0.005592	0.000527	6177.597849	43968.764313	3875.409779	22713.891607
30.037000	-0.000291	-0.000055	0.002088	0.000175	6184.529163	44041.564330	3868.147840	22729.933392
30.537000	-0.004304	-0.000856	0.000704	0.001873	6141.628051	43805.592823	3861.100781	22652.518942
31.036500	-0.000009	0.000690	0.001936	0.002532	6168.881506	43889.294944	3862.408546	22622.589529
31.535000	-0.000798	-0.000137	0.000226	0.000818	6175.849333	43972.964637	3862.415604	22700.588686
32.038500	-0.001680	-0.000058	0.001815	-0.000146	6176.471386	44071.709346	3868.259042	22744.625041
32.535000	-0.001353	-0.000091	0.004432	0.000183	6176.456959	44037.446112	3873.526059	22729.595319
33.036000	-0.000444	0.000084	0.001833	0.000015	6184.578572	44069.869178	3867.930190	22737.233540
33.536000	0.002345	-0.000039	0.001609	-0.001223	6215.179449	44175.739525	3870.261846	22793.923763
34.036500	-0.003931	-0.000002	-0.001810	0.001460	6147.506570	43925.169188	3856.325957	22671.356817
34.537000	-0.001054	0.000678	0.002120	0.002764	6159.291672	43866.344925	3862.299600	22612.063688
35.037000	-0.001493	-0.000477	0.003560	0.002248	6159.867280	43806.053904	3866.772168	22635.492345
35.537500	-0.002232	-0.000828	-0.001179	0.002920	6149.297083	43709.935678	3854.448021	22604.976721
36.034500	-0.001709	0.000536	0.004788	0.002416	6156.981728	43885.707681	3869.203682	22627.843654
36.535000	0.000160	-0.000229	-0.000069	0.002217	6172.523651	43832.329819	3858.558377	22636.891575
37.035500	-0.000272	-0.000107	0.001069	0.002078	6170.322948	43856.947794	3861.465249	22643.221743
37.535500	-0.002160	-0.000112	0.001832	0.003043	6148.910264	43765.578442	3861.006192	22599.391168
38.036000	-0.001890	-0.001072	0.002151	0.001259	6164.307914	43843.183089	3865.807766	22680.486736
38.536000	-0.001659	0.000689	0.001189	0.002354	6157.827897	43906.025044	3861.110025	22630.681760
39.039500	0.000735	0.000422	0.005064	0.002865	6171.973191	43832.545097	3868.805854	22607.439690
39.537000	-0.001752	-0.000612	0.000990	0.002988	6152.372858	43723.737553	3859.213154	22601.860155
40.034000	-0.003348	-0.000568	0.000831	0.001551	6151.186413	43863.160369	3862.123865	22667.185112
40.534500	-0.000635	0.000236	0.002974	0.002391	6165.233878	43859.692235	3865.101210	22628.974261
41.035000	-0.001587	0.000559	0.001311	0.002708	6155.708077	43860.305276	3860.580874	22614.574246
41.535000	-0.001870	0.000733	0.001256	0.004235	6142.171939	43733.012589	3856.986295	22545.366119
42.036000	0.000353	0.000441	0.000024	0.002477	6172.016325	43870.928931	3858.179329	22625.070308
42.536000	0.000473	0.000428	0.002870	0.002142	6175.446852	43901.320573	3865.433521	22640.291589
43.036000	-0.001913	0.000188	0.003369	0.002057	6158.147668	43886.786637	3866.771634	22644.186880
43.535500	-0.000763	0.000488	0.003776	0.004684	6147.091737	43667.881012	3861.696808	22525.068073
44.036500	0.001182	-0.001116	0.005283	-0.003666	6224.959803	44305.699620	3884.426816	22906.170528
44.537000	-0.001244	-0.000087	0.009041	-0.000191	6180.096039	44073.222559	3885.088204	22746.675401
45.037500	-0.000576	0.001082	-0.000513	0.000650	6178.792051	44104.281663	3861.114535	22708.253500
45.535000	-0.005643	-0.000915	-0.002758	0.004566	6111.683812	43547.406819	3847.174136	22530.381184
46.035000	0.001101	0.000098	0.001025	-0.000035	6196.668721	44076.003475	3866.192666	22739.535759
46.535500	-0.001280	-0.000266	0.001522	-0.000515	6182.271197	44086.968404	3868.434175	22761.501809
47.036000	-0.001470	-0.000647	0.006547	-0.000069	6177.470919	44008.662128	3879.000296	22741.096134
47.536000	-0.004506	-0.000314	-0.001933	0.004464	6120.860691	43613.222318	3849.259739	22534.995734
48.036500	0.001088	-0.000156	-0.001633	0.000676	6191.180875	43984.649230	3858.508336	22707.097536
48.539500	0.000412	-0.000327	0.001281	0.000028	6190.961057	44029.775293	3866.634079	22736.650307
49.037000	0.000938	-0.000107	0.004918	0.000000	6195.165024	44053.272928	3875.068602	22737.936675
49.537000	-0.005195	-0.000572	-0.004387	0.005147	6110.703548	43525.180750	3842.222372	22504.121699
50.037000	0.001243	-0.000356	0.003117	-0.001261	6207.062629	44149.243241	3873.822687	22795.644194
50.534500	0.001128	-0.000918	0.003211	0.003849	6167.530235	43614.319605	3862.312149	22562.859359
51.035500	0.035868	-0.022015	0.037426	0.504290	4018.772220	15167.227125	3210.147329	9106.703719
51.535500	0.009046	-0.016022	-0.019455	0.246431	4803.875141	25403.373665	3409.441297	14144.628867
52.035500	-0.006906	-0.030594	-0.022261	-0.131366	7278.962493	54808.222933	4147.164387	29747.515039
52.536000	-0.004833	-0.032686	-0.001988	-0.118393	7170.438064	53039.089332	4168.786345	28957.139624
53.036500	-0.033711	-0.033560	-0.028316	-0.159513	7292.500063	57905.462762	4213.733512	31545.585109
53.537000	-0.000531	-0.037113	-0.000259	-0.194638	8040.498077	62051.663697	4423.930492	33959.314789
54.037000	0.023844	-0.027762	0.026685	-0.155222	7865.540970	58096.639483	4379.979124	31263.908545
54.537500	0.032532	-0.020521	0.037185	-0.070221	7065.503948	49051.588017	4142.181449	26220.663342
55.034500	0.033543	-0.016039	0.042896	-0.003498	6480.723297	42892.388350	3975.641601	22898.442092
55.535000	0.054974	-0.003453	0.065855	0.020818	6457.020828	41827.240915	3972.195645	21809.092459
56.035500	0.077058	0.011868	0.076645	0.065732	6274.913971	39264.532014	3889.020500	19950.578466
56.535500	0.103134	0.029900	0.107015	0.079787	6369.610112	39598.804490	3927.972387	19407.380623
57.036000	0.123959	0.044207	0.123524	0.100892	6367.371612	39029.132715	3916.849830	18624.010536
57.536500	0.149726	0.058754	0.151486	0.147811	6202.584691	36435.603079	3872.199514	17013.071661
58.039500	0.169448	0.070831	0.170799	0.191306	6026.707648	34096.772141	3818.002787	15667.435923
58.537500	0.189955	0.085376	0.187565	0.218359	5979.943537	33211.695580	3795.846031	14895.948464
59.037000	0.200804	0.093882	0.207137	0.275309	5669.850558	30014.615569	3719.617883	13420.791770
59.537500	0.213791	0.103971	0.217060	0.306671	5555.140437	28719.474423	3678.765665	12687.331401
60.034500	0.226811	0.111432	0.230478	0.333889	5469.765745	27572.149084	3653.515406	12092.312697
60.535000	0.232386	0.121753	0.236832	0.347858	5420.590402	27365.981813	3639.922122	11801.124639
61.035000	0.237362	0.127858	0.248078	0.385200	5239.633033	25669.508701	3595.107794	11067.166617
61.535500	0.244020	0.131265	0.254569	0.399835	5197.070270	25088.971699	3581.665975	10796.298113
62.036000	0.244981	0.138598	0.248811	0.401724	5192.169545	25368.572682	3569.269547	10761.993925
62.539000	0.245005	0.138285	0.244311	0.399960	5201.622518	25443.730272	3564.888419	10794.027987
63.037000	0.245339	0.141606	0.249973	0.401441	5195.551356	25539.291982	3571.595128	10767.116745
63.537500	0.247814	0.143491	0.255447	0.394563	5245.505821	26000.323462	3591.794144	10892.820589
64.046000	0.248939	0.146029	0.259729	0.392821	5261.035589	26228.896008	3601.853647	10924.971789
64.537500	0.249919	0.148029	0.252697	0.392372	5268.813813	26360.694532	3590.866407	10933.284542
65.035000	0.247597	0.147395	0.257699	0.395101	5241.434712	26179.894087	3594.641594	10882.915100
65.535000	0.249853	0.150045	0.254384	0.399663	5229.039268	26077.719641	3581.644045	10799.425234
66.035000	0.252842	0.151660	0.259340	0.395802	5266.053066	26371.571038	3596.209166	10870.039717
66.536000	0.250540	0.151539	0.261976	0.396140	5251.721503	26346.775468	3600.054223	10863.828849
67.036000	0.252086	0.152047	0.260544	0.400237	5237.954381	26154.029155	3590.838539	10788.993092
67.536000	0.248920	0.151894	0.259291	0.403143	5205.502860	25990.933343	3583.981640	10736.323386
68.036000	0.251587	0.153172	0.262565	0.399092	5241.426856	26275.720569	3596.099238	10809.822633
68.536500	0.252237	0.154945	0.262934	0.400806	5235.704221	26278.920928	3593.859693	10778.644063
69.040500	0.253988	0.155860	0.257078	0.405859	5218.020393	26057.450086	3575.940950	10687.430275
69.534500	0.252519	0.155474	0.263461	0.408887	5194.148205	25876.243438	3581.403689	10633.261982
70.035000	0.256527	0.157046	0.264957	0.404230	5240.364871	26207.860573	3591.532684	10716.715179
70.535500	0.255274	0.157131	0.263539	0.404936	5229.834052	26174.611695	3588.021212	10704.015768
71.036000	0.252472	0.157552	0.262112	0.409983	5188.121856	25928.250709	3577.418357	10613.759869
71.536000	0.255494	0.157852	0.265743	0.412138	5192.695201	25830.215648	3579.821244	10575.548268
72.039500	0.257087	0.159134	0.259241	0.407514	5225.733793	26143.850377	3576.765077	10657.776940
72.539500	0.255943	0.159506	0.262454	0.407462	5219.899940	26166.549540	3582.088142	10658.714405
73.036500	0.257898	0.159902	0.263953	0.450708	5009.572754	23982.602570	3516.960447	9922.658678
73.537500	0.255458	0.160425	0.267905	0.409503	5206.449773	26106.549438	3587.689882	10622.304874
74.035000	0.259320	0.161284	0.267162	0.409261	5228.340830	26165.400947	3586.863793	10626.613683
74.535000	0.259404	0.162342	0.263462	0.410291	5223.275031	26166.883874	3579.113947	10608.281105
75.034500	0.259260	0.161415	0.263307	0.414346	5200.928576	25901.752246	3572.286949	10536.580589
75.536000	0.259177	0.160747	0.264221	0.408099	5233.804713	26198.876585	3583.939328	10647.325099
76.035500	0.264878	0.161871	0.265423	0.409122	5259.067008	26204.283380	3584.231222	10629.075299
76.536500	0.261501	0.161522	0.270138	0.408918	5241.900881	26196.471312	3592.350647	10632.708620
77.037000	0.263440	0.162181	0.269562	0.415296	5218.095049	25892.016055	3580.899996	10519.871673
77.536500	0.263458	0.162698	0.275866	0.410539	5243.713084	26172.668492	3599.199817	10603.873840
78.037000	0.263263	0.162517	0.264790	0.410058	5245.260705	26188.787565	3581.662222	10612.434969
78.537500	0.268858	0.164862	0.281602	0.411753	5266.409301	26223.631725	3606.818408	10582.360838
79.035000	0.262767	0.162487	0.271658	0.414436	5219.097398	25953.747632	3585.745070	10534.994108
79.535000	0.262733	0.162180	0.270162	0.414449	5218.844328	25936.797181	3583.269007	10534.770699
80.035500	0.268828	0.163173	0.270677	0.409093	5280.773376	26275.730219	3592.955247	10629.591756
80.535500	0.264345	0.163951	0.270830	0.409511	5254.064600	26295.080889	3592.514144	10622.146859
81.036000	0.261921	0.163104	0.265035	0.413530	5219.417763	26034.713497	3576.405499	10550.963732
81.539000	0.266183	0.164430	0.277962	0.415023	5234.243065	26025.772759	3595.209528	10524.667999
82.036500	0.267383	0.163784	0.282656	0.407829	5279.784169	26376.787970	3615.293883	10652.149067
82.537000	0.268804	0.163800	0.273357	0.406596	5294.362528	26444.320993	3601.606457	10674.204967
83.037000	0.265358	0.164119	0.272327	0.411941	5246.399471	26173.692499	3590.967383	10579.019962
83.534500	0.263967	0.165098	0.273110	0.411859	5239.341029	26230.553527	3592.402564	10580.471112
84.034500	0.267333	0.165932	0.276133	0.406309	5287.849753	26575.759327	3606.775511	10679.357084
84.534500	0.268841	0.164890	0.277453	0.405475	5300.757464	26564.418060	3610.432129	10694.326438
85.036000	0.266551	0.163671	0.276950	0.409445	5266.411475	26283.630215	3602.859069	10623.331044
85.535500	0.265513	0.165127	0.271992	0.409745	5259.132128	26345.838438	3594.056687	10617.986015
86.036500	0.271761	0.166695	0.278106	0.406182	5313.020000	26624.258364	3610.339415	10681.634970
86.536000	0.271218	0.165775	0.276495	0.406120	5310.344137	26577.488423	3607.708205	10682.740945
87.039500	0.267281	0.164876	0.276626	0.410789	5263.068598	26276.102054	3600.054825	10599.440286
87.537000	0.267373	0.165839	0.268933	0.411929	5257.377189	26266.613113	3585.386318	10579.238437
88.037000	0.272750	0.167182	0.278034	0.407855	5309.224195	26559.611726	3607.377769	10651.690396
88.535000	0.270130	0.166046	0.273147	0.407283	5297.890193	26528.925483	3600.101250	10661.909388
89.035000	0.265291	0.165071	0.278522	0.411484	5248.507779	26249.261071	3602.072658	10587.116616
89.535500	0.269752	0.166673	0.266333	0.408450	5289.378105	26499.614609	3586.833445	10641.060745
90.035500	0.269212	0.166387	0.268216	0.407851	5289.704645	26516.599119	3590.933954	10651.758141
90.536000	0.267795	0.166674	0.270607	0.408567	5277.996720	26493.272724	3593.712652	10638.967675
91.038500	0.267268	0.165749	0.272292	0.413667	5247.398362	26168.550897	3588.057207	10548.543626
91.537000	0.267386	0.165986	0.274521	0.407812	5279.889508	26496.896188	3601.519838	10652.444490
92.036500	0.271011	0.167216	0.274317	0.408448	5296.325032	26529.220688	3600.110047	10641.095038
92.537000	0.270180	0.167630	0.278652	0.408838	5289.598615	26530.520563	3606.758452	10634.138110
93.037500	0.264338	0.165206	0.271141	0.412695	5236.845655	26191.538452	3587.761629	10565.702605
93.535000	0.271515	0.167167	0.270134	0.408265	5300.111301	26536.463147	3593.429555	10644.356559
94.035500	0.273346	0.166716	0.279467	0.408367	5309.687103	26506.450718	3608.939850	10642.550549
94.535500	0.268682	0.167249	0.274122	0.409009	5280.435669	26500.563157	3598.842631	10631.098401
95.036000	0.266744	0.166102	0.270699	0.414865	5238.113229	26123.405132	3583.467499	10527.458308
95.539000	0.269786	0.165617	0.274944	0.408701	5288.182667	26428.720442	3600.736129	10636.579998
96.036000	0.271136	0.167312	0.279665	0.410803	5284.056024	26406.728145	3605.147760	10599.197746
