sample name	sample
index	1125
start time	 04-22-2021  02:01:48 PM
880	0.175774
Peak Time (s)	101.038
Peak Height 	0.1758
calc peak height	100,103
Baseline Time (s)	11.536
Baseline Value 	-0.003059
subtract baseline	10,4
Abs	0.135472
Peak Time (s)	101.038
Peak Height 	0.1355
calc peak height	100,103
Baseline Time (s)	11.536
Baseline Value 	0.002679
subtract baseline	10,3
PK_550	0.086080
Peak Time (s)	100.038
Peak Height 	0.08608
calc peak height	100,103
Baseline Time (s)	9.035
Baseline Value 	2.4645E-4
subtract baseline	10,2
PK_880	0.127601
Peak Time (s)	101.038
Peak Height 	0.1276
calc peak height	100,103
Baseline Time (s)	9.035
Baseline Value 	-1.5953E-4
subtract baseline	10,1


Time (s)	A880-A510	A880-A775	A880-A975	A880	I510	I775	I975	I880	
0.035000	-0.004114	-0.000334	-0.004620	0.008104	6199.412817	42621.739329	3896.991922	22436.030858
0.536000	0.000509	-0.000132	-0.004737	0.004008	6265.130554	43015.465919	3905.951104	22620.534211
1.035500	-0.000501	0.000507	-0.003224	0.004353	6254.826570	43042.504492	3908.597721	22604.918844
1.536500	0.001528	0.000453	-0.007876	0.001618	6291.191586	43290.297062	3904.259197	22729.023726
2.037000	-0.000334	-0.000658	-0.003234	0.006065	6243.119534	42778.311340	3904.698113	22527.639488
2.537000	0.000811	-0.000104	0.003246	0.000648	6293.129484	43328.647880	3931.948922	22773.218907
3.036500	0.001993	-0.000377	0.000584	-0.001512	6318.892385	43504.122682	3930.784221	22872.004078
3.534500	0.002962	-0.000610	-0.001778	0.000370	6311.836957	43307.486834	3920.990154	22785.919701
4.034500	-0.000375	-0.000146	0.006524	0.001302	6279.031919	43264.064671	3938.059001	22743.413545
4.535000	0.001367	0.000167	-0.006972	0.000501	6298.527605	43367.316023	3908.832878	22779.895992
5.035000	-0.000068	-0.001007	-0.000387	0.000045	6291.017668	43300.826434	3924.938081	22800.751585
5.536000	-0.001219	0.000257	0.002762	0.000901	6275.641066	43338.527975	3930.238304	22761.655463
6.036000	0.000906	-0.000412	-0.002430	0.000119	6297.924426	43349.019920	3920.067307	22797.336532
6.539000	-0.001866	-0.000437	0.003345	-0.000054	6278.001901	43362.856842	3933.811538	22805.281968
7.036500	0.002981	-0.000312	-0.002302	0.000400	6311.744069	43332.239410	3919.715991	22784.510420
7.537000	0.001784	0.000041	0.002007	0.000628	6300.769167	43343.908110	3929.122438	22774.146772
8.037500	0.000449	0.000390	0.000409	0.000971	6287.873709	43344.434047	3924.636495	22758.483127
8.534500	0.002452	-0.000081	0.001360	0.000659	6305.673351	43329.661505	3927.551853	22772.708347
9.035000	0.000000	0.000000	-0.002953	-0.000062	6292.359651	43404.228373	3919.285406	22805.646062
9.535000	-0.000003	-0.000557	0.001706	-0.000450	6295.316945	43388.502430	3930.923739	22823.373449
10.035500	-0.000642	0.000114	-0.000139	-0.000146	6288.076433	43422.551228	3925.948460	22809.447143
10.536000	0.002357	0.000624	0.002164	0.000578	6305.564949	43402.753173	3929.603064	22776.425170
11.038500	-0.000171	0.000935	-0.002212	0.000819	6284.290016	43409.154642	3918.961133	22765.404319
11.536000	0.001654	-0.000184	0.000000	0.000000	6304.600941	43381.292326	3925.933656	22802.792223
12.036500	0.000230	0.000319	0.002387	0.001629	6281.165030	43276.876360	3927.684692	22728.530252
12.537000	0.000586	-0.000186	-0.003515	-0.000557	6300.663730	43432.975204	3919.130258	22828.264589
13.035000	0.002881	0.000084	0.003416	-0.000695	6319.436570	43470.854267	3935.466264	22834.553667
13.535500	0.001786	0.000471	0.001912	-0.000196	6307.134755	43460.486907	3930.811643	22811.768434
14.035000	-0.000083	-0.000295	0.000610	0.002206	6274.361140	43166.691450	3922.257725	22702.282230
14.535000	-0.001936	-0.000732	0.000142	0.001392	6266.435333	43201.528156	3923.053224	22739.304712
15.036000	-0.000266	-0.000373	0.003763	-0.001015	6297.632571	43458.104560	3937.021269	22849.201912
15.536000	0.002038	0.001275	-0.002450	0.000508	6303.644492	43469.733562	3919.129811	22779.584568
16.036000	-0.000139	-0.000371	0.001078	0.001552	6278.928655	43220.078686	3924.839429	22732.014761
16.537500	0.000774	0.000280	0.002013	-0.000478	6301.505106	43468.981945	3931.700235	22824.651454
17.036500	0.001255	-0.000370	0.004018	-0.003099	6325.467415	43652.912380	3942.495282	22944.870876
17.537500	-0.001158	-0.000244	0.000926	0.000161	6281.774730	43360.794620	3927.702199	22795.444760
18.037000	-0.000642	0.000114	-0.001349	0.001001	6279.299219	43316.107226	3920.525916	22757.137773
18.535000	-0.000558	-0.000778	-0.002432	-0.000007	6287.657103	43326.854697	3920.353038	22803.130783
19.035000	-0.000008	0.001089	0.000788	0.001444	6280.754742	43365.442419	3924.421082	22736.949397
19.538500	-0.001080	0.000167	-0.003803	0.000806	6277.434198	43339.113587	3915.352817	22766.005752
20.035500	-0.000190	0.000566	0.004534	0.001318	6280.331213	43328.627153	3933.385308	22742.687817
20.538500	-0.000896	-0.000680	0.001781	0.000638	6280.131652	43276.156952	3928.576073	22773.679983
21.036500	-0.000422	-0.000117	0.003239	0.000390	6285.653837	43351.390842	3932.531436	22785.001123
21.536500	0.000174	-0.001078	0.002629	0.000211	6291.593672	43278.777741	3931.530059	22793.140884
22.037000	-0.000445	-0.000317	-0.001440	0.000713	6283.003272	43302.830044	3920.976263	22770.248563
22.534000	-0.000119	0.000041	-0.000217	0.001005	6283.264197	43308.869528	3923.117243	22756.925463
23.034500	0.002157	-0.000150	0.001449	0.000992	6300.831422	43292.402954	3926.987242	22757.510772
23.535500	0.001006	0.000474	-0.001005	0.001522	6287.923958	43301.125100	3920.117726	22733.384967
24.035500	0.000592	0.000471	-0.002909	0.002054	6280.679938	43251.536248	3914.543184	22709.179295
24.535500	-0.000479	0.000477	-0.001714	0.001827	6274.222549	43273.084017	3917.793127	22719.491083
25.036500	0.000367	0.000466	0.003854	0.001722	6281.498043	43281.921574	3930.866038	22724.294627
25.536000	-0.001355	0.000066	0.002321	0.001236	6272.053271	43289.802893	3928.440085	22746.407741
26.036500	-0.003018	-0.000144	0.002012	0.001449	6257.776946	43250.632745	3927.235861	22736.728608
26.536500	0.000122	0.000687	-0.001693	0.001775	6279.216410	43297.441522	3917.961942	22721.880899
27.037500	-0.001447	0.000078	0.003330	0.001507	6269.285459	43265.890996	3930.150858	22734.081542
27.535000	0.000506	0.000606	0.002803	-0.000600	6300.377506	43510.642328	3933.818148	22830.222175
28.037500	-0.002346	-0.000372	-0.000875	0.001720	6260.814331	43204.455759	3919.960547	22724.355331
28.538000	0.001367	0.000859	0.001429	0.000501	6298.538820	43431.708435	3928.078320	22779.938977
29.035500	-0.000381	-0.000006	-0.001400	-0.000030	6289.184763	43400.702451	3922.777942	22804.168776
29.535500	0.000402	-0.000416	0.000695	-0.000516	6298.936361	43407.720384	3928.734681	22826.400732
30.038500	-0.002090	-0.000649	-0.002631	0.003097	6252.304170	43051.768322	3912.799585	22661.808624
30.536000	-0.000356	0.000257	0.002484	0.000039	6288.848341	43418.688719	3931.592649	22800.990605
31.037000	-0.000614	-0.000450	-0.004054	0.002212	6270.263253	43151.753909	3911.575755	22702.016196
31.536500	-0.000952	-0.000404	0.000202	-0.000034	6284.839784	43364.054525	3926.477698	22804.338369
32.037500	-0.000851	-0.000211	-0.000293	0.004317	6252.447948	42979.821217	3915.351388	22606.571024
32.537500	0.001251	0.000329	0.003224	-0.000070	6302.034814	43435.561991	3933.564503	22805.993254
33.035000	0.002476	0.000409	0.006714	0.000314	6308.519130	43407.290779	3940.815253	22788.473183
33.537000	0.000673	-0.000120	0.003828	-0.001547	6308.962472	43531.291334	3938.414982	22873.578621
34.035500	-0.000470	0.000167	-0.007463	0.002154	6271.799856	43214.181915	3903.981573	22704.633361
34.536000	-0.000015	-0.000041	-0.002888	0.001810	6277.903084	43226.691624	3915.147784	22720.263615
35.036000	-0.000857	-0.000841	-0.002667	0.001417	6274.472062	43189.081985	3916.552083	22738.159121
35.536500	-0.002621	-0.000748	0.002209	0.001328	6261.708229	43205.877199	3927.967566	22742.209808
36.037000	-0.000088	-0.000599	-0.002209	0.001475	6279.903533	43206.134226	3917.467270	22735.533472
36.537000	-0.000404	0.000822	0.003757	0.002488	6269.757804	43243.924225	3928.867881	22689.473746
37.037500	-0.000029	0.000195	0.002207	0.001887	6277.203609	43241.483356	3926.671163	22716.768367
37.535000	-0.000217	-0.000252	-0.002553	0.002060	6274.447803	43184.052719	3915.343418	22708.904447
38.035000	0.000603	0.000255	-0.000613	0.002098	6280.422668	43227.479789	3919.695403	22707.167260
38.535500	0.001304	-0.000444	-0.002210	0.001521	6290.219425	43216.192721	3917.358703	22733.440164
39.036000	0.001429	-0.000048	-0.000606	0.001619	6290.426150	43243.760436	3920.812250	22728.981460
39.538500	0.002091	0.000195	0.006590	0.001863	6293.635476	43243.680638	3936.903389	22717.881498
40.036500	0.000676	-0.000093	0.002627	0.001553	6285.152144	43245.708729	3928.414316	22731.955263
40.536500	0.001125	0.000109	0.002809	0.001883	6286.065904	43233.891511	3928.071934	22716.952098
41.036500	0.001178	-0.000526	-0.000136	0.001251	6291.313427	43233.586895	3922.736543	22745.707224
41.534500	0.001333	-0.000261	0.004405	0.001866	6287.788628	43201.236137	3931.810386	22717.721108
42.037500	-0.000846	-0.000643	0.002756	0.001819	6271.484778	43170.239034	3928.099355	22719.871934
42.535000	-0.000053	0.000084	-0.003687	0.002039	6275.862861	43217.055868	3912.804697	22709.849429
43.035500	-0.001890	0.000463	-0.001605	0.001667	6264.690918	43286.659957	3918.410034	22726.782990
43.536000	0.001334	-0.000581	-0.000013	0.000970	6294.679230	43254.553373	3923.668342	22758.531771
44.038500	0.002826	0.000538	0.003003	0.000641	6308.698680	43388.899278	3931.401283	22773.547264
44.536000	0.002081	0.000253	-0.001519	-0.000216	6309.560067	43442.098134	3922.931729	22812.677320
45.036500	0.003794	0.000578	0.003634	0.000290	6318.884480	43425.207430	3933.680662	22789.535960
45.537000	0.000830	0.000177	-0.003734	0.002699	6277.566958	43164.670738	3911.195055	22679.874296
46.037000	0.001055	0.000356	0.001399	0.003883	6270.244033	43071.931034	3920.216516	22626.196408
46.540000	0.002158	0.000182	0.005408	0.000173	6307.148144	43399.207677	3938.088230	22794.887877
47.037500	0.003713	0.000271	0.002267	0.001166	6311.484181	43315.292126	3928.479074	22749.601401
47.538000	-0.001015	-0.000216	-0.002786	0.003540	6257.096938	43050.765501	3911.437579	22641.723576
48.035500	-0.002131	-0.000372	-0.001173	0.000629	6270.761735	43305.458395	3921.783640	22774.067028
48.535500	0.001490	0.000111	-0.000376	-0.000414	6306.522535	43447.272402	3926.022238	22821.708247
49.036000	0.002725	0.000708	0.002258	0.000171	6311.545151	43448.424290	3930.762360	22794.996408
49.536500	0.001534	0.000605	-0.001397	0.002899	6281.418347	43185.731479	3916.066879	22670.785973
50.036500	0.001377	0.000481	0.003247	0.003885	6272.689356	43083.304877	3924.462344	22626.129150
50.536500	0.001672	-0.002966	0.002300	0.012165	6212.304470	42016.335749	3903.421988	22254.773902
51.037000	0.017123	-0.016684	-0.009174	0.535218	3969.581659	14360.042853	3209.735972	8748.292347
51.540000	-0.001596	-0.021033	-0.012806	-0.068295	6845.230792	48039.056024	4062.546780	26181.385109
52.034500	-0.012259	-0.026441	-0.013793	-0.129836	7328.309629	54248.754272	4232.961809	29716.007057
52.535500	-0.005107	-0.037656	-0.010663	-0.202913	8214.930713	62089.124671	4484.118300	34618.499263
53.035500	0.001688	-0.012329	0.005772	-0.123477	7405.326388	55171.301531	4273.391927	29327.146990
53.538500	-0.003576	-0.012689	0.003167	-0.098045	7101.876326	52164.993282	4189.000613	27827.594484
54.036000	-0.000680	-0.006804	0.002582	-0.082118	6979.393713	51042.048960	4141.791660	26932.257926
54.536000	-0.000835	-0.006364	0.004296	-0.089369	7045.636612	51899.770448	4167.201043	27335.808704
55.036500	0.005946	-0.004823	0.007952	-0.101651	7229.037031	53480.213607	4213.687827	28034.923405
55.536500	0.006736	-0.001033	0.009689	-0.091102	7134.142318	52701.136464	4187.773615	27433.243594
56.037000	0.015801	0.003426	0.015581	-0.074592	7063.174389	51341.873227	4157.242000	26520.482612
56.537500	0.024830	0.007990	0.018942	-0.062359	7032.999660	50496.329036	4132.294221	25866.193371
57.035000	0.028404	0.010775	0.025094	-0.044859	6904.417523	48915.129353	4101.120514	24961.642453
57.534500	0.031100	0.013707	0.030323	-0.020697	6714.124674	46726.209880	4050.886568	23771.195142
58.035500	0.038819	0.018205	0.034328	-0.005176	6647.251916	45631.108372	4021.386523	23040.649042
58.535500	0.042515	0.023034	0.041519	0.026299	6418.694197	43096.037170	3961.683919	21637.026485
59.036000	0.050231	0.024316	0.046739	0.036521	6398.792325	42279.825624	3949.798551	21202.650187
59.536500	0.049498	0.025170	0.051192	0.026859	6470.255820	43241.801560	3983.698971	21612.992423
60.037000	0.057534	0.029715	0.054773	0.026441	6539.285653	43703.928476	3993.507221	21630.941927
60.537000	0.058962	0.033013	0.061740	0.085550	6093.920881	38799.168905	3872.456017	19255.480945
61.037000	0.057401	0.031614	0.062131	0.088642	6060.516666	38431.252645	3866.574192	19139.919655
61.535000	0.062977	0.038038	0.064597	0.090471	6087.395753	38807.748447	3867.958059	19071.932502
62.035500	0.064794	0.039577	0.072052	0.106243	5988.446731	37654.360516	3850.043448	18497.400394
62.538000	0.064882	0.043457	0.071699	0.104729	5999.647924	38087.027986	3852.525605	18551.664555
63.038500	0.067456	0.044406	0.075766	0.103956	6023.173906	38226.336085	3862.936871	18579.431618
63.536000	0.068638	0.046498	0.070984	0.104321	6028.946839	38366.500611	3851.867970	18566.313969
64.036500	0.072209	0.048374	0.080316	0.094213	6127.195595	39355.033403	3894.366632	18933.718667
64.537000	0.072598	0.049182	0.078470	0.089656	6163.485214	39806.570613	3900.443885	19102.177372
65.037000	0.075156	0.051545	0.079309	0.086259	6207.743428	40297.566913	3910.021334	19228.936416
65.537000	0.073784	0.051719	0.080115	0.090515	6165.900942	39948.923869	3902.215285	19070.286913
66.037500	0.076894	0.052169	0.082222	0.086670	6217.687422	40315.878764	3915.720813	19213.548490
66.535000	0.078277	0.053782	0.083686	0.085012	6240.586017	40597.698891	3922.877644	19275.685140
67.038000	0.079702	0.053993	0.085481	0.085896	6244.680050	40539.542126	3924.978051	19242.542392
67.536000	0.074483	0.053814	0.082166	0.092567	6155.926215	39952.618415	3902.212651	18994.370867
68.036000	0.078895	0.055737	0.088893	0.092880	6186.246749	40089.724545	3916.774486	18982.826044
68.536500	0.082490	0.055785	0.086129	0.093289	6210.018144	40058.986592	3909.543342	18967.756973
69.036500	0.082148	0.055841	0.086612	0.096214	6185.646091	39815.087293	3904.015536	18860.313271
69.539500	0.079620	0.056058	0.087970	0.105597	6098.342295	39046.938953	3886.063880	18520.529688
70.036500	0.082331	0.058286	0.089857	0.106169	6113.845135	39184.583308	3888.984661	18500.077659
70.537000	0.083173	0.058216	0.091990	0.106369	6118.515914	39162.126835	3893.291185	18492.918112
71.034500	0.085338	0.058466	0.090139	0.109421	6112.069741	38929.779322	3882.403269	18384.170774
71.537500	0.082839	0.059318	0.091900	0.118776	6027.156969	38233.755243	3865.783426	18055.540278
72.035000	0.085839	0.060121	0.094384	0.116091	6067.584891	38517.560815	3877.064728	18149.121381
72.538500	0.084702	0.060845	0.095702	0.119504	6035.178134	38298.577333	3872.473678	18030.235277
73.036000	0.085900	0.061448	0.097832	0.123337	6016.576593	38037.297703	3868.762131	17897.871371
73.536000	0.086239	0.062116	0.093868	0.131577	5961.439429	37432.237210	3842.571140	17617.159793
74.036500	0.090614	0.063724	0.098607	0.132389	5986.177598	37495.395885	3850.918441	17589.803780
74.537000	0.089214	0.064207	0.100069	0.133912	5965.868995	37412.962365	3850.789062	17538.605197
75.037500	0.092951	0.063749	0.099527	0.136018	5977.184569	37210.517142	3845.151862	17468.073857
75.537000	0.094196	0.065872	0.102771	0.140131	5957.314367	37054.355162	3843.308715	17331.362940
76.035000	0.093599	0.065208	0.099302	0.144248	5924.938095	36681.844643	3827.382260	17195.779413
76.535500	0.094965	0.066982	0.105253	0.145357	5926.690909	36733.371240	3837.515765	17159.481958
77.038500	0.094490	0.067692	0.107025	0.147154	5911.210500	36649.154717	3837.464004	17100.867661
77.536000	0.092974	0.068905	0.107126	0.156129	5840.733839	36053.717126	3818.978085	16811.699215
78.036000	0.096133	0.069415	0.105409	0.151753	5891.176509	36427.312663	3824.477333	16951.953061
78.536000	0.098890	0.070511	0.105685	0.153648	5897.008930	36365.907986	3821.126191	16891.044664
79.037000	0.099982	0.070745	0.103011	0.155341	5892.940934	36254.125121	3812.146198	16836.848065
79.537000	0.100397	0.070815	0.115171	0.155976	5891.457347	36210.878998	3836.042422	16816.577332
80.034500	0.104192	0.070920	0.108949	0.157339	5907.931903	36115.024610	3820.245569	16773.192160
80.534500	0.105036	0.071721	0.113467	0.159278	5900.500180	36028.403785	3825.585160	16711.649512
81.035000	0.105191	0.072743	0.108702	0.160812	5891.176163	35989.533785	3812.596768	16663.184268
81.535500	0.101689	0.071376	0.110841	0.166868	5827.334959	35431.005322	3804.613555	16473.458409
82.035500	0.106475	0.072629	0.115808	0.163129	5884.202358	35805.539080	3822.452736	16590.277129
82.536000	0.106576	0.073578	0.117562	0.165124	5871.474642	35726.737757	3821.955809	16527.840304
83.036000	0.106173	0.073828	0.114500	0.166047	5862.590310	35676.065060	3813.750125	16499.028055
83.536000	0.109282	0.074625	0.112152	0.172572	5839.841029	35248.449232	3795.748137	16297.198230
84.036500	0.109067	0.074203	0.119659	0.168807	5863.493843	35497.324457	3818.681457	16413.286746
84.537500	0.110123	0.074438	0.120881	0.170216	5861.135034	35409.757007	3818.296178	16369.729995
85.035000	0.115210	0.076552	0.120678	0.172240	5881.671805	35416.412481	3813.718572	16307.372464
85.535500	0.110821	0.075296	0.116069	0.177613	5816.699641	34925.822824	3793.492427	16143.300448
86.035000	0.114160	0.075454	0.116972	0.173251	5867.833535	35259.524647	3804.101600	16276.339062
86.538500	0.112865	0.077220	0.120425	0.174106	5853.468176	35327.191137	3809.386056	16250.180104
87.035500	0.115404	0.077027	0.122435	0.174180	5869.944363	35307.305465	3813.343209	16247.893527
87.536000	0.113299	0.077940	0.122419	0.180416	5814.559712	34914.185985	3800.625900	16058.508512
88.036000	0.113794	0.077764	0.121791	0.177138	5839.480396	35142.740111	3805.994651	16157.729731
88.536000	0.116527	0.078734	0.126615	0.174902	5872.638458	35380.665257	3820.457144	16225.851015
89.037000	0.117631	0.079372	0.128749	0.175836	5873.775001	35358.640240	3822.938164	16197.354552
89.534500	0.113443	0.077805	0.114763	0.179759	5819.830655	34952.490056	3786.604957	16078.329206
90.034500	0.117402	0.079446	0.127648	0.177428	5861.575905	35245.797681	3817.378805	16148.924862
90.534500	0.117966	0.079680	0.122689	0.175028	5881.460584	35441.815471	3812.128554	16221.998288
91.035500	0.117025	0.079676	0.125462	0.174793	5876.709418	35458.987610	3818.304062	16229.175439
91.536000	0.115571	0.080360	0.122235	0.180282	5830.425458	35102.189392	3800.525148	16062.547017
92.035500	0.120315	0.081754	0.131067	0.175533	5893.898816	35559.113933	3828.383551	16206.591772
92.536500	0.122272	0.082585	0.128737	0.176506	5900.553146	35548.410262	3821.526807	16176.931791
93.037000	0.122296	0.081899	0.125796	0.175772	5905.698147	35552.045316	3816.976467	16199.309915
93.537000	0.121894	0.081949	0.128500	0.177867	5888.799864	35399.243968	3818.229458	16135.601762
94.037500	0.120699	0.081415	0.125599	0.177145	5885.605953	35413.263008	3813.750504	16157.512700
94.537500	0.123889	0.082878	0.127855	0.175941	5915.373557	35612.705865	3820.871651	16194.144166
95.035000	0.122499	0.082797	0.132596	0.175429	5909.402793	35645.063104	3831.791860	16209.751773
95.535000	0.118107	0.082291	0.129708	0.180564	5845.371416	35224.200767	3815.166010	16054.036694
96.038000	0.121114	0.082827	0.130783	0.178168	5881.509153	35442.260018	3822.320878	16126.467116
96.535500	0.124868	0.082825	0.129076	0.174599	5931.219293	35709.583032	3826.184423	16235.105168
97.036000	0.122206	0.083198	0.127389	0.174474	5913.904447	35747.089399	3822.943569	16238.929413
97.539000	0.123063	0.083841	0.125728	0.174816	5917.409037	35769.766332	3818.805723	16228.475550
