sample name	sample
index	1450
start time	 05-10-2021  01:25:19 PM
880	0.148368
Peak Time (s)	92.037
Peak Height 	0.1484
calc peak height	90,93
Baseline Time (s)	11.537
Baseline Value 	-8.5754E-4
subtract baseline	10,4
Abs	0.091879
Peak Time (s)	91.537
Peak Height 	0.09188
calc peak height	90,93
Baseline Time (s)	8.536
Baseline Value 	-0.008729
subtract baseline	10,3
PK_550	0.059117
Peak Time (s)	91.537
Peak Height 	0.05912
calc peak height	90,93
Baseline Time (s)	9.036
Baseline Value 	8.4171E-4
subtract baseline	10,2
PK_880	0.086697
Peak Time (s)	91.537
Peak Height 	0.0867
calc peak height	90,93
Baseline Time (s)	10.537
Baseline Value 	-0.004869
subtract baseline	10,1


Time (s)	A880-A510	A880-A775	A880-A975	A880	I510	I775	I975	I880	
0.036000	0.004302	0.000027	0.011270	0.000905	6468.807659	43960.146997	3949.458269	22590.909242
0.536500	0.001229	-0.001336	0.007657	0.003688	6420.343748	43570.348286	3932.877484	22464.851378
1.036500	-0.000699	-0.000700	-0.000632	0.001799	6420.018887	43807.315583	3916.527967	22550.318840
1.536500	0.000220	0.000007	0.004489	0.001489	6430.140950	43903.131243	3930.387668	22564.393591
2.037000	-0.000235	-0.000823	0.003958	0.000358	6435.710369	43931.509810	3931.927061	22615.764357
2.537500	-0.001329	-0.001451	-0.003874	0.002235	6411.270479	43695.756328	3907.241275	22530.574003
3.035000	0.002696	-0.000562	0.004074	-0.002863	6486.870549	44261.514250	3940.544618	22762.881487
3.535000	0.002406	-0.000024	0.009553	0.000151	6459.309378	44026.594380	3946.946815	22625.211597
4.035500	-0.000009	-0.001022	-0.000019	-0.000598	6445.495713	44003.056241	3924.189006	22659.342853
4.535500	0.000172	-0.000109	-0.000040	0.001239	6431.809127	43915.750395	3919.454376	22575.755798
5.036500	0.000540	-0.000611	-0.000857	-0.000661	6450.560623	44047.901784	3922.213555	22662.216366
5.536500	0.000744	-0.000364	0.000183	-0.000553	6451.358273	44061.031676	3924.590070	22657.280737
6.036500	0.003017	0.000490	0.002842	0.000105	6464.766344	44079.572812	3929.712681	22627.287192
6.537000	0.000527	-0.000375	-0.002827	-0.000760	6451.267905	44079.559940	3917.452777	22666.701597
7.036500	0.002135	0.000695	0.007611	0.000319	6455.661255	44078.743851	3941.462663	22617.563265
7.535000	0.002144	0.000403	0.000712	0.000248	6456.322637	44057.835162	3923.893068	22620.772689
8.035000	-0.000114	-0.001068	0.000781	-0.001146	6449.158559	44050.513344	3927.636391	22684.323943
8.535500	-0.000031	-0.000640	0.000000	-0.000487	6444.389705	44028.712925	3923.953987	22654.267799
9.036000	-0.000271	0.000000	-0.003276	0.000475	6434.457124	43998.255493	3913.188100	22610.476298
9.539000	0.001397	0.000506	0.004732	0.000752	6445.952000	44019.857735	3932.905887	22597.848275
10.036500	-0.002740	-0.000743	-0.000295	-0.000543	6422.496771	44024.249807	3923.344069	22656.813735
10.536500	0.000000	0.000227	0.000845	0.000358	6437.654888	44030.746674	3923.951973	22615.770521
11.037000	0.000653	-0.000450	-0.001074	-0.000734	6452.100092	44070.006618	3921.844422	22665.504962
11.537500	0.000845	0.000207	0.004114	0.000000	6447.609061	44062.724113	3933.252556	22632.077079
12.037500	0.000996	0.000249	0.001581	0.000013	6448.752768	44065.474762	3926.715644	22631.479106
12.534500	0.001027	0.000641	0.001477	0.000160	6447.784807	44088.654158	3926.074018	22624.773265
13.035000	0.000144	-0.000915	-0.000378	0.000023	6441.616458	43954.469002	3921.690927	22631.044112
13.535500	0.001890	-0.000691	0.002781	-0.000047	6456.662913	43982.250165	3929.947322	22634.223452
14.038500	-0.000224	-0.001190	0.005197	0.001625	6425.367550	43777.592500	3931.857569	22558.234765
14.536000	-0.001632	-0.001150	0.000398	0.001018	6418.772855	43838.449925	3921.131187	22585.758842
15.036000	0.000494	0.000063	0.004753	0.001020	6436.268191	43952.677833	3932.269064	22585.669437
15.536500	0.002153	-0.000062	0.000500	0.000134	6457.342279	44024.545085	3923.644896	22625.955548
16.033500	0.002224	0.000238	0.004754	0.000658	6453.586248	44003.383471	3933.204994	22602.128924
16.537500	0.005564	-0.000762	0.005842	-0.001329	6498.052768	44096.861645	3941.148081	22692.670202
17.037500	0.006639	0.000172	0.009815	-0.001967	6512.467338	44246.080765	3953.165995	22721.837341
17.535000	0.003752	-0.000888	0.007962	-0.000763	6478.139927	44031.382476	3945.186690	22666.864965
18.035500	0.004646	-0.000917	0.006331	-0.000486	6483.296934	44002.443474	3940.233273	22654.229779
18.538500	0.003338	-0.001089	0.005461	-0.000414	6471.762926	43979.292807	3937.793634	22650.921813
19.036000	0.002992	-0.000416	0.007977	0.000274	6463.159383	43977.963251	3942.530519	22619.618887
19.536000	0.003818	-0.000001	0.007206	0.000080	6471.652152	44035.470097	3941.031630	22628.435968
20.036500	0.003995	-0.000808	0.006156	-0.000082	6474.484245	43974.543933	3938.733247	22635.829371
20.536500	0.006628	0.000043	0.007454	0.000263	6493.620188	44022.366755	3941.200979	22620.097079
21.037000	0.006728	-0.000117	0.011366	0.000196	6495.026155	44013.583489	3951.564615	22623.166506
21.537000	0.005602	0.000070	0.010663	0.000328	6484.479921	44018.779071	3949.380205	22617.146440
22.035000	0.005186	-0.000184	0.007780	0.000224	6481.869623	44004.541622	3942.149079	22621.893977
22.535000	0.008156	-0.000337	0.010040	0.000126	6507.608659	43999.317347	3948.282604	22626.323590
23.035500	0.004057	-0.000001	0.012760	0.000286	6471.927802	44016.066015	3954.982100	22619.070818
23.536000	0.002591	-0.001163	0.010101	-0.000668	6467.660888	43996.277646	3950.513887	22662.506856
24.036000	0.006721	-0.000479	0.008518	-0.000214	6498.406879	44018.054884	3945.203060	22641.809156
24.536000	0.003316	-0.000583	0.009116	-0.000625	6473.341082	44047.135537	3947.830226	22660.553837
25.037000	0.006021	-0.000338	0.007061	-0.000129	6491.817619	44023.420370	3941.197674	22637.954742
25.539500	0.005383	-0.000638	0.008595	-0.000872	6492.698868	44065.328258	3947.116990	22671.830556
26.040000	0.005153	-0.000229	0.008305	-0.000129	6484.546079	44033.677536	3944.427545	22637.933478
26.535000	0.003750	-0.000323	0.012602	-0.000358	6474.738303	44046.514292	3956.257244	22648.386074
27.035000	0.005293	-0.000573	0.007139	-0.000035	6484.938579	43992.270885	3941.156946	22633.685580
27.538500	0.004764	-0.000228	0.011847	-0.002368	6500.067398	44246.222252	3959.561048	22740.203670
28.036000	0.008138	0.000121	0.011798	-0.001468	6520.912330	44193.827380	3957.061987	22699.042783
28.535500	0.005560	-0.001189	0.011599	-0.002305	6506.228286	44148.939357	3958.740382	22737.319990
29.036500	0.007709	0.000327	0.012071	-0.000775	6511.445819	44147.562137	3955.956708	22667.402174
29.536500	0.006795	-0.000457	0.009896	-0.001242	6507.676744	44117.528450	3951.480767	22688.710272
30.037000	0.005909	-0.000401	0.012595	-0.001625	6503.446393	44159.191744	3959.572771	22706.224051
30.537000	0.006872	-0.000557	0.010454	-0.001734	6512.461311	44154.619494	3954.228825	22711.162719
31.034500	0.004203	-0.000869	0.012114	0.000470	6471.610798	43916.616545	3952.805349	22610.690716
31.538000	0.004617	0.000286	0.010209	-0.000966	6487.063834	44161.808468	3951.575356	22676.090606
32.037500	0.004086	-0.001123	0.010317	-0.002223	6493.149226	44147.326937	3955.153549	22733.537384
32.535000	0.006914	0.000180	0.010069	-0.000804	6504.990802	44136.333370	3950.786312	22668.707345
33.036000	0.006091	-0.000740	0.011186	-0.001383	6502.937535	44103.982119	3955.230408	22695.130528
33.536000	0.004558	-0.000714	0.010248	-0.004027	6512.294112	44357.892927	3959.717848	22816.292677
34.036000	0.006932	-0.000099	0.005275	-0.000466	6502.294978	44077.869718	3937.447431	22653.295353
34.536500	0.005160	-0.000044	0.008420	0.000207	6481.798820	44019.404637	3943.852261	22622.652218
35.037000	0.004641	-0.000326	0.009136	0.000031	6478.929820	44009.399389	3946.173400	22630.675474
35.537500	0.003952	-0.000789	0.005787	-0.000184	6474.966718	43985.879891	3938.040979	22640.439255
36.037000	0.006190	-0.000031	0.009908	0.000119	6491.151643	44028.911157	3947.955473	22626.640758
36.537500	0.004123	-0.000219	0.012393	-0.000259	6477.024580	44046.910224	3955.448437	22643.860112
37.035500	0.003090	-0.001048	0.009136	-0.000575	6471.041662	43998.392200	3947.751714	22658.253512
37.536000	0.004893	-0.000366	0.007675	-0.000412	6484.747122	44047.573199	3943.528281	22650.862461
38.036000	0.005797	-0.000216	0.007869	0.000381	6485.669676	43986.675380	3941.972965	22614.748835
38.536000	0.005311	-0.000614	0.010526	-0.000441	6488.479782	44026.786715	3951.032228	22652.159239
39.036500	0.004414	-0.000055	0.005852	-0.000174	6478.745526	44054.508716	3938.185832	22640.021645
39.536500	0.002729	-0.000246	0.007990	-0.000225	6465.119565	44041.239297	3943.860524	22642.342034
40.034500	0.003426	-0.000535	0.009091	-0.000639	6474.376732	44053.029452	3947.802804	22661.194887
40.540000	0.005683	-0.000853	0.011963	-0.000873	6495.222257	44044.988573	3955.928995	22671.846496
41.035000	0.005970	-0.000752	0.011083	-0.001061	6499.215300	44072.402369	3954.114698	22680.449800
41.535000	0.004754	-0.000991	0.008354	-0.000737	6486.292766	44019.103976	3946.137561	22665.643028
42.035500	0.004028	-0.001027	0.005508	-0.001232	6484.358771	44062.586106	3940.031390	22688.246425
42.535500	0.006224	0.001129	0.013996	0.000831	6485.480392	44071.376769	3956.797222	22594.298067
43.036000	0.007365	-0.000440	0.009208	-0.000463	6505.915481	44045.332320	3947.648241	22653.172624
43.536500	0.005776	-0.000649	0.013497	-0.000991	6497.000418	44075.589379	3960.278638	22677.267809
44.036500	0.010829	0.000549	0.011819	-0.004559	6570.098789	44529.466822	3965.271355	22840.731114
44.537000	0.006362	-0.000457	0.009213	-0.002033	6510.690265	44192.559110	3951.761162	22724.837494
45.039500	0.005285	0.000157	0.007941	-0.001615	6498.114677	44211.233676	3947.348997	22705.737679
45.534500	0.005961	-0.000587	0.004335	-0.002089	6507.780156	44185.513197	3939.211910	22727.400394
46.035000	0.003496	-0.000131	0.008995	-0.001609	6483.070149	44183.312492	3950.084954	22705.492373
46.535500	0.004979	-0.000533	0.013111	-0.001761	6496.767407	44159.548967	3961.290825	22712.425655
47.035500	0.005995	0.000033	0.008504	-0.001597	6503.930892	44197.699320	3948.771784	22704.925050
47.536000	0.005308	-0.000469	0.009419	-0.000243	6486.794262	44021.757138	3947.624435	22643.123860
48.036000	0.004655	0.000371	0.010619	0.001774	6464.513965	43910.569260	3945.496383	22551.464936
48.536500	0.004504	-0.000865	0.009511	-0.002456	6498.617062	44194.017171	3953.651200	22744.207461
49.036500	0.004955	0.000199	0.011262	-0.001218	6492.010312	44177.443297	3954.997351	22687.601228
49.537000	0.006173	-0.000700	0.010714	-0.004181	6527.238341	44373.883734	3961.351005	22823.355073
50.037500	0.004851	-0.000521	0.011982	0.000775	6474.470361	43920.696860	3951.661460	22596.834647
50.534000	0.006843	0.000704	0.007722	-0.005921	6547.694231	44674.954647	3958.051400	22903.502107
51.035000	0.023595	-0.035722	0.107608	0.458710	4168.665951	16105.711797	3308.690015	9735.019030
51.535500	-0.023108	-0.034284	0.005889	0.047411	5902.513229	36994.894896	3821.732890	20587.061331
52.035500	0.008068	-0.004608	0.004560	0.065079	5998.938023	37949.677189	3778.657876	19880.301636
52.536000	-0.023437	-0.071687	-0.026523	-0.241261	8778.894448	63676.329342	4631.034260	37321.062672
53.036500	-0.005271	-0.072401	-0.008542	-0.245828	9097.486223	64217.636941	4727.796010	37685.376198
53.536500	-0.003556	-0.031972	-0.002210	-0.161839	8019.362129	58369.602022	4414.641546	31561.341612
54.037000	-0.021914	-0.032798	-0.021556	-0.167567	7871.210589	58998.835027	4365.270957	31942.465246
54.537000	-0.020690	-0.049273	-0.019006	-0.212044	8428.351905	62732.360768	4542.533726	35078.869462
55.037500	-0.010579	-0.047640	-0.005954	-0.207041	8494.347318	62270.265511	4574.845694	34709.839744
55.535000	-0.005655	-0.031204	0.009588	-0.154099	7903.577671	57486.865968	4429.658821	31054.335039
56.035500	-0.002646	-0.017072	0.012943	-0.081672	7157.120658	50635.242686	4192.275188	26723.279316
56.535500	0.005354	-0.008749	0.016226	-0.047588	6906.075374	47888.432969	4097.998453	24921.973356
57.036000	0.017281	-0.001109	0.026066	-0.018021	6744.639087	45675.375609	4041.036850	23469.868495
57.536000	0.023905	0.005411	0.033581	0.006261	6589.476389	43962.799665	3994.616029	22349.059492
58.036500	0.024730	0.010672	0.040165	0.047896	6254.129170	40666.883537	3903.170822	20567.290626
58.536000	0.027331	0.009436	0.032794	0.043966	6305.691880	40901.631562	3894.584972	20728.254324
59.037000	0.035392	0.015947	0.036795	0.024135	6534.886226	43275.485499	3955.469180	21563.158210
59.539500	0.042566	0.017811	0.046792	0.002310	6789.314111	45536.749620	4042.152939	22527.172905
60.035000	0.044550	0.020479	0.054330	0.045820	6430.134873	41713.414999	3944.626192	20652.146513
60.535000	0.046774	0.022895	0.053353	0.063204	6307.333426	40399.889713	3897.875470	19953.971591
61.035500	0.052611	0.025162	0.060394	0.100806	6063.508447	37472.760847	3824.310394	18536.043200
61.536000	0.053106	0.025829	0.065213	0.107283	6019.556121	37013.810779	3820.465853	18303.969474
62.036000	0.052689	0.029977	0.073512	0.130790	5849.698904	35528.347635	3785.876023	17490.182457
62.539000	0.056781	0.033724	0.069532	0.131750	5871.402506	35738.168729	3774.896375	17457.873035
63.036500	0.059233	0.036237	0.071075	0.128366	5912.272140	36186.477602	3785.845210	17572.061622
63.536500	0.060082	0.038731	0.069514	0.123027	5956.209791	36791.578268	3794.326108	17754.056342
64.039500	0.062110	0.040330	0.070940	0.119705	5994.710636	37177.364121	3805.089068	17868.461119
64.537500	0.063299	0.041153	0.068760	0.117075	6022.477198	37450.662843	3806.113736	17959.606534
65.035000	0.066174	0.042532	0.074291	0.116179	6050.144547	37631.907468	3820.887574	17990.803214
65.535500	0.064578	0.043362	0.073205	0.115931	6040.230593	37718.078052	3818.946669	17999.443423
66.035500	0.062995	0.042444	0.072378	0.122439	5981.355087	37128.505335	3802.140419	17774.257016
66.535500	0.064464	0.044316	0.073838	0.121482	5998.890443	37351.973706	3807.647035	17807.165616
67.038500	0.064420	0.044958	0.071551	0.124370	5977.702666	37174.455341	3795.890288	17708.067906
67.536500	0.065977	0.045430	0.069460	0.126203	5975.721831	37067.346076	3787.072432	17645.548297
68.036500	0.062505	0.046689	0.076230	0.133485	5899.276728	36597.323595	3785.926201	17399.657935
68.536500	0.068663	0.048111	0.075815	0.130203	5966.278937	36963.824110	3792.355974	17509.972891
69.037000	0.067538	0.048256	0.073867	0.131304	5950.348763	36889.050935	3785.520042	17472.881884
69.537500	0.071141	0.048948	0.074337	0.132969	5964.209316	36813.081175	3782.853664	17416.944371
70.035000	0.071910	0.049637	0.077367	0.137888	5934.597200	36484.719606	3778.653676	17252.963167
70.535500	0.075262	0.049367	0.077125	0.133972	5986.650240	36767.538343	3786.839443	17383.369906
71.035500	0.074423	0.050657	0.080320	0.134988	5973.279670	36788.882039	3791.725916	17349.411734
71.538500	0.075762	0.051810	0.082050	0.136047	5975.295733	36796.228906	3793.235546	17314.134978
72.036500	0.075725	0.051461	0.078310	0.141800	5933.908694	36323.813092	3772.089945	17123.898108
72.536500	0.077547	0.052077	0.084788	0.137711	5976.164531	36687.494696	3795.656473	17258.857914
73.037000	0.077407	0.052329	0.083833	0.138576	5968.938446	36639.863091	3791.556946	17230.201847
73.537000	0.081398	0.052959	0.085202	0.139162	5993.489308	36643.349481	3793.320376	17210.829559
74.037500	0.078275	0.051972	0.081521	0.143719	5938.391967	36215.739091	3774.940098	17060.994707
74.537500	0.081608	0.053117	0.084785	0.138803	5997.605526	36683.447541	3793.188673	17222.681720
75.035000	0.081405	0.053612	0.088894	0.139342	5992.236508	36680.036573	3801.259194	17204.867639
75.535500	0.084707	0.053461	0.080791	0.138950	6019.074833	36698.724891	3783.908300	17217.822735
76.035500	0.082289	0.054398	0.088749	0.139383	5998.343491	36737.983791	3800.838524	17203.519306
76.536000	0.084602	0.053365	0.088969	0.139056	6017.536303	36683.109856	3802.081892	17214.331489
77.036000	0.081727	0.054856	0.085325	0.139689	5992.051819	36749.777571	3792.408872	17193.396633
77.536500	0.083859	0.054947	0.090532	0.139611	6008.085405	36763.000042	3804.373733	17195.996323
78.037000	0.082704	0.055574	0.089863	0.145383	5958.115624	36364.624353	3789.811762	17006.682178
78.537000	0.085585	0.055996	0.087698	0.138642	6027.736975	36920.487916	3800.134533	17228.013573
79.035000	0.085127	0.056688	0.091000	0.138521	6025.275742	36984.101447	3807.928032	17232.011408
79.534500	0.083413	0.056712	0.086658	0.137994	6016.611970	37027.342205	3799.246612	17249.471196
80.035500	0.084534	0.057626	0.088226	0.138170	6023.504696	37085.336995	3802.406165	17243.642384
80.535500	0.087275	0.057295	0.089752	0.137863	6045.857821	37083.470349	3806.581279	17253.821003
81.035500	0.087094	0.056691	0.088436	0.136625	6053.640640	37133.294071	3806.401791	17294.893515
81.536000	0.087864	0.057693	0.089063	0.136474	6060.439984	37224.272966	3808.180180	17299.933825
82.036500	0.088096	0.058130	0.090920	0.136193	6064.238407	37280.944076	3813.079270	17309.277230
82.537000	0.085360	0.058421	0.086572	0.136294	6043.309777	37295.997816	3802.909323	17305.913823
83.037000	0.085330	0.057610	0.094391	0.135571	6048.408186	37288.976367	3822.526738	17329.974777
83.537000	0.087807	0.058868	0.087283	0.135618	6066.350569	37384.869316	3806.069255	17328.404510
84.035000	0.084885	0.057832	0.089869	0.140101	6011.986252	36949.964739	3801.751835	17179.828105
84.535000	0.086263	0.058072	0.091504	0.134534	6062.947908	37407.790111	3818.247790	17364.593490
85.035500	0.087043	0.058754	0.091796	0.134679	6067.643094	37450.383385	3818.584905	17359.719344
85.536000	0.085608	0.058455	0.093541	0.135084	6054.051373	37394.578792	3821.687515	17346.230920
86.036000	0.086714	0.058971	0.091033	0.140428	6022.937240	37013.688152	3803.654266	17169.051780
86.536000	0.085793	0.058787	0.090112	0.135140	6054.993345	37416.386517	3813.641713	17344.334579
87.036500	0.085523	0.059062	0.092462	0.135363	6051.356636	37420.547709	3818.542990	17336.905355
87.537000	0.086523	0.059731	0.087428	0.136406	6051.042348	37390.909002	3804.604622	17302.191738
88.037000	0.087149	0.060270	0.088930	0.137039	6050.995806	37383.447748	3806.585410	17281.146487
88.537500	0.086691	0.059984	0.085069	0.137322	6045.529748	37338.270379	3797.169874	17271.735946
89.038000	0.084310	0.057543	0.088964	0.136840	6031.592464	37183.500304	3807.114647	17287.743500
89.535500	0.087383	0.059939	0.093804	0.139117	6037.432790	37192.901903	3812.987004	17212.301827
90.035500	0.082048	0.057864	0.084294	0.143595	5966.223600	36679.891516	3781.363932	17065.046174
90.538500	0.084937	0.058740	0.091546	0.139886	6013.928646	37038.074936	3806.057309	17186.912123
91.036000	0.084127	0.057985	0.090524	0.140726	6001.931286	36913.052023	3801.819382	17159.225554
91.536500	0.086697	0.059117	0.091879	0.142663	6006.529039	36850.175717	3800.497347	17095.594647
92.036500	0.080764	0.057145	0.088801	0.148368	5923.075545	36255.997993	3780.772416	16909.787420
92.537000	0.084206	0.057810	0.089286	0.144505	5975.192716	36605.152326	3790.487953	17035.318089
93.037000	0.085366	0.057159	0.091107	0.145324	5977.642634	36491.325714	3792.738705	17008.599605
93.548000	0.086712	0.058869	0.092172	0.148393	5965.268040	36386.528978	3788.241040	16908.974853
94.035500	0.083400	0.056991	0.089298	0.153330	5906.660229	35865.858703	3770.897668	16750.163668
94.535000	0.085221	0.057953	0.096643	0.150541	5939.276774	36151.410327	3793.459601	16839.649984
95.036000	0.085601	0.057707	0.091969	0.151442	5935.573659	36063.839965	3780.981804	16810.678734
95.536000	0.084873	0.057874	0.093835	0.153388	5916.632584	35928.455259	3780.803813	16748.298368
96.036500	0.081437	0.057697	0.093775	0.159598	5849.279328	35446.794968	3766.963719	16551.096481
