sample name	sample
index	1523
start time	 05-18-2021  03:33:14 PM
880	0.551005
Peak Time (s)	92.035
Peak Height 	0.551
calc peak height	90,93
Baseline Time (s)	9.534
Baseline Value 	-0.003405
subtract baseline	10,4
Abs	0.375540
Peak Time (s)	92.535
Peak Height 	0.3755
calc peak height	90,93
Baseline Time (s)	9.035
Baseline Value 	0.00401
subtract baseline	10,3
PK_550	0.200295
Peak Time (s)	90.038
Peak Height 	0.2003
calc peak height	90,93
Baseline Time (s)	11.537
Baseline Value 	4.4602E-4
subtract baseline	10,2
PK_880	0.354950
Peak Time (s)	92.035
Peak Height 	0.355
calc peak height	90,93
Baseline Time (s)	9.035
Baseline Value 	0.001472
subtract baseline	10,1


Time (s)	A880-A510	A880-A775	A880-A975	A880	I510	I775	I975	I880	
0.038000	-0.002621	-0.000754	0.001210	0.000862	6603.974707	44045.187812	4024.903778	22865.543152
0.541000	-0.001562	-0.000588	-0.004726	0.003184	6593.572498	43842.250746	4005.529869	22759.745704
1.036000	-0.002539	-0.000367	-0.006435	0.004728	6572.895555	43718.138496	3997.996022	22689.656576
1.536000	-0.000585	-0.000520	0.000131	0.000517	6623.670348	44099.923556	4023.167683	22881.343993
2.036500	-0.001338	-0.000927	-0.002640	0.000092	6620.948634	44101.555935	4017.636124	22900.781132
2.536500	0.000681	0.000807	-0.004796	0.001564	6625.490161	44126.378349	4009.138409	22833.501117
3.037000	-0.003397	-0.001282	-0.004504	0.003727	6574.063768	43726.193070	4004.783118	22735.044785
3.537500	-0.002251	-0.000125	-0.007707	0.000715	6608.241868	44118.576718	4004.340742	22872.292521
4.037500	-0.000891	-0.000196	0.002483	0.000834	6618.506276	44100.617586	4027.992100	22866.859811
4.535000	-0.002251	0.000150	-0.003630	0.000952	6606.286726	44122.071714	4013.293314	22861.441087
5.035500	-0.002862	-0.000864	-0.003448	-0.000089	6609.836377	44124.589432	4016.161575	22909.055353
5.535500	-0.000446	-0.000628	-0.001825	0.000444	6625.425930	44096.580302	4018.724275	22884.663574
6.035500	-0.002415	-0.000355	0.002529	-0.000018	6612.950098	44166.168808	4030.128346	22905.837986
6.536000	-0.001944	-0.000239	0.000184	0.000015	6616.562794	44173.877695	4024.479579	22904.287539
7.036000	-0.002450	-0.000646	-0.004709	-0.000288	6614.888589	44164.052203	4013.669503	22918.175648
7.536500	-0.001113	-0.000322	0.001589	-0.000122	6624.589099	44179.129765	4028.138383	22910.593191
8.037000	-0.000787	-0.000411	-0.004232	-0.000018	6626.433269	44160.782173	4014.156137	22905.816539
8.536500	-0.001217	0.000763	-0.003639	0.000980	6614.599895	44177.458311	4013.205489	22860.157332
9.035000	0.000000	0.000182	0.000000	0.000327	6630.103329	44184.281182	4023.307287	22890.022161
9.534500	-0.002573	-0.000038	0.000388	0.000000	6611.493092	44194.369852	4024.999951	22904.992331
10.035500	0.000778	0.000015	0.005199	0.000398	6635.981650	44161.750954	4035.507012	22886.765367
10.536000	-0.001594	-0.000801	-0.004404	-0.000614	6624.687520	44180.367347	4015.150817	22933.148492
11.035000	0.000378	-0.000582	-0.006492	-0.000625	6641.168648	44201.990501	4010.287342	22933.610920
11.536500	0.000379	0.000000	0.000739	-0.000008	6636.039755	44198.743175	4025.849691	22905.349810
12.036500	-0.002150	-0.000513	-0.002070	0.000192	6613.397541	44131.303848	4018.739974	22896.198981
12.536500	0.000015	-0.001266	-0.003313	-0.000443	6636.631618	44120.155062	4017.310422	22925.288330
13.040000	0.000725	0.000370	0.001958	-0.000143	6640.047768	44246.659474	4029.067479	22911.553546
13.543000	-0.001541	-0.000692	-0.000168	-0.000885	6627.376723	44216.287497	4025.781318	22945.577380
14.035000	-0.002450	-0.000112	-0.002011	0.002396	6592.745499	43961.063025	4013.702640	22795.562646
14.534500	-0.003938	-0.000696	-0.002525	0.001700	6586.247992	43971.700467	4014.131797	22827.318103
15.043000	-0.006284	-0.000986	-0.006509	0.005031	6539.943527	43631.852811	3997.126210	22675.924350
15.536000	-0.000086	0.000635	0.002337	-0.000292	6634.533291	44285.935110	4030.322862	22918.369484
16.036000	-0.001058	-0.000562	-0.001738	0.000097	6623.230267	44135.561557	4019.745551	22900.536399
16.536000	-0.000627	0.000087	0.002550	-0.000570	6632.352847	44260.343282	4031.493656	22931.128636
17.036500	0.001844	0.000510	-0.002583	-0.002794	6671.603612	44512.211095	4024.582207	23033.364810
17.536500	-0.000729	0.000656	-0.003897	0.001054	6618.027014	44160.361778	4012.429148	22856.790953
18.037500	-0.001822	-0.000309	-0.003400	0.000595	6612.780528	44112.530715	4014.671173	22877.784795
18.534500	-0.001166	-0.000272	0.000241	0.001050	6614.446680	44072.946928	4022.167976	22856.979198
19.034500	-0.000289	-0.000017	-0.001169	0.000847	6623.390845	44116.279442	4019.321576	22866.251520
19.535000	-0.002086	-0.000408	0.002811	0.000702	6609.711225	44093.011386	4029.085880	22872.888691
20.035500	-0.002134	-0.000235	0.002066	0.001228	6604.974289	44059.625928	4026.067205	22848.839017
20.535500	-0.001205	0.000261	-0.001311	0.001034	6614.250331	44124.811357	4018.544030	22857.684465
21.036500	-0.001449	-0.000802	-0.002669	0.000501	6616.646344	44074.805682	4016.605381	22882.077480
21.536500	-0.002181	-0.000419	0.001825	0.000250	6612.661602	44134.703756	4027.815470	22893.548577
22.037000	-0.001895	0.000262	-0.002273	0.000712	6611.214033	44155.408300	4017.041302	22872.428790
22.539500	0.001324	0.000146	-0.003250	0.000750	6637.603235	44140.889232	4014.657729	22870.698066
23.037500	-0.000665	-0.000334	-0.004625	0.000417	6623.839325	44126.956948	4012.215766	22885.904789
23.535000	0.000055	0.000456	-0.001459	0.000880	6625.964037	44157.886705	4018.559436	22864.732808
24.035500	-0.001196	-0.000238	-0.001632	0.000458	6619.095521	44132.147879	4019.146735	22884.053053
24.543500	-0.000209	0.000099	-0.003761	0.000513	6626.827697	44158.835931	4014.015259	22881.518520
25.035500	-0.000552	-0.000350	-0.000229	0.001955	6612.031002	43980.216801	4018.925332	22815.660625
25.535500	-0.001423	0.000504	-0.001000	0.000831	6614.128588	44166.976364	4019.757274	22866.969877
26.036000	-0.001416	0.000691	0.000258	0.001381	6609.642301	44132.685663	4021.428077	22841.872825
26.536500	-0.001792	-0.000052	0.000236	0.000675	6612.370388	44129.230694	4023.043795	22874.124613
27.037000	-0.000958	-0.000086	0.002505	-0.001006	6633.218383	44285.211509	4032.424921	22951.098264
27.536500	0.000840	-0.000021	-0.003546	-0.001571	6652.932801	44345.129523	4019.419333	22977.081969
28.035000	-0.000212	0.000306	-0.000713	-0.000522	6635.399767	44276.528091	4023.630199	22928.911004
28.535000	-0.000720	0.000071	0.001449	-0.000309	6629.412747	44234.032229	4028.252131	22919.165990
29.035500	-0.004552	-0.000149	0.000113	0.005387	6551.113592	43676.925626	4011.676235	22659.856659
29.535500	-0.000563	0.000452	0.001046	-0.000058	6628.626905	44246.346123	4026.697108	22907.641620
30.035500	-0.000021	0.000337	-0.003253	-0.000477	6636.618723	44275.152996	4017.532067	22926.842657
30.535500	-0.001282	-0.000574	-0.006638	0.001239	6611.918696	44026.598152	4005.607624	22848.350988
31.036000	-0.002579	-0.000255	-0.000244	0.003648	6581.403937	43829.876426	4014.909119	22738.632471
31.537000	-0.000059	-0.000268	-0.004312	-0.000273	6634.597719	44198.443136	4014.565755	22917.486680
32.040000	-0.001152	-0.000232	-0.000449	-0.000078	6623.898566	44183.413768	4023.201645	22908.553003
32.537500	-0.001946	-0.000122	0.003502	-0.000091	6617.428282	44195.124839	4032.620039	22909.167099
33.035000	-0.003345	-0.000269	-0.003143	0.004045	6571.890439	43791.379855	4007.208780	22720.644045
33.535000	-0.000730	0.000668	0.002559	-0.001594	6640.011057	44412.863762	4033.956430	22978.096919
34.035000	-0.001130	-0.000003	0.000625	0.001653	6609.755051	44041.434379	4021.650685	22829.441433
34.535000	0.000123	0.000155	-0.001741	0.001143	6624.349665	44104.495989	4017.279024	22852.731361
35.035500	-0.001614	0.000025	-0.005065	0.001742	6605.024340	44035.728534	4008.095719	22825.394328
35.536000	-0.003418	0.000070	-0.003800	0.001090	6595.533717	44101.472292	4012.572195	22855.147136
36.036500	0.001021	0.000033	0.000802	0.001587	6628.115528	44051.037469	4022.226055	22832.461559
36.537000	-0.002491	-0.000033	-0.000575	0.001229	6602.016798	44078.567849	4019.820155	22848.780811
37.037000	-0.002225	-0.000619	-0.007449	0.000608	6609.338142	44081.868495	4005.187264	22877.152468
37.534500	-0.000688	0.000018	0.002760	0.001107	6617.923553	44094.962992	4028.001120	22854.355022
38.035000	-0.002287	0.000534	0.004750	0.001527	6601.245235	44104.051479	4031.738367	22835.207769
38.535500	-0.001432	0.000202	-0.000009	0.001369	6609.606035	44087.583533	4020.826111	22842.417678
39.035500	-0.001324	0.000258	0.004223	0.001273	6611.293432	44101.947637	4031.087187	22846.792361
39.535500	0.000215	-0.000430	0.002437	0.000555	6629.996014	44104.815675	4028.544472	22879.585993
40.036000	0.000857	0.000419	-0.000796	0.001731	6625.558690	44073.890148	4018.115992	22825.864425
40.536500	-0.000045	0.000553	-0.000699	0.001766	6617.796375	44083.337964	4018.263858	22824.310884
41.036000	-0.001985	-0.000195	0.003603	0.001298	6605.622923	44056.749669	4029.549894	22845.625835
41.539500	-0.001174	0.000520	-0.001448	0.001747	6608.609911	44081.881825	4016.545959	22825.137498
42.037000	0.000450	-0.000025	0.004275	0.001486	6624.213446	44055.118095	4030.701977	22837.049820
42.534500	0.000415	0.000144	0.000432	0.001779	6621.499044	44043.437732	4020.897634	22823.710956
43.034500	0.000480	-0.000383	-0.001461	0.001419	6625.023399	44027.600918	4017.287287	22840.119217
43.535000	-0.002216	-0.000325	-0.004951	0.000950	6606.589748	44077.371081	4010.208899	22861.547541
44.035500	0.000048	0.000218	-0.002961	0.000059	6632.729833	44213.116234	4016.959485	22902.304687
44.535500	0.001063	0.000206	0.001032	-0.000186	6643.229969	44235.189116	4026.968122	22913.530654
45.036500	-0.000435	0.000040	-0.000603	-0.000264	6631.403315	44226.793670	4023.278281	22917.093495
45.536500	0.000300	0.001040	0.005100	0.000167	6633.927988	44280.758590	4035.821662	22897.339875
46.042500	0.000526	0.000734	-0.002467	0.000726	6631.160274	44198.819531	4016.553016	22871.785274
46.540000	-0.000257	0.000149	-0.002103	0.000148	6629.451286	44198.075971	4018.767551	22898.214353
47.037500	-0.001462	-0.000359	0.002514	0.001264	6610.224826	44044.488362	4027.042502	22847.176793
47.538000	0.000294	-0.000241	0.003234	0.001836	6620.022177	44001.679662	4027.392923	22821.075621
48.035500	-0.000877	-0.000309	-0.000383	0.000448	6621.825140	44126.421470	4022.117109	22884.509470
48.535500	0.001431	0.000932	-0.004081	0.000560	6640.070150	44233.274588	4013.155896	22879.356956
49.035500	-0.001882	-0.000875	-0.005594	0.003660	6587.026175	43770.636328	4002.410734	22738.101426
49.541500	0.000396	0.000797	0.001096	-0.001663	6649.983561	44431.697797	4030.631883	22981.291511
50.036000	-0.002406	-0.000135	-0.002908	-0.000987	6621.047105	44278.814234	4019.545097	22950.256940
50.536500	0.001482	0.000352	0.003744	0.010056	6562.220859	43288.839330	4009.248250	22449.787844
51.037000	-0.008034	-0.009020	0.005826	0.024878	6369.256891	41108.706694	3979.963152	21797.818932
51.537000	-0.005615	-0.021065	-0.006501	0.338276	4657.426167	21041.285986	3460.895389	12144.341866
52.037500	-0.003121	-0.028009	-0.009271	-0.052077	7063.751826	46542.500034	4130.555733	25438.539343
52.534500	-0.000576	-0.067617	-0.001295	-0.234704	9213.025764	63503.533776	4755.543367	37158.632426
53.035000	0.004725	-0.076140	0.005717	-0.248223	9487.248206	64202.962983	4840.712538	38238.116308
53.536000	0.013849	-0.054754	0.022383	-0.218278	9184.559282	63009.680973	4785.166871	35891.456562
54.035000	0.020811	-0.033528	0.029401	-0.175436	8695.859097	60098.538136	4643.524830	32803.419316
54.536500	0.036464	-0.015489	0.042459	-0.124798	8256.669788	55973.398601	4506.969940	29525.321536
55.036000	0.047602	-0.002050	0.060163	-0.079958	7865.775512	52282.295168	4415.464553	26925.082012
55.539500	0.066984	0.008168	0.087004	-0.068078	7950.180711	52094.237286	4465.208698	26279.977047
56.037000	0.090464	0.020935	0.103645	-0.007557	7547.228994	46987.756552	4324.035268	23254.054042
56.534500	0.104828	0.036628	0.119226	0.079330	6851.206300	40345.117786	4122.980039	19584.859065
57.034500	0.132617	0.047793	0.142973	0.155715	6445.769782	35145.124893	3994.360732	16912.897968
57.535000	0.148619	0.059799	0.159509	0.185731	6337.030228	33841.488691	3963.854352	15985.003491
58.035500	0.175133	0.074577	0.184759	0.224720	6243.144287	32172.100954	3933.721527	14871.620246
58.536000	0.205912	0.093257	0.210294	0.244168	6328.311118	32120.644981	3946.954630	14352.523874
59.036000	0.229058	0.110617	0.239104	0.322386	5934.468541	28320.023091	3844.718798	12484.434437
59.536000	0.246744	0.122641	0.261251	0.353433	5846.213385	27237.233208	3827.506905	11831.328327
60.036500	0.262154	0.132031	0.266562	0.403252	5631.041355	25087.619090	3746.531267	10876.179205
60.537000	0.276898	0.141210	0.295305	0.440189	5501.037490	23723.395654	3732.508896	10235.487973
61.037000	0.287097	0.149139	0.305459	0.458605	5454.567062	23230.284103	3718.632738	9935.838053
61.537500	0.293422	0.156317	0.311072	0.462315	5469.258814	23392.013336	3721.806561	9876.996766
62.035000	0.303106	0.162237	0.317215	0.487107	5385.565540	22527.141491	3691.306499	9496.410317
62.535000	0.309641	0.171285	0.329481	0.490958	5400.224732	22761.603906	3704.907218	9439.223104
63.038500	0.313472	0.174794	0.323503	0.491460	5418.531206	22898.529932	3694.410675	9431.806513
63.538500	0.321057	0.178835	0.330145	0.491905	5458.264692	23063.519252	3704.444925	9425.233292
64.036500	0.321543	0.179161	0.330276	0.493601	5451.484420	23000.516236	3701.898527	9400.273923
64.536000	0.322995	0.180235	0.333696	0.494516	5454.489738	23007.801304	3705.979137	9386.834440
65.036000	0.326222	0.183105	0.339374	0.497373	5456.565387	23008.382485	3710.604374	9345.072571
65.537000	0.330376	0.184520	0.337697	0.499487	5468.028445	22976.328947	3704.396848	9314.355046
66.037500	0.329976	0.186333	0.342976	0.501001	5457.267432	22990.015428	3710.562372	9292.437006
66.534500	0.330952	0.186814	0.342340	0.503356	5449.550672	22904.202562	3705.659822	9258.517220
67.035500	0.335712	0.191344	0.338664	0.509015	5444.525091	22852.660730	3690.572831	9177.720834
67.540500	0.334613	0.192781	0.356319	0.509925	5433.342822	22876.674691	3717.867362	9164.828245
68.035500	0.337464	0.192456	0.342802	0.513416	5429.791194	22703.296626	3690.153055	9115.620432
68.536000	0.339796	0.194219	0.350105	0.516530	5425.464150	22642.255581	3696.879078	9072.065125
69.036500	0.343353	0.194383	0.356256	0.519137	5430.724322	22532.378840	3702.620025	9035.825699
69.537000	0.339389	0.195272	0.356927	0.520963	5398.816986	22490.400529	3700.742691	9010.574336
70.036500	0.340318	0.194606	0.355674	0.523676	5389.071960	22339.786904	3694.339668	8973.266176
70.537000	0.341341	0.195644	0.349635	0.525690	5383.674729	22296.466274	3681.511760	8945.705613
71.035000	0.341529	0.197370	0.357106	0.530360	5359.425505	22166.486404	3685.947439	8882.315383
71.535000	0.345740	0.197205	0.362746	0.530049	5383.895337	22172.874377	3695.463882	8886.510848
72.035000	0.348419	0.197282	0.353323	0.532092	5387.358277	22086.531801	3677.243555	8858.973115
72.541000	0.347533	0.197695	0.356419	0.531847	5383.865890	22115.409224	3682.503204	8862.266522
73.036000	0.345459	0.197914	0.356302	0.533746	5362.350831	22041.792002	3679.324803	8836.767417
73.536500	0.347796	0.198418	0.350497	0.532206	5383.340678	22131.376136	3672.647392	8857.432085
74.036500	0.346328	0.199161	0.354614	0.532397	5374.337618	22155.655949	3678.791365	8854.873035
74.539500	0.349591	0.201289	0.361960	0.533458	5386.297823	22202.624084	3688.740717	8840.622909
75.040000	0.351094	0.200536	0.361123	0.533278	5395.480433	22177.383675	3687.695170	8843.041091
75.537000	0.352480	0.201838	0.359351	0.533779	5400.327946	22212.718908	3684.084754	8836.329682
76.034500	0.351523	0.202939	0.362977	0.534523	5391.025767	22228.431063	3688.664082	8826.363909
76.535500	0.355017	0.202771	0.364382	0.534774	5408.787019	22209.946305	3690.508434	8823.013440
77.035000	0.353102	0.203578	0.358687	0.534699	5398.693020	22248.898245	3681.580357	8824.014283
77.535500	0.354849	0.203518	0.361793	0.534899	5407.174377	22237.408715	3686.183199	8821.344266
78.036000	0.354642	0.204387	0.362664	0.535688	5401.706393	22240.948096	3686.312354	8810.804074
78.536000	0.353510	0.202491	0.360779	0.534401	5402.555625	22214.045333	3685.361706	8827.995452
79.039500	0.354649	0.202194	0.357924	0.533910	5411.513081	22222.619363	3681.621756	8834.574179
79.536500	0.350234	0.204119	0.361590	0.536610	5372.677148	22188.459419	3683.148824	8798.528169
80.037000	0.351791	0.202041	0.361200	0.535336	5388.050489	22153.052445	3684.546892	8815.500171
80.534000	0.352365	0.203772	0.363704	0.537494	5379.434940	22134.259903	3685.096115	8786.768507
81.034500	0.352514	0.202469	0.367582	0.537079	5382.500388	22095.302598	3691.939036	8792.278348
81.535500	0.353345	0.203061	0.365619	0.538391	5379.890683	22063.751926	3686.712436	8774.868252
82.035500	0.352418	0.203034	0.360893	0.537707	5378.567476	22092.568887	3680.316849	8783.943034
82.535500	0.353033	0.202821	0.360597	0.538711	5376.455116	22039.254985	3678.271819	8770.622943
83.036000	0.354838	0.203592	0.366257	0.539793	5380.382347	22025.684501	3685.498521	8756.308684
83.539000	0.353722	0.202724	0.365508	0.539795	5374.317410	21987.742468	3684.308344	8756.289704
84.036500	0.352638	0.201685	0.362941	0.540035	5367.152098	21932.037631	3679.874473	8753.111052
84.537000	0.354484	0.202707	0.366660	0.541544	5368.977394	21910.888669	3683.362654	8733.223666
85.038500	0.352512	0.202327	0.359894	0.541703	5357.486767	21887.503607	3672.492623	8731.131108
85.534500	0.354383	0.200009	0.366340	0.541242	5370.066406	21807.153128	3683.335077	8737.206103
86.034500	0.352483	0.201885	0.359180	0.543313	5348.686973	21798.728000	3668.884599	8709.994625
86.535000	0.355268	0.201343	0.363533	0.543244	5364.029483	21778.317691	3675.768403	8710.901136
87.036000	0.352394	0.201889	0.365096	0.544428	5342.243617	21750.851838	3676.361951	8695.404106
87.536000	0.352426	0.200305	0.367215	0.544112	5344.102412	21696.281091	3680.184768	8699.523859
88.036500	0.355908	0.199817	0.364721	0.544764	5359.283258	21647.405075	3675.248478	8691.001927
88.539000	0.356757	0.200359	0.364429	0.545904	5357.721901	21621.863271	3673.014493	8676.139630
89.037000	0.356377	0.200063	0.367638	0.547043	5349.567778	21560.631850	3676.247290	8661.321913
89.539500	0.355381	0.200178	0.371518	0.547054	5344.171189	21565.033389	3682.332805	8661.175179
90.037500	0.353351	0.200295	0.368401	0.549002	5322.993392	21487.135936	3674.375896	8635.914552
90.535000	0.353634	0.200135	0.370121	0.549060	5324.185865	21477.906677	3676.976982	8635.166927
91.035000	0.352330	0.198043	0.362761	0.547750	5324.220105	21444.772882	3667.560241	8652.141907
91.535500	0.353453	0.198887	0.365535	0.549167	5322.659786	21420.519528	3669.661251	8633.788663
92.035500	0.354950	0.199546	0.367554	0.551005	5320.855983	21370.728032	3669.940733	8610.069576
92.535500	0.354822	0.198884	0.375540	0.550587	5322.390906	21360.451091	3683.105549	8615.459965
93.036000	0.354071	0.197637	0.363994	0.550951	5316.489708	21292.645184	3664.523835	8610.763386
93.561500	0.353934	0.197875	0.362979	0.551902	5310.745679	21262.738298	3661.504334	8598.525685
94.037000	0.354252	0.199243	0.363292	0.553470	5304.167636	21254.356676	3659.584998	8578.421749
94.537500	0.354249	0.198880	0.372265	0.553313	5304.975316	21245.734324	3673.679185	8580.427735
95.034500	0.351197	0.197228	0.365161	0.552422	5293.642005	21213.849391	3664.056361	8591.850463
95.534500	0.354716	0.199340	0.368611	0.554619	5300.566649	21210.290307	3665.984785	8563.722638
96.035500	0.355750	0.199098	0.362944	0.555359	5302.114665	21169.293486	3656.178032	8554.287428
