sample name	sample
index	340
start time	 03-01-2021  11:10:10 AM


Wavelength (nm)	Absorbance
494.344910	-0.050536
494.563924	-0.050536
494.782919	-0.050536
495.001897	-0.101231
495.220856	0.008096
495.439797	-0.003077
495.658719	0.014354
495.877624	0.032317
496.096510	-0.014907
496.315378	-0.052844
496.534227	-0.082137
496.753059	-0.045410
496.971872	-0.046363
497.190667	0.220746
497.409444	0.271871
497.628203	0.279427
497.846943	0.290547
498.065665	0.295859
498.284369	0.298872
498.503055	0.301553
498.721723	0.300739
498.940372	0.303499
499.159003	0.302458
499.377616	0.301892
499.596210	0.302625
499.814787	0.300600
500.033345	0.301342
500.251885	0.300632
500.470406	0.299412
500.688910	0.298602
500.907395	0.296129
501.125862	0.297118
501.344311	0.297058
501.562742	0.295409
501.781154	0.295152
501.999548	0.292733
502.217924	0.291026
502.436282	0.290682
502.654621	0.289887
502.872942	0.289420
503.091245	0.286195
503.309530	0.285611
503.527797	0.286051
503.746045	0.284832
503.964275	0.283638
504.182487	0.283065
504.400681	0.281599
504.618856	0.281070
504.837013	0.279242
505.055152	0.281121
505.273273	0.280301
505.491376	0.278415
505.709460	0.277803
505.927526	0.277357
506.145574	0.277024
506.363604	0.277310
506.581615	0.276585
506.799608	0.277101
507.017583	0.274789
507.235540	0.273575
507.453478	0.272698
507.671399	0.271488
507.889301	0.271962
508.107185	0.271465
508.325050	0.270042
508.542898	0.269612
508.760727	0.268780
508.978538	0.269216
509.196330	0.267832
509.414105	0.268178
509.631861	0.267713
509.849599	0.266074
510.067319	0.265163
510.285021	0.264528
510.502704	0.264852
510.720369	0.263811
510.938016	0.263531
511.155645	0.263589
511.373255	0.262664
511.590848	0.262366
511.808422	0.261789
512.025977	0.261563
512.243515	0.261549
512.461034	0.259751
512.678536	0.259908
512.896018	0.258464
513.113483	0.257318
513.330930	0.256809
513.548358	0.256241
513.765768	0.256013
513.983160	0.256189
514.200533	0.255252
514.417889	0.254635
514.635226	0.253333
514.852545	0.253080
515.069845	0.253193
515.287128	0.252820
515.504392	0.252478
515.721638	0.252252
515.938866	0.250999
516.156075	0.251365
516.373267	0.252161
516.590440	0.251714
516.807594	0.251712
517.024731	0.250971
517.241850	0.250235
517.458950	0.250005
517.676032	0.250103
517.893095	0.248977
518.110141	0.247700
518.327168	0.246974
518.544177	0.247626
518.761168	0.247272
518.978141	0.247985
519.195095	0.248167
519.412031	0.247348
519.628949	0.247365
519.845849	0.247794
520.062731	0.248171
520.279594	0.247560
520.496439	0.247267
520.713266	0.246858
520.930074	0.246433
521.146865	0.245905
521.363637	0.245937
521.580391	0.245026
521.797127	0.244572
522.013844	0.243717
522.230543	0.243485
522.447224	0.243396
522.663887	0.242997
522.880532	0.241815
523.097158	0.241621
523.313766	0.241019
523.530356	0.240878
523.746928	0.240799
523.963481	0.241224
524.180017	0.240645
524.396534	0.240643
524.613032	0.241009
524.829513	0.241768
525.045975	0.241473
525.262420	0.241142
525.478845	0.240776
525.695253	0.240889
525.911643	0.240471
526.128014	0.240609
526.344367	0.238987
526.560702	0.238586
526.777018	0.238571
526.993316	0.238060
527.209597	0.238176
527.425858	0.238044
527.642102	0.237744
527.858328	0.237255
528.074535	0.237445
528.290724	0.238065
528.506894	0.238107
528.723047	0.237315
528.939181	0.237417
529.155297	0.237451
529.371395	0.237207
529.587475	0.237043
529.803536	0.237128
530.019579	0.237662
530.235604	0.237306
530.451611	0.236745
530.667600	0.236705
530.883570	0.236956
531.099522	0.237260
531.315456	0.237365
531.531372	0.236712
531.747269	0.237006
531.963148	0.236957
532.179009	0.237030
532.394852	0.237011
532.610676	0.237084
532.826482	0.237246
533.042271	0.236795
533.258040	0.236524
533.473792	0.236104
533.689525	0.235727
533.905240	0.234911
534.120937	0.235098
534.336616	0.234915
534.552277	0.234985
534.767919	0.234850
534.983543	0.235410
535.199149	0.235091
535.414736	0.235873
535.630306	0.235539
535.845857	0.234904
536.061390	0.234836
536.276904	0.234664
536.492401	0.234593
536.707879	0.234456
536.923339	0.233463
537.138781	0.233874
537.354204	0.234005
537.569610	0.234937
537.784997	0.235041
538.000366	0.235338
538.215716	0.235843
538.431049	0.235191
538.646363	0.235058
538.861659	0.235877
539.076937	0.235846
539.292196	0.235999
539.507438	0.235629
539.722661	0.236466
539.937866	0.236210
540.153052	0.235685
540.368221	0.236006
540.583371	0.235969
540.798503	0.235629
541.013617	0.235553
541.228712	0.235521
541.443789	0.235191
541.658848	0.234788
541.873889	0.234484
542.088912	0.234570
542.303916	0.234749
542.518902	0.234689
542.733870	0.234709
542.948820	0.235438
543.163752	0.235384
543.378665	0.235397
543.593560	0.235517
543.808437	0.235584
544.023295	0.235705
544.238136	0.235929
544.452958	0.235879
544.667762	0.235892
544.882548	0.235660
545.097315	0.235978
545.312064	0.236462
545.526795	0.236609
545.741508	0.236995
545.956203	0.237112
546.170879	0.237283
546.385537	0.237884
546.600177	0.237981
546.814799	0.237908
547.029402	0.237238
547.243988	0.237022
547.458555	0.236655
547.673103	0.236582
547.887634	0.236740
548.102146	0.236534
548.316640	0.236584
548.531116	0.236195
548.745574	0.235820
548.960013	0.236488
549.174435	0.236550
549.388838	0.236579
549.603222	0.236400
549.817589	0.236146
550.031937	0.236446
550.246267	0.235945
550.460579	0.236080
550.674873	0.236226
550.889148	0.235338
551.103405	0.234986
551.317644	0.234712
551.531865	0.234859
551.746068	0.235088
551.960252	0.234416
552.174418	0.234877
552.388566	0.235078
552.602696	0.235161
552.816807	0.236313
553.030900	0.236760
553.244975	0.237125
553.459032	0.237539
553.673070	0.237519
553.887091	0.238200
554.101093	0.238408
554.315077	0.238300
554.529042	0.238705
554.742990	0.238149
554.956919	0.237952
555.170830	0.238389
555.384722	0.238463
555.598597	0.238360
555.812453	0.238287
556.026291	0.237662
556.240111	0.237737
556.453913	0.237259
556.667696	0.237317
556.881461	0.237457
557.095208	0.237018
557.308937	0.236607
557.522647	0.237033
557.736339	0.236599
557.950013	0.237014
558.163669	0.237093
558.377307	0.237171
558.590926	0.237336
558.804527	0.237716
559.018110	0.237733
559.231675	0.237567
559.445221	0.237430
559.658749	0.237629
559.872259	0.237767
560.085751	0.237941
560.299225	0.238024
560.512680	0.238035
560.726117	0.237955
560.939536	0.237997
561.152937	0.238267
561.366319	0.237972
561.579683	0.238316
561.793029	0.238260
562.006357	0.238433
562.219667	0.238606
562.432958	0.238464
562.646231	0.238327
562.859486	0.238979
563.072723	0.239723
563.285941	0.240338
563.499141	0.240465
563.712323	0.240655
563.925487	0.240275
564.138632	0.240460
564.351760	0.240720
564.564869	0.241024
564.777960	0.240955
564.991032	0.240749
565.204087	0.240547
565.417123	0.240603
565.630141	0.240551
565.843140	0.240735
566.056122	0.240652
566.269085	0.240610
566.482030	0.240705
566.694957	0.240334
566.907866	0.240257
567.120756	0.240442
567.333628	0.240291
567.546482	0.240429
567.759318	0.240815
567.972135	0.241035
568.184935	0.241015
568.397716	0.240982
568.610478	0.241174
568.823223	0.241093
569.035949	0.240903
569.248657	0.241200
569.461347	0.241215
569.674019	0.240978
569.886672	0.240995
570.099308	0.241420
570.311925	0.241462
570.524523	0.241587
570.737104	0.241792
570.949666	0.242228
571.162210	0.242262
571.374736	0.242283
571.587244	0.242246
571.799733	0.242444
572.012205	0.242631
572.224658	0.242677
572.437092	0.243239
572.649509	0.243351
572.861907	0.243151
573.074287	0.243223
573.286649	0.243271
573.498993	0.243726
573.711318	0.243493
573.923625	0.243434
574.135914	0.243401
574.348185	0.242914
574.560438	0.242976
574.772672	0.243264
574.984888	0.243255
575.197086	0.243581
575.409266	0.243460
575.621427	0.243872
575.833570	0.243830
576.045695	0.244181
576.257802	0.244312
576.469890	0.244591
576.681961	0.244371
576.894013	0.244579
577.106046	0.244467
577.318062	0.244678
577.530059	0.244511
577.742039	0.244871
577.954000	0.244797
578.165942	0.245021
578.377867	0.245084
578.589773	0.245390
578.801661	0.245740
579.013531	0.246233
579.225382	0.246411
579.437216	0.246576
579.649031	0.246263
579.860828	0.246564
580.072606	0.247018
580.284367	0.246807
580.496109	0.247083
580.707833	0.247137
580.919539	0.246651
581.131227	0.246853
581.342896	0.247396
581.554547	0.248027
581.766180	0.247804
581.977795	0.247744
582.189391	0.248085
582.400969	0.248392
582.612529	0.248552
582.824071	0.249032
583.035595	0.249187
583.247100	0.249188
583.458587	0.249002
583.670056	0.249465
583.881506	0.249646
584.092939	0.249259
584.304353	0.249152
584.515749	0.249027
584.727127	0.249320
584.938486	0.249549
585.149828	0.249659
585.361151	0.249780
585.572456	0.249732
585.783742	0.249427
585.995011	0.250045
586.206261	0.250207
586.417493	0.249944
586.628706	0.249803
586.839902	0.249569
587.051079	0.249378
587.262238	0.249553
587.473379	0.249692
587.684502	0.250437
587.895606	0.250560
588.106692	0.250401
588.317760	0.250833
588.528810	0.250829
588.739841	0.250913
588.950855	0.251128
589.161850	0.251348
589.372827	0.251640
589.583785	0.251493
589.794726	0.251710
590.005648	0.252318
590.216552	0.252549
590.427437	0.252606
590.638305	0.253133
590.849154	0.253055
591.059985	0.253048
591.270798	0.253000
591.481592	0.253159
591.692369	0.253159
591.903127	0.252995
592.113867	0.252959
592.324588	0.253104
592.535292	0.253127
592.745977	0.253493
592.956644	0.253613
593.167293	0.253892
593.377923	0.253897
593.588536	0.254016
593.799130	0.254558
594.009706	0.254915
594.220263	0.255359
594.430803	0.255525
594.641324	0.255557
594.851827	0.255725
595.062312	0.255778
595.272778	0.255957
595.483227	0.255886
595.693657	0.255772
595.904069	0.256046
596.114462	0.255965
596.324838	0.256321
596.535195	0.256356
596.745534	0.256750
596.955855	0.257160
597.166157	0.257309
597.376441	0.258043
597.586707	0.258063
597.796955	0.257651
598.007185	0.258057
598.217396	0.258334
598.427589	0.258719
598.637764	0.258391
598.847921	0.258085
599.058060	0.258089
599.268180	0.257979
599.478282	0.258176
599.688366	0.258463
599.898431	0.258302
600.108479	0.257917
600.318508	0.258113
600.528519	0.258509
600.738511	0.258789
600.948486	0.259022
601.158442	0.259452
601.368380	0.259633
601.578300	0.259719
601.788202	0.260159
601.998085	0.260420
602.207950	0.260698
602.417797	0.261041
602.627626	0.261089
602.837436	0.261292
603.047228	0.261088
603.257002	0.260966
603.466758	0.261559
603.676496	0.261579
603.886215	0.261760
604.095916	0.261728
604.305599	0.261494
604.515264	0.261885
604.724910	0.262101
604.934538	0.262268
605.144148	0.262709
605.353740	0.262657
605.563314	0.262836
605.772869	0.263009
605.982406	0.263340
606.191925	0.263666
606.401425	0.263368
606.610908	0.263069
606.820372	0.263069
607.029818	0.263080
607.239246	0.263348
607.448655	0.263555
607.658047	0.263873
607.867420	0.264040
608.076775	0.264225
608.286111	0.264776
608.495430	0.265334
608.704730	0.265704
608.914012	0.265935
609.123275	0.265790
609.332521	0.265530
609.541748	0.265456
609.750957	0.265402
609.960148	0.265520
610.169321	0.265647
610.378475	0.265570
610.587611	0.265846
610.796729	0.266319
611.005829	0.266608
611.214910	0.267173
611.423974	0.267203
611.633019	0.267514
611.842045	0.267552
612.051054	0.267658
612.260044	0.267749
612.469017	0.267639
612.677970	0.267150
612.886906	0.267287
613.095824	0.267325
613.304723	0.267395
613.513604	0.267701
613.722467	0.267778
613.931311	0.267997
614.140138	0.268227
614.348946	0.268261
614.557736	0.268752
614.766507	0.268685
614.975261	0.268561
615.183996	0.268902
615.392713	0.268438
615.601412	0.268596
615.810092	0.268606
616.018754	0.268695
616.227399	0.268619
616.436024	0.268862
616.644632	0.269153
616.853222	0.269328
617.061793	0.269119
617.270346	0.269646
617.478880	0.270105
617.687397	0.270356
617.895895	0.270253
618.104375	0.270621
618.312837	0.270586
618.521281	0.270545
618.729706	0.270427
618.938113	0.270560
619.146502	0.270269
619.354873	0.270008
619.563226	0.270017
619.771560	0.270396
619.979876	0.270783
620.188174	0.270617
620.396453	0.270895
620.604715	0.271267
620.812958	0.271713
621.021183	0.271996
621.229390	0.271992
621.437578	0.272094
621.645748	0.272131
621.853900	0.272001
622.062034	0.272304
622.270150	0.272581
622.478247	0.272865
622.686326	0.272701
622.894387	0.272933
623.102430	0.273179
623.310454	0.273156
623.518461	0.273391
623.726449	0.273393
623.934418	0.273671
624.142370	0.273898
624.350303	0.274259
624.558218	0.274633
624.766115	0.274668
624.973994	0.275020
625.181855	0.274972
625.389697	0.275091
625.597521	0.275547
625.805327	0.275488
626.013114	0.275321
626.220883	0.275147
626.428634	0.275448
626.636367	0.275464
626.844082	0.275442
627.051778	0.275692
627.259457	0.275869
627.467117	0.275829
627.674758	0.276057
627.882382	0.276391
628.089987	0.276670
628.297574	0.276651
628.505143	0.276931
628.712694	0.277056
628.920226	0.277265
629.127740	0.277341
629.335236	0.277318
629.542714	0.277706
629.750174	0.277528
629.957615	0.277576
630.165038	0.277590
630.372443	0.277961
630.579829	0.278623
630.787198	0.279098
630.994548	0.279359
631.201880	0.279755
631.409194	0.279725
631.616489	0.280009
631.823766	0.280431
632.031025	0.280649
632.238266	0.280859
632.445489	0.280604
632.652693	0.280430
632.859879	0.280715
633.067047	0.280725
633.274197	0.280728
633.481329	0.280988
633.688442	0.280833
633.895537	0.280820
634.102614	0.280900
634.309672	0.280729
634.516713	0.281045
634.723735	0.281168
634.930739	0.281335
635.137724	0.281592
635.344692	0.281879
635.551641	0.282149
635.758572	0.282352
635.965485	0.282350
636.172379	0.282706
636.379256	0.282643
636.586114	0.282440
636.792954	0.282582
636.999775	0.282899
637.206579	0.282392
637.413364	0.282387
637.620131	0.282576
637.826880	0.282834
638.033610	0.283109
638.240323	0.283456
638.447017	0.283814
638.653692	0.283909
638.860350	0.283734
639.066990	0.284434
639.273611	0.284644
639.480214	0.284736
639.686798	0.284794
639.893365	0.284634
640.099913	0.284695
640.306443	0.284691
640.512955	0.285028
640.719449	0.285326
640.925924	0.285074
641.132381	0.285014
641.338820	0.285339
641.545241	0.285307
641.751644	0.285697
641.958028	0.285800
642.164394	0.286065
642.370742	0.285980
642.577071	0.286256
642.783383	0.286640
642.989676	0.287149
643.195951	0.287137
643.402207	0.287477
643.608446	0.287470
643.814666	0.287624
644.020868	0.287909
644.227052	0.288126
644.433218	0.288044
644.639365	0.288239
644.845494	0.288211
645.051605	0.288721
645.257698	0.288746
645.463772	0.288974
645.669828	0.289067
645.875866	0.289073
646.081886	0.289203
646.287888	0.289291
646.493871	0.289395
646.699836	0.289502
646.905783	0.289368
647.111712	0.289424
647.317622	0.289750
647.523514	0.289962
647.729388	0.290228
647.935244	0.290552
648.141082	0.290668
648.346901	0.290849
648.552702	0.290991
648.758485	0.291005
648.964250	0.291202
649.169996	0.291160
649.375724	0.291382
649.581434	0.291663
649.787126	0.291684
649.992800	0.292111
650.198455	0.292264
650.404092	0.292490
650.609711	0.292940
650.815311	0.293216
651.020894	0.293472
651.226458	0.293820
651.432004	0.293944
651.637532	0.294258
651.843041	0.294324
652.048532	0.294576
652.254006	0.294759
652.459460	0.294753
652.664897	0.294969
652.870315	0.294950
653.075716	0.294952
653.281097	0.294914
653.486461	0.294889
653.691807	0.294773
653.897134	0.295016
654.102443	0.294905
654.307734	0.294954
654.513006	0.294950
654.718261	0.295411
654.923497	0.295646
655.128715	0.295765
655.333915	0.295816
655.539096	0.296152
655.744259	0.295967
655.949404	0.296465
656.154531	0.296729
656.359640	0.296940
656.564730	0.297233
656.769802	0.297497
656.974856	0.297730
657.179892	0.298044
657.384909	0.298350
657.589908	0.298837
657.794889	0.298867
657.999852	0.299314
658.204797	0.299660
658.409723	0.299683
658.614631	0.299794
658.819521	0.300148
659.024393	0.300254
659.229246	0.300481
659.434081	0.300493
659.638898	0.300625
659.843697	0.300550
660.048478	0.300445
660.253240	0.300709
660.457984	0.300797
660.662710	0.300793
660.867417	0.300954
661.072107	0.301072
661.276778	0.301413
661.481431	0.301571
661.686066	0.301647
661.890682	0.301918
662.095281	0.302020
662.299861	0.302192
662.504422	0.302500
662.708966	0.302817
662.913491	0.303004
663.117999	0.303350
663.322488	0.303583
663.526958	0.303827
663.731411	0.304157
663.935845	0.304200
664.140261	0.304338
664.344659	0.304407
664.549038	0.304552
664.753400	0.304738
664.957743	0.304644
665.162068	0.304910
665.366375	0.305193
665.570663	0.305226
665.774933	0.305427
665.979185	0.305522
666.183419	0.305740
666.387635	0.305773
666.591832	0.305771
666.796011	0.306196
667.000172	0.306004
667.204315	0.306000
667.408439	0.306277
667.612545	0.306613
667.816634	0.306789
668.020703	0.306719
668.224755	0.307087
668.428788	0.307483
668.632803	0.307648
668.836800	0.308102
669.040779	0.308339
669.244739	0.308644
669.448681	0.308788
669.652605	0.309015
669.856511	0.309408
670.060399	0.309669
670.264268	0.309707
670.468119	0.309691
670.671952	0.309880
670.875767	0.309854
671.079563	0.310004
671.283341	0.310200
671.487101	0.310604
671.690843	0.310551
671.894567	0.310640
672.098272	0.310918
672.301959	0.311028
672.505628	0.310950
672.709278	0.311438
672.912911	0.311571
673.116525	0.311303
673.320121	0.311404
673.523699	0.311702
673.727258	0.311792
673.930799	0.311899
674.134322	0.312111
674.337827	0.312579
674.541314	0.312727
674.744782	0.313087
674.948232	0.313518
675.151664	0.313668
675.355078	0.313740
675.558474	0.313863
675.761851	0.314018
675.965210	0.314239
676.168551	0.314184
676.371873	0.314321
676.575178	0.314197
676.778464	0.314457
676.981732	0.314492
677.184981	0.315049
677.388213	0.315461
677.591426	0.315650
677.794621	0.315886
677.997798	0.316122
678.200956	0.316099
678.404097	0.316381
678.607219	0.316398
678.810323	0.316800
679.013408	0.316779
679.216476	0.316586
679.419525	0.316670
679.622556	0.316776
679.825569	0.317058
680.028563	0.317495
680.231540	0.317450
680.434498	0.317691
680.637438	0.317655
680.840359	0.317770
681.043263	0.317986
681.246148	0.318099
681.449015	0.318060
681.651864	0.318156
681.854694	0.318362
682.057506	0.318404
682.260301	0.318296
682.463076	0.318382
682.665834	0.318690
682.868573	0.319273
683.071295	0.319566
683.273998	0.319927
683.476682	0.320243
683.679349	0.320287
683.881997	0.320772
684.084627	0.321170
684.287239	0.321284
684.489833	0.321332
684.692408	0.321218
684.894965	0.321238
685.097504	0.321320
685.300025	0.321611
685.502527	0.321796
685.705012	0.322011
685.907478	0.322341
686.109925	0.322528
686.312355	0.322778
686.514766	0.323214
686.717159	0.323428
686.919534	0.323578
687.121891	0.323515
687.324230	0.323850
687.526550	0.323712
687.728852	0.323601
687.931136	0.324090
688.133401	0.324248
688.335649	0.324083
688.537878	0.324540
688.740089	0.324798
688.942281	0.325179
689.144456	0.325387
689.346612	0.325713
689.548750	0.326067
689.750870	0.326002
689.952971	0.325938
690.155055	0.326337
690.357120	0.326137
690.559167	0.326403
690.761195	0.326413
690.963206	0.326184
691.165198	0.326421
691.367172	0.326392
691.569128	0.326531
691.771065	0.326909
691.972984	0.326768
692.174885	0.327172
692.376768	0.327075
692.578633	0.327166
692.780479	0.327608
692.982308	0.327608
693.184118	0.327879
693.385909	0.327957
