sample name	sample
index	883
start time	 04-08-2021  02:18:48 PM
880	0.525280
Peak Time (s)	122.036
Peak Height 	0.5253
calc peak height	120,123
Baseline Time (s)	8.537
Baseline Value 	-0.004306
subtract baseline	10,4
Abs	0.391809
Peak Time (s)	122.536
Peak Height 	0.3918
calc peak height	120,123
Baseline Time (s)	10.538
Baseline Value 	0.001829
subtract baseline	10,3
PK_550	0.195269
Peak Time (s)	121.035
Peak Height 	0.1953
calc peak height	120,123
Baseline Time (s)	10.538
Baseline Value 	9.6762E-5
subtract baseline	10,2
PK_880	0.351019
Peak Time (s)	121.035
Peak Height 	0.351
calc peak height	120,123
Baseline Time (s)	9.037
Baseline Value 	0.001872
subtract baseline	10,1


Time (s)	A880-A510	A880-A775	A880-A975	A880	I510	I775	I975	I880	
0.034500	0.000111	-0.000239	0.000675	0.001714	6887.763119	42427.707003	3933.174870	22739.536843
0.537500	-0.002610	0.000331	-0.002984	0.007384	6807.597708	41964.229949	3906.320597	22479.436964
1.035500	-0.002461	0.000756	-0.000882	0.004600	6835.442484	42255.192177	3920.313136	22606.703346
1.537000	0.001250	0.000703	-0.002982	0.001625	6899.624458	42522.081613	3922.834816	22743.646790
2.035500	-0.003103	-0.001380	0.002124	-0.000232	6875.558935	42501.421326	3943.093030	22829.622972
2.536000	-0.003342	-0.000400	-0.001586	0.005720	6816.423343	42048.577302	3915.071372	22555.413622
3.036000	-0.001485	0.000304	0.006128	0.000570	6883.407962	42582.245814	3952.518120	22792.454864
3.536500	0.001030	0.000423	-0.000532	0.000480	6908.582655	42601.423778	3933.253003	22796.596606
4.034000	-0.002251	-0.000113	0.000866	0.000044	6881.097178	42592.222973	3938.601614	22816.806667
4.537000	0.000872	0.000593	0.000106	0.000885	6903.138338	42579.946085	3933.933773	22777.878695
5.037500	0.000060	0.000010	-0.000622	0.000702	6897.044794	42543.123310	3932.346905	22786.317423
5.537500	-0.001305	0.001040	0.003066	0.001082	6880.215484	42602.806747	3942.003313	22768.758820
6.035500	0.001332	0.000483	0.002266	0.000559	6910.750006	42599.639073	3941.188654	22792.938654
6.535500	-0.000369	-0.000016	-0.004150	-0.000271	6902.303730	42630.084878	3924.937547	22831.392764
7.036000	0.000550	-0.000098	-0.002617	-0.000352	6911.996384	42630.004550	3929.612600	22835.153205
7.536500	0.001099	0.000219	-0.003300	0.000306	6910.936523	42598.603219	3925.725766	22804.643502
8.036500	0.000168	0.000648	-0.002179	0.000345	6901.541012	42634.456608	3928.859171	22802.836834
8.536500	0.001182	0.000269	0.001628	0.000000	6914.712713	42631.386951	3940.958299	22818.843334
9.037500	0.000000	-0.000002	0.002826	-0.000163	6904.832504	42621.438027	3944.948813	22826.391047
9.537000	-0.000858	-0.000117	-0.002182	-0.000353	6898.368446	42628.311361	3930.877314	22835.192852
10.040500	-0.001530	0.000014	-0.001364	0.000038	6888.107052	42604.487154	3932.119476	22817.089579
10.538000	-0.001546	0.000000	0.000000	-0.000131	6889.580560	42618.730555	3936.585055	22824.931985
11.035500	0.000587	-0.000137	-0.005608	0.000220	6906.811758	42573.863479	3919.316064	22808.638364
11.535500	0.000521	0.000959	0.001129	0.000691	6901.610678	42631.317242	3937.481394	22786.838058
12.039500	-0.000470	0.000758	-0.002111	0.000502	6893.852069	42630.181522	3928.602066	22795.562403
12.536000	-0.001532	-0.000135	0.002089	-0.000216	6890.538293	42614.159276	3942.942771	22828.876669
13.040000	-0.001078	0.000173	-0.000978	-0.001372	6906.104278	42748.757173	3937.349760	22882.539519
13.539500	-0.000024	0.000024	0.002769	-0.000406	6906.959044	42646.182528	3945.496451	22837.690656
14.037000	-0.001723	0.000580	-0.000592	0.002283	6864.644658	42450.518849	3927.842405	22713.258256
14.537500	-0.000417	0.000360	0.001584	0.002499	6875.120089	42410.709145	3933.536256	22703.315075
15.037500	-0.000637	0.000395	0.004322	0.000036	6896.742611	42639.619817	3948.765622	22817.174885
15.538000	-0.002168	0.000561	0.001911	-0.000537	6887.489644	42707.566588	3943.360515	22843.739599
16.035500	-0.001191	0.000946	0.001223	-0.000390	6895.503448	42729.507157	3940.915248	22836.926908
16.535500	-0.000854	0.000786	-0.002213	-0.000105	6896.012948	42688.601486	3930.070986	22823.734083
17.036000	0.000200	0.000079	0.000412	-0.002732	6931.737877	42865.669005	3945.403893	22945.894646
17.536500	-0.001865	0.000087	-0.000877	0.000136	6883.929221	42602.249187	3933.251798	22812.561388
18.039000	0.000608	0.000448	0.000540	0.000746	6901.919926	42579.310411	3935.602097	22784.301119
18.537000	-0.000604	0.000271	0.002576	0.000650	6891.136481	42571.879150	3941.833895	22788.750643
19.037000	0.000065	0.000703	0.004703	0.001041	6893.814914	42575.619528	3946.927656	22770.628482
19.535000	-0.001234	0.000610	-0.001001	0.001036	6881.338687	42567.588043	3930.275279	22770.878691
20.034500	-0.000547	0.000113	-0.000701	0.000970	6888.588537	42528.014236	3931.337265	22773.916444
20.535500	-0.000600	0.000450	0.003481	0.001191	6885.955462	42538.725946	3942.899049	22763.711895
21.035500	-0.001993	-0.000010	-0.001023	-0.000053	6884.513871	42610.607993	3933.376822	22821.307600
21.536000	-0.001307	-0.000001	0.001967	0.000732	6883.561425	42539.461578	3939.809074	22784.952243
22.036500	-0.002196	-0.000265	-0.000642	0.000108	6881.011109	42572.475090	3934.017708	22813.840539
22.539000	-0.001854	-0.000041	-0.003375	0.000702	6878.585351	42538.512132	3924.366928	22786.330690
23.036500	-0.003176	0.000024	0.003511	0.000856	6864.401815	42530.306715	3943.969831	22779.198394
23.537000	0.000016	0.000503	0.001369	0.000671	6896.915146	42591.166594	3938.239470	22787.742223
24.037500	-0.000957	0.000945	-0.002222	0.001088	6883.505494	42593.532352	3926.586265	22768.484874
24.536000	-0.003218	0.000281	0.002804	0.001277	6859.963800	42515.360367	3940.663995	22759.740075
25.035500	-0.001346	0.001393	0.002795	0.001688	6873.978705	42579.576996	3939.433779	22740.728550
25.535500	-0.002323	-0.000045	-0.000919	0.001016	6871.049920	42509.312423	3930.570100	22771.786645
26.036000	-0.001063	0.000401	0.001201	0.001039	6882.953305	42548.101874	3936.676116	22770.736921
26.536000	-0.000074	0.000995	-0.003689	0.001428	6888.744519	42566.985530	3921.365449	22752.759478
27.036000	-0.000857	0.000411	0.001626	-0.001787	6912.267439	42809.043122	3946.195640	22901.838555
27.537000	-0.001133	0.000385	-0.000826	-0.001119	6903.121144	42745.059295	3937.057263	22870.787227
28.037000	-0.000958	0.000331	-0.000814	-0.000760	6901.341847	42706.966144	3936.044853	22854.097772
28.537500	-0.002560	-0.000014	-0.000960	-0.001090	6889.045812	42705.621444	3936.581750	22869.443767
29.034500	-0.001457	0.000439	0.003624	-0.000500	6894.001184	42692.986124	3948.287940	22842.043984
29.535000	-0.001235	0.000519	0.000497	-0.000732	6898.386134	42721.679122	3939.791344	22852.801719
30.035000	-0.001424	0.000539	0.002781	-0.000370	6893.063658	42690.232088	3945.424928	22836.011103
30.535500	-0.001546	-0.000370	0.000117	0.002136	6867.757637	42377.199139	3930.327936	22720.054794
31.036000	-0.002371	0.000245	0.002610	0.001731	6863.721658	42470.374674	3938.767881	22738.749663
31.536500	0.001218	0.000722	0.000222	0.000038	6914.695271	42669.534521	3936.737500	22817.069241
32.039000	0.002115	0.000951	0.003911	-0.000139	6925.133350	42706.923828	3948.069824	22825.278786
32.537000	-0.001554	0.000737	0.001349	0.002105	6867.981853	42481.249752	3933.999444	22721.498123
33.037000	0.000252	0.001465	-0.000589	-0.000011	6905.799971	42742.468151	3934.517406	22819.357353
33.537500	-0.001354	-0.000218	-0.000242	0.001221	6878.398686	42474.784563	3931.944343	22762.340246
34.037500	-0.002204	0.000997	0.002863	0.001710	6865.537419	42541.305554	3939.570973	22739.746504
34.535000	-0.000887	-0.000262	-0.000056	0.001378	6881.384389	42456.316595	3932.025334	22755.054839
35.035500	-0.002314	0.000176	0.001178	0.001092	6870.400298	42522.591711	3936.450942	22768.259961
35.535500	-0.000804	-0.000044	0.001643	0.001210	6883.801402	42491.660910	3937.465453	22762.806134
36.036000	0.000043	-0.000146	0.002259	0.001108	6892.954120	42491.639963	3939.562486	22767.546392
36.539000	-0.002059	-0.000027	0.002488	0.001496	6868.974864	42466.992875	3939.099746	22749.604258
37.036500	-0.000142	0.000105	-0.003896	0.001700	6885.464193	42460.422216	3919.986092	22740.191548
37.537000	-0.002638	0.000167	0.000061	0.001394	6864.397566	42494.124631	3932.320912	22754.330738
38.037000	-0.001076	0.000290	0.001457	0.001422	6879.143519	42502.803984	3936.303386	22753.023916
38.537500	-0.000780	-0.000093	0.000444	0.001321	6882.961655	42477.057211	3933.646097	22757.693693
39.035000	-0.001668	0.000029	0.000713	0.000999	6877.514917	42517.754872	3935.370538	22772.598403
39.535500	-0.003692	-0.000134	-0.001397	0.001013	6857.943636	42501.451026	3929.191190	22771.931996
40.035500	-0.002713	0.000744	0.002618	0.001347	6864.127944	42551.339714	3939.912528	22756.485352
40.536000	-0.002135	0.000928	0.001931	0.001429	6868.889041	42560.690355	3937.667423	22752.718144
41.039000	0.000059	0.000871	0.005735	0.001650	6887.876660	42535.139415	3948.171471	22742.482731
41.536500	-0.000755	0.000919	0.005251	0.002051	6876.173132	42502.794554	3945.568353	22723.966239
42.036500	0.000013	0.000497	0.000206	0.001889	6885.131774	42479.006254	3931.303234	22731.464859
42.537000	-0.001276	-0.000404	-0.001552	0.000989	6881.380536	42478.923765	3928.810335	22773.029700
43.034500	-0.001398	0.000535	-0.001208	0.001630	6874.036315	42506.192228	3927.950301	22743.398896
43.537000	0.001656	0.000478	0.003209	-0.002874	6947.351294	42915.693614	3954.068857	22952.535965
44.035500	0.001877	0.001341	0.004998	0.000550	6916.125646	42679.318228	3949.240016	22793.352737
44.535000	-0.000616	0.000132	-0.001282	-0.000691	6903.983223	42682.312152	3934.481119	22850.914338
45.035500	-0.002019	-0.000123	-0.000354	0.001752	6866.901389	42434.854338	3930.076770	22737.800893
45.536000	-0.000695	0.000241	0.002856	-0.000294	6899.378552	42655.780547	3945.422002	22832.472931
46.036000	-0.001301	0.000218	0.002458	-0.000374	6894.293138	42661.071600	3944.489377	22836.180575
46.536500	-0.000211	0.000425	-0.000098	-0.000982	6910.727279	42736.043703	3938.781257	22864.399455
47.037000	-0.001521	-0.000471	0.001164	0.002046	6868.865918	42376.197068	3933.633479	22724.216570
47.537000	-0.001864	0.000021	-0.000232	0.001769	6868.226128	42446.477957	3930.380300	22736.997376
48.034500	-0.000958	0.000250	0.004387	-0.000386	6897.721492	42665.171599	3950.200734	22836.750334
48.535000	-0.000471	-0.000309	0.001456	0.000188	6896.880412	42561.025111	3939.906745	22810.131658
49.037500	-0.001110	0.000899	0.002710	0.002030	6872.968203	42502.948602	3938.187485	22724.959742
49.535500	-0.000586	-0.000189	0.000919	-0.003636	6932.893788	42924.505555	3949.558798	22988.132088
50.035500	0.000305	0.000137	0.001448	0.000626	6900.147990	42561.805878	3938.601769	22789.850064
50.616000	-0.033928	-0.013532	0.067000	0.271830	4778.028789	23396.494929	3459.903945	13452.034772
51.036500	-0.045866	-0.016220	0.039504	0.197785	5097.752562	27088.549822	3549.325002	15453.528970
51.536500	-0.051756	-0.020088	-0.016940	-0.105737	7459.787447	51301.980246	4223.569563	28369.091084
52.040000	-0.032396	-0.063787	-0.027438	-0.254309	9707.569042	64570.816310	4805.206832	38845.613986
52.537500	-0.019067	-0.016437	-0.011902	-0.141454	8272.058791	55911.484228	4376.467137	30570.689171
53.037500	-0.005909	-0.010804	-0.012251	-0.134229	8348.715857	55716.798284	4346.951374	30110.563193
53.535000	0.001868	-0.008616	-0.013359	-0.130512	8401.788192	55530.534647	4328.419478	29876.853288
54.035500	0.009422	-0.003962	-0.004875	-0.102330	8137.231822	52745.785424	4254.862423	28168.385075
54.535500	0.010311	-0.000314	0.003003	-0.073086	7793.461252	49882.631304	4178.753806	26508.890169
55.038500	0.016629	0.002185	0.007986	-0.041664	7507.291500	46844.120944	4089.615760	24846.086822
55.536500	0.022297	0.005635	0.015123	-0.016770	7299.048560	44718.388785	4032.724406	23611.516369
56.036500	0.029649	0.007453	0.026511	0.005645	7142.208297	42773.055040	3998.545692	22558.829424
56.537000	0.035784	0.012416	0.036281	0.026300	6996.099254	41351.709923	3965.650695	21635.772241
57.037000	0.044896	0.015436	0.045199	0.050377	6850.529602	39523.372844	3921.189490	20613.748081
57.537500	0.057499	0.021632	0.059745	0.078454	6705.189600	37715.124869	3882.795536	19491.332167
58.034500	0.064336	0.026664	0.076300	0.105308	6524.699982	36000.205048	3854.360489	18483.604876
58.535000	0.078949	0.034113	0.092722	0.131204	6426.558886	34616.193372	3828.790691	17569.080662
59.035000	0.090868	0.040524	0.108898	0.152779	6344.586361	33521.825115	3814.470125	16847.735777
59.538500	0.103187	0.045723	0.119724	0.166773	6330.554608	32904.321894	3806.150091	16398.667952
60.036000	0.113756	0.052775	0.132897	0.189396	6231.129387	31841.313256	3781.683316	15702.586399
60.536000	0.116317	0.055240	0.144667	0.204649	6129.376633	30996.394613	3772.801373	15253.320972
61.036500	0.129984	0.063515	0.146057	0.187575	6381.036903	32695.879997	3820.717175	15757.283781
61.537000	0.145261	0.073163	0.158724	0.179140	6587.700304	33970.216221	3878.031764	16013.639372
62.040000	0.153365	0.079155	0.170408	0.205195	6430.215902	32559.509169	3838.699780	15237.536706
62.535000	0.162527	0.083422	0.182646	0.235329	6254.287721	30834.181814	3791.499693	14396.084024
63.035500	0.169758	0.089277	0.189199	0.244398	6239.262265	30626.865036	3785.016660	14154.059235
63.535500	0.180718	0.095628	0.204823	0.262430	6182.081172	29886.342730	3778.851049	13687.626009
64.035500	0.186655	0.101233	0.210170	0.277772	6107.442887	29284.067584	3753.612736	13305.730752
64.536000	0.188655	0.103226	0.212419	0.289115	6034.890528	28718.335260	3731.147201	13031.924424
65.039000	0.195825	0.106661	0.218045	0.296082	6036.438198	28507.711775	3727.872470	12867.242009
65.539000	0.200055	0.108387	0.223296	0.303293	6013.611740	28184.083333	3723.107940	12699.575900
66.037000	0.205512	0.112084	0.234473	0.311648	5991.559859	27912.422373	3729.975959	12508.756278
66.537500	0.208173	0.113054	0.235945	0.316486	5975.099384	27689.087266	3721.789434	12399.941682
67.037500	0.212270	0.113975	0.241032	0.321401	5968.928614	27460.546836	3722.205594	12290.607774
67.537000	0.217009	0.116406	0.238769	0.327147	5961.347628	27272.392219	3702.968501	12164.342685
68.035500	0.218834	0.118767	0.241310	0.332617	5934.075447	27097.243604	3696.024070	12045.698312
68.535500	0.227270	0.121086	0.253904	0.339335	5946.910281	26851.645990	3710.009173	11902.028390
69.036000	0.229230	0.123212	0.253679	0.343760	5928.518429	26724.184460	3698.926742	11808.585116
69.535500	0.229732	0.124169	0.254717	0.348344	5898.303234	26524.594092	3690.555995	11712.798320
70.036500	0.234639	0.127606	0.266782	0.354919	5886.035461	26353.182466	3703.542735	11577.136584
70.537000	0.237899	0.128470	0.264763	0.358433	5884.170835	26209.433771	3690.454572	11505.486515
71.036500	0.242472	0.129993	0.267198	0.362573	5887.349874	26068.351532	3686.455331	11421.812735
71.537500	0.244492	0.131314	0.269659	0.366325	5874.660499	25938.001237	3683.434779	11346.649431
72.034500	0.246277	0.133236	0.274105	0.370192	5859.464534	25834.257821	3684.788591	11269.868928
72.535000	0.250126	0.134467	0.275588	0.372462	5870.983868	25779.019796	3682.950470	11225.113496
73.035500	0.250661	0.135723	0.278767	0.375963	5849.391781	25660.139273	3682.200948	11156.549367
73.538000	0.252747	0.136612	0.278395	0.376936	5857.471941	25655.725338	3679.068145	11137.581904
74.036000	0.253071	0.137566	0.283128	0.379570	5840.711556	25567.154609	3683.958681	11086.465325
74.536000	0.258593	0.139837	0.286337	0.382628	5858.587040	25525.752956	3684.311046	11027.515927
75.042500	0.261607	0.143212	0.290086	0.387248	5846.930153	25460.536252	3682.278186	10939.249258
75.536500	0.261172	0.142776	0.291617	0.387314	5843.292802	25434.230253	3685.700025	10937.988277
76.040000	0.266165	0.144724	0.291863	0.391404	5849.842683	25322.493842	3676.744751	10860.627039
76.534500	0.268107	0.146148	0.295934	0.392838	5853.526379	25321.977628	3682.879102	10833.676600
77.035000	0.271460	0.148122	0.295833	0.396749	5849.478394	25221.408149	3673.562132	10760.630639
77.534500	0.273039	0.148764	0.301245	0.398516	5848.114820	25163.189109	3682.022734	10727.836197
78.038500	0.275028	0.148789	0.303784	0.400911	5845.171953	25041.067944	3682.359108	10683.604440
78.535500	0.275741	0.150837	0.306165	0.403275	5833.233587	25024.811192	3682.399526	10640.187565
79.036000	0.278413	0.152070	0.307971	0.406044	5832.529615	24946.044770	3680.155247	10589.619895
79.536000	0.282458	0.153241	0.312679	0.408851	5841.478375	24862.536613	3684.589341	10538.701422
80.042000	0.283178	0.154280	0.312674	0.411294	5829.034017	24791.023948	3678.883321	10494.638777
80.537000	0.285016	0.156273	0.314185	0.414942	5816.019732	24707.145312	3673.931556	10429.327179
81.037500	0.287351	0.156371	0.318791	0.417275	5816.030947	24594.235919	3679.200226	10387.827372
81.535000	0.287790	0.158001	0.318539	0.420735	5794.414256	24502.260997	3670.605822	10326.697972
82.035000	0.292249	0.159526	0.320575	0.423523	5806.354006	24439.034664	3668.875063	10277.808589
82.538000	0.291505	0.160032	0.325103	0.425983	5783.511045	24341.537699	3673.644706	10234.919298
83.035500	0.293842	0.161137	0.325003	0.429004	5778.653404	24246.393033	3666.456770	10182.588932
83.535000	0.296384	0.162246	0.324512	0.431404	5779.657532	24182.436360	3659.840296	10141.257306
84.036500	0.297280	0.163790	0.327994	0.434424	5764.624615	24109.629496	3660.894484	10089.591002
84.536500	0.300784	0.164557	0.325295	0.437199	5769.776039	24010.957461	3648.476867	10042.430083
85.039500	0.305064	0.165375	0.334028	0.439535	5783.558478	23936.674115	3663.004583	10002.961680
85.537000	0.302270	0.165965	0.329143	0.441727	5748.342504	23858.581196	3646.946873	9966.126267
86.037000	0.305945	0.166933	0.333731	0.444018	5758.078094	23794.316830	3652.128837	9927.814316
86.537500	0.307961	0.169161	0.339304	0.447127	5750.379714	23751.587763	3657.719009	9876.144070
87.035000	0.310017	0.168189	0.338852	0.448295	5756.628055	23648.174746	3654.040288	9856.827674
87.537500	0.309828	0.170150	0.339985	0.452140	5728.358762	23557.605718	3647.911721	9793.617807
88.036000	0.310024	0.169012	0.337811	0.455592	5705.727221	23338.572778	3635.320244	9737.339992
88.535000	0.311072	0.171312	0.343311	0.455146	5716.087086	23469.375458	3648.633598	9744.588158
89.036000	0.314436	0.172645	0.347706	0.457833	5720.793043	23404.720763	3652.489620	9701.035470
89.536500	0.316276	0.173933	0.345126	0.460442	5715.448086	23341.959650	3640.818374	9659.025409
90.037000	0.316323	0.173292	0.338825	0.460932	5712.367618	23288.287792	3625.747306	9651.150781
90.537500	0.317412	0.175027	0.347786	0.463469	5702.335726	23250.337995	3639.996882	9610.577640
91.037500	0.316596	0.174104	0.346760	0.464350	5690.628936	23165.284381	3635.744151	9596.549327
91.535000	0.319205	0.176023	0.349092	0.467502	5686.883924	23107.300450	3633.921058	9546.556496
92.041000	0.318002	0.177155	0.349644	0.473135	5640.211811	22897.077529	3622.704066	9458.133347
92.535500	0.322534	0.176496	0.354088	0.469517	5695.941728	23035.075810	3640.564953	9514.804080
93.036500	0.322428	0.177993	0.354146	0.472594	5674.047855	22961.265246	3633.835557	9466.577643
93.536000	0.321602	0.177525	0.356217	0.471969	5672.677759	22968.622422	3639.842939	9476.353727
94.036500	0.324499	0.179430	0.354065	0.478783	5645.967698	22741.024882	3620.016945	9370.629073
94.536500	0.323257	0.177611	0.355322	0.474280	5668.186530	22865.115416	3632.705490	9440.308412
95.037500	0.325330	0.180573	0.358069	0.478224	5655.418991	22819.641304	3630.054587	9379.239411
95.537000	0.328133	0.178994	0.353234	0.477427	5680.030675	22783.492326	3621.164450	9391.533936
96.035000	0.327686	0.180037	0.353683	0.478722	5668.099868	22771.840289	3619.312885	9371.569304
96.537500	0.330528	0.181666	0.363508	0.482037	5664.864454	22694.159891	3633.657343	9320.719897
97.035500	0.326941	0.180470	0.366103	0.482181	5639.484518	22632.619166	3639.113471	9318.514837
97.535500	0.330278	0.181781	0.364637	0.482910	5657.198486	22659.308499	3634.224743	9307.389847
