sample name	sample
index	22
start time	 02-11-2021  12:10:48 PM


Wavelength (nm)	Absorbance
494.344910	-0.059881
494.563924	-0.059881
494.782919	-0.059881
495.001897	0.213434
495.220856	-0.018509
495.439797	-0.021343
495.658719	0.007350
495.877624	0.052895
496.096510	0.033726
496.315378	0.070711
496.534227	0.014157
496.753059	-0.008115
496.971872	0.006378
497.190667	0.066637
497.409444	0.089462
497.628203	0.095907
497.846943	0.098021
498.065665	0.098967
498.284369	0.102930
498.503055	0.102782
498.721723	0.103788
498.940372	0.103938
499.159003	0.103338
499.377616	0.103265
499.596210	0.103796
499.814787	0.101268
500.033345	0.100262
500.251885	0.097462
500.470406	0.098901
500.688910	0.100014
500.907395	0.100409
501.125862	0.101014
501.344311	0.101610
501.562742	0.099446
501.781154	0.099161
501.999548	0.100237
502.217924	0.101691
502.436282	0.100789
502.654621	0.099618
502.872942	0.098305
503.091245	0.096986
503.309530	0.095906
503.527797	0.097037
503.746045	0.098038
503.964275	0.097296
504.182487	0.097795
504.400681	0.098297
504.618856	0.099151
504.837013	0.099924
505.055152	0.102531
505.273273	0.104937
505.491376	0.103547
505.709460	0.103410
505.927526	0.105843
506.145574	0.103111
506.363604	0.105883
506.581615	0.104891
506.799608	0.105757
507.017583	0.104285
507.235540	0.101861
507.453478	0.103511
507.671399	0.103163
507.889301	0.102674
508.107185	0.104071
508.325050	0.102102
508.542898	0.100662
508.760727	0.100070
508.978538	0.099785
509.196330	0.100909
509.414105	0.100486
509.631861	0.100324
509.849599	0.099613
510.067319	0.099044
510.285021	0.099308
510.502704	0.100853
510.720369	0.101499
510.938016	0.102052
511.155645	0.102348
511.373255	0.101972
511.590848	0.103053
511.808422	0.102236
512.025977	0.103716
512.243515	0.102633
512.461034	0.102573
512.678536	0.102485
512.896018	0.103097
513.113483	0.101103
513.330930	0.101269
513.548358	0.101147
513.765768	0.102736
513.983160	0.102909
514.200533	0.103761
514.417889	0.104194
514.635226	0.103082
514.852545	0.104561
515.069845	0.106043
515.287128	0.107259
515.504392	0.108431
515.721638	0.107601
515.938866	0.106087
516.156075	0.106540
516.373267	0.106992
516.590440	0.108317
516.807594	0.106643
517.024731	0.106717
517.241850	0.105213
517.458950	0.104813
517.676032	0.105741
517.893095	0.107114
518.110141	0.106920
518.327168	0.107385
518.544177	0.107887
518.761168	0.107346
518.978141	0.107203
519.195095	0.108238
519.412031	0.108986
519.628949	0.108560
519.845849	0.109906
520.062731	0.109895
520.279594	0.109972
520.496439	0.108648
520.713266	0.110787
520.930074	0.111334
521.146865	0.111701
521.363637	0.108960
521.580391	0.108301
521.797127	0.107487
522.013844	0.106483
522.230543	0.106007
522.447224	0.107737
522.663887	0.107328
522.880532	0.107012
523.097158	0.106454
523.313766	0.108743
523.530356	0.109504
523.746928	0.108507
523.963481	0.111654
524.180017	0.111280
524.396534	0.111354
524.613032	0.111317
524.829513	0.111486
525.045975	0.111918
525.262420	0.110868
525.478845	0.110614
525.695253	0.110201
525.911643	0.108817
526.128014	0.110061
526.344367	0.109507
526.560702	0.109131
526.777018	0.109313
526.993316	0.107748
527.209597	0.108411
527.425858	0.108163
527.642102	0.109487
527.858328	0.109285
528.074535	0.108854
528.290724	0.108256
528.506894	0.107688
528.723047	0.107288
528.939181	0.109829
529.155297	0.110051
529.371395	0.110326
529.587475	0.109859
529.803536	0.110777
530.019579	0.110650
530.235604	0.111866
530.451611	0.112666
530.667600	0.114165
530.883570	0.113406
531.099522	0.113567
531.315456	0.114079
531.531372	0.114601
531.747269	0.114411
531.963148	0.114507
532.179009	0.114542
532.394852	0.115294
532.610676	0.114900
532.826482	0.114680
533.042271	0.114840
533.258040	0.115622
533.473792	0.116277
533.689525	0.115794
533.905240	0.116238
534.120937	0.116079
534.336616	0.116135
534.552277	0.116233
534.767919	0.117477
534.983543	0.117859
535.199149	0.117186
535.414736	0.116686
535.630306	0.116439
535.845857	0.117293
536.061390	0.117342
536.276904	0.117037
536.492401	0.117296
536.707879	0.117254
536.923339	0.117165
537.138781	0.116780
537.354204	0.116682
537.569610	0.117793
537.784997	0.117093
538.000366	0.116568
538.215716	0.116328
538.431049	0.116201
538.646363	0.115908
538.861659	0.116019
539.076937	0.117566
539.292196	0.118391
539.507438	0.117954
539.722661	0.118037
539.937866	0.118316
540.153052	0.118888
540.368221	0.118546
540.583371	0.117843
540.798503	0.117978
541.013617	0.117825
541.228712	0.118768
541.443789	0.119715
541.658848	0.119084
541.873889	0.120713
542.088912	0.120924
542.303916	0.122412
542.518902	0.122485
542.733870	0.123137
542.948820	0.123257
543.163752	0.123319
543.378665	0.123091
543.593560	0.124153
543.808437	0.123477
544.023295	0.123263
544.238136	0.122019
544.452958	0.123295
544.667762	0.122876
544.882548	0.122908
545.097315	0.122757
545.312064	0.122956
545.526795	0.123439
545.741508	0.123874
545.956203	0.123990
546.170879	0.124810
546.385537	0.123833
546.600177	0.124341
546.814799	0.124476
547.029402	0.123552
547.243988	0.123609
547.458555	0.123302
547.673103	0.123079
547.887634	0.123134
548.102146	0.123008
548.316640	0.124012
548.531116	0.123701
548.745574	0.123083
548.960013	0.123228
549.174435	0.123105
549.388838	0.123729
549.603222	0.123266
549.817589	0.123152
550.031937	0.123689
550.246267	0.122840
550.460579	0.122941
550.674873	0.123204
550.889148	0.123145
551.103405	0.123100
551.317644	0.122876
551.531865	0.123223
551.746068	0.123306
551.960252	0.123028
552.174418	0.124218
552.388566	0.124341
552.602696	0.125499
552.816807	0.126167
553.030900	0.125924
553.244975	0.125833
553.459032	0.126349
553.673070	0.126964
553.887091	0.126856
554.101093	0.126410
554.315077	0.126361
554.529042	0.124884
554.742990	0.124024
554.956919	0.124082
555.170830	0.124335
555.384722	0.124202
555.598597	0.124632
555.812453	0.124956
556.026291	0.125497
556.240111	0.125382
556.453913	0.125986
556.667696	0.126832
556.881461	0.127661
557.095208	0.127671
557.308937	0.127601
557.522647	0.127190
557.736339	0.126851
557.950013	0.126300
558.163669	0.126336
558.377307	0.126410
558.590926	0.125814
558.804527	0.125529
559.018110	0.125203
559.231675	0.124526
559.445221	0.124299
559.658749	0.124471
559.872259	0.124009
560.085751	0.124227
560.299225	0.124213
560.512680	0.124477
560.726117	0.123891
560.939536	0.124403
561.152937	0.125188
561.366319	0.125696
561.579683	0.125933
561.793029	0.126935
562.006357	0.126777
562.219667	0.126876
562.432958	0.127047
562.646231	0.127370
562.859486	0.127095
563.072723	0.126846
563.285941	0.126604
563.499141	0.126032
563.712323	0.126161
563.925487	0.126286
564.138632	0.126730
564.351760	0.126837
564.564869	0.127241
564.777960	0.128012
564.991032	0.128200
565.204087	0.128104
565.417123	0.129304
565.630141	0.128942
565.843140	0.129486
566.056122	0.129857
566.269085	0.130345
566.482030	0.130054
566.694957	0.129601
566.907866	0.130082
567.120756	0.130186
567.333628	0.129788
567.546482	0.129682
567.759318	0.129611
567.972135	0.129510
568.184935	0.129953
568.397716	0.130055
568.610478	0.130254
568.823223	0.130293
569.035949	0.130502
569.248657	0.130350
569.461347	0.130270
569.674019	0.130268
569.886672	0.129890
570.099308	0.129831
570.311925	0.130403
570.524523	0.130808
570.737104	0.130889
570.949666	0.131239
571.162210	0.131577
571.374736	0.131968
571.587244	0.132248
571.799733	0.132607
572.012205	0.132273
572.224658	0.131987
572.437092	0.131739
572.649509	0.132004
572.861907	0.131635
573.074287	0.131490
573.286649	0.131722
573.498993	0.131465
573.711318	0.131134
573.923625	0.131439
574.135914	0.131732
574.348185	0.131591
574.560438	0.131215
574.772672	0.131631
574.984888	0.131411
575.197086	0.131629
575.409266	0.131084
575.621427	0.130550
575.833570	0.130374
576.045695	0.130345
576.257802	0.130789
576.469890	0.131289
576.681961	0.130717
576.894013	0.130793
577.106046	0.130697
577.318062	0.130963
577.530059	0.131384
577.742039	0.131080
577.954000	0.130572
578.165942	0.130049
578.377867	0.129205
578.589773	0.128915
578.801661	0.128701
579.013531	0.127639
579.225382	0.127876
579.437216	0.127747
579.649031	0.128142
579.860828	0.128677
580.072606	0.129067
580.284367	0.129619
580.496109	0.130394
580.707833	0.130677
580.919539	0.130837
581.131227	0.130994
581.342896	0.131349
581.554547	0.130990
581.766180	0.131110
581.977795	0.130867
582.189391	0.130645
582.400969	0.130828
582.612529	0.131064
582.824071	0.132445
583.035595	0.132602
583.247100	0.132913
583.458587	0.132889
583.670056	0.133170
583.881506	0.133297
584.092939	0.133820
584.304353	0.133499
584.515749	0.133633
584.727127	0.133392
584.938486	0.133156
585.149828	0.133417
585.361151	0.134131
585.572456	0.134219
585.783742	0.134517
585.995011	0.134266
586.206261	0.134307
586.417493	0.134264
586.628706	0.134124
586.839902	0.134725
587.051079	0.134801
587.262238	0.134941
587.473379	0.135073
587.684502	0.135197
587.895606	0.135289
588.106692	0.135968
588.317760	0.135829
588.528810	0.136003
588.739841	0.135713
588.950855	0.135716
589.161850	0.135247
589.372827	0.135462
589.583785	0.135138
589.794726	0.135483
590.005648	0.135738
590.216552	0.136125
590.427437	0.136171
590.638305	0.136928
590.849154	0.137365
591.059985	0.137764
591.270798	0.137458
591.481592	0.138198
591.692369	0.138061
591.903127	0.137666
592.113867	0.137800
592.324588	0.137516
592.535292	0.136841
592.745977	0.136480
592.956644	0.136010
593.167293	0.136283
593.377923	0.135400
593.588536	0.135855
593.799130	0.135652
594.009706	0.135595
594.220263	0.136027
594.430803	0.135954
594.641324	0.135743
594.851827	0.136077
595.062312	0.135478
595.272778	0.135805
595.483227	0.135310
595.693657	0.135827
595.904069	0.135645
596.114462	0.135484
596.324838	0.135744
596.535195	0.135467
596.745534	0.135617
596.955855	0.135886
597.166157	0.136081
597.376441	0.136292
597.586707	0.135704
597.796955	0.135751
598.007185	0.135806
598.217396	0.136054
598.427589	0.136372
598.637764	0.136326
598.847921	0.136712
599.058060	0.136772
599.268180	0.136855
599.478282	0.138089
599.688366	0.138245
599.898431	0.138441
600.108479	0.138972
600.318508	0.139610
600.528519	0.140005
600.738511	0.140563
600.948486	0.140785
601.158442	0.140716
601.368380	0.139625
601.578300	0.140258
601.788202	0.140144
601.998085	0.139864
602.207950	0.139844
602.417797	0.140227
602.627626	0.139810
602.837436	0.139781
603.047228	0.139834
603.257002	0.140177
603.466758	0.139525
603.676496	0.139937
603.886215	0.139794
604.095916	0.139414
604.305599	0.138660
604.515264	0.138392
604.724910	0.138126
604.934538	0.137900
605.144148	0.138189
605.353740	0.138068
605.563314	0.137427
605.772869	0.137609
605.982406	0.137771
606.191925	0.137955
606.401425	0.138042
606.610908	0.138342
606.820372	0.138581
607.029818	0.138904
607.239246	0.139549
607.448655	0.139769
607.658047	0.139709
607.867420	0.139519
608.076775	0.139757
608.286111	0.139744
608.495430	0.139489
608.704730	0.139886
608.914012	0.139317
609.123275	0.139253
609.332521	0.139149
609.541748	0.139216
609.750957	0.139695
609.960148	0.139771
610.169321	0.139772
610.378475	0.140048
610.587611	0.139746
610.796729	0.139768
611.005829	0.139910
611.214910	0.140243
611.423974	0.140316
611.633019	0.140579
611.842045	0.140448
612.051054	0.140680
612.260044	0.140946
612.469017	0.140831
612.677970	0.140925
612.886906	0.140883
613.095824	0.141300
613.304723	0.141276
613.513604	0.140692
613.722467	0.140577
613.931311	0.140717
614.140138	0.140545
614.348946	0.140635
614.557736	0.140931
614.766507	0.141230
614.975261	0.140638
615.183996	0.140527
615.392713	0.140945
615.601412	0.141080
615.810092	0.140898
616.018754	0.140900
616.227399	0.141618
616.436024	0.141407
616.644632	0.141147
616.853222	0.141067
617.061793	0.141041
617.270346	0.140991
617.478880	0.141533
617.687397	0.141533
617.895895	0.141924
618.104375	0.141255
618.312837	0.140990
618.521281	0.141099
618.729706	0.141415
618.938113	0.141223
619.146502	0.141270
619.354873	0.140792
619.563226	0.140820
619.771560	0.140802
619.979876	0.141014
620.188174	0.141410
620.396453	0.141479
620.604715	0.141952
620.812958	0.142479
621.021183	0.142653
621.229390	0.142367
621.437578	0.142841
621.645748	0.142589
621.853900	0.142691
622.062034	0.142485
622.270150	0.142373
622.478247	0.142062
622.686326	0.142052
622.894387	0.142208
623.102430	0.142724
623.310454	0.142431
623.518461	0.142395
623.726449	0.142647
623.934418	0.143028
624.142370	0.143500
624.350303	0.143695
624.558218	0.143965
624.766115	0.143759
624.973994	0.143877
625.181855	0.143817
625.389697	0.144327
625.597521	0.144198
625.805327	0.144523
626.013114	0.144237
626.220883	0.144345
626.428634	0.144360
626.636367	0.144685
626.844082	0.144289
627.051778	0.144714
627.259457	0.144796
627.467117	0.144936
627.674758	0.144688
627.882382	0.144950
628.089987	0.145022
628.297574	0.144865
628.505143	0.144771
628.712694	0.144957
628.920226	0.145044
629.127740	0.144880
629.335236	0.145179
629.542714	0.145212
629.750174	0.145292
629.957615	0.145081
630.165038	0.144595
630.372443	0.144802
630.579829	0.145237
630.787198	0.145318
630.994548	0.145434
631.201880	0.145309
631.409194	0.145692
631.616489	0.145938
631.823766	0.146246
632.031025	0.147115
632.238266	0.146613
632.445489	0.146391
632.652693	0.146500
632.859879	0.146695
633.067047	0.146641
633.274197	0.146606
633.481329	0.146378
633.688442	0.146646
633.895537	0.146507
634.102614	0.147035
634.309672	0.147341
634.516713	0.147745
634.723735	0.147417
634.930739	0.147323
635.137724	0.147494
635.344692	0.147438
635.551641	0.147174
635.758572	0.147430
635.965485	0.146908
636.172379	0.146599
636.379256	0.146371
636.586114	0.146541
636.792954	0.146928
636.999775	0.146916
637.206579	0.146667
637.413364	0.147056
637.620131	0.146857
637.826880	0.147495
638.033610	0.147761
638.240323	0.147226
638.447017	0.147521
638.653692	0.147449
638.860350	0.147349
639.066990	0.147680
639.273611	0.147356
639.480214	0.147833
639.686798	0.147820
639.893365	0.147938
640.099913	0.148329
640.306443	0.148101
640.512955	0.148237
640.719449	0.148146
640.925924	0.148279
641.132381	0.148360
641.338820	0.147809
641.545241	0.147940
641.751644	0.148271
641.958028	0.148476
642.164394	0.148405
642.370742	0.148588
642.577071	0.148684
642.783383	0.148869
642.989676	0.148722
643.195951	0.149021
643.402207	0.148754
643.608446	0.148686
643.814666	0.148750
644.020868	0.149098
644.227052	0.148842
644.433218	0.148751
644.639365	0.148376
644.845494	0.148483
645.051605	0.148394
645.257698	0.148418
645.463772	0.148049
645.669828	0.147924
645.875866	0.147723
646.081886	0.147796
646.287888	0.148050
646.493871	0.148173
646.699836	0.148832
646.905783	0.149080
647.111712	0.149436
647.317622	0.149909
647.523514	0.149941
647.729388	0.150051
647.935244	0.150066
648.141082	0.149919
648.346901	0.150233
648.552702	0.149749
648.758485	0.149906
648.964250	0.149952
649.169996	0.150164
649.375724	0.150319
649.581434	0.150424
649.787126	0.150417
649.992800	0.150692
650.198455	0.150530
650.404092	0.150788
650.609711	0.150447
650.815311	0.150139
651.020894	0.150036
651.226458	0.149933
651.432004	0.149745
651.637532	0.149776
651.843041	0.150021
652.048532	0.150231
652.254006	0.150468
652.459460	0.151053
652.664897	0.151584
652.870315	0.151840
653.075716	0.152159
653.281097	0.152665
653.486461	0.153058
653.691807	0.152988
653.897134	0.153378
654.102443	0.153181
654.307734	0.153187
654.513006	0.153058
654.718261	0.152757
654.923497	0.152801
655.128715	0.153087
655.333915	0.153070
655.539096	0.153235
655.744259	0.153192
655.949404	0.153546
656.154531	0.153579
656.359640	0.153840
656.564730	0.154185
656.769802	0.154185
656.974856	0.153754
657.179892	0.153801
657.384909	0.154029
657.589908	0.154208
657.794889	0.154554
657.999852	0.154659
658.204797	0.154872
658.409723	0.154601
658.614631	0.154758
658.819521	0.155217
659.024393	0.155485
659.229246	0.155530
659.434081	0.155434
659.638898	0.155626
659.843697	0.156062
660.048478	0.156061
660.253240	0.156405
660.457984	0.156671
660.662710	0.156914
660.867417	0.156892
661.072107	0.156987
661.276778	0.157272
661.481431	0.157038
661.686066	0.156758
661.890682	0.156771
662.095281	0.156581
662.299861	0.156374
662.504422	0.156315
662.708966	0.156027
662.913491	0.155474
663.117999	0.155321
663.322488	0.155342
663.526958	0.155652
663.731411	0.155967
663.935845	0.156456
664.140261	0.156766
664.344659	0.157066
664.549038	0.157565
664.753400	0.158244
664.957743	0.158249
665.162068	0.158407
665.366375	0.157887
665.570663	0.157444
665.774933	0.157183
665.979185	0.157250
666.183419	0.157110
666.387635	0.157090
666.591832	0.157037
666.796011	0.157318
667.000172	0.156999
667.204315	0.157200
667.408439	0.157276
667.612545	0.157703
667.816634	0.157563
668.020703	0.157597
668.224755	0.157933
668.428788	0.158003
668.632803	0.158162
668.836800	0.158576
669.040779	0.159114
669.244739	0.159510
669.448681	0.159341
669.652605	0.159292
669.856511	0.159424
670.060399	0.159583
670.264268	0.159859
670.468119	0.160027
670.671952	0.159814
670.875767	0.159865
671.079563	0.159533
671.283341	0.159709
671.487101	0.160350
671.690843	0.160262
671.894567	0.160065
672.098272	0.159906
672.301959	0.159873
672.505628	0.160048
672.709278	0.159856
672.912911	0.160218
673.116525	0.160419
673.320121	0.160557
673.523699	0.160559
673.727258	0.160558
673.930799	0.160782
674.134322	0.160440
674.337827	0.160268
674.541314	0.160365
674.744782	0.160664
674.948232	0.160702
675.151664	0.160312
675.355078	0.160415
675.558474	0.160566
675.761851	0.160501
675.965210	0.161094
676.168551	0.161713
676.371873	0.161731
676.575178	0.161972
676.778464	0.162493
676.981732	0.162721
677.184981	0.162992
677.388213	0.163189
677.591426	0.163470
677.794621	0.163414
677.997798	0.163234
678.200956	0.163624
678.404097	0.163543
678.607219	0.163115
678.810323	0.163396
679.013408	0.163369
679.216476	0.163518
679.419525	0.163553
679.622556	0.163654
679.825569	0.164006
680.028563	0.164045
680.231540	0.164029
680.434498	0.163936
680.637438	0.163426
680.840359	0.163425
681.043263	0.163383
681.246148	0.163106
681.449015	0.163166
681.651864	0.163128
681.854694	0.163229
682.057506	0.163157
682.260301	0.163201
682.463076	0.163469
682.665834	0.163436
682.868573	0.163563
683.071295	0.163894
683.273998	0.164235
683.476682	0.164202
683.679349	0.163982
683.881997	0.164040
684.084627	0.164737
684.287239	0.164806
684.489833	0.165077
684.692408	0.165087
684.894965	0.165591
685.097504	0.165445
685.300025	0.165722
685.502527	0.165964
685.705012	0.166152
685.907478	0.165676
686.109925	0.166019
686.312355	0.166318
686.514766	0.166349
686.717159	0.166171
686.919534	0.166142
687.121891	0.166404
687.324230	0.166739
687.526550	0.166972
687.728852	0.167020
687.931136	0.167323
688.133401	0.167082
688.335649	0.167550
688.537878	0.167691
688.740089	0.167945
688.942281	0.167700
689.144456	0.167771
689.346612	0.167973
689.548750	0.168504
689.750870	0.168225
689.952971	0.168919
690.155055	0.168668
690.357120	0.168656
690.559167	0.168772
690.761195	0.169283
690.963206	0.169202
691.165198	0.169175
691.367172	0.169297
691.569128	0.169535
691.771065	0.169107
691.972984	0.169186
692.174885	0.169203
692.376768	0.168766
692.578633	0.168236
692.780479	0.168173
692.982308	0.168276
693.184118	0.168355
693.385909	0.168186
