sample name	sample
index	1508
start time	 05-18-2021  02:48:59 PM


Wavelength (nm)	Absorbance
494.344910	0.067543
494.563924	0.067543
494.782919	0.067543
495.001897	0.011862
495.220856	0.023135
495.439797	0.026780
495.658719	0.012186
495.877624	-0.005328
496.096510	-0.015669
496.315378	0.001139
496.534227	0.008744
496.753059	0.027649
496.971872	0.051477
497.190667	0.124028
497.409444	0.142514
497.628203	0.148584
497.846943	0.148466
498.065665	0.150614
498.284369	0.151166
498.503055	0.151365
498.721723	0.150988
498.940372	0.151470
499.159003	0.151424
499.377616	0.150835
499.596210	0.150447
499.814787	0.151216
500.033345	0.150237
500.251885	0.151644
500.470406	0.152842
500.688910	0.152893
500.907395	0.152285
501.125862	0.152538
501.344311	0.152285
501.562742	0.152536
501.781154	0.153721
501.999548	0.154561
502.217924	0.153876
502.436282	0.152930
502.654621	0.152652
502.872942	0.153776
503.091245	0.154101
503.309530	0.154221
503.527797	0.154934
503.746045	0.154389
503.964275	0.154481
504.182487	0.154485
504.400681	0.153944
504.618856	0.153977
504.837013	0.153253
505.055152	0.153808
505.273273	0.154569
505.491376	0.154181
505.709460	0.153652
505.927526	0.153809
506.145574	0.153290
506.363604	0.154076
506.581615	0.153927
506.799608	0.154616
507.017583	0.153556
507.235540	0.154168
507.453478	0.154667
507.671399	0.155044
507.889301	0.154855
508.107185	0.155004
508.325050	0.156099
508.542898	0.156792
508.760727	0.156779
508.978538	0.158094
509.196330	0.158336
509.414105	0.158223
509.631861	0.159258
509.849599	0.159366
510.067319	0.159684
510.285021	0.159101
510.502704	0.158883
510.720369	0.158967
510.938016	0.158773
511.155645	0.158250
511.373255	0.158072
511.590848	0.157445
511.808422	0.157323
512.025977	0.157248
512.243515	0.157757
512.461034	0.158195
512.678536	0.157381
512.896018	0.157705
513.113483	0.157610
513.330930	0.157366
513.548358	0.157914
513.765768	0.159601
513.983160	0.159761
514.200533	0.159735
514.417889	0.160361
514.635226	0.162015
514.852545	0.161866
515.069845	0.162723
515.287128	0.163556
515.504392	0.163810
515.721638	0.163035
515.938866	0.164167
516.156075	0.163357
516.373267	0.163508
516.590440	0.162946
516.807594	0.164084
517.024731	0.163788
517.241850	0.164206
517.458950	0.164328
517.676032	0.164640
517.893095	0.165309
518.110141	0.166676
518.327168	0.167099
518.544177	0.167930
518.761168	0.167437
518.978141	0.168098
519.195095	0.168425
519.412031	0.169229
519.628949	0.169165
519.845849	0.167961
520.062731	0.168545
520.279594	0.167036
520.496439	0.167632
520.713266	0.169087
520.930074	0.168181
521.146865	0.167763
521.363637	0.167197
521.580391	0.167922
521.797127	0.168760
522.013844	0.168362
522.230543	0.170441
522.447224	0.170232
522.663887	0.169631
522.880532	0.171029
523.097158	0.171642
523.313766	0.172645
523.530356	0.173027
523.746928	0.173779
523.963481	0.173873
524.180017	0.174341
524.396534	0.174592
524.613032	0.174748
524.829513	0.175551
525.045975	0.176297
525.262420	0.177072
525.478845	0.177472
525.695253	0.177747
525.911643	0.178905
526.128014	0.179358
526.344367	0.180028
526.560702	0.180790
526.777018	0.180759
526.993316	0.180807
527.209597	0.180956
527.425858	0.181047
527.642102	0.181223
527.858328	0.181330
528.074535	0.181225
528.290724	0.181356
528.506894	0.181231
528.723047	0.182017
528.939181	0.182464
529.155297	0.182892
529.371395	0.183731
529.587475	0.183609
529.803536	0.183968
530.019579	0.184403
530.235604	0.185572
530.451611	0.185749
530.667600	0.186292
530.883570	0.186887
531.099522	0.187426
531.315456	0.187587
531.531372	0.188308
531.747269	0.188916
531.963148	0.189202
532.179009	0.189266
532.394852	0.189974
532.610676	0.189881
532.826482	0.190059
533.042271	0.190513
533.258040	0.190772
533.473792	0.191670
533.689525	0.191950
533.905240	0.192181
534.120937	0.191954
534.336616	0.192227
534.552277	0.192796
534.767919	0.193561
534.983543	0.193511
535.199149	0.193935
535.414736	0.193663
535.630306	0.193913
535.845857	0.194747
536.061390	0.195523
536.276904	0.195800
536.492401	0.195916
536.707879	0.195745
536.923339	0.195775
537.138781	0.196356
537.354204	0.197388
537.569610	0.197912
537.784997	0.198119
538.000366	0.198564
538.215716	0.198878
538.431049	0.199340
538.646363	0.199888
538.861659	0.200118
539.076937	0.200121
539.292196	0.199834
539.507438	0.200447
539.722661	0.200602
539.937866	0.200827
540.153052	0.200779
540.368221	0.201150
540.583371	0.201483
540.798503	0.201522
541.013617	0.202154
541.228712	0.202559
541.443789	0.202627
541.658848	0.203430
541.873889	0.204035
542.088912	0.205310
542.303916	0.205261
542.518902	0.205859
542.733870	0.206397
542.948820	0.206797
543.163752	0.207290
543.378665	0.207860
543.593560	0.207674
543.808437	0.207617
544.023295	0.207293
544.238136	0.207685
544.452958	0.207621
544.667762	0.207992
544.882548	0.208358
545.097315	0.209063
545.312064	0.209367
545.526795	0.209812
545.741508	0.210003
545.956203	0.210531
546.170879	0.210889
546.385537	0.211459
546.600177	0.212009
546.814799	0.212171
547.029402	0.211897
547.243988	0.211274
547.458555	0.211676
547.673103	0.212351
547.887634	0.212800
548.102146	0.212456
548.316640	0.212882
548.531116	0.212928
548.745574	0.212783
548.960013	0.212709
549.174435	0.213617
549.388838	0.213905
549.603222	0.213842
549.817589	0.213737
550.031937	0.214605
550.246267	0.214239
550.460579	0.214525
550.674873	0.215091
550.889148	0.215938
551.103405	0.215960
551.317644	0.215775
551.531865	0.215904
551.746068	0.216326
551.960252	0.216396
552.174418	0.216907
552.388566	0.217393
552.602696	0.217554
552.816807	0.217666
553.030900	0.218005
553.244975	0.218514
553.459032	0.218808
553.673070	0.218998
553.887091	0.219217
554.101093	0.219744
554.315077	0.220057
554.529042	0.220077
554.742990	0.220133
554.956919	0.219855
555.170830	0.219935
555.384722	0.219835
555.598597	0.219903
555.812453	0.220374
556.026291	0.219849
556.240111	0.219613
556.453913	0.220236
556.667696	0.220526
556.881461	0.221205
557.095208	0.221102
557.308937	0.221506
557.522647	0.221772
557.736339	0.221532
557.950013	0.221768
558.163669	0.222171
558.377307	0.222750
558.590926	0.222911
558.804527	0.223254
559.018110	0.223681
559.231675	0.224155
559.445221	0.224575
559.658749	0.225124
559.872259	0.225847
560.085751	0.226118
560.299225	0.225985
560.512680	0.226314
560.726117	0.226407
560.939536	0.226631
561.152937	0.226746
561.366319	0.226668
561.579683	0.226925
561.793029	0.226894
562.006357	0.226647
562.219667	0.226447
562.432958	0.226402
562.646231	0.226299
562.859486	0.226920
563.072723	0.226938
563.285941	0.227451
563.499141	0.226971
563.712323	0.227000
563.925487	0.227616
564.138632	0.228196
564.351760	0.228790
564.564869	0.229191
564.777960	0.228872
564.991032	0.229183
565.204087	0.229183
565.417123	0.229662
565.630141	0.230188
565.843140	0.230156
566.056122	0.229938
566.269085	0.229632
566.482030	0.229657
566.694957	0.229754
566.907866	0.230016
567.120756	0.230550
567.333628	0.230647
567.546482	0.230784
567.759318	0.231261
567.972135	0.231570
568.184935	0.232045
568.397716	0.232164
568.610478	0.232832
568.823223	0.233152
569.035949	0.233020
569.248657	0.233397
569.461347	0.233238
569.674019	0.233643
569.886672	0.233759
570.099308	0.233694
570.311925	0.233549
570.524523	0.233560
570.737104	0.233803
570.949666	0.233959
571.162210	0.234300
571.374736	0.234769
571.587244	0.234640
571.799733	0.234977
572.012205	0.235494
572.224658	0.235996
572.437092	0.235665
572.649509	0.235433
572.861907	0.235644
573.074287	0.236041
573.286649	0.235996
573.498993	0.236020
573.711318	0.235833
573.923625	0.235516
574.135914	0.235971
574.348185	0.236378
574.560438	0.236894
574.772672	0.237138
574.984888	0.236874
575.197086	0.236923
575.409266	0.237532
575.621427	0.237945
575.833570	0.238127
576.045695	0.238102
576.257802	0.238973
576.469890	0.238912
576.681961	0.238660
576.894013	0.239137
577.106046	0.239659
577.318062	0.239370
577.530059	0.239571
577.742039	0.239621
577.954000	0.239663
578.165942	0.239641
578.377867	0.240003
578.589773	0.240916
578.801661	0.241350
579.013531	0.241080
579.225382	0.241537
579.437216	0.241542
579.649031	0.242170
579.860828	0.242474
580.072606	0.242632
580.284367	0.242442
580.496109	0.241758
580.707833	0.241344
580.919539	0.241934
581.131227	0.241975
581.342896	0.242100
581.554547	0.242437
581.766180	0.243038
581.977795	0.243232
582.189391	0.243741
582.400969	0.244300
582.612529	0.244698
582.824071	0.244868
583.035595	0.244805
583.247100	0.244783
583.458587	0.245027
583.670056	0.244448
583.881506	0.244621
584.092939	0.244680
584.304353	0.244683
584.515749	0.244935
584.727127	0.245186
584.938486	0.245154
585.149828	0.246058
585.361151	0.245907
585.572456	0.246529
585.783742	0.246339
585.995011	0.246436
586.206261	0.246921
586.417493	0.247136
586.628706	0.247497
586.839902	0.248141
587.051079	0.247928
587.262238	0.248265
587.473379	0.248464
587.684502	0.248160
587.895606	0.248143
588.106692	0.248134
588.317760	0.248321
588.528810	0.247846
588.739841	0.247886
588.950855	0.247942
589.161850	0.247911
589.372827	0.247998
589.583785	0.248467
589.794726	0.248750
590.005648	0.248886
590.216552	0.248677
590.427437	0.248949
590.638305	0.249275
590.849154	0.249883
591.059985	0.250131
591.270798	0.250378
591.481592	0.251048
591.692369	0.251343
591.903127	0.251869
592.113867	0.252326
592.324588	0.253119
592.535292	0.253285
592.745977	0.253301
592.956644	0.253507
593.167293	0.253893
593.377923	0.254122
593.588536	0.254383
593.799130	0.254681
594.009706	0.254801
594.220263	0.254816
594.430803	0.254678
594.641324	0.254626
594.851827	0.254764
595.062312	0.254823
595.272778	0.254725
595.483227	0.254993
595.693657	0.254713
595.904069	0.254844
596.114462	0.254831
596.324838	0.255449
596.535195	0.255699
596.745534	0.255831
596.955855	0.256178
597.166157	0.256508
597.376441	0.256604
597.586707	0.256941
597.796955	0.257516
598.007185	0.257912
598.217396	0.258003
598.427589	0.258113
598.637764	0.258343
598.847921	0.258213
599.058060	0.258704
599.268180	0.259164
599.478282	0.259246
599.688366	0.258917
599.898431	0.258843
600.108479	0.258697
600.318508	0.259065
600.528519	0.258875
600.738511	0.259266
600.948486	0.258856
601.158442	0.258667
601.368380	0.258854
601.578300	0.259269
601.788202	0.259720
601.998085	0.260283
602.207950	0.260329
602.417797	0.260852
602.627626	0.260858
602.837436	0.261084
603.047228	0.261472
603.257002	0.261857
603.466758	0.262296
603.676496	0.262540
603.886215	0.262632
604.095916	0.262902
604.305599	0.263039
604.515264	0.263074
604.724910	0.263369
604.934538	0.263217
605.144148	0.263426
605.353740	0.263298
605.563314	0.263174
605.772869	0.263492
605.982406	0.263913
606.191925	0.264426
606.401425	0.264845
606.610908	0.264855
606.820372	0.265176
607.029818	0.265407
607.239246	0.265496
607.448655	0.266005
607.658047	0.265941
607.867420	0.266062
608.076775	0.266376
608.286111	0.266749
608.495430	0.267350
608.704730	0.267584
608.914012	0.267682
609.123275	0.268137
609.332521	0.268187
609.541748	0.268283
609.750957	0.268249
609.960148	0.268121
610.169321	0.267996
610.378475	0.268099
610.587611	0.268092
610.796729	0.268107
611.005829	0.268080
611.214910	0.268294
611.423974	0.268464
611.633019	0.268546
611.842045	0.269092
612.051054	0.269327
612.260044	0.269491
612.469017	0.269763
612.677970	0.269889
612.886906	0.270234
613.095824	0.270133
613.304723	0.270506
613.513604	0.270868
613.722467	0.270818
613.931311	0.270891
614.140138	0.271114
614.348946	0.271404
614.557736	0.271588
614.766507	0.271697
614.975261	0.271990
615.183996	0.271815
615.392713	0.272137
615.601412	0.272043
615.810092	0.272373
616.018754	0.271849
616.227399	0.271823
616.436024	0.272299
616.644632	0.272438
616.853222	0.272500
617.061793	0.273188
617.270346	0.273096
617.478880	0.273342
617.687397	0.273378
617.895895	0.274058
618.104375	0.274541
618.312837	0.274666
618.521281	0.274660
618.729706	0.275409
618.938113	0.275491
619.146502	0.275651
619.354873	0.276064
619.563226	0.276749
619.771560	0.276713
619.979876	0.276703
620.188174	0.277065
620.396453	0.277404
620.604715	0.277278
620.812958	0.277576
621.021183	0.278059
621.229390	0.278262
621.437578	0.278035
621.645748	0.278672
621.853900	0.279121
622.062034	0.278983
622.270150	0.279684
622.478247	0.279852
622.686326	0.280072
622.894387	0.280158
623.102430	0.280231
623.310454	0.280736
623.518461	0.280888
623.726449	0.280929
623.934418	0.281196
624.142370	0.281001
624.350303	0.281223
624.558218	0.281073
624.766115	0.281120
624.973994	0.281249
625.181855	0.281100
625.389697	0.281239
625.597521	0.281182
625.805327	0.281537
626.013114	0.281502
626.220883	0.281510
626.428634	0.281772
626.636367	0.282168
626.844082	0.282304
627.051778	0.282547
627.259457	0.282623
627.467117	0.283092
627.674758	0.282624
627.882382	0.282870
628.089987	0.283425
628.297574	0.283894
628.505143	0.283968
628.712694	0.284205
628.920226	0.284133
629.127740	0.284250
629.335236	0.284441
629.542714	0.284901
629.750174	0.285037
629.957615	0.284759
630.165038	0.284621
630.372443	0.284817
630.579829	0.285121
630.787198	0.285459
630.994548	0.285810
631.201880	0.285858
631.409194	0.286097
631.616489	0.286561
631.823766	0.287061
632.031025	0.287347
632.238266	0.287594
632.445489	0.287673
632.652693	0.287939
632.859879	0.287945
633.067047	0.288116
633.274197	0.288189
633.481329	0.288169
633.688442	0.288154
633.895537	0.288332
634.102614	0.288658
634.309672	0.288888
634.516713	0.288915
634.723735	0.289253
634.930739	0.289765
635.137724	0.290122
635.344692	0.290346
635.551641	0.290786
635.758572	0.290977
635.965485	0.290750
636.172379	0.291037
636.379256	0.291130
636.586114	0.291235
636.792954	0.291134
636.999775	0.291288
637.206579	0.291699
637.413364	0.291572
637.620131	0.291651
637.826880	0.292061
638.033610	0.292183
638.240323	0.292461
638.447017	0.292569
638.653692	0.292310
638.860350	0.292350
639.066990	0.292249
639.273611	0.292595
639.480214	0.292950
639.686798	0.293099
639.893365	0.293450
640.099913	0.293918
640.306443	0.294496
640.512955	0.295475
640.719449	0.295969
640.925924	0.296376
641.132381	0.296574
641.338820	0.296715
641.545241	0.296959
641.751644	0.296844
641.958028	0.297087
642.164394	0.296852
642.370742	0.296958
642.577071	0.296961
642.783383	0.296952
642.989676	0.296968
643.195951	0.297126
643.402207	0.297521
643.608446	0.297517
643.814666	0.297515
644.020868	0.297873
644.227052	0.297847
644.433218	0.298244
644.639365	0.298517
644.845494	0.298827
645.051605	0.299257
645.257698	0.299378
645.463772	0.300043
645.669828	0.300418
645.875866	0.300758
646.081886	0.301159
646.287888	0.301431
646.493871	0.301677
646.699836	0.301957
646.905783	0.301952
647.111712	0.302158
647.317622	0.302316
647.523514	0.302093
647.729388	0.302296
647.935244	0.302345
648.141082	0.302483
648.346901	0.302730
648.552702	0.303064
648.758485	0.303084
648.964250	0.303139
649.169996	0.303346
649.375724	0.303925
649.581434	0.304081
649.787126	0.304379
649.992800	0.304643
650.198455	0.304972
650.404092	0.305044
650.609711	0.305488
650.815311	0.305951
651.020894	0.306025
651.226458	0.306082
651.432004	0.306199
651.637532	0.306655
651.843041	0.306700
652.048532	0.307064
652.254006	0.307382
652.459460	0.307800
652.664897	0.307773
652.870315	0.307850
653.075716	0.308120
653.281097	0.308557
653.486461	0.308559
653.691807	0.309072
653.897134	0.309038
654.102443	0.309336
654.307734	0.309503
654.513006	0.309626
654.718261	0.310234
654.923497	0.310555
655.128715	0.310575
655.333915	0.310809
655.539096	0.310619
655.744259	0.310679
655.949404	0.310935
656.154531	0.310992
656.359640	0.311393
656.564730	0.311714
656.769802	0.311882
656.974856	0.312132
657.179892	0.312542
657.384909	0.313041
657.589908	0.313442
657.794889	0.313737
657.999852	0.314093
658.204797	0.314368
658.409723	0.314177
658.614631	0.314577
658.819521	0.314815
659.024393	0.314617
659.229246	0.314848
659.434081	0.314971
659.638898	0.314863
659.843697	0.314937
660.048478	0.314981
660.253240	0.315467
660.457984	0.315693
660.662710	0.315834
660.867417	0.316434
661.072107	0.316761
661.276778	0.317074
661.481431	0.317362
661.686066	0.317836
661.890682	0.318257
662.095281	0.318596
662.299861	0.318751
662.504422	0.319088
662.708966	0.319302
662.913491	0.319634
663.117999	0.319881
663.322488	0.320465
663.526958	0.320587
663.731411	0.321133
663.935845	0.321128
664.140261	0.321297
664.344659	0.321551
664.549038	0.321815
664.753400	0.321946
664.957743	0.322224
665.162068	0.322359
665.366375	0.322467
665.570663	0.322374
665.774933	0.322735
665.979185	0.323089
666.183419	0.323419
666.387635	0.323558
666.591832	0.323824
666.796011	0.323823
667.000172	0.324267
667.204315	0.324594
667.408439	0.324954
667.612545	0.324866
667.816634	0.325181
668.020703	0.325299
668.224755	0.325433
668.428788	0.325508
668.632803	0.326041
668.836800	0.326040
669.040779	0.326541
669.244739	0.326688
669.448681	0.327246
669.652605	0.327500
669.856511	0.327915
670.060399	0.328251
670.264268	0.328893
670.468119	0.329223
670.671952	0.329437
670.875767	0.329702
671.079563	0.329963
671.283341	0.330401
671.487101	0.330798
671.690843	0.331108
671.894567	0.331546
672.098272	0.331536
672.301959	0.331624
672.505628	0.331906
672.709278	0.332204
672.912911	0.332412
673.116525	0.332519
673.320121	0.332741
673.523699	0.332903
673.727258	0.332894
673.930799	0.332837
674.134322	0.333136
674.337827	0.333315
674.541314	0.333254
674.744782	0.333365
674.948232	0.333631
675.151664	0.333674
675.355078	0.333987
675.558474	0.334357
675.761851	0.334775
675.965210	0.335112
676.168551	0.335440
676.371873	0.335898
676.575178	0.336355
676.778464	0.336567
676.981732	0.337106
677.184981	0.337522
677.388213	0.337690
677.591426	0.338067
677.794621	0.338366
677.997798	0.338679
678.200956	0.338920
678.404097	0.339137
678.607219	0.339670
678.810323	0.339745
679.013408	0.339862
679.216476	0.340259
679.419525	0.340434
679.622556	0.340807
679.825569	0.341131
680.028563	0.341383
680.231540	0.341539
680.434498	0.341497
680.637438	0.342037
680.840359	0.342131
681.043263	0.342301
681.246148	0.342688
681.449015	0.342693
681.651864	0.342363
681.854694	0.342541
682.057506	0.342923
682.260301	0.343124
682.463076	0.342960
682.665834	0.343305
682.868573	0.343567
683.071295	0.343508
683.273998	0.343849
683.476682	0.344523
683.679349	0.344386
683.881997	0.344699
684.084627	0.345254
684.287239	0.345706
684.489833	0.345667
684.692408	0.345900
684.894965	0.346273
685.097504	0.346130
685.300025	0.346235
685.502527	0.346839
685.705012	0.346851
685.907478	0.346862
686.109925	0.346991
686.312355	0.347289
686.514766	0.347415
686.717159	0.347841
686.919534	0.348130
687.121891	0.348263
687.324230	0.348287
687.526550	0.348473
687.728852	0.348646
687.931136	0.348738
688.133401	0.348801
688.335649	0.348992
688.537878	0.348811
688.740089	0.349317
688.942281	0.349457
689.144456	0.349644
689.346612	0.350156
689.548750	0.350220
689.750870	0.350560
689.952971	0.350808
690.155055	0.351023
690.357120	0.351357
690.559167	0.351403
690.761195	0.351881
690.963206	0.351909
691.165198	0.351890
691.367172	0.352091
691.569128	0.352112
691.771065	0.352411
691.972984	0.352434
692.174885	0.352645
692.376768	0.352807
692.578633	0.353100
692.780479	0.353379
692.982308	0.353592
693.184118	0.353845
693.385909	0.353886
