sample name	sample
index	501
start time	 03-11-2021  02:46:23 PM
880	0.185685
Peak Time (s)	92.535
Peak Height 	0.1857
calc peak height	90,93
Baseline Time (s)	10.535
Baseline Value 	-0.005665
subtract baseline	10,4
Abs	0.140023
Peak Time (s)	92.035
Peak Height 	0.14
calc peak height	90,93
Baseline Time (s)	10.535
Baseline Value 	0.004965
subtract baseline	10,3
PK_550	0.080502
Peak Time (s)	90.04
Peak Height 	0.0805
calc peak height	90,93
Baseline Time (s)	10.037
Baseline Value 	-1.0772E-5
subtract baseline	10,2
PK_880	0.143351
Peak Time (s)	90.04
Peak Height 	0.1434
calc peak height	90,93
Baseline Time (s)	9.04
Baseline Value 	0.003102
subtract baseline	10,1


Time (s)	A880-A510	A880-A775	A880-A975	A880	I510	I775	I975	I880	
0.034500	-0.001263	-0.000082	-0.005761	0.002343	7058.718192	45498.137984	3972.463870	24187.761032
0.534500	-0.002234	-0.000261	-0.002909	0.004633	7027.606331	45257.034121	3973.898070	24075.820788
1.035000	-0.002427	0.000512	-0.004888	0.004814	7024.058607	45314.753976	3968.390404	24066.998590
1.535500	-0.000074	0.001216	-0.003308	0.005324	7041.590604	45333.620530	3971.113811	24042.138304
2.035500	-0.000504	0.000263	-0.004375	0.000947	7079.402348	45668.902638	3979.587341	24256.278595
2.536500	0.000167	-0.000066	-0.001078	0.000596	7089.255580	45671.080492	3988.999865	24273.541355
3.036000	-0.001939	0.000175	-0.002163	0.001404	7061.232143	45615.335261	3984.105887	24233.810500
3.536000	-0.000242	0.000313	-0.002760	0.000868	7082.678129	45681.541859	3983.945403	24260.131590
4.036500	0.001188	0.000289	0.000462	0.000509	7099.944159	45714.555847	3993.220595	24277.793553
4.540000	0.000469	-0.000525	-0.002709	-0.000230	7100.149451	45707.140901	3986.914262	24314.211989
5.034500	-0.002055	-0.000810	-0.002801	-0.000863	7081.891941	45741.406113	3988.313379	24345.424731
5.534500	-0.002266	0.000528	0.000568	0.000207	7069.574958	45767.804215	3994.283873	24292.684155
6.035000	-0.000663	0.000518	-0.002815	0.000434	7082.807183	45744.481886	3984.924832	24281.486943
6.535500	-0.000367	0.001403	-0.001817	0.001008	7080.131617	45775.070094	3986.020936	24253.255101
7.035000	0.000369	0.000903	-0.001483	0.000458	7092.531607	45780.023261	3988.305719	24280.317591
7.536000	-0.001155	-0.000034	-0.002042	0.000238	7079.964468	45709.515814	3987.431621	24291.176425
8.036500	0.000084	-0.000302	-0.003173	0.000109	7093.145359	45695.767736	3984.840157	24297.503645
8.536500	0.000347	0.000437	0.000096	0.000094	7095.830560	45769.982197	3993.349216	24298.228495
9.039500	0.000000	0.000102	-0.002984	0.000067	7092.739715	45739.613333	3985.434532	24299.558993
9.537000	-0.000370	-0.000173	-0.001595	-0.000398	7093.658861	45758.370792	3990.235280	24322.497216
10.037500	0.000064	0.000000	0.000238	-0.000226	7096.194157	45758.500395	3994.553216	24314.031626
10.535000	-0.000418	-0.000062	0.000000	0.000000	7089.358794	45730.121004	3993.344345	24302.880798
11.035500	-0.000596	0.000522	-0.003522	0.000257	7085.164411	45762.306196	3983.558540	24290.218567
11.535500	0.000437	-0.000023	0.004008	-0.000304	7100.560826	45763.972779	4004.616627	24317.888386
12.036000	0.000605	0.000399	-0.002965	0.000049	7098.767398	45770.676832	3985.532805	24300.475968
12.536500	-0.000515	-0.000030	-0.002271	-0.000184	7090.195378	45751.459225	3987.930735	24311.962981
13.036000	0.000680	0.001184	-0.000242	-0.001063	7110.253924	45958.028873	3995.482381	24355.317947
13.539000	0.000550	0.000905	0.002275	0.000143	7097.317556	45811.334301	3998.904152	24295.830951
14.043000	0.000606	-0.000025	0.001214	-0.000076	7099.974299	45741.171334	3996.704490	24306.610193
14.537500	-0.001809	0.000501	0.000677	0.003079	7046.451259	45483.037625	3987.112392	24151.675168
15.035500	-0.001315	0.000173	-0.002703	0.000310	7077.730663	45722.715067	3985.534526	24287.624475
15.562500	0.001168	0.000126	0.004226	-0.000195	7106.568054	45767.772538	4004.900551	24312.477720
16.035500	0.000721	0.000051	0.000662	-0.000585	7106.028168	45798.881520	3996.592170	24331.740332
16.535500	-0.000009	0.000103	0.001312	-0.000679	7099.861351	45813.298799	3998.535398	24336.369409
17.036000	-0.002057	-0.000323	-0.001612	-0.000317	7076.621838	45735.670659	3989.983511	24318.527053
17.536500	0.000678	0.000290	-0.003366	-0.000756	7107.260859	45839.395288	3986.576321	24340.187813
18.039500	-0.000224	0.000249	-0.002163	0.000456	7086.834911	45715.862003	3986.553255	24280.441611
18.537000	-0.000457	-0.000427	0.003244	0.000567	7083.509574	45638.428671	4000.327231	24274.949550
19.037000	-0.001681	-0.000128	-0.000727	0.000961	7067.950457	45629.108297	3988.962304	24255.562254
19.535000	-0.002008	0.000588	0.000764	0.001255	7062.000840	45670.575356	3992.067462	24241.138234
20.034500	-0.002067	-0.000022	0.001568	0.000489	7068.782990	45685.905183	3996.152565	24278.787927
20.535000	-0.000808	0.000036	0.002081	0.000856	7077.352540	45655.565103	3996.534022	24260.741264
21.035500	-0.000561	0.000289	-0.000369	0.001251	7075.928934	45641.579096	3989.137816	24241.318475
21.536000	-0.001388	0.000125	-0.000785	0.000781	7072.498703	45671.627615	3989.278986	24264.430622
22.036000	-0.001100	-0.000110	-0.002197	0.000623	7076.783898	45664.096983	3986.034535	24272.208030
22.539000	-0.000873	0.000121	0.000783	0.000799	7077.273881	45669.460693	3993.302791	24263.530824
23.042000	-0.001112	0.000353	0.002131	0.001091	7072.168704	45663.638538	3996.051434	24249.182547
23.536500	-0.001716	0.000248	-0.000863	0.001072	7066.560597	45655.212202	3988.324810	24250.142476
24.034500	-0.002140	0.000128	-0.001878	0.001210	7061.172754	45629.881246	3985.343092	24243.359235
24.535000	-0.003808	0.000142	-0.005530	0.000632	7050.733687	45688.004393	3977.429458	24271.742745
25.035500	-0.000670	0.000235	0.002931	0.001156	7075.798150	45645.592907	3997.971079	24245.991018
25.535500	-0.000755	0.000968	0.000098	0.002084	7066.059201	45626.461598	3988.189337	24200.415978
26.035500	-0.000840	0.000289	0.000384	0.001407	7071.752339	45626.258185	3990.686298	24233.667920
26.535500	-0.001550	0.000992	0.005033	0.001863	7060.567698	45650.595420	4001.620863	24211.297946
27.042000	-0.003146	0.000572	0.001744	0.003339	7031.236568	45464.683294	3989.204760	24139.003282
27.537000	0.000262	0.000017	-0.003191	0.001149	7084.836833	45624.899588	3982.112618	24246.330419
28.038500	0.001563	0.000667	-0.000149	-0.000705	7115.343044	45871.477959	3994.789510	24337.629725
28.534000	0.000646	0.000302	-0.000094	0.000039	7099.257382	45762.137738	3992.998124	24300.963912
29.037000	-0.001533	0.000226	-0.004649	0.004932	7031.422295	45275.297851	3968.696947	24061.227351
29.535000	-0.000221	0.000412	-0.001916	-0.000073	7091.958666	45783.990398	3988.561017	24306.467491
30.035500	0.001790	-0.000054	-0.001280	-0.000607	7116.592881	45790.694102	3991.593067	24332.789635
30.536000	-0.000328	-0.000025	-0.004895	-0.000746	7097.433963	45807.347187	3982.605259	24339.695033
31.036000	-0.003270	0.000523	-0.000431	0.005222	7012.185064	45275.939036	3978.735999	24047.088284
31.539000	-0.000302	0.000420	-0.000426	-0.000014	7090.618610	45779.056073	3992.274595	24303.588745
32.036500	-0.003605	-0.000070	-0.001751	0.002166	7038.031416	45516.556036	3983.201820	24196.407404
32.543000	-0.000728	0.000029	-0.001907	-0.000440	7090.611891	45782.362011	3989.533544	24324.562072
33.040000	-0.002643	-0.000531	0.000982	0.004857	7021.595003	45208.935833	3983.311506	24064.904832
33.537500	0.001753	0.001446	0.007095	0.000740	7103.182834	45805.846810	4009.994243	24266.459895
34.037500	0.000699	0.001048	0.001227	0.000379	7096.479293	45802.147211	3995.552407	24284.202503
34.535000	-0.000683	0.000322	0.004370	-0.000023	7087.027802	45770.220621	4004.830233	24304.035922
35.035500	-0.002859	0.000018	-0.003740	0.003940	7028.253385	45351.765387	3973.544946	24109.613965
35.536000	-0.000227	0.001307	-0.002301	0.002924	7063.079426	45577.313357	3979.836855	24159.292155
36.041500	-0.001070	0.000158	-0.002700	0.001969	7064.144475	45558.262909	3981.267078	24206.081847
36.536500	-0.001047	0.000685	-0.002140	0.002391	7060.323966	45568.595259	3981.622301	24185.391037
37.037000	-0.001714	0.000730	-0.002246	0.003838	7040.121641	45431.238821	3977.630291	24114.574622
37.534000	-0.001535	-0.000581	0.006102	0.000977	7069.204839	45583.078218	4006.753097	24254.809848
38.034500	-0.000455	0.001016	0.000696	0.002594	7064.046696	45581.152649	3988.419313	24175.436337
38.535000	-0.000533	0.000354	-0.000520	0.002202	7067.061500	45554.687328	3986.288042	24194.655599
39.035000	-0.001127	0.000891	0.000453	0.002158	7061.788680	45611.649413	3988.918203	24196.822999
39.535500	0.000306	0.000578	-0.002118	0.002030	7076.769668	45593.470297	3982.606998	24203.064456
40.035500	-0.001018	0.000280	-0.002428	0.001813	7066.134796	45585.485468	3982.366039	24213.712491
40.536000	-0.002619	-0.000183	-0.001875	0.001431	7054.463234	45577.587450	3984.779307	24232.492489
41.036000	-0.000178	0.000370	-0.003165	0.001919	7073.194275	45583.993953	3980.198843	24208.537270
41.536500	-0.001442	-0.000121	-0.001248	0.001479	7065.283093	45579.023007	3986.276009	24230.143886
42.037000	-0.001251	0.000570	-0.005714	0.002163	7060.553370	45579.599025	3973.041720	24196.553718
42.537000	-0.000012	-0.000382	0.000511	0.001372	7080.047623	45563.785849	3991.106142	24235.369249
43.034500	0.000508	0.000937	0.002365	0.002255	7076.558447	45606.618756	3993.631195	24192.058980
43.535000	-0.000542	0.000528	-0.001657	0.002160	7067.377813	45575.738053	3983.457720	24196.687125
44.035000	0.000449	0.000446	0.003230	0.002116	7077.325909	45572.129018	3996.246104	24198.871915
44.535000	-0.000372	0.000543	0.002979	0.002211	7068.519247	45572.259372	3995.342708	24194.190253
45.043000	-0.001795	0.000348	0.006622	0.003230	7045.153398	45453.385624	4002.201862	24144.331463
45.536000	-0.001231	0.000589	-0.000509	0.000157	7080.007701	45778.730362	3991.611934	24295.124898
46.036000	0.000676	0.000371	-0.001064	-0.000077	7100.660187	45780.291219	3990.779906	24306.651314
46.542000	0.000867	0.000028	0.001388	-0.000231	7104.008252	45761.762644	3997.564008	24314.263970
47.036500	0.002979	0.000904	0.005929	0.000765	7114.817586	45749.869510	4006.855278	24265.207186
47.537500	0.001234	0.001012	0.008694	0.000199	7103.389658	45816.349852	4015.655559	24293.053755
48.035000	0.000959	0.000631	0.002014	0.000109	7101.605024	45787.674854	3998.308796	24297.503310
48.546500	0.001006	0.001492	0.002125	0.000692	7096.429094	45815.126589	3997.079251	24268.816410
49.035500	-0.001212	0.000306	-0.001321	0.003015	7052.772724	45470.369327	3982.123962	24154.851079
49.538000	-0.000830	0.001047	0.002433	0.002584	7060.551443	45585.104038	3992.952370	24175.936275
50.052500	0.001105	0.000359	0.002220	-0.000314	7107.111349	45802.494199	3999.954880	24318.359116
50.536500	0.000124	0.000216	0.005882	0.000138	7093.259294	45743.959904	4008.384153	24296.103569
51.036500	-0.003055	0.000238	-0.004504	0.004757	7018.632719	45293.547848	3969.512810	24069.756562
51.537000	0.000955	0.000868	0.005638	-0.001821	7120.289078	46001.891059	4012.912322	24392.812670
52.037500	-0.000514	0.000375	0.003731	-0.000978	7097.870190	45869.649765	4005.657217	24351.105998
52.537000	0.000402	0.000478	0.000636	0.001911	7078.841562	45595.379552	3990.032794	24208.923084
53.034500	-0.009865	-0.004091	-0.002014	0.002467	6975.986308	45095.334919	3981.747996	24181.656647
53.535000	-0.021894	-0.003908	-0.001336	0.234958	5221.104419	27644.254284	3519.345760	15361.071707
54.039500	-0.044901	-0.021123	-0.006972	-0.018087	6842.296869	45438.235551	4022.625467	25212.931086
54.536000	-0.043070	-0.022972	-0.008193	-0.090898	7581.616881	52976.336531	4230.299854	29285.152746
55.042500	-0.023395	-0.019671	0.004139	-0.116936	8101.288902	56471.207756	4356.527102	30915.273228
55.536000	-0.005047	-0.016132	0.010693	-0.123423	8407.405094	57720.667330	4402.032270	31336.837162
56.036500	0.000915	-0.030968	0.019949	-0.168024	9087.454677	61604.575396	4605.124801	34412.169826
56.536500	-0.003274	-0.010165	0.015834	-0.098900	8126.311022	55430.611902	4334.889979	29775.721646
57.037000	0.013724	-0.000963	0.027311	-0.096503	8305.021838	56259.027625	4365.969165	29627.809813
57.537500	0.037376	0.010677	0.037473	-0.090263	8526.137210	56925.745134	4379.598132	29246.582467
58.035000	0.058335	0.022243	0.055944	-0.067847	8507.296088	55594.567950	4365.891995	27921.345272
58.537500	0.072213	0.033213	0.069057	-0.035063	8268.424454	53016.698979	4299.372842	26102.297910
59.035000	0.076285	0.040498	0.073642	0.001865	7877.243855	49714.743019	4196.343318	24211.163729
59.535500	0.087128	0.045927	0.082189	0.026898	7717.237301	47651.663776	4146.706002	23017.665666
60.036000	0.100166	0.053914	0.097931	0.039000	7727.636891	47230.308734	4157.506988	22464.905674
60.536500	0.107767	0.058710	0.103805	0.050957	7679.455794	46506.507026	4139.510181	21933.655286
61.036000	0.112630	0.063033	0.104952	0.062680	7604.547294	45770.957479	4108.819803	21426.817764
61.537000	0.119099	0.068908	0.108287	0.109829	7183.869998	41890.759560	3989.339768	19521.096707
62.037500	0.110237	0.065248	0.112822	0.125426	6949.261227	40202.782932	3961.034547	18934.883269
62.534500	0.115601	0.069188	0.114626	0.146492	6805.467463	38763.108240	3913.431674	18175.773929
63.038000	0.115507	0.072713	0.114813	0.152056	6754.908239	38595.426792	3900.514582	17981.354768
63.535000	0.120713	0.071253	0.118887	0.074141	7568.098333	45452.864319	4115.934322	20944.394071
64.035500	0.130868	0.081579	0.120333	0.148352	6927.920086	39641.635840	3922.771332	18110.514366
64.536000	0.136133	0.080199	0.118774	0.118259	7269.584423	42148.024702	3994.684024	19201.635899
65.036500	0.137838	0.081246	0.122608	0.125502	7214.217905	41592.961754	3985.840622	18932.047538
65.569500	0.141637	0.082097	0.117917	0.131115	7196.234167	41171.866871	3959.532732	18726.227279
66.036500	0.143063	0.082764	0.129512	0.137632	7146.164086	40660.703263	3972.421869	18490.550974
66.537000	0.144908	0.084165	0.126862	0.144653	7095.850620	40176.108045	3948.004980	18240.580413
67.037000	0.144185	0.084621	0.129399	0.150211	7035.604127	39741.628258	3940.492322	18045.552967
67.537500	0.144194	0.085082	0.126408	0.155837	6982.463361	39306.935974	3919.339423	17850.661212
68.035000	0.144799	0.085361	0.133184	0.159753	6951.448588	39003.908785	3926.312927	17716.474236
68.535500	0.144111	0.085500	0.126131	0.162825	6916.521507	38761.371600	3901.825497	17612.049124
69.035500	0.144260	0.085298	0.131826	0.167270	6876.985357	38380.433262	3904.819522	17462.269287
69.536000	0.143790	0.085940	0.129464	0.166309	6881.484392	38511.408317	3901.464937	17494.518218
70.036500	0.142482	0.084409	0.126962	0.166729	6865.670772	38352.107191	3894.507131	17480.421563
70.536500	0.142558	0.085045	0.129720	0.168450	6850.683262	38263.825039	3896.971334	17422.771441
71.037000	0.140663	0.085167	0.135687	0.171672	6804.402217	38012.755168	3903.521914	17315.432718
71.537000	0.142960	0.084902	0.132698	0.169964	6840.577307	38129.408838	3900.461839	17372.239081
72.037500	0.141164	0.083454	0.130428	0.169559	6827.973705	38045.046837	3896.017674	17385.739657
72.535000	0.139776	0.084906	0.130495	0.171130	6801.302578	38035.447958	3892.450378	17333.441957
73.035000	0.139149	0.084057	0.129469	0.173966	6770.315029	37739.227178	3883.343709	17239.520943
73.535500	0.140276	0.084229	0.132452	0.171600	6801.571705	37943.033489	3895.978306	17317.845637
74.036000	0.141091	0.083343	0.126507	0.171283	6811.749352	37897.197759	3882.686366	17328.351475
74.536000	0.140845	0.083944	0.132387	0.171557	6807.076400	37923.490117	3895.925632	17319.264480
75.036500	0.139082	0.082766	0.134681	0.172787	6780.232887	37730.238100	3898.455350	17278.476081
75.537000	0.143169	0.083608	0.132463	0.171965	6824.341294	37863.665926	3895.134487	17305.705667
76.037000	0.146103	0.083936	0.137365	0.171618	6854.109738	37917.978786	3907.678023	17317.234245
76.537000	0.144023	0.083613	0.136115	0.171381	6837.368919	37911.007196	3905.244547	17325.097958
77.034500	0.141707	0.083374	0.133189	0.172638	6805.103767	37790.884385	3895.263866	17283.423861
77.535000	0.143037	0.083164	0.135136	0.170893	6832.852246	37914.195964	3904.068502	17341.317158
78.035500	0.144633	0.083261	0.136228	0.170423	6851.605668	37959.800302	3907.815820	17356.943775
78.535500	0.144540	0.083605	0.131596	0.170376	6851.181942	37991.268247	3896.851113	17358.499966
79.036000	0.145049	0.083930	0.131396	0.169778	6861.270060	38065.800856	3897.798765	17378.422637
79.536500	0.146021	0.083377	0.136368	0.168998	6877.283933	38084.139934	3911.585514	17404.440964
80.036500	0.146398	0.083467	0.140764	0.168672	6883.726745	38117.780441	3923.039178	17415.329310
80.537000	0.143488	0.084301	0.139927	0.169089	6853.326021	38151.640804	3919.986161	17401.420357
81.039500	0.145211	0.084246	0.138612	0.168850	6871.232484	38166.566698	3917.374110	17409.407396
81.537000	0.143268	0.083035	0.134032	0.167318	6867.473588	38192.575094	3910.005033	17460.664788
82.034500	0.144988	0.083231	0.141725	0.168313	6874.106327	38127.830238	3926.265744	17427.347032
82.535000	0.145223	0.083106	0.137877	0.167686	6882.001600	38168.426861	3918.413115	17448.330647
83.035500	0.143600	0.083318	0.139663	0.168204	6862.413224	38143.617669	3921.498667	17430.990366
83.536000	0.143350	0.082888	0.133349	0.167989	6862.091772	38126.290622	3906.747430	17438.186466
84.036500	0.142838	0.083758	0.136544	0.169637	6842.435361	38063.328585	3910.469047	17383.124990
84.536500	0.144423	0.082944	0.133583	0.169832	6855.074982	37981.889316	3902.889669	17376.631934
85.037000	0.141718	0.081784	0.139140	0.169125	6836.916140	37945.387710	3917.987711	17400.211297
85.540000	0.143632	0.081293	0.130589	0.169374	6852.045107	37885.847811	3896.840458	17391.914789
86.037000	0.141002	0.080610	0.142995	0.169436	6827.619841	37826.009210	3926.623757	17389.834084
86.535000	0.142430	0.080774	0.139386	0.171340	6823.324666	37686.695398	3913.218223	17326.474504
87.035000	0.142135	0.081422	0.140615	0.172880	6806.774218	37615.430000	3912.465775	17275.400758
87.535500	0.142616	0.081407	0.138631	0.173606	6804.567290	37556.301175	3905.941860	17251.390158
88.035500	0.141486	0.081212	0.140881	0.174850	6783.290331	37441.977466	3908.360532	17210.371644
88.535500	0.143821	0.081074	0.137436	0.175991	6793.976885	37340.544694	3897.388837	17172.815078
89.036000	0.141995	0.079493	0.139167	0.176922	6769.328837	37142.320906	3899.292026	17142.248015
89.536500	0.144810	0.080885	0.140958	0.178121	6783.761441	37157.572090	3900.705569	17102.998362
90.039500	0.143351	0.080502	0.134618	0.179428	6759.104795	37024.810864	3882.607941	17060.332510
90.537000	0.140693	0.079333	0.135897	0.179710	6733.068715	36911.232729	3884.950339	17051.159363
91.037500	0.140752	0.078440	0.134428	0.181345	6719.184001	36714.269339	3877.678485	16997.992125
91.534500	0.139446	0.078301	0.136703	0.181895	6702.897740	36660.767862	3881.713858	16980.154070
92.035500	0.140675	0.078638	0.140023	0.183867	6696.388720	36534.107479	3884.876337	16916.351888
92.535500	0.140217	0.077789	0.137407	0.185685	6676.549398	36328.653135	3874.506452	16857.837393
93.036000	0.140252	0.077579	0.138433	0.186341	6671.150636	36262.181344	3875.364404	16836.753702
93.536000	0.141333	0.077229	0.139094	0.187308	6672.139595	36161.362876	3874.653871	16805.758924
94.036000	0.142778	0.077289	0.132653	0.188648	6673.058592	36063.772710	3856.705160	16762.955182
94.539000	0.140663	0.078002	0.138211	0.190865	6635.595968	35949.259778	3864.369952	16692.351377
95.037000	0.142168	0.077136	0.129437	0.192119	6637.759613	35788.766334	3841.532426	16652.610417
95.537000	0.143357	0.077622	0.134755	0.192788	6642.236068	35774.862212	3852.054223	16631.428148
96.034500	0.140979	0.077058	0.134682	0.193457	6616.075874	35681.899648	3850.368616	16610.324545
96.565500	0.140506	0.076315	0.134338	0.197847	6574.695060	35297.546478	3839.672599	16472.455519
97.035500	0.142678	0.077267	0.139746	0.196759	6602.382272	35449.734858	3854.378443	16506.476923
97.535500	0.142174	0.076483	0.139280	0.197769	6589.497091	35315.895298	3851.018143	16474.896804
