sample name	sample
index	549
start time	 03-15-2021  11:29:04 AM


Wavelength (nm)	Absorbance
494.344910	0.501390
494.563924	0.501390
494.782919	0.501390
495.001897	0.430784
495.220856	0.076046
495.439797	-0.019376
495.658719	-0.010462
495.877624	-0.010922
496.096510	-0.068516
496.315378	-0.012125
496.534227	-0.069526
496.753059	-0.098464
496.971872	0.020547
497.190667	0.058365
497.409444	0.066038
497.628203	0.063032
497.846943	0.065145
498.065665	0.063671
498.284369	0.064337
498.503055	0.064521
498.721723	0.065137
498.940372	0.065114
499.159003	0.064953
499.377616	0.064819
499.596210	0.065298
499.814787	0.065213
500.033345	0.066284
500.251885	0.065085
500.470406	0.065420
500.688910	0.066188
500.907395	0.066228
501.125862	0.066289
501.344311	0.067862
501.562742	0.067088
501.781154	0.067207
501.999548	0.067140
502.217924	0.068007
502.436282	0.067689
502.654621	0.066280
502.872942	0.065425
503.091245	0.066147
503.309530	0.065054
503.527797	0.065516
503.746045	0.064366
503.964275	0.064222
504.182487	0.064319
504.400681	0.064409
504.618856	0.065494
504.837013	0.066178
505.055152	0.066647
505.273273	0.067422
505.491376	0.068086
505.709460	0.068263
505.927526	0.067484
506.145574	0.067504
506.363604	0.067413
506.581615	0.067167
506.799608	0.067900
507.017583	0.068172
507.235540	0.066637
507.453478	0.066220
507.671399	0.067169
507.889301	0.068508
508.107185	0.068887
508.325050	0.069258
508.542898	0.069272
508.760727	0.068691
508.978538	0.068419
509.196330	0.069935
509.414105	0.070799
509.631861	0.070999
509.849599	0.071002
510.067319	0.071333
510.285021	0.072292
510.502704	0.072519
510.720369	0.073119
510.938016	0.073576
511.155645	0.072933
511.373255	0.072809
511.590848	0.072391
511.808422	0.072226
512.025977	0.072068
512.243515	0.071493
512.461034	0.071862
512.678536	0.072261
512.896018	0.071106
513.113483	0.071681
513.330930	0.072313
513.548358	0.072413
513.765768	0.072842
513.983160	0.072319
514.200533	0.072998
514.417889	0.073191
514.635226	0.073739
514.852545	0.074078
515.069845	0.074466
515.287128	0.073779
515.504392	0.074571
515.721638	0.075458
515.938866	0.076306
516.156075	0.075973
516.373267	0.075196
516.590440	0.074536
516.807594	0.075386
517.024731	0.075072
517.241850	0.076048
517.458950	0.075423
517.676032	0.075343
517.893095	0.074931
518.110141	0.074808
518.327168	0.076085
518.544177	0.076932
518.761168	0.076684
518.978141	0.076573
519.195095	0.076466
519.412031	0.077176
519.628949	0.076174
519.845849	0.076609
520.062731	0.077046
520.279594	0.076650
520.496439	0.076970
520.713266	0.077329
520.930074	0.077880
521.146865	0.078366
521.363637	0.078419
521.580391	0.078874
521.797127	0.079500
522.013844	0.078937
522.230543	0.079741
522.447224	0.078944
522.663887	0.079468
522.880532	0.079034
523.097158	0.078599
523.313766	0.078343
523.530356	0.079132
523.746928	0.079700
523.963481	0.080168
524.180017	0.080841
524.396534	0.082135
524.613032	0.082523
524.829513	0.083396
525.045975	0.083704
525.262420	0.084122
525.478845	0.084057
525.695253	0.082944
525.911643	0.083415
526.128014	0.082913
526.344367	0.082502
526.560702	0.082552
526.777018	0.083020
526.993316	0.083387
527.209597	0.084498
527.425858	0.085239
527.642102	0.086188
527.858328	0.086430
528.074535	0.086864
528.290724	0.086825
528.506894	0.086548
528.723047	0.086895
528.939181	0.087019
529.155297	0.086342
529.371395	0.086411
529.587475	0.086732
529.803536	0.086945
530.019579	0.087184
530.235604	0.087309
530.451611	0.087810
530.667600	0.087624
530.883570	0.087826
531.099522	0.088113
531.315456	0.088157
531.531372	0.088264
531.747269	0.088963
531.963148	0.089345
532.179009	0.090462
532.394852	0.091231
532.610676	0.091577
532.826482	0.092217
533.042271	0.093418
533.258040	0.093830
533.473792	0.093821
533.689525	0.094062
533.905240	0.093592
534.120937	0.094096
534.336616	0.093834
534.552277	0.094093
534.767919	0.094441
534.983543	0.094055
535.199149	0.094006
535.414736	0.094203
535.630306	0.094120
535.845857	0.094822
536.061390	0.095144
536.276904	0.095943
536.492401	0.097065
536.707879	0.097107
536.923339	0.096861
537.138781	0.097237
537.354204	0.098751
537.569610	0.099353
537.784997	0.099630
538.000366	0.099758
538.215716	0.099636
538.431049	0.098652
538.646363	0.098799
538.861659	0.099887
539.076937	0.100289
539.292196	0.099662
539.507438	0.100097
539.722661	0.100229
539.937866	0.100241
540.153052	0.099931
540.368221	0.100551
540.583371	0.100818
540.798503	0.100864
541.013617	0.100990
541.228712	0.101889
541.443789	0.102000
541.658848	0.102121
541.873889	0.101663
542.088912	0.102018
542.303916	0.101997
542.518902	0.102187
542.733870	0.101971
542.948820	0.102099
543.163752	0.101867
543.378665	0.101654
543.593560	0.102482
543.808437	0.102458
544.023295	0.102859
544.238136	0.103118
544.452958	0.103454
544.667762	0.103982
544.882548	0.104141
545.097315	0.103716
545.312064	0.104454
545.526795	0.104426
545.741508	0.105184
545.956203	0.105523
546.170879	0.105953
546.385537	0.105673
546.600177	0.105822
546.814799	0.106127
547.029402	0.106774
547.243988	0.106449
547.458555	0.106441
547.673103	0.107020
547.887634	0.107303
548.102146	0.107152
548.316640	0.107918
548.531116	0.108269
548.745574	0.108718
548.960013	0.108462
549.174435	0.109308
549.388838	0.109679
549.603222	0.109358
549.817589	0.109839
550.031937	0.110567
550.246267	0.110146
550.460579	0.109690
550.674873	0.109780
550.889148	0.110190
551.103405	0.109943
551.317644	0.110623
551.531865	0.110731
551.746068	0.110613
551.960252	0.110523
552.174418	0.110991
552.388566	0.111682
552.602696	0.112131
552.816807	0.112687
553.030900	0.112909
553.244975	0.112709
553.459032	0.113384
553.673070	0.113568
553.887091	0.113763
554.101093	0.114214
554.315077	0.114071
554.529042	0.113665
554.742990	0.113933
554.956919	0.114342
555.170830	0.114191
555.384722	0.113877
555.598597	0.114029
555.812453	0.114006
556.026291	0.113661
556.240111	0.114024
556.453913	0.114541
556.667696	0.114490
556.881461	0.114241
557.095208	0.114326
557.308937	0.114584
557.522647	0.114919
557.736339	0.115240
557.950013	0.115539
558.163669	0.115807
558.377307	0.115841
558.590926	0.116004
558.804527	0.116502
559.018110	0.116825
559.231675	0.117090
559.445221	0.116706
559.658749	0.117063
559.872259	0.117467
560.085751	0.117408
560.299225	0.117367
560.512680	0.117232
560.726117	0.117324
560.939536	0.117129
561.152937	0.117196
561.366319	0.117839
561.579683	0.117646
561.793029	0.117561
562.006357	0.117424
562.219667	0.117815
562.432958	0.117889
562.646231	0.117807
562.859486	0.118019
563.072723	0.118073
563.285941	0.117499
563.499141	0.117846
563.712323	0.118007
563.925487	0.117919
564.138632	0.118165
564.351760	0.118306
564.564869	0.117875
564.777960	0.117814
564.991032	0.117995
565.204087	0.118516
565.417123	0.118393
565.630141	0.118433
565.843140	0.119213
566.056122	0.119016
566.269085	0.119432
566.482030	0.120253
566.694957	0.120661
566.907866	0.120632
567.120756	0.120839
567.333628	0.120475
567.546482	0.120868
567.759318	0.120807
567.972135	0.120918
568.184935	0.120768
568.397716	0.120509
568.610478	0.120817
568.823223	0.121123
569.035949	0.121301
569.248657	0.121712
569.461347	0.121531
569.674019	0.121568
569.886672	0.121675
570.099308	0.121515
570.311925	0.121835
570.524523	0.121959
570.737104	0.121836
570.949666	0.121941
571.162210	0.122198
571.374736	0.122303
571.587244	0.122478
571.799733	0.122609
572.012205	0.123220
572.224658	0.123541
572.437092	0.123463
572.649509	0.123660
572.861907	0.123782
573.074287	0.123650
573.286649	0.123801
573.498993	0.124013
573.711318	0.124051
573.923625	0.123778
574.135914	0.123201
574.348185	0.123323
574.560438	0.123371
574.772672	0.123395
574.984888	0.123913
575.197086	0.123801
575.409266	0.124012
575.621427	0.123926
575.833570	0.123953
576.045695	0.124491
576.257802	0.124417
576.469890	0.124499
576.681961	0.124527
576.894013	0.124541
577.106046	0.125054
577.318062	0.125142
577.530059	0.125604
577.742039	0.126347
577.954000	0.126235
578.165942	0.126527
578.377867	0.126770
578.589773	0.126999
578.801661	0.126956
579.013531	0.127040
579.225382	0.127337
579.437216	0.127357
579.649031	0.127573
579.860828	0.127915
580.072606	0.128151
580.284367	0.128489
580.496109	0.128601
580.707833	0.128625
580.919539	0.128311
581.131227	0.128172
581.342896	0.128282
581.554547	0.128250
581.766180	0.127986
581.977795	0.128214
582.189391	0.128152
582.400969	0.127949
582.612529	0.128201
582.824071	0.128354
583.035595	0.128458
583.247100	0.128747
583.458587	0.128876
583.670056	0.129283
583.881506	0.129211
584.092939	0.129406
584.304353	0.129458
584.515749	0.129798
584.727127	0.130223
584.938486	0.129977
585.149828	0.129805
585.361151	0.129720
585.572456	0.129882
585.783742	0.129980
585.995011	0.130014
586.206261	0.130502
586.417493	0.130514
586.628706	0.130797
586.839902	0.130996
587.051079	0.131021
587.262238	0.131025
587.473379	0.131030
587.684502	0.131159
587.895606	0.130884
588.106692	0.130989
588.317760	0.131222
588.528810	0.131233
588.739841	0.131423
588.950855	0.131501
589.161850	0.131521
589.372827	0.131519
589.583785	0.131724
589.794726	0.132263
590.005648	0.132266
590.216552	0.132352
590.427437	0.132601
590.638305	0.133063
590.849154	0.133555
591.059985	0.133889
591.270798	0.134264
591.481592	0.134334
591.692369	0.134184
591.903127	0.134222
592.113867	0.133851
592.324588	0.133750
592.535292	0.133356
592.745977	0.133287
592.956644	0.133427
593.167293	0.133534
593.377923	0.133718
593.588536	0.134016
593.799130	0.134361
594.009706	0.135359
594.220263	0.135578
594.430803	0.136162
594.641324	0.136515
594.851827	0.136517
595.062312	0.136854
595.272778	0.136617
595.483227	0.136723
595.693657	0.136863
595.904069	0.136517
596.114462	0.136479
596.324838	0.136371
596.535195	0.136390
596.745534	0.136411
596.955855	0.136847
597.166157	0.137372
597.376441	0.137574
597.586707	0.137372
597.796955	0.137595
598.007185	0.137692
598.217396	0.137934
598.427589	0.138020
598.637764	0.138282
598.847921	0.137720
599.058060	0.137732
599.268180	0.137732
599.478282	0.138145
599.688366	0.138142
599.898431	0.138331
600.108479	0.138247
600.318508	0.138336
600.528519	0.138302
600.738511	0.138749
600.948486	0.138749
601.158442	0.138953
601.368380	0.138924
601.578300	0.138981
601.788202	0.139007
601.998085	0.139404
602.207950	0.139252
602.417797	0.139604
602.627626	0.139860
602.837436	0.139936
603.047228	0.140147
603.257002	0.140140
603.466758	0.140315
603.676496	0.140387
603.886215	0.140567
604.095916	0.140928
604.305599	0.141043
604.515264	0.140923
604.724910	0.141130
604.934538	0.141005
605.144148	0.141352
605.353740	0.141463
605.563314	0.141633
605.772869	0.141513
605.982406	0.141667
606.191925	0.141604
606.401425	0.141658
606.610908	0.142034
606.820372	0.142032
607.029818	0.141960
607.239246	0.142198
607.448655	0.142153
607.658047	0.142264
607.867420	0.142340
608.076775	0.142330
608.286111	0.142369
608.495430	0.142488
608.704730	0.142868
608.914012	0.143022
609.123275	0.143112
609.332521	0.143552
609.541748	0.143921
609.750957	0.143938
609.960148	0.143990
610.169321	0.144186
610.378475	0.144067
610.587611	0.144284
610.796729	0.144561
611.005829	0.144749
611.214910	0.144744
611.423974	0.144497
611.633019	0.144725
611.842045	0.145008
612.051054	0.145120
612.260044	0.145328
612.469017	0.145486
612.677970	0.145565
612.886906	0.145754
613.095824	0.145743
613.304723	0.145965
613.513604	0.145874
613.722467	0.146088
613.931311	0.146256
614.140138	0.146340
614.348946	0.146196
614.557736	0.146665
614.766507	0.146509
614.975261	0.146734
615.183996	0.146733
615.392713	0.146928
615.601412	0.146780
615.810092	0.147043
616.018754	0.147013
616.227399	0.147026
616.436024	0.146742
616.644632	0.146878
616.853222	0.146974
617.061793	0.147242
617.270346	0.147610
617.478880	0.148015
617.687397	0.147900
617.895895	0.148130
618.104375	0.148332
618.312837	0.148516
618.521281	0.148490
618.729706	0.148479
618.938113	0.148734
619.146502	0.148652
619.354873	0.148510
619.563226	0.148753
619.771560	0.148726
619.979876	0.148898
620.188174	0.148490
620.396453	0.148618
620.604715	0.148870
620.812958	0.148703
621.021183	0.148644
621.229390	0.148692
621.437578	0.148608
621.645748	0.148713
621.853900	0.148875
622.062034	0.149392
622.270150	0.149638
622.478247	0.149620
622.686326	0.149674
622.894387	0.149664
623.102430	0.149877
623.310454	0.149916
623.518461	0.149926
623.726449	0.150129
623.934418	0.150323
624.142370	0.150640
624.350303	0.151025
624.558218	0.151346
624.766115	0.151831
624.973994	0.152023
625.181855	0.152127
625.389697	0.152590
625.597521	0.152322
625.805327	0.152343
626.013114	0.152066
626.220883	0.152049
626.428634	0.152003
626.636367	0.152002
626.844082	0.152248
627.051778	0.152592
627.259457	0.152583
627.467117	0.153006
627.674758	0.153187
627.882382	0.153507
628.089987	0.153378
628.297574	0.153550
628.505143	0.153607
628.712694	0.153636
628.920226	0.153669
629.127740	0.153648
629.335236	0.153641
629.542714	0.153911
629.750174	0.154015
629.957615	0.154291
630.165038	0.154224
630.372443	0.154315
630.579829	0.154478
630.787198	0.154421
630.994548	0.154628
631.201880	0.154855
631.409194	0.154794
631.616489	0.154933
631.823766	0.155046
632.031025	0.155406
632.238266	0.155747
632.445489	0.155517
632.652693	0.155592
632.859879	0.155538
633.067047	0.155580
633.274197	0.155616
633.481329	0.155650
633.688442	0.155647
633.895537	0.155592
634.102614	0.155491
634.309672	0.155851
634.516713	0.156202
634.723735	0.156324
634.930739	0.156496
635.137724	0.156653
635.344692	0.156533
635.551641	0.156845
635.758572	0.157071
635.965485	0.157211
636.172379	0.157478
636.379256	0.157656
636.586114	0.158010
636.792954	0.158245
636.999775	0.158309
637.206579	0.158910
637.413364	0.159065
637.620131	0.159117
637.826880	0.159000
638.033610	0.159165
638.240323	0.159429
638.447017	0.159697
638.653692	0.159890
638.860350	0.160217
639.066990	0.160049
639.273611	0.160061
639.480214	0.160332
639.686798	0.160982
639.893365	0.160971
640.099913	0.161058
640.306443	0.160962
640.512955	0.160748
640.719449	0.160600
640.925924	0.160934
641.132381	0.161110
641.338820	0.161183
641.545241	0.161199
641.751644	0.161200
641.958028	0.161066
642.164394	0.161073
642.370742	0.161614
642.577071	0.161850
642.783383	0.161882
642.989676	0.162072
643.195951	0.162267
643.402207	0.162181
643.608446	0.162255
643.814666	0.162413
644.020868	0.162641
644.227052	0.162521
644.433218	0.162652
644.639365	0.162706
644.845494	0.162958
645.051605	0.163025
645.257698	0.163055
645.463772	0.163221
645.669828	0.163363
645.875866	0.163510
646.081886	0.163476
646.287888	0.163579
646.493871	0.163488
646.699836	0.163504
646.905783	0.163698
647.111712	0.164143
647.317622	0.164466
647.523514	0.164602
647.729388	0.164841
647.935244	0.165209
648.141082	0.165622
648.346901	0.166107
648.552702	0.166311
648.758485	0.166172
648.964250	0.166237
649.169996	0.166427
649.375724	0.166749
649.581434	0.166725
649.787126	0.166880
649.992800	0.166494
650.198455	0.166454
650.404092	0.166353
650.609711	0.166708
650.815311	0.166694
651.020894	0.166734
651.226458	0.166623
651.432004	0.166890
651.637532	0.166797
651.843041	0.167269
652.048532	0.167414
652.254006	0.168012
652.459460	0.168529
652.664897	0.168807
652.870315	0.168989
653.075716	0.169124
653.281097	0.169338
653.486461	0.169495
653.691807	0.169453
653.897134	0.169902
654.102443	0.169747
654.307734	0.169750
654.513006	0.169908
654.718261	0.170031
654.923497	0.170335
655.128715	0.170213
655.333915	0.170536
655.539096	0.170851
655.744259	0.170584
655.949404	0.170664
656.154531	0.170599
656.359640	0.170830
656.564730	0.170851
656.769802	0.170694
656.974856	0.171073
657.179892	0.171225
657.384909	0.171225
657.589908	0.171298
657.794889	0.171349
657.999852	0.171483
658.204797	0.171237
658.409723	0.171425
658.614631	0.171941
658.819521	0.171860
659.024393	0.171755
659.229246	0.172147
659.434081	0.172458
659.638898	0.172651
659.843697	0.172692
660.048478	0.173252
660.253240	0.173437
660.457984	0.173439
660.662710	0.173747
660.867417	0.174120
661.072107	0.174338
661.276778	0.174598
661.481431	0.174754
661.686066	0.175043
661.890682	0.175167
662.095281	0.175323
662.299861	0.175421
662.504422	0.175564
662.708966	0.175808
662.913491	0.175678
663.117999	0.175928
663.322488	0.176017
663.526958	0.176069
663.731411	0.176218
663.935845	0.176533
664.140261	0.176762
664.344659	0.176876
664.549038	0.177103
664.753400	0.177267
664.957743	0.177570
665.162068	0.177931
665.366375	0.178105
665.570663	0.178386
665.774933	0.178651
665.979185	0.178849
666.183419	0.179014
666.387635	0.179171
666.591832	0.179601
666.796011	0.179686
667.000172	0.179780
667.204315	0.179987
667.408439	0.180012
667.612545	0.180113
667.816634	0.180172
668.020703	0.180317
668.224755	0.180363
668.428788	0.180625
668.632803	0.180642
668.836800	0.180825
669.040779	0.181318
669.244739	0.181379
669.448681	0.181615
669.652605	0.181755
669.856511	0.182018
670.060399	0.182285
670.264268	0.182193
670.468119	0.182404
670.671952	0.182636
670.875767	0.182429
671.079563	0.182428
671.283341	0.182215
671.487101	0.182566
671.690843	0.182769
671.894567	0.182692
672.098272	0.182822
672.301959	0.182917
672.505628	0.183077
672.709278	0.183471
672.912911	0.183660
673.116525	0.183774
673.320121	0.184041
673.523699	0.184096
673.727258	0.184379
673.930799	0.184368
674.134322	0.184443
674.337827	0.184627
674.541314	0.184528
674.744782	0.184898
674.948232	0.185397
675.151664	0.185204
675.355078	0.185373
675.558474	0.185339
675.761851	0.185675
675.965210	0.185745
676.168551	0.185820
676.371873	0.186091
676.575178	0.186144
676.778464	0.185934
676.981732	0.186034
677.184981	0.186294
677.388213	0.186326
677.591426	0.186395
677.794621	0.186692
677.997798	0.186797
678.200956	0.186954
678.404097	0.186999
678.607219	0.187386
678.810323	0.187505
679.013408	0.187335
679.216476	0.187514
679.419525	0.187468
679.622556	0.187584
679.825569	0.187635
680.028563	0.187525
680.231540	0.187665
680.434498	0.187652
680.637438	0.187913
680.840359	0.188015
681.043263	0.188241
681.246148	0.188774
681.449015	0.188789
681.651864	0.188785
681.854694	0.189062
682.057506	0.189241
682.260301	0.189537
682.463076	0.189789
682.665834	0.189941
682.868573	0.189972
683.071295	0.189928
683.273998	0.190183
683.476682	0.190480
683.679349	0.190631
683.881997	0.190944
684.084627	0.191035
684.287239	0.191061
684.489833	0.191369
684.692408	0.191959
684.894965	0.192190
685.097504	0.192521
685.300025	0.192797
685.502527	0.192976
685.705012	0.193145
685.907478	0.193423
686.109925	0.193698
686.312355	0.193856
686.514766	0.193890
686.717159	0.194111
686.919534	0.194188
687.121891	0.194366
687.324230	0.194547
687.526550	0.194624
687.728852	0.194896
687.931136	0.194986
688.133401	0.195005
688.335649	0.194906
688.537878	0.195157
688.740089	0.195203
688.942281	0.195005
689.144456	0.195097
689.346612	0.195238
689.548750	0.195319
689.750870	0.195562
689.952971	0.195548
690.155055	0.195622
690.357120	0.195408
690.559167	0.195387
690.761195	0.195755
690.963206	0.195719
691.165198	0.195770
691.367172	0.195558
691.569128	0.195445
691.771065	0.195980
691.972984	0.196102
692.174885	0.196356
692.376768	0.196623
692.578633	0.196633
692.780479	0.196726
692.982308	0.196649
693.184118	0.196895
693.385909	0.197087
