sample name	sample
index	929
start time	 04-12-2021  12:18:05 PM


Wavelength (nm)	Absorbance
494.344910	-0.163619
494.563924	-0.163619
494.782919	-0.163619
495.001897	-0.745046
495.220856	-0.053270
495.439797	-0.085839
495.658719	-0.149367
495.877624	-0.102851
496.096510	0.456786
496.315378	NaN
496.534227	NaN
496.753059	0.118843
496.971872	0.137419
497.190667	0.103071
497.409444	0.093544
497.628203	0.090974
497.846943	0.089792
498.065665	0.086562
498.284369	0.088612
498.503055	0.087650
498.721723	0.088295
498.940372	0.088824
499.159003	0.088518
499.377616	0.089049
499.596210	0.089688
499.814787	0.089635
500.033345	0.090308
500.251885	0.090049
500.470406	0.090811
500.688910	0.091533
500.907395	0.090905
501.125862	0.090077
501.344311	0.089985
501.562742	0.091715
501.781154	0.091717
501.999548	0.092593
502.217924	0.091838
502.436282	0.092346
502.654621	0.092361
502.872942	0.093015
503.091245	0.094012
503.309530	0.094827
503.527797	0.093068
503.746045	0.092904
503.964275	0.092723
504.182487	0.092449
504.400681	0.092637
504.618856	0.092239
504.837013	0.091631
505.055152	0.091484
505.273273	0.090812
505.491376	0.091934
505.709460	0.092620
505.927526	0.092993
506.145574	0.093316
506.363604	0.092993
506.581615	0.093056
506.799608	0.093915
507.017583	0.093857
507.235540	0.094280
507.453478	0.094399
507.671399	0.094379
507.889301	0.094343
508.107185	0.094957
508.325050	0.095437
508.542898	0.095373
508.760727	0.095510
508.978538	0.095230
509.196330	0.095723
509.414105	0.095706
509.631861	0.095281
509.849599	0.094871
510.067319	0.094958
510.285021	0.094691
510.502704	0.095245
510.720369	0.095445
510.938016	0.096253
511.155645	0.096490
511.373255	0.096537
511.590848	0.097965
511.808422	0.097625
512.025977	0.098063
512.243515	0.098278
512.461034	0.098509
512.678536	0.098871
512.896018	0.098822
513.113483	0.099615
513.330930	0.099699
513.548358	0.099423
513.765768	0.100530
513.983160	0.100031
514.200533	0.100023
514.417889	0.099874
514.635226	0.099637
514.852545	0.099805
515.069845	0.098886
515.287128	0.099098
515.504392	0.099059
515.721638	0.099009
515.938866	0.099260
516.156075	0.099911
516.373267	0.099861
516.590440	0.100036
516.807594	0.100046
517.024731	0.099649
517.241850	0.099770
517.458950	0.099904
517.676032	0.100589
517.893095	0.101167
518.110141	0.100880
518.327168	0.101627
518.544177	0.102656
518.761168	0.103491
518.978141	0.104049
519.195095	0.104374
519.412031	0.105161
519.628949	0.105240
519.845849	0.105829
520.062731	0.106142
520.279594	0.106184
520.496439	0.105822
520.713266	0.106145
520.930074	0.106955
521.146865	0.107404
521.363637	0.107709
521.580391	0.108524
521.797127	0.108851
522.013844	0.109882
522.230543	0.110300
522.447224	0.110819
522.663887	0.110759
522.880532	0.111080
523.097158	0.112077
523.313766	0.112272
523.530356	0.111664
523.746928	0.111911
523.963481	0.111286
524.180017	0.111522
524.396534	0.111685
524.613032	0.112044
524.829513	0.112369
525.045975	0.111545
525.262420	0.111919
525.478845	0.112030
525.695253	0.111665
525.911643	0.112002
526.128014	0.112750
526.344367	0.112966
526.560702	0.113086
526.777018	0.113502
526.993316	0.113700
527.209597	0.113845
527.425858	0.115301
527.642102	0.115853
527.858328	0.116120
528.074535	0.116005
528.290724	0.116491
528.506894	0.116890
528.723047	0.116377
528.939181	0.117333
529.155297	0.117518
529.371395	0.117201
529.587475	0.117792
529.803536	0.118352
530.019579	0.118559
530.235604	0.118445
530.451611	0.118657
530.667600	0.119448
530.883570	0.119504
531.099522	0.119842
531.315456	0.120428
531.531372	0.120596
531.747269	0.121038
531.963148	0.121783
532.179009	0.122325
532.394852	0.122928
532.610676	0.123439
532.826482	0.123597
533.042271	0.124279
533.258040	0.124335
533.473792	0.124701
533.689525	0.125214
533.905240	0.125616
534.120937	0.126462
534.336616	0.126882
534.552277	0.127223
534.767919	0.127305
534.983543	0.127289
535.199149	0.128019
535.414736	0.128405
535.630306	0.128850
535.845857	0.129230
536.061390	0.128837
536.276904	0.129320
536.492401	0.129662
536.707879	0.130405
536.923339	0.130788
537.138781	0.130369
537.354204	0.130858
537.569610	0.131212
537.784997	0.131307
538.000366	0.132066
538.215716	0.132277
538.431049	0.132285
538.646363	0.132373
538.861659	0.132822
539.076937	0.133186
539.292196	0.133377
539.507438	0.133337
539.722661	0.133876
539.937866	0.134151
540.153052	0.134186
540.368221	0.134212
540.583371	0.134742
540.798503	0.134666
541.013617	0.135547
541.228712	0.135937
541.443789	0.135819
541.658848	0.135505
541.873889	0.135739
542.088912	0.135849
542.303916	0.136396
542.518902	0.136959
542.733870	0.137405
542.948820	0.137701
543.163752	0.137471
543.378665	0.138382
543.593560	0.138906
543.808437	0.139080
544.023295	0.139807
544.238136	0.140000
544.452958	0.140101
544.667762	0.140552
544.882548	0.140314
545.097315	0.140504
545.312064	0.140978
545.526795	0.141450
545.741508	0.142033
545.956203	0.142195
546.170879	0.142763
546.385537	0.142919
546.600177	0.142925
546.814799	0.143334
547.029402	0.143976
547.243988	0.144078
547.458555	0.144271
547.673103	0.144547
547.887634	0.144791
548.102146	0.145125
548.316640	0.145163
548.531116	0.145733
548.745574	0.145929
548.960013	0.146211
549.174435	0.146337
549.388838	0.146618
549.603222	0.146751
549.817589	0.146902
550.031937	0.147036
550.246267	0.147338
550.460579	0.147315
550.674873	0.148003
550.889148	0.148194
551.103405	0.148363
551.317644	0.148572
551.531865	0.148918
551.746068	0.149457
551.960252	0.149526
552.174418	0.149914
552.388566	0.150573
552.602696	0.150412
552.816807	0.150499
553.030900	0.150835
553.244975	0.150953
553.459032	0.151318
553.673070	0.151367
553.887091	0.151869
554.101093	0.151886
554.315077	0.152045
554.529042	0.152344
554.742990	0.153063
554.956919	0.153460
555.170830	0.153982
555.384722	0.153958
555.598597	0.154171
555.812453	0.154095
556.026291	0.154400
556.240111	0.154415
556.453913	0.154605
556.667696	0.154649
556.881461	0.154596
557.095208	0.154488
557.308937	0.154506
557.522647	0.154291
557.736339	0.154322
557.950013	0.154999
558.163669	0.154809
558.377307	0.154956
558.590926	0.155257
558.804527	0.155267
559.018110	0.155591
559.231675	0.155906
559.445221	0.156762
559.658749	0.157234
559.872259	0.157221
560.085751	0.157881
560.299225	0.157990
560.512680	0.158168
560.726117	0.158809
560.939536	0.158817
561.152937	0.159059
561.366319	0.159131
561.579683	0.159452
561.793029	0.159794
562.006357	0.159834
562.219667	0.160378
562.432958	0.160237
562.646231	0.160004
562.859486	0.160430
563.072723	0.160585
563.285941	0.160758
563.499141	0.160887
563.712323	0.160770
563.925487	0.161044
564.138632	0.160960
564.351760	0.161335
564.564869	0.161437
564.777960	0.161517
564.991032	0.161822
565.204087	0.162069
565.417123	0.162155
565.630141	0.162763
565.843140	0.163038
566.056122	0.163583
566.269085	0.163711
566.482030	0.164327
566.694957	0.164544
566.907866	0.164548
567.120756	0.164795
567.333628	0.164985
567.546482	0.164711
567.759318	0.164481
567.972135	0.164079
568.184935	0.164594
568.397716	0.164506
568.610478	0.164653
568.823223	0.164811
569.035949	0.164626
569.248657	0.165064
569.461347	0.165629
569.674019	0.166042
569.886672	0.166754
570.099308	0.166410
570.311925	0.166862
570.524523	0.166959
570.737104	0.167227
570.949666	0.167522
571.162210	0.167543
571.374736	0.167410
571.587244	0.167607
571.799733	0.167499
572.012205	0.167576
572.224658	0.167264
572.437092	0.167355
572.649509	0.167416
572.861907	0.167652
573.074287	0.167679
573.286649	0.167673
573.498993	0.167770
573.711318	0.167774
573.923625	0.168015
574.135914	0.168518
574.348185	0.168721
574.560438	0.169211
574.772672	0.169471
574.984888	0.169661
575.197086	0.169931
575.409266	0.170506
575.621427	0.170846
575.833570	0.171102
576.045695	0.171118
576.257802	0.171618
576.469890	0.171728
576.681961	0.171815
576.894013	0.171828
577.106046	0.172129
577.318062	0.171772
577.530059	0.171758
577.742039	0.172143
577.954000	0.172334
578.165942	0.172201
578.377867	0.172056
578.589773	0.172345
578.801661	0.172884
579.013531	0.173043
579.225382	0.173427
579.437216	0.173477
579.649031	0.173228
579.860828	0.173202
580.072606	0.173785
580.284367	0.173877
580.496109	0.173749
580.707833	0.173639
580.919539	0.174106
581.131227	0.174295
581.342896	0.174676
581.554547	0.175084
581.766180	0.175762
581.977795	0.175397
582.189391	0.175441
582.400969	0.175817
582.612529	0.176147
582.824071	0.176039
583.035595	0.176033
583.247100	0.176477
583.458587	0.176553
583.670056	0.176693
583.881506	0.176713
584.092939	0.176819
584.304353	0.176690
584.515749	0.177115
584.727127	0.177127
584.938486	0.177238
585.149828	0.177007
585.361151	0.177406
585.572456	0.177282
585.783742	0.177750
585.995011	0.178407
586.206261	0.178798
586.417493	0.178863
586.628706	0.179164
586.839902	0.179534
587.051079	0.179833
587.262238	0.180238
587.473379	0.180459
587.684502	0.180602
587.895606	0.180470
588.106692	0.180805
588.317760	0.181121
588.528810	0.181262
588.739841	0.181282
588.950855	0.181593
589.161850	0.181493
589.372827	0.181790
589.583785	0.182027
589.794726	0.182442
590.005648	0.182515
590.216552	0.182350
590.427437	0.182631
590.638305	0.182723
590.849154	0.182780
591.059985	0.182939
591.270798	0.182864
591.481592	0.183211
591.692369	0.183201
591.903127	0.183552
592.113867	0.183918
592.324588	0.183884
592.535292	0.184141
592.745977	0.184094
592.956644	0.184266
593.167293	0.184445
593.377923	0.184339
593.588536	0.184441
593.799130	0.184219
594.009706	0.184177
594.220263	0.184882
594.430803	0.185272
594.641324	0.185462
594.851827	0.185647
595.062312	0.186296
595.272778	0.186640
595.483227	0.186995
595.693657	0.187373
595.904069	0.187555
596.114462	0.187026
596.324838	0.186998
596.535195	0.187581
596.745534	0.187727
596.955855	0.187520
597.166157	0.187658
597.376441	0.187921
597.586707	0.188256
597.796955	0.188595
598.007185	0.188884
598.217396	0.189129
598.427589	0.189094
598.637764	0.189271
598.847921	0.189415
599.058060	0.189540
599.268180	0.189595
599.478282	0.189402
599.688366	0.189308
599.898431	0.189581
600.108479	0.190083
600.318508	0.190203
600.528519	0.190116
600.738511	0.190330
600.948486	0.190987
601.158442	0.191118
601.368380	0.191333
601.578300	0.191721
601.788202	0.191846
601.998085	0.191830
602.207950	0.191870
602.417797	0.192361
602.627626	0.192769
602.837436	0.192599
603.047228	0.192632
603.257002	0.192687
603.466758	0.193038
603.676496	0.193072
603.886215	0.193101
604.095916	0.193352
604.305599	0.193499
604.515264	0.193359
604.724910	0.193430
604.934538	0.193706
605.144148	0.194066
605.353740	0.194015
605.563314	0.194341
605.772869	0.194376
605.982406	0.194784
606.191925	0.195083
606.401425	0.195274
606.610908	0.195843
606.820372	0.196041
607.029818	0.196225
607.239246	0.196593
607.448655	0.196678
607.658047	0.197054
607.867420	0.197208
608.076775	0.196919
608.286111	0.196773
608.495430	0.196410
608.704730	0.196570
608.914012	0.196660
609.123275	0.196043
609.332521	0.196336
609.541748	0.196349
609.750957	0.196300
609.960148	0.196411
610.169321	0.196793
610.378475	0.196849
610.587611	0.196640
610.796729	0.196665
611.005829	0.197302
611.214910	0.197312
611.423974	0.197323
611.633019	0.197318
611.842045	0.197505
612.051054	0.197471
612.260044	0.197786
612.469017	0.198133
612.677970	0.198532
612.886906	0.198349
613.095824	0.198118
613.304723	0.198426
613.513604	0.198822
613.722467	0.199310
613.931311	0.199381
614.140138	0.199655
614.348946	0.199880
614.557736	0.199803
614.766507	0.200210
614.975261	0.200948
615.183996	0.201280
615.392713	0.201086
615.601412	0.200767
615.810092	0.201168
616.018754	0.201303
616.227399	0.201543
616.436024	0.201614
616.644632	0.201970
616.853222	0.201864
617.061793	0.201627
617.270346	0.201995
617.478880	0.202283
617.687397	0.202273
617.895895	0.202468
618.104375	0.202797
618.312837	0.202852
618.521281	0.202873
618.729706	0.203020
618.938113	0.203452
619.146502	0.203472
619.354873	0.203876
619.563226	0.204075
619.771560	0.204183
619.979876	0.204169
620.188174	0.204493
620.396453	0.204752
620.604715	0.205203
620.812958	0.205422
621.021183	0.205756
621.229390	0.205656
621.437578	0.205565
621.645748	0.205477
621.853900	0.205538
622.062034	0.205470
622.270150	0.205252
622.478247	0.205198
622.686326	0.205236
622.894387	0.205322
623.102430	0.205515
623.310454	0.206007
623.518461	0.206175
623.726449	0.206103
623.934418	0.206404
624.142370	0.206702
624.350303	0.206897
624.558218	0.207069
624.766115	0.207148
624.973994	0.207293
625.181855	0.207618
625.389697	0.208060
625.597521	0.208644
625.805327	0.209031
626.013114	0.209050
626.220883	0.209320
626.428634	0.209460
626.636367	0.209920
626.844082	0.210346
627.051778	0.210343
627.259457	0.210343
627.467117	0.210401
627.674758	0.210563
627.882382	0.211100
628.089987	0.211290
628.297574	0.211362
628.505143	0.211566
628.712694	0.211513
628.920226	0.211785
629.127740	0.211918
629.335236	0.212132
629.542714	0.212281
629.750174	0.212388
629.957615	0.212217
630.165038	0.212403
630.372443	0.212115
630.579829	0.212408
630.787198	0.212646
630.994548	0.212768
631.201880	0.213101
631.409194	0.213263
631.616489	0.213391
631.823766	0.213728
632.031025	0.213903
632.238266	0.214105
632.445489	0.214089
632.652693	0.214014
632.859879	0.214177
633.067047	0.213958
633.274197	0.213843
633.481329	0.213897
633.688442	0.214026
633.895537	0.214305
634.102614	0.214583
634.309672	0.214729
634.516713	0.214920
634.723735	0.215123
634.930739	0.215561
635.137724	0.215940
635.344692	0.216277
635.551641	0.216156
635.758572	0.216348
635.965485	0.216600
636.172379	0.216963
636.379256	0.217165
636.586114	0.217419
636.792954	0.217396
636.999775	0.217474
637.206579	0.217482
637.413364	0.218019
637.620131	0.218214
637.826880	0.218441
638.033610	0.218249
638.240323	0.218348
638.447017	0.218189
638.653692	0.218027
638.860350	0.218367
639.066990	0.218691
639.273611	0.218771
639.480214	0.218719
639.686798	0.218969
639.893365	0.219574
640.099913	0.219752
640.306443	0.220106
640.512955	0.220838
640.719449	0.220789
640.925924	0.221142
641.132381	0.221149
641.338820	0.221287
641.545241	0.221334
641.751644	0.221402
641.958028	0.221629
642.164394	0.221916
642.370742	0.221698
642.577071	0.221897
642.783383	0.221539
642.989676	0.221850
643.195951	0.222109
643.402207	0.222061
643.608446	0.222201
643.814666	0.222349
644.020868	0.222339
644.227052	0.222654
644.433218	0.222991
644.639365	0.223531
644.845494	0.223749
645.051605	0.224072
645.257698	0.224485
645.463772	0.224542
645.669828	0.224797
645.875866	0.224877
646.081886	0.225049
646.287888	0.225007
646.493871	0.225198
646.699836	0.225348
646.905783	0.225380
647.111712	0.225627
647.317622	0.226083
647.523514	0.226281
647.729388	0.226777
647.935244	0.226821
648.141082	0.227042
648.346901	0.227285
648.552702	0.227319
648.758485	0.227690
648.964250	0.227814
649.169996	0.227888
649.375724	0.227859
649.581434	0.227765
649.787126	0.228218
649.992800	0.228550
650.198455	0.228731
650.404092	0.229175
650.609711	0.229176
650.815311	0.229459
651.020894	0.229672
651.226458	0.230069
651.432004	0.230367
651.637532	0.230435
651.843041	0.230730
652.048532	0.230946
652.254006	0.231038
652.459460	0.231426
652.664897	0.231482
652.870315	0.231589
653.075716	0.231744
653.281097	0.232157
653.486461	0.232487
653.691807	0.232596
653.897134	0.232583
654.102443	0.232713
654.307734	0.232787
654.513006	0.233039
654.718261	0.233427
654.923497	0.233558
655.128715	0.233786
655.333915	0.233942
655.539096	0.234112
655.744259	0.234214
655.949404	0.234530
656.154531	0.234541
656.359640	0.234668
656.564730	0.234691
656.769802	0.234983
656.974856	0.234959
657.179892	0.235303
657.384909	0.235335
657.589908	0.235742
657.794889	0.235912
657.999852	0.236329
658.204797	0.236518
658.409723	0.236699
658.614631	0.236921
658.819521	0.237203
659.024393	0.237271
659.229246	0.237718
659.434081	0.237869
659.638898	0.238254
659.843697	0.238477
660.048478	0.238870
660.253240	0.239019
660.457984	0.239279
660.662710	0.239490
660.867417	0.239504
661.072107	0.239690
661.276778	0.239920
661.481431	0.239643
661.686066	0.239728
661.890682	0.239870
662.095281	0.240244
662.299861	0.240530
662.504422	0.240773
662.708966	0.241365
662.913491	0.241549
663.117999	0.241669
663.322488	0.242336
663.526958	0.242667
663.731411	0.242794
663.935845	0.243186
664.140261	0.243470
664.344659	0.243522
664.549038	0.243555
664.753400	0.243850
664.957743	0.244351
665.162068	0.244556
665.366375	0.244900
665.570663	0.245484
665.774933	0.245657
665.979185	0.245634
666.183419	0.246116
666.387635	0.246373
666.591832	0.246697
666.796011	0.246736
667.000172	0.246884
667.204315	0.247086
667.408439	0.246956
667.612545	0.247087
667.816634	0.247379
668.020703	0.247545
668.224755	0.247785
668.428788	0.247719
668.632803	0.247719
668.836800	0.247857
669.040779	0.248051
669.244739	0.248560
669.448681	0.248659
669.652605	0.248993
669.856511	0.249349
670.060399	0.249467
670.264268	0.249935
670.468119	0.250423
670.671952	0.250874
670.875767	0.251139
671.079563	0.251156
671.283341	0.251313
671.487101	0.251314
671.690843	0.251765
671.894567	0.251937
672.098272	0.252103
672.301959	0.252210
672.505628	0.252411
672.709278	0.252736
672.912911	0.252944
673.116525	0.253456
673.320121	0.254099
673.523699	0.253840
673.727258	0.254206
673.930799	0.254459
674.134322	0.254933
674.337827	0.255133
674.541314	0.255022
674.744782	0.255448
674.948232	0.255480
675.151664	0.255580
675.355078	0.256291
675.558474	0.256680
675.761851	0.256860
675.965210	0.257130
676.168551	0.257365
676.371873	0.257808
676.575178	0.258026
676.778464	0.258470
676.981732	0.258617
677.184981	0.258363
677.388213	0.258401
677.591426	0.258612
677.794621	0.258704
677.997798	0.258901
678.200956	0.259145
678.404097	0.259131
678.607219	0.259289
678.810323	0.259546
679.013408	0.260199
679.216476	0.260536
679.419525	0.260742
679.622556	0.260795
679.825569	0.261183
680.028563	0.261098
680.231540	0.261514
680.434498	0.261717
680.637438	0.262021
680.840359	0.261910
681.043263	0.261997
681.246148	0.262382
681.449015	0.262698
681.651864	0.262804
681.854694	0.263101
682.057506	0.263376
682.260301	0.263636
682.463076	0.263659
682.665834	0.263928
682.868573	0.264301
683.071295	0.264284
683.273998	0.264466
683.476682	0.264532
683.679349	0.264836
683.881997	0.264665
684.084627	0.264782
684.287239	0.264892
684.489833	0.264987
684.692408	0.265055
684.894965	0.265231
685.097504	0.265305
685.300025	0.265479
685.502527	0.265686
685.705012	0.266182
685.907478	0.266085
686.109925	0.266199
686.312355	0.266455
686.514766	0.266540
686.717159	0.266739
686.919534	0.267175
687.121891	0.267455
687.324230	0.267685
687.526550	0.267719
687.728852	0.268080
687.931136	0.268641
688.133401	0.268835
688.335649	0.269400
688.537878	0.269723
688.740089	0.269932
688.942281	0.270379
689.144456	0.270676
689.346612	0.271109
689.548750	0.271479
689.750870	0.271766
689.952971	0.272031
690.155055	0.272128
690.357120	0.272317
690.559167	0.272629
690.761195	0.272752
690.963206	0.273028
691.165198	0.273251
691.367172	0.273389
691.569128	0.273410
691.771065	0.273887
691.972984	0.273951
692.174885	0.274157
692.376768	0.274298
692.578633	0.274303
692.780479	0.274186
692.982308	0.274296
693.184118	0.274653
693.385909	0.274765
