sample name	sample
index	928
start time	 04-12-2021  12:10:02 PM
880	0.354301
Peak Time (s)	102.536
Peak Height 	0.3543
calc peak height	100,103
Baseline Time (s)	10.536
Baseline Value 	-0.004553
subtract baseline	10,4
Abs	0.344186
Peak Time (s)	101.036
Peak Height 	0.3442
calc peak height	100,103
Baseline Time (s)	11.537
Baseline Value 	0.004843
subtract baseline	10,3
PK_550	0.201620
Peak Time (s)	102.536
Peak Height 	0.2016
calc peak height	100,103
Baseline Time (s)	11.537
Baseline Value 	6.8382E-4
subtract baseline	10,2
PK_880	0.344406
Peak Time (s)	101.536
Peak Height 	0.3444
calc peak height	100,103
Baseline Time (s)	11.537
Baseline Value 	0.001139
subtract baseline	10,1


Time (s)	A880-A510	A880-A775	A880-A975	A880	I510	I775	I975	I880	
0.035000	0.000442	-0.000711	-0.007007	0.001965	7185.806661	43517.265245	3921.781988	23352.073242
0.538500	-0.001732	-0.000654	-0.006009	0.005727	7127.287982	43172.513769	3914.982342	23175.517914
1.036000	-0.002368	-0.000736	-0.003334	0.003676	7141.165631	43355.380097	3926.637287	23271.601876
1.539000	-0.000377	-0.000998	-0.001334	0.001230	7184.963852	43559.143744	3937.714295	23386.724048
2.037000	0.000029	0.000670	-0.000243	0.001630	7185.027292	43677.951775	3939.444830	23367.858891
2.536500	-0.000999	-0.000596	0.001274	0.003098	7160.325586	43422.235296	3939.569096	23298.741430
3.040000	0.002761	-0.000576	0.000885	-0.001069	7239.265421	43814.444205	3949.089447	23495.564665
3.537500	-0.002643	-0.000196	-0.003742	0.001055	7164.273964	43650.664250	3932.136983	23395.016524
4.035000	0.000080	-0.000377	0.003418	0.000767	7194.112222	43660.633664	3950.854082	23408.607613
4.535000	0.001315	0.000006	-0.000803	0.001290	7201.187265	43647.508679	3938.892303	23383.883774
5.038000	-0.000486	-0.000217	-0.002075	0.001014	7186.034187	43652.503503	3936.399939	23396.952877
5.536000	0.001193	-0.000228	-0.002092	0.000897	7203.892971	43662.446988	3936.650347	23402.467919
6.036000	0.000235	0.000637	-0.001507	0.001570	7187.666692	43680.506206	3936.431336	23370.704008
6.536000	0.000555	-0.000439	0.000994	0.000510	7201.390038	43678.901221	3945.375043	23420.738770
7.036500	0.001690	0.000468	-0.002114	0.000540	7212.422698	43761.409009	3937.490706	23419.358221
7.537000	0.001124	-0.000511	-0.002051	0.000153	7210.624230	43705.751707	3938.616418	23437.648777
8.037000	0.000141	-0.001574	-0.001546	-0.000495	7207.290346	43666.783580	3941.511498	23468.352585
8.535000	0.001405	0.000302	0.000129	0.000642	7208.556783	43736.164150	3942.862762	23414.525465
9.035500	-0.001589	-0.001309	-0.002647	-0.000365	7188.763955	43679.415970	3938.419492	23462.156968
9.535000	0.001307	0.000118	0.001286	0.000575	7208.245806	43725.191293	3945.948606	23417.705560
10.035500	-0.000263	-0.001292	-0.005870	-0.000217	7200.487049	43667.148530	3930.005023	23455.157689
10.536000	0.000552	0.000076	0.000218	0.000000	7206.443831	43775.237948	3944.705014	23444.891711
11.036000	-0.001344	-0.000575	-0.005714	-0.000036	7187.935177	43717.434761	3929.943707	23446.596561
11.536500	0.000000	0.000000	0.000000	0.000148	7199.476646	43754.234299	3943.783286	23437.906837
12.036500	0.001256	-0.000095	-0.005061	0.000452	7208.962229	43716.725040	3930.354686	23423.512627
12.537000	0.000182	-0.000986	-0.009895	-0.000213	7204.885488	43695.473447	3920.032897	23454.986049
13.034500	0.001909	-0.000785	-0.003206	-0.000206	7222.057692	43713.677117	3936.621118	23454.631158
13.535000	-0.000568	-0.000364	-0.005249	0.000337	7191.942400	43702.254385	3930.172341	23428.939532
14.035500	-0.001946	-0.000875	-0.007524	0.002395	7157.917616	43461.754720	3919.446200	23331.801034
14.538500	-0.003915	-0.000395	-0.002874	0.004857	7114.443168	43277.235780	3924.849946	23216.210294
15.035500	-0.000479	-0.000193	0.000201	0.000321	7192.986994	43719.829395	3943.853604	23429.719945
15.536000	0.000280	-0.001082	0.000649	-0.000532	7209.035699	43716.420057	3947.132844	23470.084899
16.036500	0.000450	-0.000088	0.000673	0.000562	7199.824926	43707.008972	3944.433708	23418.281934
16.536500	-0.004623	-0.001002	-0.005620	0.005899	7097.398438	43124.392757	3915.515625	23167.484882
17.037000	0.001467	-0.000145	-0.001265	-0.002476	7240.396182	43987.891850	3947.211580	23562.456399
17.537000	-0.000470	0.000015	0.000430	0.001429	7182.068121	43635.335557	3941.640430	23377.342263
18.034500	0.000468	-0.000074	-0.003033	0.002274	7182.998038	43547.973900	3930.866864	23337.531603
18.535000	0.001028	0.000369	-0.005969	0.002534	7185.966251	43565.020117	3922.939252	23325.264994
19.035500	-0.001478	-0.000362	-0.001745	0.001764	7168.777495	43568.753151	3935.351155	23361.560671
19.535500	-0.001483	-0.000656	-0.003579	0.001786	7168.500659	43539.159030	3930.721787	23360.493709
20.035500	0.000184	-0.000155	-0.002269	0.001577	7187.099631	43605.553220	3934.507938	23370.374146
20.536000	0.000365	-0.000551	-0.001598	0.001572	7188.933673	43568.962040	3936.198124	23370.589459
21.036500	-0.001521	-0.000823	-0.003520	0.001474	7171.219853	43552.718179	3931.645168	23375.217215
21.536000	-0.000897	-0.000408	-0.002187	0.001697	7175.191997	43570.719206	3934.414175	23364.714623
22.037000	0.001017	-0.000106	-0.000253	0.001477	7196.360010	43619.518830	3939.804409	23375.062629
22.537500	0.000249	-0.000102	-0.001456	0.001850	7185.026502	43584.976559	3935.858152	23357.482610
23.037500	-0.001620	-0.000902	-0.000737	0.001200	7172.949594	43571.003936	3939.286515	23388.178688
23.535000	-0.001123	-0.001079	-0.001674	0.001650	7173.418530	43512.362304	3935.811485	23366.926573
24.038500	-0.000699	-0.001283	-0.000010	0.001083	7183.233370	43546.245995	3941.405565	23393.690813
24.535500	-0.001597	-0.000459	-0.000480	0.001698	7168.247638	43565.750914	3938.681176	23364.656990
25.035500	0.002187	-0.000204	0.001959	0.001961	7203.200561	43565.082556	3944.151884	23352.271653
25.536500	-0.000138	-0.000106	-0.000558	0.002171	7178.006549	43554.564628	3937.301974	23342.362070
26.036500	0.001708	0.000487	-0.002135	0.002500	7193.066887	43579.285069	3932.538494	23326.872112
26.537000	-0.000949	-0.000902	-0.002790	0.002053	7171.154486	43491.205982	3932.022184	23347.933875
27.034500	0.001340	-0.000740	0.000040	-0.000245	7216.770691	43721.603572	3944.873984	23456.514354
27.537500	0.001721	0.000056	0.001134	-0.000681	7224.937315	43837.466971	3948.739182	23477.171804
28.035000	0.001932	0.000474	-0.002693	0.000893	7211.309871	43728.727836	3935.157466	23402.665909
28.535500	-0.003303	-0.000751	-0.008377	0.005814	7111.084036	43155.443584	3908.979694	23171.446590
29.035000	0.002281	-0.000518	-0.001701	0.000585	7217.874278	43664.545411	3938.410851	23417.236724
29.536000	0.001290	-0.000397	-0.000666	0.000895	7204.884352	43646.813166	3940.229434	23402.547840
30.036000	0.000452	-0.000663	0.001461	0.000335	7202.105521	43674.396537	3946.995203	23429.029534
30.536500	-0.000533	0.000062	-0.002293	0.005522	7141.055401	43257.950406	3924.640334	23185.092969
31.037000	-0.000326	-0.000258	-0.003497	0.002798	7169.942843	43481.754412	3928.409358	23312.854208
31.537500	0.000808	-0.000521	0.001249	0.000528	7203.735062	43669.613715	3945.973325	23419.926507
32.037500	0.001633	0.000208	0.001460	0.000878	7208.468144	43705.073607	3945.622233	23403.345430
32.535000	-0.002768	-0.000150	-0.001077	0.006118	7113.342990	43182.991487	3926.176939	23157.282373
33.035000	0.001391	-0.000258	-0.002395	0.000510	7209.735718	43696.033808	3936.862593	23420.779348
33.538500	0.002685	0.000129	0.000592	-0.000376	7231.538038	43815.595910	3946.595120	23462.696223
34.035500	-0.000784	-0.000821	-0.004860	0.002274	7170.592564	43478.150578	3926.329160	23337.515480
34.536000	-0.001708	-0.000857	-0.004755	0.004719	7137.402486	43247.123851	3920.545230	23222.675312
35.036500	-0.000844	-0.000483	0.000203	0.002732	7165.474688	43467.009482	3937.804083	23315.973180
35.536500	-0.001716	-0.000681	0.001575	0.002491	7159.244727	43470.963051	3941.849904	23327.284697
36.036500	0.002756	0.000089	-0.003546	0.003454	7194.004956	43452.912036	3926.661851	23282.023280
36.537500	0.000481	0.000027	-0.004742	0.005380	7152.426558	43267.842109	3918.947310	23191.740787
37.037500	-0.000142	-0.000474	-0.001736	0.002764	7172.101448	43464.834412	3932.875763	23314.459371
37.535000	0.001987	0.000283	-0.000542	0.003484	7186.064771	43468.243824	3934.058952	23280.605911
38.038000	-0.000962	-0.000391	-0.001204	0.003100	7160.670605	43441.115473	3933.364049	23298.636298
38.536000	-0.000802	-0.000189	-0.005442	0.003354	7159.753535	43436.336972	3922.216773	23286.716940
39.036000	-0.000106	0.000116	0.003731	0.003232	7167.819119	43476.138472	3945.413206	23292.432349
39.536000	-0.000341	-0.000575	0.001909	0.002895	7168.833030	43443.184726	3941.673411	23308.289440
40.036500	-0.000382	-0.000422	-0.000700	0.003196	7165.450676	43429.334327	3934.382467	23294.124596
40.536500	0.000194	-0.000009	0.001175	0.003324	7169.880637	43455.894370	3938.754127	23288.100017
41.037000	-0.000044	0.000408	-0.001939	0.003616	7164.641612	43467.590846	3930.250250	23274.414174
41.537500	0.000546	-0.000042	0.002156	0.003712	7169.522080	43416.625673	3940.240933	23269.885715
42.037500	-0.000366	0.000015	0.001512	0.003729	7160.344757	43420.377000	3938.582678	23269.090020
42.535000	0.000004	-0.000314	-0.002228	0.003290	7168.340032	43430.633214	3930.340261	23289.723983
43.035500	-0.000774	0.000190	0.000876	0.003405	7159.514299	43466.910971	3937.799951	23284.289403
43.535500	0.001276	-0.000427	-0.002741	0.002392	7189.844419	43503.905517	3931.298276	23331.931493
44.036000	0.002367	-0.000290	-0.000530	0.000676	7217.823882	43677.392530	3941.122088	23412.920363
44.536500	-0.003848	-0.000788	-0.002675	0.006488	7099.202439	43089.640975	3921.309780	23139.979486
45.036500	-0.000600	-0.000163	0.002468	0.000940	7185.638821	43664.590656	3948.012571	23400.445566
45.537000	0.001234	-0.000010	0.003017	0.001369	7199.604169	43638.723673	3948.316704	23380.201365
46.037000	0.000080	-0.000951	-0.000412	0.000694	7194.831362	43613.741188	3941.371155	23412.061923
46.537500	-0.000126	-0.000614	-0.002001	0.002126	7178.574993	43511.299955	3933.806804	23344.497162
47.035000	0.001430	-0.000744	0.001479	0.001151	7203.729380	43590.323771	3944.981054	23390.471972
47.538000	-0.001155	-0.000425	0.000982	0.003459	7155.227820	43404.543720	3937.932704	23281.769611
48.035500	0.000219	-0.000136	-0.000521	0.001244	7190.748000	43638.515078	3939.715534	23386.057551
48.536000	-0.000862	-0.000411	-0.001957	0.001397	7178.504191	43598.500973	3935.738688	23378.876282
49.035500	0.001901	-0.000288	-0.000637	0.000245	7217.469623	43717.999371	3941.935163	23433.277309
49.536000	0.002438	0.000313	-0.002138	-0.001816	7243.522996	43968.777790	3943.343612	23531.056673
50.037000	0.004834	0.000813	-0.001749	-0.000191	7251.283878	43862.642140	3940.236423	23453.934156
50.537000	-0.006417	-0.002485	-0.001201	0.019607	6949.352089	41742.906636	3892.968117	22537.256053
51.037000	-0.063403	-0.006720	-0.011251	0.156694	5481.110864	30962.813012	3593.242252	17217.093792
51.535000	-0.082089	-0.018707	-0.018818	0.038920	6148.984920	38693.801205	3807.944781	21682.385786
52.035000	-0.076174	-0.046463	-0.018390	-0.206877	8719.950807	62013.855002	4538.763343	35991.464931
52.535000	-0.054895	-0.133511	-0.003313	-0.319066	10822.786729	65535.000000	5113.785411	45750.454943
53.036000	-0.037697	-0.116722	0.015111	-0.302277	10830.281003	65535.000000	5122.325885	44124.935477
53.538500	-0.031964	-0.056121	0.016024	-0.231222	9719.384480	64046.098368	4783.429726	37900.442308
54.036000	-0.021741	-0.029744	0.015985	-0.185035	9175.442484	61321.066437	4588.205386	34367.520848
54.536500	-0.007205	-0.020581	0.017204	-0.168894	9152.189285	60390.382994	4529.494760	33218.823674
55.037000	0.012277	-0.010810	0.019149	-0.148840	9143.941680	59045.920351	4460.905858	31849.911215
55.537000	0.024980	-0.004339	0.027248	-0.137357	9161.584105	58402.209403	4448.404031	31094.074646
56.037500	0.045288	0.006414	0.037123	-0.121916	9232.425894	57806.516104	4428.048576	30108.660468
56.534500	0.051142	0.014675	0.047628	-0.080175	8728.212838	53735.260977	4318.534591	27613.769590
57.038000	0.070584	0.026159	0.066218	-0.051386	8603.587232	51750.736466	4284.445061	26027.531573
57.535500	0.084684	0.036252	0.081470	-0.020898	8391.454069	49511.242204	4234.994979	24458.489868
58.036000	0.100336	0.046377	0.099759	0.008796	8215.951838	47459.090151	4199.099105	23032.646995
58.536000	0.114779	0.056490	0.111949	0.047292	7928.198644	44642.177654	4119.803582	21323.431754
59.036000	0.133004	0.065851	0.131417	0.082225	7737.490023	42257.154257	4075.381745	19898.249002
59.536500	0.146366	0.075087	0.143613	0.118176	7491.044617	39911.163680	4010.154951	18546.468033
60.036500	0.158345	0.083153	0.159188	0.139111	7396.839004	38831.520029	3995.926186	17809.334788
60.537000	0.164995	0.090883	0.171084	0.160719	7243.746520	37702.427054	3970.582474	17084.853578
61.037500	0.175143	0.098373	0.185396	0.217909	6795.271733	33942.707430	3865.232396	15332.601716
61.535000	0.183665	0.107128	0.204826	0.208793	6957.757010	35245.318289	3934.204632	15596.676271
62.035500	0.192412	0.113127	0.217744	0.234886	6797.908958	33784.420202	3901.806561	14855.324488
62.536000	0.193519	0.116869	0.226410	0.255564	6625.062086	32604.504200	3873.115459	14298.668663
63.036000	0.197355	0.122969	0.236572	0.265668	6571.321303	32332.163511	3873.250777	14036.133486
63.536500	0.198007	0.125553	0.242202	0.276776	6483.400791	31760.796882	3860.426535	13754.508691
64.036500	0.203630	0.127283	0.246807	0.292072	6403.927691	30874.219449	3835.855480	13378.272232
64.539500	0.212593	0.131460	0.241682	0.303204	6386.337640	30430.276026	3799.631511	13112.660740
65.037000	0.218913	0.133479	0.247270	0.305014	6422.991349	30443.578404	3807.929909	13070.123453
65.543000	0.225167	0.137029	0.250154	0.308971	6441.813697	30417.808505	3805.566165	12977.739557
66.037500	0.231487	0.139910	0.256448	0.310756	6479.249591	30487.236481	3815.537826	12936.323527
66.538000	0.236982	0.143471	0.261330	0.314173	6496.528666	30496.362633	3818.800318	12857.527804
67.035500	0.243503	0.146690	0.260861	0.316053	6535.440638	30581.487201	3813.575750	12814.456975
67.535500	0.248486	0.148432	0.261677	0.316462	6574.190748	30666.441626	3814.478991	12805.096881
68.036000	0.252616	0.151306	0.261260	0.315981	6613.673882	30881.507337	3814.620092	12816.093032
68.536500	0.258372	0.154428	0.267966	0.315734	6665.712494	31099.228903	3830.189964	12821.751678
69.036500	0.260308	0.155475	0.269303	0.313638	6701.073777	31303.784889	3837.967988	12869.835352
69.537000	0.264832	0.157522	0.276576	0.312501	6751.265650	31512.510528	3857.286898	12896.001558
70.037000	0.269282	0.160141	0.275162	0.311938	6796.266028	31722.728359	3855.315044	12909.000961
70.537000	0.268218	0.160451	0.276215	0.311710	6788.729609	31758.418782	3858.286089	12914.270125
71.037500	0.275875	0.163406	0.279046	0.310239	6871.860070	32053.723333	3868.323197	12948.309095
71.536000	0.275561	0.164468	0.287709	0.309040	6880.009698	32205.667265	3891.712493	12976.132049
72.035500	0.280932	0.166431	0.288453	0.308651	6933.482292	32364.633764	3894.434111	12985.180573
72.535500	0.280587	0.167058	0.287389	0.308866	6928.246972	32392.547715	3891.362761	12980.176359
73.036000	0.286501	0.167942	0.290928	0.307238	6999.247165	32563.464495	3903.824859	13018.096721
73.536500	0.287868	0.170092	0.292361	0.307489	7009.852393	32693.236063	3906.695444	13012.226154
74.037000	0.289685	0.170831	0.293917	0.306316	7038.423966	32824.575960	3913.357517	13039.632254
74.537000	0.291607	0.173862	0.300528	0.308296	7037.867874	32897.010476	3924.758283	12993.426154
75.037000	0.291498	0.173244	0.298237	0.304882	7069.674960	33090.599648	3927.542628	13073.232435
75.537500	0.296687	0.174044	0.300204	0.304004	7128.671370	33207.274705	3934.621842	13093.835680
76.035000	0.297012	0.174720	0.302157	0.303505	7136.755531	33289.328737	3940.764679	13105.576630
76.535500	0.300780	0.177767	0.299906	0.304730	7161.779529	33416.915933	3932.068317	13076.788837
77.035500	0.300643	0.177105	0.306653	0.301028	7197.116355	33631.138675	3958.420154	13164.062126
77.536000	0.303431	0.177938	0.306885	0.299149	7243.813123	33823.437969	3963.820389	13208.640624
78.036000	0.305122	0.179229	0.312015	0.298240	7270.041748	33980.260159	3979.417837	13230.274942
78.536500	0.303451	0.179530	0.305805	0.297807	7257.530490	34032.781905	3964.493499	13240.588777
79.036500	0.308368	0.181020	0.309220	0.295777	7328.196484	34285.913282	3978.554567	13289.123538
79.537000	0.308609	0.181001	0.313816	0.294808	7340.615595	34354.481317	3993.108723	13312.355198
80.037000	0.310787	0.182040	0.311451	0.294164	7369.730217	34476.481504	3988.586872	13327.826238
80.537500	0.312709	0.183355	0.316755	0.294960	7381.401679	34514.271210	4000.466903	13308.709818
81.035500	0.315933	0.184537	0.312212	0.293863	7426.455171	34680.365012	3991.374814	13335.068240
81.535500	0.317521	0.185317	0.318792	0.293337	7448.664023	34775.988794	4010.205439	13347.745991
82.035500	0.317225	0.185304	0.315517	0.292663	7452.649062	34824.531337	4003.277241	13364.002523
82.536000	0.319824	0.186415	0.321690	0.294701	7458.561771	34756.471662	4014.307756	13314.921618
83.036500	0.319339	0.187197	0.317754	0.293709	7463.921748	34886.744155	4006.444075	13338.782773
83.536500	0.323587	0.187991	0.324242	0.293920	7506.769450	34929.707947	4023.277747	13333.696140
84.037000	0.323551	0.188422	0.324602	0.294674	7498.354400	34905.930340	4022.214333	13315.576652
84.537000	0.324368	0.189061	0.320514	0.294639	7507.438391	34955.581649	4011.327690	13316.421527
85.037500	0.326760	0.190166	0.321456	0.295840	7520.151433	34948.487910	4010.632719	13287.597005
85.534500	0.328371	0.191201	0.322775	0.297193	7522.916083	34924.996133	4010.540987	13255.231485
86.035000	0.329413	0.189945	0.322834	0.297863	7526.901665	34783.502581	4008.913236	13239.258279
86.536000	0.328486	0.191236	0.325141	0.299848	7495.816634	34732.646137	4009.770946	13192.029981
87.036000	0.331673	0.191771	0.326169	0.300560	7522.219769	34719.687560	4010.615523	13175.139075
87.536000	0.332114	0.194130	0.328718	0.302314	7508.193105	34764.030658	4012.741233	13133.657889
88.036500	0.332611	0.193330	0.328957	0.303111	7504.986101	34647.129812	4011.247526	13114.852053
88.537000	0.333160	0.193438	0.325266	0.304802	7492.829102	34531.721286	3996.944467	13075.090548
89.037000	0.335740	0.194369	0.331390	0.306266	7504.708376	34492.968420	4009.319102	13040.790539
89.537500	0.334458	0.194153	0.330308	0.306949	7483.818829	34427.787221	4004.618056	13024.844798
90.038000	0.335427	0.194118	0.334369	0.307763	7485.467243	34366.253563	4013.282951	13005.855170
90.535000	0.335929	0.194965	0.329256	0.310616	7460.567409	34221.407839	3992.137849	12939.562518
91.035500	0.335413	0.196300	0.330328	0.311106	7449.954918	34282.263690	3993.670116	12928.217128
91.535500	0.337842	0.197174	0.329744	0.312996	7455.641930	34209.063328	3987.172795	12884.599284
92.036000	0.337521	0.196621	0.331146	0.313708	7444.761991	34118.077971	3988.981463	12868.221314
92.536500	0.337584	0.195572	0.335335	0.314428	7437.848859	33991.310196	3998.116536	12851.680670
93.036500	0.338953	0.197002	0.333448	0.316360	7431.940695	33955.410646	3988.063419	12807.423464
93.537000	0.338365	0.196678	0.331435	0.317362	7415.289256	33860.851593	3980.191320	12784.561465
94.034500	0.340020	0.197275	0.338741	0.319703	7408.118707	33736.934516	3993.186409	12731.326032
94.538000	0.337169	0.196099	0.332076	0.319831	7377.141633	33644.576681	3975.445880	12728.437541
95.034500	0.339027	0.198822	0.340164	0.324013	7353.107731	33541.611982	3985.613417	12634.088238
95.538000	0.339808	0.197260	0.336396	0.324458	7356.575612	33400.465125	3974.648194	12624.095061
96.035500	0.341251	0.198120	0.338203	0.326879	7346.503600	33291.169985	3973.061550	12569.957181
96.535500	0.337842	0.198345	0.340795	0.328958	7290.349709	33161.774207	3974.386287	12523.680692
97.036000	0.340454	0.199830	0.341400	0.331969	7286.290310	33055.789986	3968.174922	12457.067595
