sample name	sample
index	1106
start time	 04-22-2021  12:52:43 PM
880	0.490441
Peak Time (s)	102.535
Peak Height 	0.4904
calc peak height	100,103
Baseline Time (s)	9.534
Baseline Value 	-0.006942
subtract baseline	10,4
Abs	0.332604
Peak Time (s)	102.035
Peak Height 	0.3326
calc peak height	100,103
Baseline Time (s)	11.536
Baseline Value 	0.002798
subtract baseline	10,3
PK_550	0.189867
Peak Time (s)	102.535
Peak Height 	0.1899
calc peak height	100,103
Baseline Time (s)	9.534
Baseline Value 	4.8392E-4
subtract baseline	10,2
PK_880	0.316788
Peak Time (s)	102.035
Peak Height 	0.3168
calc peak height	100,103
Baseline Time (s)	10.535
Baseline Value 	0.001827
subtract baseline	10,1


Time (s)	A880-A510	A880-A775	A880-A975	A880	I510	I775	I975	I880	
0.037000	0.000112	0.000109	0.002216	0.004185	6262.422922	43112.238770	3911.037049	22600.221364
0.537500	-0.001213	-0.001416	-0.000770	0.004280	6251.528358	42962.849250	3903.908776	22595.925791
1.038000	-0.003345	-0.000933	-0.001685	0.003697	6239.679915	43061.079210	3903.143245	22622.334721
1.535000	-0.004007	0.000202	0.002106	0.008680	6196.869764	42707.497263	3900.401883	22397.628577
2.035500	0.000015	-0.000316	-0.001792	0.001635	6281.326744	43309.208953	3907.658864	22716.091703
2.536000	-0.000441	0.000353	0.000923	0.002230	6273.215506	43316.042480	3912.575461	22688.994981
3.036000	-0.000493	-0.000127	-0.002679	-0.000334	6292.643503	43510.164803	3910.164759	22806.026615
3.536500	0.000048	0.000019	-0.003695	0.003064	6270.555849	43207.729342	3899.977082	22651.078713
4.036500	0.000216	-0.000176	0.000065	0.000734	6289.860769	43406.038530	3914.061061	22757.208070
4.536500	0.001066	0.000146	0.008316	0.000661	6297.015607	43442.746698	3933.632343	22760.521031
5.037000	0.000811	-0.000773	0.002479	0.000172	6298.836902	43402.724700	3921.015183	22782.858515
5.534500	-0.000718	0.000600	-0.000117	0.001133	6279.548286	43441.147993	3912.708903	22738.996687
6.035500	0.001381	0.000272	0.004302	0.001028	6296.611001	43420.266257	3923.285008	22743.759353
6.535500	-0.001891	-0.000371	0.005158	0.000210	6277.616317	43436.606175	3927.226996	22781.130142
7.035500	-0.001477	0.000587	0.005635	0.000885	6275.601490	43463.002538	3926.759143	22750.287634
7.535500	-0.001143	0.000598	0.000903	0.000488	6281.248876	43501.072233	3916.588748	22768.437199
8.036000	0.001282	0.000021	0.005357	0.000062	6303.353625	43486.913098	3928.045338	22787.891363
8.539500	0.001226	0.000004	-0.003366	0.000282	6301.204308	43464.855451	3907.146462	22777.825873
9.037000	0.000697	0.000162	0.006825	-0.000014	6299.391660	43507.202007	3931.695054	22791.356862
9.534000	0.001037	0.000000	0.005445	0.000000	6301.932242	43490.788205	3928.397859	22790.734373
10.035000	-0.000273	0.000337	0.003872	0.000203	6290.179800	43503.282954	3924.211470	22781.433983
10.535000	0.000000	-0.000364	-0.004421	-0.000335	6296.472065	43488.014833	3906.134120	22806.049895
11.035000	-0.000248	-0.000137	-0.002207	0.000179	6290.564840	43461.337182	3910.070256	22782.545854
11.535500	-0.000506	-0.000655	0.000000	-0.000348	6292.645627	43462.135454	3916.430967	22806.646966
12.036000	0.000912	-0.000996	-0.002697	-0.000302	6303.300066	43426.100295	3910.048532	22804.537261
12.536500	0.003530	-0.000254	0.003021	-0.000168	6322.687399	43482.752711	3923.084106	22798.423734
13.036000	0.000741	-0.000083	0.001633	-0.000253	6301.594338	43506.615443	3920.028094	22802.303292
13.536500	-0.002108	-0.000660	0.001301	0.002672	6256.999998	43181.171021	3912.428507	22668.905695
14.037000	-0.000505	0.000375	0.002832	0.002584	6269.997089	43285.231321	3916.199028	22672.913641
14.537500	0.000378	-0.000183	0.000263	0.002147	6280.178936	43273.936672	3911.234423	22692.756507
15.034500	0.000968	0.000577	0.000380	0.000287	6299.158155	43517.886508	3915.836593	22777.606345
15.536000	-0.000921	-0.001121	-0.004469	0.002360	6268.523828	43167.401318	3899.818406	22683.100477
16.035000	-0.000450	0.000342	0.007164	0.000121	6289.449147	43511.398943	3932.178829	22785.191056
16.535500	-0.000749	-0.000716	0.001666	-0.000380	6291.013814	43459.465977	3920.402321	22808.133012
17.036000	0.002393	-0.000080	-0.001671	-0.002891	6335.115650	43753.891194	3918.467958	22923.402668
17.536000	-0.001070	0.000565	0.003564	0.001438	6274.472161	43409.354997	3920.588574	22725.045834
18.039500	-0.000044	0.000631	0.001185	0.001920	6278.676376	43370.714503	3913.907721	22703.118468
18.537000	0.000007	-0.000179	0.006495	0.001303	6283.834915	43352.790235	3927.801385	22731.219821
19.037000	0.001060	0.000561	-0.000710	0.001535	6290.186173	43400.031382	3910.396387	22720.637278
19.537500	0.000698	-0.000847	0.003130	0.000922	6292.137461	43326.023905	3920.781524	22748.590003
20.035000	-0.001758	-0.000919	0.002612	0.000964	6272.826415	43315.557961	3919.471659	22746.700545
20.535500	-0.001167	-0.000339	-0.001912	0.001323	6274.610208	43336.000167	3908.103427	22730.317854
21.035500	-0.000763	-0.000509	0.001160	0.001041	6279.906350	43346.415867	3915.896927	22743.180512
21.536000	0.001778	-0.000063	0.000122	0.001355	6297.155433	43358.705207	3912.747823	22728.834939
22.036500	-0.000638	-0.000707	-0.004387	0.000574	6284.489576	43371.521931	3904.116443	22764.510058
22.536500	-0.002013	-0.000101	0.004286	0.001134	6269.549646	43375.688800	3922.997934	22738.921967
23.037000	0.000682	0.000090	0.002856	0.001638	6286.461912	43346.630321	3918.463603	22715.932184
23.581000	0.000895	-0.000644	0.004220	0.001204	6291.473906	43318.709613	3922.678016	22735.723946
24.034000	-0.004035	0.000171	0.007857	0.001484	6251.328896	43368.483384	3930.591358	22722.959141
24.537000	-0.000535	0.000212	0.004680	0.001551	6277.726597	43366.034074	3922.943384	22719.902438
25.035000	-0.001270	-0.000864	-0.000648	0.000825	6277.662564	43333.585556	3912.190406	22753.056192
25.534500	0.001138	-0.000450	0.002979	0.001456	6291.410367	43313.363097	3919.178044	22724.255797
26.035500	0.002355	0.000708	0.007533	0.001405	6301.250109	43425.807306	3930.012304	22726.566800
26.536000	-0.001895	0.000268	-0.003018	0.001343	6268.843352	43390.548502	3905.498570	22729.384574
27.036500	0.002431	0.000967	0.003857	-0.000947	6320.181452	43669.748427	3926.884993	22834.077400
27.539000	-0.000240	-0.000505	0.000390	0.000460	6288.445316	43400.857597	3915.454843	22769.698210
28.037500	0.002121	0.000282	0.004857	0.000219	6308.658857	43496.634585	3926.493396	22780.704260
28.537000	-0.000053	0.000288	0.003519	-0.000087	6294.138701	43525.784508	3924.063983	22794.712326
29.038000	0.000101	-0.000667	-0.000302	-0.000827	6301.084838	43505.789741	3916.845698	22828.618639
29.534500	0.000500	0.000068	0.002563	0.000292	6295.489825	43469.946149	3920.931490	22777.398761
30.035000	-0.001677	0.000061	0.002548	-0.000268	6282.958606	43521.516490	3922.208666	22802.988983
30.538000	0.000008	-0.000828	0.004009	0.002015	6278.341880	43226.426577	3920.280534	22698.792878
31.036000	-0.000209	-0.000131	-0.000923	0.001374	6281.615339	43350.660429	3910.276407	22727.998909
31.536000	-0.001856	-0.000549	0.002869	0.000937	6272.279117	43352.408585	3920.135904	22747.921458
32.039000	0.000414	0.000668	0.003636	0.000598	6292.446857	43497.263557	3922.729330	22763.395744
32.536500	0.000725	0.000352	-0.002262	0.000268	6297.424215	43498.633580	3909.737479	22778.501605
33.037000	-0.001196	-0.001293	0.001025	-0.000834	6291.065051	43447.978645	3919.964300	22828.901246
33.537000	-0.000011	-0.000118	-0.001135	0.001235	6284.217385	43364.755092	3910.107661	22734.318065
34.034500	-0.001088	-0.000828	-0.001210	0.001106	6276.900982	43310.797789	3910.234337	22740.228881
34.537500	-0.000320	0.000048	-0.002273	0.001571	6279.235136	43349.021806	3906.693413	22719.019330
35.035500	-0.001463	0.000507	0.002756	0.001847	6268.290274	43366.008586	3917.740832	22706.430167
35.538000	-0.002476	0.000107	-0.000053	0.002021	6259.165620	43312.663537	3910.794593	22698.512402
36.036000	-0.000639	-0.000268	0.000620	0.001168	6279.883869	43356.971753	3914.340562	22737.364150
36.538500	0.000710	0.000332	0.001155	0.001959	6284.201673	43339.298232	3913.746101	22701.350630
37.039000	0.000696	0.000227	-0.001016	0.001743	6285.759176	43349.605953	3909.204712	22711.157670
37.536500	-0.000502	-0.000559	0.001235	0.001190	6280.769861	43327.964892	3915.725478	22736.374199
38.036500	-0.000305	-0.000369	0.001041	0.001608	6279.070359	43306.745929	3914.299007	22717.331115
38.535000	0.000706	0.001050	0.005280	0.002573	6279.419627	43348.906321	3921.952387	22673.390420
39.035000	-0.001046	0.000145	0.004621	0.001822	6271.703954	43334.655138	3922.170950	22707.590285
39.535000	0.000322	0.000062	0.009551	0.001729	6282.973626	43335.503234	3934.028225	22711.784460
40.035500	-0.002589	-0.001079	0.004071	0.001168	6264.854312	43281.773606	3922.414301	22737.399680
40.535500	0.000269	0.000015	0.004259	0.001910	6281.165524	43314.397869	3921.113457	22703.564925
41.036000	-0.000656	0.000317	0.001275	0.002409	6270.180889	43296.124911	3912.977954	22680.861392
41.539500	-0.000842	-0.000144	0.002084	0.001772	6273.651141	43312.402866	3916.347721	22709.836376
42.036000	-0.000523	-0.000216	0.006304	0.002015	6274.237026	43283.143464	3925.672507	22698.772150
42.537000	0.000414	0.000474	-0.001557	0.002598	6276.971883	43293.072210	3905.973791	22672.233152
43.037000	0.000000	-0.000469	-0.000014	0.001762	6280.233878	43283.181569	3911.484315	22710.291318
43.534500	0.000093	-0.000295	-0.000301	-0.000013	6294.695337	43464.531297	3914.948224	22791.329160
44.035000	0.000633	0.000753	0.007567	0.000504	6294.875727	43514.040551	3932.227596	22767.713458
44.537500	-0.000450	0.000273	0.001430	0.000432	6287.041819	43475.967707	3917.950151	22770.984365
45.036000	-0.000166	-0.000147	0.001047	0.000095	6291.847879	43468.262482	3917.843684	22786.396900
45.536000	-0.001734	0.000419	0.002722	0.002455	6261.536090	43301.305954	3916.242235	22678.767932
46.036000	-0.001338	-0.000055	0.005243	0.000401	6280.416887	43448.318125	3926.977930	22772.420836
46.536500	0.001401	0.000275	0.003295	0.000456	6301.218241	43473.962431	3922.263887	22769.893490
47.036500	-0.002737	0.001035	0.000494	0.004223	6240.306216	43194.428575	3906.959383	22598.498436
47.537000	-0.000229	0.000480	0.003372	0.003554	6264.649810	43204.998689	3915.195862	22628.832491
48.034000	-0.000185	-0.000968	0.002615	-0.000220	6294.145767	43421.068631	3922.252836	22800.794478
48.535000	0.002827	0.000807	0.005304	0.000539	6311.670796	43515.817401	3926.796032	22766.108715
49.035000	-0.000063	0.000031	0.001775	0.003562	6265.866048	43162.714498	3911.460043	22628.468909
49.538000	0.000194	-0.000052	0.004322	0.000590	6290.801259	43430.920600	3924.359939	22763.744799
50.036000	0.002947	-0.000409	-0.003369	0.005522	6273.960141	42941.220183	3895.094069	22539.756896
50.536500	0.018895	-0.007504	0.028534	0.343377	4520.700282	21035.362024	3393.309206	11935.530511
51.039500	0.014477	-0.013593	-0.005276	0.178691	5233.075395	28996.508835	3565.847329	16090.069736
51.537000	-0.011484	-0.024461	-0.020205	-0.127077	7321.317394	54289.834572	4198.227572	29543.102464
52.037000	-0.016714	-0.043929	-0.010121	-0.209572	8177.423275	62304.646026	4506.038899	35111.182886
52.534000	-0.004208	-0.032426	-0.000806	-0.196992	8176.528735	62157.674505	4494.029403	34192.280407
53.034500	0.002196	-0.020502	0.010279	-0.168715	7918.571358	59970.622190	4432.266294	32221.378301
53.535000	0.011753	-0.010688	0.020154	-0.119860	7486.520186	55070.425147	4300.960623	29104.417510
54.035000	0.016050	-0.004623	0.021195	-0.092614	7251.718030	52590.547712	4219.083999	27512.526980
54.535500	0.027961	0.002436	0.028775	-0.102214	7471.443099	54530.765581	4272.202732	28062.054115
55.035500	0.034985	0.010567	0.040216	-0.058927	7107.209228	50521.663599	4175.375242	25677.499310
55.536000	0.054912	0.020873	0.053278	-0.044875	7164.173121	50113.378793	4172.476702	24953.142662
56.036500	0.071997	0.030364	0.075930	0.009560	6814.805957	45478.928178	4082.870734	22358.251413
56.537000	0.089385	0.042859	0.093411	0.044752	6658.557656	43314.590937	4035.710772	20845.692616
57.037000	0.100347	0.052554	0.102109	0.092384	6356.214047	39940.133627	3938.556531	18984.229184
57.534500	0.124740	0.062613	0.123397	0.122988	6307.489013	38232.117133	3916.573789	17891.572517
58.034500	0.138458	0.072918	0.142181	0.154132	6174.445788	36580.263609	3888.126572	16855.942314
58.535500	0.154803	0.080582	0.162440	0.191792	6018.797306	34337.484704	3849.425112	15698.901944
59.035000	0.162070	0.088643	0.166565	0.219568	5876.073729	32945.556058	3799.245941	14907.543825
59.536000	0.171795	0.094183	0.173567	0.224399	5909.518952	32994.463313	3803.737960	14774.993600
60.035500	0.176509	0.098948	0.181365	0.226033	5930.766217	33211.696203	3816.617492	14730.508021
60.539500	0.178810	0.102840	0.186558	0.231786	5906.962164	33082.395970	3815.438658	14575.150812
61.063500	0.182167	0.105064	0.189900	0.233338	5919.388785	33129.064817	3819.210316	14533.605103
61.536500	0.183928	0.107651	0.193198	0.237862	5900.393705	32994.805375	3816.626580	14413.309878
62.037000	0.188918	0.109631	0.196397	0.244197	5891.192863	32695.257141	3810.050146	14246.956967
62.534500	0.190751	0.112016	0.201379	0.251067	5856.981858	32389.919748	3806.114115	14069.281076
63.037500	0.193038	0.113594	0.206549	0.264167	5784.882427	31619.800630	3789.768331	13738.185498
63.535000	0.196896	0.117540	0.206958	0.270018	5771.779898	31494.373142	3778.723013	13593.481738
64.038000	0.200365	0.117958	0.208137	0.274715	5763.739562	31214.782083	3771.655005	13478.731480
64.538500	0.205661	0.120693	0.217656	0.283750	5739.404219	30808.047075	3772.623830	13261.461754
65.038500	0.203543	0.122419	0.213918	0.296274	5646.091219	30124.579359	3740.652971	12967.674189
65.536000	0.210006	0.124779	0.222793	0.298719	5671.379848	30119.214532	3753.151425	12911.286217
66.037000	0.213411	0.126907	0.221075	0.305580	5649.613548	29824.975058	3736.516020	12754.780291
66.536500	0.218810	0.127641	0.234026	0.311088	5648.932748	29531.473798	3750.929522	12630.921592
67.034500	0.219668	0.129395	0.231961	0.322927	5580.909020	28921.848453	3724.203373	12369.927713
67.535000	0.222984	0.130956	0.234568	0.324748	5590.072954	28906.368972	3725.693706	12330.420298
68.035000	0.227345	0.132357	0.237030	0.327443	5600.312361	28829.149069	3725.249970	12272.223160
68.535500	0.232638	0.134775	0.244726	0.333886	5593.239986	28590.681945	3727.628138	12134.602571
69.036000	0.232579	0.135291	0.244508	0.342391	5541.131362	28123.745125	3711.223536	11956.013854
69.535500	0.238461	0.137806	0.250482	0.344273	5565.343480	28160.452139	3718.878344	11916.968147
70.036500	0.243629	0.138942	0.248628	0.345402	5590.016035	28160.841552	3713.290514	11893.619051
70.536500	0.244032	0.141039	0.256001	0.350203	5563.161405	28004.529901	3718.106203	11795.038485
71.037000	0.244017	0.141948	0.257545	0.358532	5512.954068	27580.496538	3705.466959	11626.566063
71.537000	0.248595	0.144754	0.264237	0.358006	5543.550301	27769.993383	3718.919520	11637.106858
72.034500	0.253939	0.147134	0.269511	0.359676	5565.799273	27810.559299	3725.721041	11603.676905
72.534500	0.256292	0.147674	0.269511	0.361267	5570.435564	27750.477496	3722.710784	11571.931553
73.035500	0.256392	0.148727	0.266164	0.368835	5525.326587	27381.597435	3702.358944	11422.569747
73.535500	0.260493	0.150360	0.269682	0.366610	5563.489033	27599.377466	3713.004559	11466.220135
74.036000	0.265644	0.150883	0.274873	0.366118	5597.999453	27657.018310	3723.676682	11475.907723
74.538500	0.267267	0.154211	0.281973	0.369383	5587.909753	27660.611158	3730.958090	11411.862787
75.036000	0.262403	0.154423	0.272162	0.376246	5516.958178	27285.427683	3699.761765	11278.820592
75.536500	0.266362	0.155918	0.279385	0.372490	5563.419811	27581.138218	3720.167019	11351.359605
76.037000	0.270671	0.156910	0.284931	0.373108	5585.942753	27602.328598	3729.496159	11339.382973
76.537500	0.272885	0.159371	0.288416	0.376239	5580.330941	27564.373492	3730.171300	11278.948224
77.034500	0.271768	0.159318	0.283026	0.383475	5529.740886	27155.116846	3706.462310	11140.936198
77.535000	0.274026	0.161763	0.288466	0.382008	5552.178894	27373.904679	3719.345681	11168.726456
78.035500	0.279605	0.163041	0.291400	0.382555	5582.802945	27415.026471	3723.847236	11158.352940
78.536000	0.277719	0.162713	0.287977	0.383850	5563.404149	27323.834697	3714.974382	11133.839456
79.036000	0.276216	0.163425	0.289191	0.391503	5508.355623	26937.783541	3703.020039	10990.470762
79.536000	0.279516	0.162281	0.292155	0.388802	5544.296813	27023.819102	3713.527634	11040.770205
80.036500	0.280333	0.163945	0.295606	0.389142	5547.179401	27097.273084	3719.357317	11034.426861
80.537000	0.282605	0.165546	0.292761	0.392119	5542.931312	27021.008083	3708.482777	10979.042406
81.037000	0.282155	0.165591	0.298730	0.398125	5504.294347	26693.120430	3708.413130	10868.427970
81.537000	0.288015	0.166781	0.297297	0.395970	5552.344857	26876.524287	3709.753497	10907.941672
82.035000	0.288201	0.168061	0.295542	0.398321	5539.279385	26817.671954	3702.161502	10864.852856
82.535000	0.287005	0.168977	0.303014	0.400372	5519.797188	26755.427733	3712.201915	10827.437128
83.035500	0.285962	0.169775	0.298486	0.408743	5464.151166	26344.303819	3688.512239	10676.591955
83.536000	0.288968	0.171956	0.304110	0.406310	5496.156182	26593.937217	3703.226053	10720.137151
84.039000	0.289907	0.172703	0.303308	0.409451	5483.150445	26464.095262	3695.990933	10663.974603
84.536000	0.292445	0.173100	0.307618	0.411713	5484.780133	26363.475173	3699.741177	10623.778250
85.036500	0.290914	0.173493	0.302884	0.419493	5430.475699	25968.993433	3677.102987	10487.103161
85.536500	0.294856	0.174028	0.301131	0.416698	5469.645386	26145.958742	3678.963193	10535.918063
86.037000	0.294531	0.175387	0.314939	0.420321	5446.614723	26025.456973	3697.383062	10472.697487
86.534500	0.298423	0.173815	0.303631	0.421508	5462.373647	25879.502263	3674.844799	10452.094693
87.035000	0.291719	0.174756	0.306175	0.429378	5378.625679	25516.953924	3665.433084	10316.941562
87.535000	0.298242	0.175487	0.316387	0.429562	5414.710993	25545.384988	3683.251453	10313.821147
88.036000	0.298860	0.176730	0.318813	0.431177	5408.998635	25526.032341	3684.708650	10286.389958
88.536500	0.299671	0.176774	0.306712	0.433439	5400.711800	25411.165481	3659.270796	10248.157904
89.036500	0.297153	0.176352	0.313334	0.440876	5344.600449	25008.775579	3657.851314	10123.831270
89.539000	0.301405	0.177275	0.310247	0.440752	5369.104374	25061.971341	3652.715775	10125.883127
90.037000	0.299976	0.177845	0.311479	0.440364	5363.254314	25110.767211	3655.519639	10132.324836
90.537000	0.301385	0.177478	0.317240	0.442832	5357.315665	24966.696834	3661.248658	10091.482293
91.035000	0.301710	0.179010	0.316291	0.451541	5310.805365	24606.280774	3644.567120	9949.228716
91.538000	0.303004	0.178590	0.318163	0.449877	5327.116429	24668.311988	3650.632719	9976.193383
92.035000	0.304034	0.179854	0.314918	0.451032	5326.418979	24673.736728	3643.092864	9957.459318
92.538000	0.305181	0.181681	0.316146	0.454353	5314.426856	24599.218675	3639.533091	9903.892756
93.035500	0.301517	0.180391	0.313749	0.459920	5264.168430	24260.454096	3626.143860	9815.013166
93.539000	0.304683	0.180702	0.322576	0.458684	5288.001684	24336.404867	3643.103468	9834.652146
94.036000	0.309497	0.182252	0.322495	0.459877	5307.788435	24353.979933	3640.934154	9815.695696
94.536000	0.309370	0.181594	0.328584	0.461617	5297.566074	24236.308903	3648.363721	9788.158175
95.037000	0.306549	0.180974	0.317176	0.468097	5247.290800	23891.496874	3618.275824	9686.527735
95.538000	0.308349	0.183206	0.323114	0.467056	5262.532862	24049.728381	3629.867732	9702.751722
96.035000	0.311295	0.183948	0.326728	0.468603	5270.073877	24010.722260	3633.335928	9678.654252
96.535000	0.310606	0.184233	0.326009	0.469877	5259.498640	23962.853148	3629.991774	9658.874374
97.035500	0.311088	0.183507	0.324371	0.476382	5227.345200	23616.310943	3616.482855	9558.780030
97.535000	0.312163	0.185910	0.334888	0.476065	5234.732060	23745.956424	3634.511748	9563.614109
