sample name	sample
index	1244
start time	 04-29-2021  11:47:59 AM


Wavelength (nm)	Absorbance
494.344910	-0.117689
494.563924	-0.117689
494.782919	-0.117689
495.001897	0.059189
495.220856	-0.021581
495.439797	0.007221
495.658719	0.017064
495.877624	0.023621
496.096510	0.022733
496.315378	0.023708
496.534227	0.008477
496.753059	-0.029511
496.971872	-0.006228
497.190667	0.110767
497.409444	0.155976
497.628203	0.169284
497.846943	0.173415
498.065665	0.176203
498.284369	0.177526
498.503055	0.178645
498.721723	0.181026
498.940372	0.180678
499.159003	0.180811
499.377616	0.178393
499.596210	0.177773
499.814787	0.176785
500.033345	0.177054
500.251885	0.177365
500.470406	0.177072
500.688910	0.177434
500.907395	0.177339
501.125862	0.177203
501.344311	0.177027
501.562742	0.176613
501.781154	0.177406
501.999548	0.177700
502.217924	0.178088
502.436282	0.176454
502.654621	0.176323
502.872942	0.176637
503.091245	0.177489
503.309530	0.177740
503.527797	0.177180
503.746045	0.176922
503.964275	0.176258
504.182487	0.175839
504.400681	0.177542
504.618856	0.177563
504.837013	0.177406
505.055152	0.177610
505.273273	0.178094
505.491376	0.179975
505.709460	0.180240
505.927526	0.180851
506.145574	0.181414
506.363604	0.181439
506.581615	0.180658
506.799608	0.180213
507.017583	0.180698
507.235540	0.180721
507.453478	0.180615
507.671399	0.180403
507.889301	0.180185
508.107185	0.179850
508.325050	0.180176
508.542898	0.181176
508.760727	0.181572
508.978538	0.181022
509.196330	0.182674
509.414105	0.183531
509.631861	0.185009
509.849599	0.185578
510.067319	0.185709
510.285021	0.185758
510.502704	0.186999
510.720369	0.187507
510.938016	0.187166
511.155645	0.186020
511.373255	0.185119
511.590848	0.184934
511.808422	0.183949
512.025977	0.183454
512.243515	0.184080
512.461034	0.184063
512.678536	0.184115
512.896018	0.185409
513.113483	0.184962
513.330930	0.185277
513.548358	0.185600
513.765768	0.187459
513.983160	0.189036
514.200533	0.188456
514.417889	0.188521
514.635226	0.189953
514.852545	0.189366
515.069845	0.190677
515.287128	0.190903
515.504392	0.191203
515.721638	0.190820
515.938866	0.191373
516.156075	0.192918
516.373267	0.193281
516.590440	0.192418
516.807594	0.193324
517.024731	0.194257
517.241850	0.195258
517.458950	0.194799
517.676032	0.194825
517.893095	0.194310
518.110141	0.193718
518.327168	0.193859
518.544177	0.194192
518.761168	0.194353
518.978141	0.194167
519.195095	0.193787
519.412031	0.194034
519.628949	0.194140
519.845849	0.193814
520.062731	0.194170
520.279594	0.194837
520.496439	0.195219
520.713266	0.195174
520.930074	0.194280
521.146865	0.194626
521.363637	0.194907
521.580391	0.195323
521.797127	0.196854
522.013844	0.196861
522.230543	0.196639
522.447224	0.197139
522.663887	0.197636
522.880532	0.198995
523.097158	0.199435
523.313766	0.200020
523.530356	0.200544
523.746928	0.199914
523.963481	0.200193
524.180017	0.199922
524.396534	0.200923
524.613032	0.201942
524.829513	0.202021
525.045975	0.202098
525.262420	0.202954
525.478845	0.203125
525.695253	0.203124
525.911643	0.204090
526.128014	0.204151
526.344367	0.202879
526.560702	0.202045
526.777018	0.202327
526.993316	0.202547
527.209597	0.202342
527.425858	0.202580
527.642102	0.203183
527.858328	0.203216
528.074535	0.204334
528.290724	0.205525
528.506894	0.205895
528.723047	0.205766
528.939181	0.206499
529.155297	0.206281
529.371395	0.206374
529.587475	0.207114
529.803536	0.207931
530.019579	0.208012
530.235604	0.208090
530.451611	0.208794
530.667600	0.209084
530.883570	0.208897
531.099522	0.209639
531.315456	0.210026
531.531372	0.210243
531.747269	0.210509
531.963148	0.211011
532.179009	0.211877
532.394852	0.212334
532.610676	0.212510
532.826482	0.213096
533.042271	0.213234
533.258040	0.213696
533.473792	0.213928
533.689525	0.213670
533.905240	0.213966
534.120937	0.213580
534.336616	0.214132
534.552277	0.215151
534.767919	0.216497
534.983543	0.217158
535.199149	0.217624
535.414736	0.218245
535.630306	0.218570
535.845857	0.218540
536.061390	0.219229
536.276904	0.219100
536.492401	0.219039
536.707879	0.218361
536.923339	0.218571
537.138781	0.219398
537.354204	0.220025
537.569610	0.220837
537.784997	0.221187
538.000366	0.221806
538.215716	0.222834
538.431049	0.223783
538.646363	0.223903
538.861659	0.224434
539.076937	0.223841
539.292196	0.224093
539.507438	0.223691
539.722661	0.223995
539.937866	0.224102
540.153052	0.223098
540.368221	0.222706
540.583371	0.223046
540.798503	0.223272
541.013617	0.223815
541.228712	0.223895
541.443789	0.224668
541.658848	0.225465
541.873889	0.225498
542.088912	0.226767
542.303916	0.227145
542.518902	0.227472
542.733870	0.227660
542.948820	0.227843
543.163752	0.227878
543.378665	0.227897
543.593560	0.227920
543.808437	0.228119
544.023295	0.227970
544.238136	0.228884
544.452958	0.229223
544.667762	0.229726
544.882548	0.230354
545.097315	0.230630
545.312064	0.230856
545.526795	0.231479
545.741508	0.231987
545.956203	0.232984
546.170879	0.232365
546.385537	0.232860
546.600177	0.233010
546.814799	0.233431
547.029402	0.234237
547.243988	0.234693
547.458555	0.234350
547.673103	0.234750
547.887634	0.234831
548.102146	0.235754
548.316640	0.235692
548.531116	0.236173
548.745574	0.236134
548.960013	0.235570
549.174435	0.236149
549.388838	0.237087
549.603222	0.237157
549.817589	0.237401
550.031937	0.237437
550.246267	0.238143
550.460579	0.238286
550.674873	0.238409
550.889148	0.239315
551.103405	0.239246
551.317644	0.238718
551.531865	0.239244
551.746068	0.239582
551.960252	0.240045
552.174418	0.240367
552.388566	0.240094
552.602696	0.240416
552.816807	0.240137
553.030900	0.240395
553.244975	0.240956
553.459032	0.241070
553.673070	0.240911
553.887091	0.240933
554.101093	0.240787
554.315077	0.241326
554.529042	0.241294
554.742990	0.241328
554.956919	0.241460
555.170830	0.241774
555.384722	0.241781
555.598597	0.241995
555.812453	0.242135
556.026291	0.242064
556.240111	0.242055
556.453913	0.242307
556.667696	0.242729
556.881461	0.243264
557.095208	0.242879
557.308937	0.243288
557.522647	0.243410
557.736339	0.243565
557.950013	0.243867
558.163669	0.244333
558.377307	0.244816
558.590926	0.244904
558.804527	0.244956
559.018110	0.245830
559.231675	0.245311
559.445221	0.245148
559.658749	0.245448
559.872259	0.245708
560.085751	0.245789
560.299225	0.245389
560.512680	0.245569
560.726117	0.245658
560.939536	0.245671
561.152937	0.246404
561.366319	0.246960
561.579683	0.247419
561.793029	0.247321
562.006357	0.247463
562.219667	0.247946
562.432958	0.247958
562.646231	0.247766
562.859486	0.247498
563.072723	0.247271
563.285941	0.247496
563.499141	0.247001
563.712323	0.246600
563.925487	0.246652
564.138632	0.246585
564.351760	0.247026
564.564869	0.247370
564.777960	0.248110
564.991032	0.248296
565.204087	0.248317
565.417123	0.248180
565.630141	0.248950
565.843140	0.248811
566.056122	0.249533
566.269085	0.249205
566.482030	0.249600
566.694957	0.249699
566.907866	0.249767
567.120756	0.249895
567.333628	0.250344
567.546482	0.250592
567.759318	0.251029
567.972135	0.250950
568.184935	0.251363
568.397716	0.251100
568.610478	0.250808
568.823223	0.251042
569.035949	0.250934
569.248657	0.250747
569.461347	0.251027
569.674019	0.251081
569.886672	0.250931
570.099308	0.250775
570.311925	0.250553
570.524523	0.250912
570.737104	0.251180
570.949666	0.251721
571.162210	0.252518
571.374736	0.252216
571.587244	0.252441
571.799733	0.252632
572.012205	0.252952
572.224658	0.253182
572.437092	0.253476
572.649509	0.253423
572.861907	0.253790
573.074287	0.253910
573.286649	0.254399
573.498993	0.254665
573.711318	0.254822
573.923625	0.255303
574.135914	0.255504
574.348185	0.255310
574.560438	0.255948
574.772672	0.255862
574.984888	0.255224
575.197086	0.255147
575.409266	0.255079
575.621427	0.254726
575.833570	0.254358
576.045695	0.254695
576.257802	0.255063
576.469890	0.254950
576.681961	0.254359
576.894013	0.255062
577.106046	0.255289
577.318062	0.255414
577.530059	0.256089
577.742039	0.256116
577.954000	0.256385
578.165942	0.255973
578.377867	0.255614
578.589773	0.256196
578.801661	0.255916
579.013531	0.255945
579.225382	0.256066
579.437216	0.256240
579.649031	0.256550
579.860828	0.256613
580.072606	0.257034
580.284367	0.257427
580.496109	0.257456
580.707833	0.258108
580.919539	0.258292
581.131227	0.258596
581.342896	0.258719
581.554547	0.259049
581.766180	0.259448
581.977795	0.259423
582.189391	0.259520
582.400969	0.259929
582.612529	0.259889
582.824071	0.260357
583.035595	0.260415
583.247100	0.260516
583.458587	0.260253
583.670056	0.259980
583.881506	0.260382
584.092939	0.261069
584.304353	0.261316
584.515749	0.261359
584.727127	0.261231
584.938486	0.261528
585.149828	0.261591
585.361151	0.262247
585.572456	0.262477
585.783742	0.262599
585.995011	0.262438
586.206261	0.262277
586.417493	0.262611
586.628706	0.262983
586.839902	0.263241
587.051079	0.263482
587.262238	0.263932
587.473379	0.263755
587.684502	0.263669
587.895606	0.263837
588.106692	0.263878
588.317760	0.264012
588.528810	0.263534
588.739841	0.263756
588.950855	0.264130
589.161850	0.263984
589.372827	0.264568
589.583785	0.265007
589.794726	0.265258
590.005648	0.265524
590.216552	0.265327
590.427437	0.266172
590.638305	0.266496
590.849154	0.266317
591.059985	0.266543
591.270798	0.266528
591.481592	0.266735
591.692369	0.266660
591.903127	0.266891
592.113867	0.267279
592.324588	0.267109
592.535292	0.266717
592.745977	0.266852
592.956644	0.266308
593.167293	0.266581
593.377923	0.267023
593.588536	0.267263
593.799130	0.267332
594.009706	0.267664
594.220263	0.267869
594.430803	0.268347
594.641324	0.268657
594.851827	0.269277
595.062312	0.269261
595.272778	0.269213
595.483227	0.269341
595.693657	0.269286
595.904069	0.269141
596.114462	0.269180
596.324838	0.268913
596.535195	0.268954
596.745534	0.269161
596.955855	0.269417
597.166157	0.269113
597.376441	0.269351
597.586707	0.269785
597.796955	0.270196
598.007185	0.270462
598.217396	0.270857
598.427589	0.270867
598.637764	0.271037
598.847921	0.271065
599.058060	0.271685
599.268180	0.271763
599.478282	0.272077
599.688366	0.272051
599.898431	0.272053
600.108479	0.272187
600.318508	0.272399
600.528519	0.272831
600.738511	0.273151
600.948486	0.273183
601.158442	0.273242
601.368380	0.273442
601.578300	0.273921
601.788202	0.274487
601.998085	0.274447
602.207950	0.274805
602.417797	0.274611
602.627626	0.274623
602.837436	0.274506
603.047228	0.274942
603.257002	0.274840
603.466758	0.274851
603.676496	0.274852
603.886215	0.274992
604.095916	0.274946
604.305599	0.275144
604.515264	0.275422
604.724910	0.275722
604.934538	0.275359
605.144148	0.275598
605.353740	0.275761
605.563314	0.275645
605.772869	0.276023
605.982406	0.276069
606.191925	0.275797
606.401425	0.276038
606.610908	0.276021
606.820372	0.276228
607.029818	0.276135
607.239246	0.275875
607.448655	0.276235
607.658047	0.276438
607.867420	0.276737
608.076775	0.277314
608.286111	0.277117
608.495430	0.277632
608.704730	0.278032
608.914012	0.278040
609.123275	0.278058
609.332521	0.277965
609.541748	0.277558
609.750957	0.277768
609.960148	0.277653
610.169321	0.278170
610.378475	0.278055
610.587611	0.278188
610.796729	0.278541
611.005829	0.279293
611.214910	0.279588
611.423974	0.280235
611.633019	0.280015
611.842045	0.280334
612.051054	0.280270
612.260044	0.280270
612.469017	0.280337
612.677970	0.280558
612.886906	0.280578
613.095824	0.280826
613.304723	0.280600
613.513604	0.281005
613.722467	0.281231
613.931311	0.281251
614.140138	0.281443
614.348946	0.281478
614.557736	0.281501
614.766507	0.281582
614.975261	0.281428
615.183996	0.281626
615.392713	0.281926
615.601412	0.281765
615.810092	0.281752
616.018754	0.281797
616.227399	0.281976
616.436024	0.282146
616.644632	0.282200
616.853222	0.282542
617.061793	0.282897
617.270346	0.282706
617.478880	0.283184
617.687397	0.283736
617.895895	0.283840
618.104375	0.283798
618.312837	0.283723
618.521281	0.284080
618.729706	0.284103
618.938113	0.284166
619.146502	0.284234
619.354873	0.284265
619.563226	0.284189
619.771560	0.284436
619.979876	0.284932
620.188174	0.285459
620.396453	0.285353
620.604715	0.285348
620.812958	0.285073
621.021183	0.285546
621.229390	0.285758
621.437578	0.285630
621.645748	0.285772
621.853900	0.285813
622.062034	0.285695
622.270150	0.285640
622.478247	0.285501
622.686326	0.286145
622.894387	0.286200
623.102430	0.285916
623.310454	0.286345
623.518461	0.286378
623.726449	0.286167
623.934418	0.286190
624.142370	0.286337
624.350303	0.286663
624.558218	0.286582
624.766115	0.286440
624.973994	0.286573
625.181855	0.286587
625.389697	0.286812
625.597521	0.287185
625.805327	0.287207
626.013114	0.287512
626.220883	0.287744
626.428634	0.287851
626.636367	0.287991
626.844082	0.288287
627.051778	0.288341
627.259457	0.288655
627.467117	0.288874
627.674758	0.289430
627.882382	0.289595
628.089987	0.289758
628.297574	0.289935
628.505143	0.290331
628.712694	0.290646
628.920226	0.291016
629.127740	0.291008
629.335236	0.291159
629.542714	0.290850
629.750174	0.291055
629.957615	0.291237
630.165038	0.291299
630.372443	0.291317
630.579829	0.291428
630.787198	0.291326
630.994548	0.291334
631.201880	0.291343
631.409194	0.291947
631.616489	0.292152
631.823766	0.292302
632.031025	0.292544
632.238266	0.292645
632.445489	0.292642
632.652693	0.293234
632.859879	0.293391
633.067047	0.293569
633.274197	0.293246
633.481329	0.293127
633.688442	0.293214
633.895537	0.293106
634.102614	0.293459
634.309672	0.293380
634.516713	0.293363
634.723735	0.293455
634.930739	0.293258
635.137724	0.293500
635.344692	0.293785
635.551641	0.293922
635.758572	0.294140
635.965485	0.294209
636.172379	0.294657
636.379256	0.294581
636.586114	0.294712
636.792954	0.295040
636.999775	0.295401
637.206579	0.295423
637.413364	0.295503
637.620131	0.295695
637.826880	0.295714
638.033610	0.295731
638.240323	0.295847
638.447017	0.296150
638.653692	0.296119
638.860350	0.296271
639.066990	0.296420
639.273611	0.296786
639.480214	0.297079
639.686798	0.297268
639.893365	0.297628
640.099913	0.297939
640.306443	0.297875
640.512955	0.298057
640.719449	0.297836
640.925924	0.297873
641.132381	0.298081
641.338820	0.298190
641.545241	0.298408
641.751644	0.298568
641.958028	0.298869
642.164394	0.299421
642.370742	0.300005
642.577071	0.300230
642.783383	0.300549
642.989676	0.300632
643.195951	0.300965
643.402207	0.301123
643.608446	0.301207
643.814666	0.301431
644.020868	0.301462
644.227052	0.301541
644.433218	0.302260
644.639365	0.302499
644.845494	0.302517
645.051605	0.302451
645.257698	0.302774
645.463772	0.302979
645.669828	0.302636
645.875866	0.302660
646.081886	0.302630
646.287888	0.302536
646.493871	0.302391
646.699836	0.302699
646.905783	0.302522
647.111712	0.302331
647.317622	0.302260
647.523514	0.302548
647.729388	0.302628
647.935244	0.302797
648.141082	0.302892
648.346901	0.303105
648.552702	0.303125
648.758485	0.303729
648.964250	0.303957
649.169996	0.304289
649.375724	0.304318
649.581434	0.304546
649.787126	0.304850
649.992800	0.304882
650.198455	0.305190
650.404092	0.305174
650.609711	0.305189
650.815311	0.305116
651.020894	0.305061
651.226458	0.305148
651.432004	0.305055
651.637532	0.304946
651.843041	0.304928
652.048532	0.304799
652.254006	0.304880
652.459460	0.304722
652.664897	0.304978
652.870315	0.304960
653.075716	0.305221
653.281097	0.305742
653.486461	0.305806
653.691807	0.306019
653.897134	0.306426
654.102443	0.306909
654.307734	0.307561
654.513006	0.308027
654.718261	0.308301
654.923497	0.308559
655.128715	0.308731
655.333915	0.309247
655.539096	0.309587
655.744259	0.309685
655.949404	0.309554
656.154531	0.309528
656.359640	0.309680
656.564730	0.310122
656.769802	0.310346
656.974856	0.310350
657.179892	0.310290
657.384909	0.310384
657.589908	0.310704
657.794889	0.311065
657.999852	0.311373
658.204797	0.311582
658.409723	0.311876
658.614631	0.312184
658.819521	0.312485
659.024393	0.313101
659.229246	0.313418
659.434081	0.313655
659.638898	0.313946
659.843697	0.314106
660.048478	0.314315
660.253240	0.314580
660.457984	0.314786
660.662710	0.314874
660.867417	0.314929
661.072107	0.315060
661.276778	0.314926
661.481431	0.315074
661.686066	0.315249
661.890682	0.315328
662.095281	0.315449
662.299861	0.315271
662.504422	0.315665
662.708966	0.315560
662.913491	0.315700
663.117999	0.316134
663.322488	0.316508
663.526958	0.316716
663.731411	0.316873
663.935845	0.316854
664.140261	0.317315
664.344659	0.317209
664.549038	0.317374
664.753400	0.317530
664.957743	0.317673
665.162068	0.317680
665.366375	0.317793
665.570663	0.317961
665.774933	0.318112
665.979185	0.318304
666.183419	0.318703
666.387635	0.319173
666.591832	0.319518
666.796011	0.319733
667.000172	0.319843
667.204315	0.320245
667.408439	0.320359
667.612545	0.320459
667.816634	0.320670
668.020703	0.320999
668.224755	0.321319
668.428788	0.321303
668.632803	0.321826
668.836800	0.322082
669.040779	0.322236
669.244739	0.322633
669.448681	0.323389
669.652605	0.323648
669.856511	0.323840
670.060399	0.323991
670.264268	0.324414
670.468119	0.324604
670.671952	0.324727
670.875767	0.324861
671.079563	0.324930
671.283341	0.324860
671.487101	0.325035
671.690843	0.325185
671.894567	0.325489
672.098272	0.325845
672.301959	0.325703
672.505628	0.325780
672.709278	0.325920
672.912911	0.326406
673.116525	0.326668
673.320121	0.326856
673.523699	0.326906
673.727258	0.326810
673.930799	0.326618
674.134322	0.327203
674.337827	0.327743
674.541314	0.328024
674.744782	0.327925
674.948232	0.327779
675.151664	0.327818
675.355078	0.327903
675.558474	0.328096
675.761851	0.328315
675.965210	0.328291
676.168551	0.328496
676.371873	0.328513
676.575178	0.328827
676.778464	0.329326
676.981732	0.329722
677.184981	0.329869
677.388213	0.329981
677.591426	0.330168
677.794621	0.330197
677.997798	0.330226
678.200956	0.330409
678.404097	0.330706
678.607219	0.330722
678.810323	0.330925
679.013408	0.331216
679.216476	0.331677
679.419525	0.331961
679.622556	0.332117
679.825569	0.332412
680.028563	0.332797
680.231540	0.332858
680.434498	0.332834
680.637438	0.333084
680.840359	0.333384
681.043263	0.333261
681.246148	0.333593
681.449015	0.333835
681.651864	0.333714
681.854694	0.333767
682.057506	0.333896
682.260301	0.334221
682.463076	0.334171
682.665834	0.334290
682.868573	0.334893
683.071295	0.334857
683.273998	0.334978
683.476682	0.335363
683.679349	0.335499
683.881997	0.335728
684.084627	0.336050
684.287239	0.336286
684.489833	0.336370
684.692408	0.336310
684.894965	0.336484
685.097504	0.336701
685.300025	0.336949
685.502527	0.337103
685.705012	0.337398
685.907478	0.337616
686.109925	0.337907
686.312355	0.338324
686.514766	0.338416
686.717159	0.338591
686.919534	0.338679
687.121891	0.338701
687.324230	0.338861
687.526550	0.339125
687.728852	0.339157
687.931136	0.339264
688.133401	0.339395
688.335649	0.339614
688.537878	0.339532
688.740089	0.339821
688.942281	0.339923
689.144456	0.340192
689.346612	0.340081
689.548750	0.340432
689.750870	0.340610
689.952971	0.340688
690.155055	0.340766
690.357120	0.341350
690.559167	0.341216
690.761195	0.341367
690.963206	0.341384
691.165198	0.341323
691.367172	0.341320
691.569128	0.341397
691.771065	0.341640
691.972984	0.341896
692.174885	0.342085
692.376768	0.342546
692.578633	0.342734
692.780479	0.342831
692.982308	0.342948
693.184118	0.343024
693.385909	0.343086
