sample name	sample
index	1060
start time	 04-22-2021  10:02:03 AM
880	0.218616
Peak Time (s)	102.037
Peak Height 	0.2186
calc peak height	100,103
Baseline Time (s)	9.536
Baseline Value 	-0.005572
subtract baseline	10,4
Abs	0.159953
Peak Time (s)	102.537
Peak Height 	0.16
calc peak height	100,103
Baseline Time (s)	9.035
Baseline Value 	0.004905
subtract baseline	10,3
PK_550	0.100237
Peak Time (s)	102.537
Peak Height 	0.1002
calc peak height	100,103
Baseline Time (s)	8.535
Baseline Value 	3.5618E-4
subtract baseline	10,2
PK_880	0.151709
Peak Time (s)	102.537
Peak Height 	0.1517
calc peak height	100,103
Baseline Time (s)	10.036
Baseline Value 	0.001754
subtract baseline	10,1


Time (s)	A880-A510	A880-A775	A880-A975	A880	I510	I775	I975	I880	
0.035000	0.003191	-0.000228	-0.005487	0.001966	6238.109072	43388.716042	3798.804459	22745.573574
0.536000	-0.003083	-0.000080	-0.004079	0.006930	6148.511044	42940.651343	3789.937388	22518.062806
1.036000	-0.003638	-0.000381	-0.004834	0.006239	6149.579008	42976.705783	3789.778712	22549.564655
1.536000	-0.000716	-0.000791	-0.002605	0.000204	6220.825650	43501.034934	3810.494932	22826.959332
2.039500	-0.001967	-0.000384	-0.003529	0.000103	6211.601932	43548.751555	3808.416473	22831.657714
2.537000	-0.000049	0.000435	-0.000930	0.005414	6184.503915	43129.037371	3801.586238	22587.263801
3.037000	0.000934	0.000783	0.000132	-0.000220	6237.533711	43689.024535	3818.525707	22846.612266
3.535000	0.001348	0.001253	-0.003241	0.001450	6227.406114	43576.048785	3805.744156	22769.389100
4.035000	-0.001402	-0.000143	-0.001426	0.000202	6215.334493	43562.113846	3813.487770	22827.043675
4.535500	-0.001322	0.000119	-0.006953	0.004859	6178.797140	43151.215722	3787.943293	22612.638106
5.035500	0.001317	0.000575	-0.000193	0.000721	6233.031810	43580.859641	3815.303272	22803.059250
5.536000	-0.001771	0.000487	-0.006197	0.001323	6203.404131	43516.065786	3798.639241	22775.253198
6.036000	-0.001302	0.000306	0.000514	0.000682	6212.283126	43559.221015	3817.200746	22804.849977
6.537500	0.001762	-0.000243	-0.002599	0.000427	6238.994620	43531.632865	3809.948946	22816.660505
7.036500	0.000123	-0.000200	-0.004098	0.000015	6229.102603	43574.344665	3807.201422	22835.723111
7.536500	0.001988	-0.000215	-0.007158	0.000325	6241.643456	43543.759826	3798.728873	22821.350317
8.035000	0.001859	-0.000133	-0.003645	0.000681	6237.728281	43517.993204	3806.662046	22804.884453
8.535000	-0.000843	0.000000	0.000675	0.000378	6218.410367	43558.990081	3818.384761	22818.908520
9.035000	-0.002789	-0.000483	0.000000	-0.000132	6206.893257	43561.505693	3817.964314	22842.514355
9.535500	0.000932	0.000142	-0.001673	0.000000	6235.737219	43607.881331	3813.374848	22836.404861
10.036000	0.000000	-0.000124	0.000162	-0.000088	6228.934071	43591.099101	3818.265073	22840.473412
10.536000	0.000058	0.000300	-0.003530	0.000320	6226.122680	43592.654208	3807.864393	22821.613701
11.039000	0.002515	0.000881	0.000517	0.000734	6242.604204	43608.387475	3817.077598	22802.465607
11.539500	-0.000359	-0.000246	-0.003734	-0.000059	6225.811308	43576.962762	3808.307080	22839.128418
12.037000	0.000966	-0.000555	-0.001777	-0.000531	6240.301276	43592.211035	3814.456905	22860.994538
12.537000	0.002480	0.000002	-0.002978	-0.000024	6248.452188	43596.934714	3810.127539	22837.509087
13.035000	0.001292	0.000882	-0.000843	-0.000283	6240.934247	43704.208336	3816.203139	22849.520913
13.535000	0.001229	-0.000015	-0.004076	-0.000776	6244.410725	43666.193189	3809.253596	22872.379574
14.035500	-0.002574	0.000057	-0.004324	0.002209	6189.920613	43392.701380	3801.111930	22734.396274
14.535500	-0.000956	0.000396	0.002567	0.001748	6206.517357	43467.640102	3819.716108	22755.629830
15.044000	-0.001558	-0.000189	-0.006971	0.004505	6179.741978	43155.523199	3788.778987	22628.881975
15.536000	0.001184	0.000519	0.001563	-0.000348	6240.579544	43676.081376	3822.506684	22852.505723
16.039000	-0.001915	0.000963	0.000184	-0.000149	6214.040930	43699.255407	3818.477629	22843.328336
16.536500	0.000381	-0.000262	0.002536	-0.001072	6239.948895	43670.811801	3826.858962	22886.115290
17.037000	-0.001141	0.000473	-0.008482	0.002910	6195.755851	43365.977201	3788.985914	22702.106435
17.537000	0.000844	0.000447	-0.000929	0.001017	6226.835891	43540.948808	3812.682493	22789.384054
18.037500	0.001168	0.000903	-0.000564	0.001481	6225.708242	43540.182432	3812.431327	22767.940868
18.535500	0.000460	-0.000488	-0.000956	0.000988	6223.973808	43455.975998	3812.687003	22790.699300
19.035000	0.000272	0.000496	0.000670	0.001983	6214.470438	43454.920699	3814.289433	22744.785523
19.536000	-0.000355	-0.000811	-0.001765	0.000290	6223.040235	43491.088208	3812.407055	22822.984029
20.036000	-0.001267	0.001073	-0.000612	0.001715	6204.293927	43534.190391	3811.715612	22757.131511
20.536000	0.001177	0.000101	-0.000106	0.001124	6228.652195	43498.434049	3814.501007	22784.437924
21.036500	-0.002623	0.000445	-0.000068	0.002860	6184.347488	43367.990222	3810.193433	22704.382962
21.536500	0.000039	-0.000263	-0.002393	0.000646	6223.344344	43509.151765	3809.913778	22806.521648
22.037000	-0.001192	-0.000010	-0.002351	0.001030	6210.378974	43496.909849	3809.050439	22788.780094
22.534500	0.000800	0.000135	-0.001503	0.000902	6227.399494	43522.432957	3811.516966	22794.664980
23.035000	-0.001134	0.000452	-0.002061	0.002321	6200.519220	43419.147182	3806.522752	22729.231219
23.535500	0.001784	0.000801	0.000097	0.001302	6232.110491	43547.461330	3814.561410	22776.197729
24.035500	0.000616	0.000157	0.000794	0.001135	6224.046488	43502.587991	3816.758662	22783.900899
24.535500	-0.000991	0.000562	-0.003358	0.001235	6210.348983	43531.296480	3805.988936	22779.297026
25.035500	-0.000060	0.000336	-0.002601	0.000931	6220.257551	43538.656475	3808.668242	22793.345404
25.539500	0.000456	0.000944	0.002092	0.001474	6220.035164	43544.731995	3819.204153	22768.268866
26.039500	0.000617	0.000409	0.001175	0.001031	6224.889939	43536.034166	3817.995196	22788.716503
26.537000	0.001030	-0.000033	-0.003291	0.000938	6228.967520	43503.354238	3806.907204	22793.018276
27.037500	0.000896	0.001106	0.000286	-0.001089	6244.245355	43801.455012	3821.136037	22886.879733
27.534500	0.001686	0.000450	0.001183	-0.001440	6253.495556	43772.661123	3824.330982	22903.204278
28.040000	0.000377	0.000853	-0.000445	-0.000599	6236.096419	43731.240976	3818.021567	22864.159504
28.535500	-0.001034	-0.000080	-0.001423	0.003163	6194.589712	43290.668055	3806.008318	22690.470319
29.035500	0.001242	0.001441	0.000422	-0.000021	6238.417035	43732.253795	3818.756440	22837.381394
29.536000	-0.000204	0.000291	-0.001558	-0.001073	6235.230881	43722.963378	3816.392163	22886.143924
30.041500	0.001030	0.000270	0.000643	-0.001272	6246.813458	43739.805045	3822.516978	22895.399168
30.537000	0.000514	0.000426	-0.002756	0.003646	6203.095476	43292.830546	3801.439508	22668.275597
31.042500	-0.001186	-0.000398	0.004997	0.001279	6208.428723	43437.103054	3827.138530	22777.246009
31.537000	0.002645	0.000799	-0.000549	-0.000244	6251.571838	43692.728694	3816.852201	22847.702721
32.043000	0.000282	0.000562	0.000118	-0.000797	6236.933052	43722.577663	3819.961490	22873.365707
32.535000	-0.002989	0.000134	0.000200	0.004986	6164.586776	43140.824467	3805.503197	22606.838172
33.035000	-0.001584	0.000297	-0.002844	0.004411	6180.280036	43209.472317	3799.300181	22633.186483
33.536000	-0.001108	0.000098	-0.001608	0.001468	6207.540211	43465.858290	3809.819120	22768.531654
34.035500	0.001393	0.000892	-0.005975	0.001756	6225.302797	43513.365088	3798.108954	22755.240738
34.536000	0.001250	0.001447	-0.002228	0.003601	6209.342335	43392.488170	3802.879647	22670.338255
35.039000	-0.002432	0.000849	0.002313	0.002058	6192.253236	43481.043775	3818.279498	22741.342402
35.537000	-0.000448	0.000352	-0.006106	0.000510	6220.524604	43579.644929	3800.902232	22812.807480
36.037000	0.000038	0.000494	-0.002656	0.002103	6211.635579	43443.516040	3805.572999	22739.268373
36.534500	-0.001841	0.000314	-0.002237	0.001900	6198.227706	43445.591408	3807.139969	22748.603232
37.035000	-0.000821	0.000033	-0.008113	0.002164	6204.273127	43394.673184	3791.757331	22736.461252
37.535000	-0.002130	-0.000351	-0.000914	0.001588	6198.408541	43412.589560	3811.272031	22762.998685
38.035000	-0.000732	-0.000346	-0.001878	0.001405	6211.056956	43430.121980	3809.295976	22771.428325
38.535500	-0.000668	-0.000250	-0.003630	0.001490	6210.890153	43431.207968	3804.662322	22767.534508
39.036000	-0.002545	0.000365	0.000971	0.002313	6189.322129	43411.751297	3814.216326	22729.595800
39.536500	-0.000926	0.001466	0.002555	0.002436	6201.255011	43503.388827	3817.932004	22723.931916
40.036500	0.000936	0.000665	-0.002219	0.001918	6220.322079	43476.831843	3807.139590	22747.766002
40.536500	-0.000201	0.001183	-0.000347	0.002742	6204.606782	43448.203060	3809.787636	22709.830449
41.037500	-0.001086	0.000403	-0.004068	0.002964	6195.766374	43354.417230	3799.859319	22699.630681
41.534500	0.000044	0.001621	-0.001502	0.003032	6204.250399	43462.059117	3806.140555	22696.516101
42.037500	-0.001998	0.000549	-0.001154	0.001755	6198.132595	43481.213881	3810.241890	22755.287152
42.535000	-0.001193	0.000079	-0.002169	0.001474	6206.812869	43463.489950	3808.386418	22768.248352
43.035500	-0.003920	-0.000034	-0.001129	0.003479	6169.142680	43265.510793	3805.951823	22675.956115
43.535500	0.001238	0.000656	-0.001092	-0.002760	6260.569413	43916.974409	3821.886385	22964.615895
44.036500	-0.000773	0.000811	0.000034	-0.000259	6224.086608	43695.253279	3818.375293	22848.388680
44.539500	0.000359	-0.000785	0.003067	-0.001659	6244.513643	43676.727011	3829.730528	22913.353751
45.036500	-0.002824	0.000283	0.000252	0.004772	6167.585572	43174.631436	3806.175860	22616.662504
45.537000	0.001276	-0.000271	-0.002331	-0.001275	6248.829520	43689.023309	3814.940681	22895.537027
46.034500	0.002077	0.000840	0.007897	-0.000292	6247.353492	43701.112165	3838.684908	22849.925440
46.535000	0.000475	0.001262	0.000951	-0.000365	6234.993820	43747.739648	3820.984195	22853.293804
47.034500	-0.002632	-0.000485	-0.003531	0.003949	6175.623833	43179.679671	3798.735483	22654.357923
47.535000	-0.001125	0.000845	0.000650	0.002028	6202.931045	43483.465014	3814.124594	22742.726142
48.035500	0.001671	-0.000028	0.002969	-0.001074	6250.400511	43692.906436	3827.974982	22886.176506
48.536500	-0.000064	0.000700	-0.003708	0.000341	6224.963459	43628.274337	3807.361458	22820.615867
49.039000	-0.002828	0.000749	-0.001737	0.005337	6163.079472	43165.325455	3799.753007	22590.766212
49.536500	0.002597	0.000883	-0.003081	-0.002053	6265.874942	43871.576121	3815.013788	22931.694570
50.036500	0.000761	0.000675	-0.001470	0.003152	6209.023799	43362.322518	3805.918239	22690.993116
50.537500	0.043520	-0.010608	0.054736	0.451383	4098.121107	16851.826715	3155.173417	9838.800144
51.037500	-0.001621	-0.010404	-0.020298	0.126986	5331.787207	32519.427643	3499.444714	17737.903522
51.535000	-0.033314	-0.031932	-0.046489	-0.148084	7286.136847	56116.599880	4109.200727	31007.627673
52.035000	-0.027000	-0.035848	-0.026251	-0.176409	7664.351828	59201.401613	4274.583913	32913.631125
52.535000	-0.022077	-0.044792	-0.021386	-0.214347	8176.093398	63098.457752	4436.498747	35669.280596
53.036000	-0.005430	-0.037134	-0.009953	-0.205047	8269.014539	62870.856606	4444.995636	34971.389306
53.536000	0.004654	-0.038784	-0.005915	-0.209999	8464.112953	63329.606557	4481.256941	35341.137100
54.036000	-0.003060	-0.012994	-0.007919	-0.134826	7467.942954	56818.986317	4193.090002	30157.274042
54.536000	-0.002400	-0.008080	-0.007939	-0.113631	7249.166677	54829.786998	4122.447876	28850.681879
55.037000	0.008364	-0.007088	-0.003590	-0.131984	7562.485286	57201.761619	4198.174674	29978.365811
55.536500	0.014276	0.000042	0.006618	-0.104568	7329.073533	54717.225069	4140.412906	28311.201400
56.034500	0.020726	0.004408	0.011119	-0.092428	7269.223741	53795.322273	4115.496232	27605.901699
56.535000	0.024608	0.008067	0.013173	-0.069436	7073.850963	51573.167802	4049.405031	26322.996047
57.035000	0.031696	0.013868	0.016785	-0.037095	6828.504203	48679.241433	3963.756302	24629.605238
57.535500	0.037549	0.017348	0.028547	-0.009182	6625.560666	46167.070994	3918.035497	23266.131414
58.035500	0.042339	0.022066	0.038379	0.012487	6477.091677	44505.228263	3885.588970	22266.413448
58.539000	0.044460	0.025909	0.037420	0.034083	6312.803139	42833.120749	3826.160530	21318.507558
59.036000	0.047435	0.028605	0.039177	0.058867	6137.362867	40845.735945	3768.590197	20287.190500
59.539500	0.058602	0.034457	0.053682	0.076874	6084.124321	39794.520978	3760.100434	19573.944370
60.037000	0.064333	0.037736	0.061239	0.095003	5989.748989	38549.436923	3734.877235	18885.121339
60.534000	0.069623	0.041167	0.067414	0.090858	6061.328496	39179.344989	3759.492840	19040.099409
61.038000	0.078712	0.044128	0.074973	0.107735	6002.130698	38030.743469	3737.241873	18418.288611
61.535000	0.082115	0.047777	0.076166	0.099305	6092.494063	39025.653467	3760.230191	18725.872870
62.035000	0.083527	0.051199	0.084093	0.151211	5723.499194	35194.410044	3659.213543	16923.461623
62.536000	0.087732	0.052994	0.090518	0.140658	5826.948190	36129.915843	3697.002896	17272.668593
63.036000	0.091232	0.055397	0.090750	0.140675	5851.874507	36313.760620	3697.489530	17272.079130
63.536000	0.095036	0.057262	0.097074	0.145404	5845.236778	36093.177133	3701.117831	17114.557444
64.036500	0.098501	0.061541	0.096897	0.138652	5919.376284	36950.872766	3716.218284	17340.023694
64.537000	0.097552	0.063277	0.100300	0.143688	5875.731872	36691.981984	3712.445421	17171.519866
65.042000	0.095908	0.063939	0.095464	0.147120	5839.190369	36476.202357	3693.568819	17057.826313
65.537500	0.099382	0.065569	0.107847	0.143971	5886.956830	36849.364517	3729.333196	17162.134560
66.035500	0.101847	0.067050	0.106587	0.147086	5882.236297	36721.312742	3719.127410	17058.945432
66.535500	0.104930	0.068027	0.107698	0.149974	5883.649231	36572.089503	3715.011116	16963.936070
67.035500	0.103139	0.069182	0.105399	0.158866	5807.036880	35975.034658	3689.480169	16675.392733
67.537000	0.105378	0.069974	0.108669	0.155903	5844.109227	36263.574658	3703.619594	16770.904682
68.039000	0.108174	0.070263	0.108428	0.158143	5848.103209	36113.392708	3697.969106	16698.652064
68.536500	0.109538	0.071918	0.114662	0.162445	5827.083569	35910.637650	3702.366603	16560.924602
69.036500	0.106098	0.071369	0.109183	0.169826	5750.886052	35310.720901	3673.451086	16327.771762
69.537000	0.111487	0.074070	0.113495	0.169375	5791.773226	35547.958280	3684.062583	16341.920667
70.037500	0.109554	0.074753	0.109679	0.171791	5761.268843	35417.281341	3670.201453	16266.368386
70.534500	0.110632	0.075068	0.113971	0.175126	5745.564910	35190.990341	3672.317490	16162.801989
71.035500	0.107816	0.074904	0.116934	0.180969	5686.048625	34745.443726	3665.965402	15983.224190
71.535500	0.110627	0.076383	0.120369	0.179480	5715.450310	34964.817354	3676.850306	16028.751489
72.039000	0.111906	0.076713	0.121522	0.182489	5703.587192	34766.798555	3672.733874	15936.920237
72.536000	0.111730	0.076252	0.122643	0.185205	5683.855285	34533.459281	3669.209544	15854.548528
73.036500	0.113030	0.076874	0.118916	0.192008	5646.673152	34084.340912	3646.263537	15650.491928
73.536500	0.116131	0.079062	0.125027	0.190621	5676.963992	34343.326250	3662.544992	15691.838593
74.037000	0.117842	0.078793	0.120670	0.192704	5674.442332	34172.717254	3648.544190	15629.805570
74.537000	0.116393	0.078065	0.120127	0.193650	5658.254098	34051.857146	3645.336628	15601.731803
75.034500	0.117214	0.079320	0.117625	0.201564	5610.831124	33575.662721	3623.202715	15369.228912
75.535000	0.119792	0.081629	0.134135	0.198598	5647.826987	33952.277267	3665.024068	15455.859104
76.035500	0.121013	0.081190	0.120036	0.198413	5657.289249	33934.080482	3634.955640	15461.299970
76.535500	0.122045	0.081937	0.128481	0.200194	5652.247512	33859.911889	3649.237440	15409.172254
77.039000	0.123319	0.081995	0.129486	0.199795	5663.523163	33892.655062	3652.274069	15420.827990
77.538500	0.123555	0.083104	0.131758	0.200611	5659.607346	33913.682569	3655.434294	15396.995920
78.036500	0.124385	0.083940	0.132311	0.200835	5663.697476	33957.593663	3656.148355	15390.459398
78.536000	0.126697	0.084323	0.133835	0.201664	5673.731345	33925.550049	3657.662203	15366.312779
79.037000	0.127212	0.085656	0.131206	0.201518	5678.215853	34031.919893	3652.267304	15370.572737
79.534500	0.128389	0.084926	0.133944	0.200727	5691.601147	34036.261483	3659.945024	15393.610196
80.038000	0.127348	0.085097	0.131759	0.200431	5686.522353	34069.969208	3655.828058	15402.247937
80.535000	0.132101	0.086009	0.136384	0.200701	5717.194033	34116.300553	3665.346533	15394.374814
81.035500	0.130594	0.087051	0.146647	0.200264	5709.843142	34223.275363	3689.141850	15407.127827
81.535500	0.134372	0.087645	0.145129	0.200840	5731.891022	34224.555188	3684.438704	15390.316063
82.038500	0.133750	0.088789	0.140331	0.201999	5719.606747	34223.412272	3671.181708	15356.553956
82.536000	0.132833	0.088699	0.141803	0.201108	5719.432335	34281.593830	3676.419428	15382.506920
83.036500	0.134638	0.089459	0.138665	0.200130	5738.646985	34407.988250	3671.632503	15411.049438
83.536500	0.135653	0.090201	0.141530	0.200301	5744.491807	34449.593481	3677.605922	15406.034546
84.037000	0.134876	0.090308	0.145661	0.199937	5741.631552	34483.980953	3687.660915	15416.680442
84.534500	0.137607	0.090870	0.145604	0.199708	5762.221783	34541.877286	3688.047759	15423.368808
85.035000	0.134243	0.090444	0.141205	0.204453	5706.146204	34165.686266	3667.698037	15285.407527
85.535500	0.135401	0.091434	0.144288	0.199126	5750.904135	34625.792342	3686.396873	15440.388217
86.035500	0.141079	0.091195	0.145355	0.199313	5789.335561	34594.592942	3688.374443	15434.921093
86.536000	0.139411	0.092899	0.142235	0.198973	5779.991138	34744.722780	3682.138961	15444.863282
87.036000	0.136007	0.092377	0.147034	0.203370	5725.713434	34384.515700	3683.039499	15316.762733
87.536000	0.137755	0.092885	0.143774	0.197180	5780.956876	34876.072619	3689.618792	15497.494754
88.036500	0.136323	0.092731	0.142833	0.198149	5764.136361	34793.099098	3685.323388	15469.017965
88.537000	0.138327	0.094064	0.143900	0.196844	5787.339855	34988.369208	3690.659450	15507.387190
89.037000	0.139340	0.093951	0.145764	0.200767	5766.930853	34690.173090	3686.027827	15392.453385
89.537500	0.138281	0.094449	0.148930	0.196634	5788.493740	35032.464361	3702.545575	15513.550981
90.035500	0.137889	0.093775	0.140997	0.198087	5775.529901	34874.837783	3681.353153	15470.843168
90.535000	0.139299	0.094546	0.149506	0.196320	5797.889251	35063.120062	3704.581362	15522.817292
91.036000	0.136903	0.094253	0.142487	0.202277	5739.457877	34601.430497	3675.340521	15348.468980
91.541500	0.140075	0.094499	0.145866	0.197061	5798.135651	35004.523951	3694.611129	15500.995179
92.036500	0.141153	0.094635	0.152790	0.200302	5782.897936	34774.776188	3702.985249	15406.020317
92.537000	0.140649	0.094954	0.145941	0.198391	5792.796030	34939.578428	3691.772165	15461.918695
93.037000	0.140076	0.095375	0.150864	0.204867	5743.506455	34494.019673	3688.274896	15273.440794
93.537000	0.141857	0.096391	0.149551	0.200885	5783.748404	34861.399888	3694.296169	15389.011287
94.037500	0.142590	0.095470	0.154370	0.200373	5792.514550	34831.135595	3706.436386	15403.943943
94.535000	0.144314	0.096552	0.148125	0.202528	5789.474250	34752.007555	3687.375028	15341.202461
95.035500	0.145517	0.096780	0.154396	0.203545	5790.788960	34693.956351	3699.254767	15311.689184
95.535500	0.144090	0.096408	0.148815	0.203373	5781.950825	34679.217006	3687.027086	15316.667706
96.035500	0.143212	0.098124	0.152712	0.205116	5763.595882	34677.222020	3691.877428	15266.230648
96.536000	0.145795	0.097415	0.156130	0.205591	5778.355027	34590.313425	3698.544768	15252.531027
97.036500	0.146839	0.097719	0.150376	0.206481	5779.432526	34547.450324	3683.556877	15226.892856
97.536500	0.144935	0.097921	0.153292	0.206735	5764.316801	34543.539932	3689.533291	15219.565274
