sample name	sample
index	1442
start time	 05-10-2021  01:03:10 PM
880	0.294066
Peak Time (s)	92.038
Peak Height 	0.2941
calc peak height	90,93
Baseline Time (s)	9.537
Baseline Value 	-0.004606
subtract baseline	10,4
Abs	0.168841
Peak Time (s)	91.537
Peak Height 	0.1688
calc peak height	90,93
Baseline Time (s)	11.043
Baseline Value 	0.001345
subtract baseline	10,3
PK_550	0.088983
Peak Time (s)	91.037
Peak Height 	0.08898
calc peak height	90,93
Baseline Time (s)	11.537
Baseline Value 	7.4093E-4
subtract baseline	10,2
PK_880	0.151236
Peak Time (s)	91.537
Peak Height 	0.1512
calc peak height	90,93
Baseline Time (s)	11.537
Baseline Value 	0.002161
subtract baseline	10,1


Time (s)	A880-A510	A880-A775	A880-A975	A880	I510	I775	I975	I880	
0.036000	0.001296	-0.000032	-0.000986	0.002581	6503.649214	43979.596527	3944.206658	22610.085611
0.536000	-0.002989	-0.000532	-0.003833	0.003836	6457.345688	43814.121516	3933.594472	22553.120484
1.042500	-0.001430	-0.000427	-0.003168	0.005627	6455.422810	43655.761961	3930.699547	22472.061586
1.537500	-0.000810	-0.000611	-0.001238	0.001622	6494.014072	44015.497468	3946.044624	22653.742803
2.038000	0.000727	-0.000280	-0.001077	0.001587	6507.223669	44050.140283	3946.555976	22655.343995
2.538000	0.000450	-0.000058	0.000835	0.001444	6506.097453	44084.726920	3951.923901	22661.873719
3.035500	-0.003424	-0.001422	-0.004821	0.003035	6460.385692	43805.749287	3933.112728	22589.452050
3.536000	0.001313	-0.000951	0.000564	0.000267	6523.315705	44111.641329	3954.296509	22715.621423
4.036000	-0.001037	-0.000470	0.000183	0.000990	6497.412731	44088.684078	3951.402702	22682.570992
4.536000	0.000807	-0.000407	0.002234	0.000603	6516.199504	44131.387052	3957.801905	22700.281476
5.036500	-0.001648	-0.000112	-0.000697	0.001880	6484.831116	44038.346302	3946.785057	22642.006635
5.537000	-0.002611	-0.000617	0.001079	-0.000276	6494.832375	44194.922469	3957.075431	22740.487124
6.037500	-0.000227	-0.000247	-0.002185	0.000113	6511.611090	44193.123482	3947.512184	22722.677435
6.537500	-0.002552	-0.001116	0.004833	-0.000441	6496.714392	44163.220917	3967.425176	22748.033510
7.038000	-0.000454	-0.000238	0.001573	0.000477	6506.626716	44159.401437	3956.394437	22706.015834
7.535500	-0.002085	-0.000867	-0.003145	-0.000503	6501.151419	44192.690196	3946.613832	22750.841416
8.035500	-0.000083	0.000158	-0.004187	-0.000103	6514.652427	44252.136711	3942.864259	22732.562349
8.535500	0.001047	0.000234	-0.000914	0.000040	6522.986250	44245.808229	3951.020953	22726.013980
9.036500	0.000957	-0.000555	-0.000657	-0.000657	6528.115884	44236.975194	3953.516485	22757.900948
9.536500	0.000108	0.000112	-0.001145	0.000000	6515.391380	44237.944159	3950.521323	22727.835418
10.037000	-0.000820	-0.000527	0.001258	0.003123	6481.362544	43881.819317	3948.641356	22585.484957
10.537000	-0.000260	-0.000484	0.000687	-0.000407	6515.716092	44219.956920	3956.387604	22746.447991
11.043000	-0.001307	0.000981	0.000000	0.000377	6500.298432	44284.826179	3952.531272	22710.607762
11.537500	0.000000	0.000000	0.000572	-0.000369	6517.594355	44262.425866	3955.987142	22744.736612
12.035500	-0.000384	0.000022	-0.005410	0.002734	6488.266535	43970.278497	3932.371468	22603.147699
12.535500	-0.000781	-0.000582	-0.000481	-0.000449	6511.678532	44214.676926	3953.434134	22748.380878
13.036000	0.000284	-0.000133	-0.003484	-0.000218	6518.712666	44235.337103	3944.989385	22737.799961
13.535500	0.001060	-0.000231	0.001831	0.000125	6522.377043	44193.477757	3957.999638	22722.136675
14.036500	-0.002297	-0.000316	0.000236	0.003772	6463.631234	43840.455494	3944.287494	22555.994510
14.536500	-0.001555	-0.001064	0.000437	0.001499	6488.802518	43984.350033	3950.736805	22659.357983
15.041500	-0.000838	-0.000285	-0.001656	-0.000352	6510.380128	44233.658874	3950.105163	22743.948621
15.537000	0.000428	0.000392	-0.002484	0.000090	6517.330365	44256.074861	3946.791288	22723.718978
16.034500	-0.001551	0.000467	0.003758	0.003593	6471.332974	43931.238739	3953.950822	22564.132400
16.535000	-0.001083	-0.000646	0.000992	-0.000213	6507.151582	44186.172931	3956.680616	22737.598931
17.035500	-0.000314	-0.000137	0.001633	-0.001768	6526.762044	44382.679836	3962.466422	22808.886167
17.537000	-0.000700	-0.000151	0.000878	0.000481	6504.521027	44167.257506	3954.558572	22705.819738
18.035500	-0.002212	-0.000624	-0.003002	0.002052	6478.677689	43973.665002	3940.347847	22634.162450
18.536500	-0.002513	-0.000264	0.006324	0.001311	6482.355407	44077.855069	3966.733131	22667.940649
19.036500	-0.000496	-0.000029	-0.002877	0.001267	6499.636754	44104.332255	3942.710162	22669.958939
19.536500	-0.001113	-0.000394	0.003035	0.001382	6493.486291	44058.778895	3957.858090	22664.685268
20.042500	-0.002338	-0.000068	-0.001940	0.002558	6473.402990	43978.450388	3941.790241	22611.148753
20.537500	-0.001771	-0.000470	-0.002557	0.001361	6488.144694	44053.564123	3943.295671	22665.660266
21.035000	-0.001816	0.000333	0.004460	0.001757	6484.461639	44092.226626	3960.624928	22647.631682
21.535000	0.000193	0.000049	0.004158	0.001452	6503.870218	44094.183836	3960.633638	22661.528209
22.035000	-0.000123	-0.000379	-0.002663	0.002555	6491.949194	43949.271260	3939.923270	22611.263424
22.538500	-0.001472	-0.000779	-0.002701	0.000534	6497.591886	44102.703740	3945.071650	22703.432755
23.036500	-0.002280	0.000236	0.001556	0.001727	6480.833577	44085.849731	3953.070493	22648.998245
23.536500	-0.000279	0.000044	-0.000277	0.001561	6498.981944	44083.309729	3948.711829	22656.540361
24.036500	-0.000896	0.000713	0.001106	0.002097	6489.314686	44095.924559	3950.924332	22632.122592
24.539500	-0.000089	0.000324	0.001726	0.001617	6500.112014	44104.583661	3953.802663	22653.987567
25.037000	-0.000251	0.000335	-0.001702	0.001773	6497.444402	44090.805077	3944.445878	22646.886073
25.535000	-0.000978	-0.001081	-0.002319	0.000609	6501.112239	44066.987975	3945.870317	22700.007621
26.035000	-0.001412	-0.000030	0.003228	0.001546	6489.605998	44077.757949	3957.935483	22657.226021
26.535500	-0.003553	-0.000729	0.008108	0.001064	6475.732648	44057.183028	3972.130732	22679.223532
27.035000	0.001379	0.000488	0.005170	-0.001177	6536.104688	44385.936445	3970.275329	22781.755098
27.536000	-0.001374	-0.000352	-0.001052	-0.001245	6513.386484	44312.299979	3954.025358	22784.876049
28.036000	-0.001063	-0.000041	-0.001309	-0.000298	6508.031645	44251.772072	3950.871812	22741.478970
28.536500	0.000407	0.000802	0.002594	0.000464	6513.994899	44259.485427	3959.114609	22706.618199
29.044500	-0.000383	-0.000161	0.007221	-0.000110	6512.169899	44222.391325	3972.894300	22732.853350
29.537000	0.000151	-0.000319	0.001062	-0.000443	6519.489366	44239.090188	3957.468232	22748.099866
30.036500	-0.001891	-0.000223	-0.000476	0.003876	6466.143011	43839.411309	3942.169133	22551.284604
30.537500	-0.000405	-0.000137	-0.003678	0.002281	6491.889360	43998.044938	3938.005587	22623.747393
31.035000	-0.002228	-0.000381	-0.002221	0.001492	6483.225786	44049.627584	3943.826337	22659.681382
31.535500	-0.000519	-0.000163	-0.002221	0.000074	6509.483661	44204.856067	3947.520980	22724.467413
32.038000	0.000998	0.000123	0.003442	0.000787	6516.265020	44164.256147	3960.498407	22691.877577
32.536000	0.000388	-0.000100	0.003013	0.000283	6515.363118	44190.931492	3960.696382	22714.886401
33.039000	-0.000402	0.000017	-0.004040	0.000953	6503.065602	44138.375286	3940.506524	22684.274489
33.536500	0.000668	0.000038	0.004674	-0.001612	6533.758478	44384.430117	3970.113037	22801.707579
34.036000	-0.001070	-0.000012	-0.002988	0.003617	6475.142613	43883.724652	3936.338468	22563.035781
34.537000	-0.002344	-0.000770	0.000001	0.001431	6482.760655	44018.610375	3949.776914	22662.461191
35.034500	-0.000299	-0.000013	-0.000022	0.002136	6493.993024	44023.481180	3947.876737	22630.337456
35.535000	-0.001763	-0.000083	-0.001800	0.002098	6482.044133	44020.464624	3943.347140	22632.080691
36.035000	-0.000242	0.000667	-0.001384	0.002581	6490.737896	44045.803948	3943.174710	22610.112868
36.535000	-0.000158	0.000118	-0.000896	0.001975	6496.521798	44051.148029	3946.016755	22637.670873
37.035500	-0.001889	-0.000204	0.007316	0.001731	6484.061283	44043.737862	3968.250731	22648.806991
37.536000	-0.002727	-0.001070	-0.000653	0.000965	6483.457265	44034.274446	3949.284565	22683.737372
38.036000	-0.002047	-0.000942	0.001200	0.002505	6476.269718	43900.912611	3950.100653	22613.539744
38.536500	0.000858	0.000115	0.003045	0.002540	6500.314391	43997.421203	3954.843322	22611.965262
39.037000	-0.000450	0.000861	-0.002399	0.002429	6490.262488	44078.488692	3940.933357	22616.999615
39.537000	-0.000435	-0.000839	-0.000890	0.001425	6498.820823	44012.655907	3947.467187	22662.769338
40.034500	-0.001819	0.000734	-0.001589	0.004403	6462.356249	43879.924674	3937.920844	22527.396795
40.535000	-0.000639	0.000395	0.000053	0.002304	6489.728877	44046.200758	3947.633300	22622.693729
41.038000	0.001613	0.000263	-0.001289	0.002271	6508.932757	44036.844661	3944.227470	22624.222637
41.536000	-0.001683	0.000251	0.000597	0.002270	6481.276474	44035.775244	3949.141140	22624.231421
42.036000	-0.001570	-0.000100	0.000954	0.003387	6472.890081	43897.150902	3947.158768	22573.480976
42.536000	-0.002445	-0.000289	0.005216	0.001622	6480.328030	44046.056416	3962.978532	22653.772436
43.036500	-0.002150	-0.000004	0.001019	0.001864	6480.764998	44050.127630	3951.304808	22642.736242
43.537000	0.001581	0.000387	0.002801	0.002328	6508.186738	44043.228826	3954.760231	22621.632213
44.040000	-0.003581	-0.000805	0.002347	0.002870	6460.454764	43879.450629	3952.148472	22596.983336
44.537500	0.000379	0.000274	-0.001200	0.000834	6510.645155	44174.143456	3948.200855	22689.717578
45.035000	0.000233	0.000273	-0.000668	0.000619	6511.222344	44194.394224	3950.149041	22699.514750
45.535000	-0.000595	0.000508	0.002511	0.000411	6506.004565	44236.589113	3959.037526	22709.055634
46.035000	-0.001756	-0.000409	0.000928	0.003439	6470.914682	43863.096959	3946.955456	22571.129937
46.538500	-0.000949	0.000241	-0.000282	0.001452	6494.274899	44112.362696	3948.983961	22661.528903
47.036500	-0.000378	0.000152	0.000473	0.000088	6510.545349	44233.410453	3954.526038	22723.800495
47.535500	0.000264	0.000269	-0.001865	0.002698	6493.997372	43996.963766	3941.620892	22604.761432
48.036000	-0.004455	-0.000668	-0.000673	0.003463	6448.283733	43836.427529	3942.729855	22570.042735
48.537000	-0.001552	0.000154	0.001801	0.001865	6485.763849	44065.000570	3953.351198	22642.691241
49.037500	-0.000406	-0.000553	-0.000661	0.000049	6510.642388	44170.156874	3951.658155	22725.603015
49.537500	0.001292	0.000443	0.005560	-0.001532	6538.374215	44415.476019	3972.257253	22798.035574
50.035000	-0.003095	0.000032	0.002282	0.002813	6464.963533	43963.701118	3952.125405	22599.533992
50.535500	-0.002023	-0.000490	0.002780	0.002117	6479.718972	43980.253147	3955.257227	22631.232564
51.038500	-0.006051	-0.012788	0.011420	0.017354	6322.239067	41458.961335	3938.073271	21949.535573
51.536000	0.004558	-0.023234	0.031061	0.232804	5016.696317	25836.997282	3530.577400	14483.061767
52.036000	-0.013017	-0.035054	-0.024363	-0.124740	7589.420897	53697.798922	4249.484670	29338.899312
52.536500	-0.023174	-0.112753	-0.038000	-0.293476	9677.987263	65535.000000	4865.083208	41912.127400
53.036500	-0.012113	-0.087589	-0.026080	-0.264813	9406.788667	65032.659996	4787.558035	39417.780887
53.536500	-0.005384	-0.047422	-0.014278	-0.202535	8619.606835	61950.581190	4571.151119	34533.737373
54.034500	-0.001146	-0.020658	0.000972	-0.106794	7523.578551	53284.472619	4274.095919	28266.927651
54.535000	-0.012087	-0.024060	-0.012901	-0.134528	7707.821187	56185.676548	4321.405400	29942.463319
55.035000	-0.003829	-0.030948	-0.004551	-0.170430	8227.714360	59864.412913	4482.963583	32276.577667
55.538000	0.008715	-0.019760	0.006075	-0.134982	7951.478227	56771.709591	4390.320675	29970.786034
56.035500	0.012288	-0.011180	0.024696	-0.057782	7156.009807	48904.072120	4191.576756	25555.374277
56.536000	0.022478	-0.000806	0.031999	0.002244	6689.225236	43938.317500	4034.236223	22625.426672
57.036500	0.033587	0.008337	0.045328	0.029016	6553.246654	42307.449296	3997.083692	21443.683733
57.536500	0.048269	0.015091	0.058005	0.061931	6401.009875	40006.104034	3943.275238	20087.183953
58.037000	0.057791	0.023058	0.067952	0.098642	6185.534131	37632.271667	3875.859300	18690.677119
58.537000	0.065908	0.029913	0.072069	0.122942	6063.545009	36266.346107	3827.698047	17829.146340
59.034500	0.080177	0.037891	0.086896	0.142719	6023.046729	35373.071654	3816.222969	17162.670806
59.535000	0.089010	0.042141	0.100550	0.161418	5951.786450	34311.817564	3804.662546	16559.860649
60.035000	0.095951	0.047648	0.108488	0.178698	5878.831214	33472.835866	3783.606646	16025.404869
60.535500	0.104152	0.055223	0.113964	0.211399	5712.713329	31756.442328	3724.768139	15070.370564
61.036000	0.107992	0.053478	0.124721	0.220553	5677.903394	31042.290383	3728.130246	14815.649647
61.536000	0.112923	0.053987	0.129296	0.223670	5689.740671	30874.060494	3731.200994	14730.154483
62.036500	0.116404	0.059953	0.134311	0.229035	5677.444093	30912.715765	3730.462660	14584.380905
62.536500	0.119647	0.067077	0.127158	0.193439	5941.924424	33804.152851	3792.408046	15585.979569
63.037000	0.120808	0.070298	0.119281	0.193453	5950.104389	34032.996799	3774.814919	15585.580068
63.547000	0.124871	0.071681	0.130909	0.195664	5963.344372	33973.674614	3795.846410	15520.936617
64.037500	0.126656	0.073227	0.127151	0.199573	5948.156164	33805.313840	3778.687260	15407.465601
64.537500	0.127494	0.074674	0.132437	0.204671	5917.917945	33546.911221	3779.104694	15261.027809
65.035500	0.126133	0.074404	0.134714	0.208482	5881.602238	33260.639712	3775.705318	15152.666560
65.536000	0.130847	0.075865	0.138285	0.214938	5869.474094	32913.917165	3769.347981	14971.261816
66.036000	0.129209	0.077584	0.143607	0.219825	5824.449851	32696.081360	3770.303362	14835.709483
66.536000	0.135040	0.078867	0.137667	0.223876	5836.668166	32507.086649	3748.584267	14724.527962
67.036500	0.135765	0.079747	0.146690	0.226759	5821.864258	32370.946114	3761.871542	14646.002756
67.533500	0.138049	0.081588	0.146353	0.229431	5819.210233	32314.722095	3755.335904	14573.708719
68.037000	0.135650	0.081171	0.143749	0.234351	5769.600491	31956.005486	3739.191264	14441.747982
68.534500	0.138515	0.082265	0.145687	0.231140	5810.722256	32244.984302	3750.209161	14527.687824
69.034500	0.138426	0.082015	0.146596	0.231819	5805.492619	32182.347810	3750.703833	14509.455414
69.535500	0.140367	0.083875	0.148393	0.233723	5805.750580	32179.449102	3750.474150	14458.501808
70.035500	0.141629	0.085195	0.148004	0.236621	5794.632789	32073.377851	3743.422512	14381.348969
70.535500	0.140492	0.083393	0.147885	0.242709	5746.054103	31548.838731	3730.250862	14220.939267
71.036000	0.142713	0.084077	0.155945	0.239507	5782.443279	31806.030062	3754.289151	14305.025754
71.536000	0.143182	0.083760	0.150403	0.240994	5775.580544	31686.365201	3739.214485	14265.905566
72.037000	0.143715	0.085158	0.149705	0.244339	5756.702266	31557.783442	3730.653355	14178.378036
72.537000	0.140298	0.084474	0.153379	0.250900	5690.683483	31084.294091	3724.585949	14008.639974
73.040000	0.146689	0.086973	0.154670	0.249660	5741.031981	31327.659633	3729.901199	14040.521016
73.534500	0.147156	0.086121	0.161786	0.250726	5737.049808	31202.586676	3742.732567	14013.117353
74.035000	0.143259	0.085255	0.153289	0.256917	5670.770988	30747.064788	3711.890191	13855.235118
74.538000	0.142047	0.087075	0.155235	0.260805	5637.850482	30614.954544	3707.890279	13757.231591
75.036000	0.145245	0.087232	0.157491	0.257656	5678.882670	30826.386702	3719.067678	13836.528488
75.535500	0.149499	0.088140	0.157811	0.261006	5684.772899	30670.092849	3712.785100	13752.181054
76.036000	0.145995	0.086766	0.158183	0.261506	5658.769527	30550.691863	3712.520404	13739.654787
76.536000	0.144399	0.086301	0.160113	0.263305	5636.889587	30407.066087	3712.790058	13694.651973
77.037000	0.148189	0.086214	0.161910	0.265318	5648.322258	30274.627422	3712.345340	13644.548656
77.539500	0.148634	0.087144	0.159444	0.267970	5634.133978	30166.415433	3701.834371	13578.877593
78.037500	0.149218	0.087594	0.160653	0.269644	5627.156369	30089.778688	3700.885824	13537.635006
78.535000	0.144875	0.087069	0.157580	0.276329	5557.534573	29642.810798	3681.208970	13374.508422
79.035000	0.147734	0.088884	0.157721	0.273484	5593.330552	29930.909914	3687.182992	13443.636531
79.535500	0.144923	0.088744	0.162548	0.274477	5569.405448	29860.494607	3694.913386	13419.447798
80.036000	0.149399	0.089551	0.153873	0.275351	5592.052553	29856.421598	3675.784860	13398.228563
80.538500	0.142477	0.086973	0.157985	0.280606	5516.245560	29375.266994	3673.523211	13271.450027
81.036500	0.147492	0.088454	0.160011	0.277043	5569.426199	29684.110314	3684.640053	13357.239828
81.536500	0.145623	0.088537	0.163578	0.277853	5552.705588	29639.372987	3690.176501	13337.691538
82.039500	0.147174	0.088274	0.165559	0.278362	5559.194647	29591.943825	3693.146341	13325.402099
82.537500	0.146367	0.090130	0.159037	0.285362	5510.937067	29278.147101	3666.235727	13158.052738
83.034500	0.146307	0.089331	0.161282	0.281724	5532.947939	29450.866622	3677.840855	13244.687261
83.537000	0.151352	0.090839	0.167386	0.283253	5554.751543	29449.611864	3686.976151	13208.193234
84.035000	0.147733	0.089625	0.160762	0.282818	5534.995919	29402.070495	3674.639834	13218.551016
84.535500	0.144978	0.088462	0.159697	0.288161	5485.403816	29008.579655	3662.053401	13091.878606
85.036000	0.148829	0.090009	0.164802	0.285032	5528.094596	29290.782476	3678.260923	13165.874543
85.536000	0.149818	0.089847	0.158377	0.285532	5531.114095	29250.669419	3664.610094	13154.020549
86.036500	0.148812	0.089447	0.157593	0.290806	5492.631532	28909.178324	3652.844172	13029.750075
86.537000	0.145523	0.089344	0.158775	0.292570	5462.064597	28797.761033	3651.722592	12988.514347
87.040000	0.150203	0.089588	0.165633	0.287419	5521.855742	29120.984735	3675.174855	13109.377108
87.537000	0.149160	0.090125	0.166068	0.287989	5511.953398	29119.014744	3674.907904	13095.933173
88.035000	0.148653	0.089164	0.158969	0.292328	5482.421571	28801.435436	3652.562056	12994.155097
88.535000	0.149780	0.089960	0.172020	0.289357	5507.371407	29026.733851	3684.029601	13063.734146
89.035500	0.149654	0.090261	0.167649	0.289844	5503.626246	29015.548278	3674.364999	13052.294905
89.535000	0.149124	0.088845	0.155534	0.288761	5507.008452	28995.593081	3652.817508	13077.757824
90.036000	0.145240	0.088343	0.166511	0.293849	5452.686379	28662.339906	3664.250205	12958.714193
90.536500	0.149274	0.088209	0.163220	0.288602	5508.897436	28967.013243	3668.084521	13081.502654
91.036500	0.149253	0.088983	0.167251	0.288998	5506.343464	28989.632992	3675.252386	13072.179434
91.536500	0.151236	0.088125	0.168841	0.288450	5521.873035	28971.098374	3679.496630	13085.079449
92.037500	0.149152	0.088870	0.159590	0.294066	5474.916625	28680.682518	3650.410782	12953.669400
92.534500	0.149266	0.086702	0.167402	0.287890	5513.209608	28919.338517	3677.747694	13098.258465
93.038000	0.152880	0.087752	0.164412	0.288312	5532.857126	28956.981170	3670.998984	13088.325511
93.551500	0.152022	0.089928	0.170911	0.289803	5518.380845	28998.047078	3680.924599	13053.260944
94.036000	0.154152	0.088888	0.170705	0.289315	5534.515323	28964.981417	3681.486507	13064.728161
94.536000	0.149377	0.088049	0.168857	0.294739	5472.214279	28592.347356	3667.102458	12938.040498
95.036500	0.151516	0.088128	0.167966	0.288889	5520.890251	28944.931261	3676.884871	13074.731473
95.536500	0.152730	0.088189	0.169090	0.289815	5522.661939	28893.171697	3677.278189	13052.978848
96.036500	0.153160	0.087354	0.168789	0.288778	5531.708775	28905.322920	3678.740567	13077.362294
