sample name	sample
index	957
start time	 04-12-2021  03:56:08 PM
880	0.260208
Peak Time (s)	122.037
Peak Height 	0.2602
calc peak height	120,123
Baseline Time (s)	9.035
Baseline Value 	-0.00412
subtract baseline	10,4
Abs	0.183221
Peak Time (s)	122.54
Peak Height 	0.1832
calc peak height	120,123
Baseline Time (s)	11.036
Baseline Value 	0.002711
subtract baseline	10,3
PK_550	0.098962
Peak Time (s)	122.54
Peak Height 	0.09896
calc peak height	120,123
Baseline Time (s)	9.035
Baseline Value 	3.152E-4
subtract baseline	10,2
PK_880	0.165457
Peak Time (s)	122.54
Peak Height 	0.1655
calc peak height	120,123
Baseline Time (s)	11.537
Baseline Value 	0.002197
subtract baseline	10,1


Time (s)	A880-A510	A880-A775	A880-A975	A880	I510	I775	I975	I880	
0.035500	-0.001710	-0.000131	-0.000098	0.002692	7115.259643	42964.525410	3935.692108	23071.236589
0.536000	-0.003464	-0.000605	-0.005912	0.006109	7065.265207	42607.913595	3912.812581	22913.120506
1.036000	-0.001694	-0.001132	-0.003166	0.002926	7113.146147	42850.975583	3927.452014	23060.369453
1.539000	-0.002792	-0.000694	-0.003970	0.001090	7120.325442	43060.292565	3930.019740	23145.802225
2.036500	-0.001048	-0.000799	-0.003480	0.001045	7137.778039	43054.769698	3931.354032	23147.899687
2.537500	-0.001690	0.000104	-0.002080	0.004976	7093.304800	42776.391356	3925.059644	22965.402801
3.043000	0.001382	0.000610	0.002692	-0.001204	7183.790253	43393.869931	3952.573342	23253.089654
3.535000	0.000743	-0.000155	-0.002097	-0.000385	7169.396682	43246.742531	3938.396649	23214.727890
4.035000	-0.000173	-0.000262	-0.002121	-0.000399	7160.520997	43238.023791	3938.372154	23215.355704
4.535000	-0.003805	-0.000449	-0.003677	0.005462	7068.207381	42681.244731	3919.903070	22942.943977
5.034500	-0.000195	-0.000030	0.000545	0.000126	7155.148914	43210.918714	3943.763524	23190.833734
5.535500	-0.000326	-0.000465	-0.001103	0.000375	7151.417687	43147.608994	3938.985240	23179.175958
6.036000	-0.000639	0.000006	0.003334	0.000655	7145.607401	43165.266201	3949.479907	23166.117387
6.536500	-0.001741	-0.000552	0.000047	-0.000121	7142.414973	43185.394984	3943.128198	23202.369025
7.037000	0.000631	0.000330	0.006244	0.000092	7163.596179	43247.403309	3958.325943	23192.410683
7.537500	0.000161	-0.000039	0.001419	0.000127	7158.631766	43209.985218	3945.967386	23190.781363
8.037000	-0.002387	-0.000243	0.003604	-0.000362	7138.452563	43236.400422	3952.751556	23213.652688
8.535000	-0.000911	0.000269	0.000951	-0.000024	7149.587005	43252.489283	3945.166394	23197.818127
9.035000	0.000337	0.000000	-0.002057	0.000000	7161.610008	43225.367030	3937.531503	23196.714138
9.535000	0.001649	0.000931	0.003200	0.000371	7170.878688	43277.305580	3949.863464	23179.396479
10.035500	0.001451	0.000262	-0.002134	0.000196	7170.646716	43231.500631	3936.844639	23187.542702
10.536000	-0.000687	-0.000621	-0.003179	0.000057	7150.995146	43162.538167	3934.575485	23194.038347
11.036000	-0.000939	-0.000563	0.000000	-0.000473	7153.731929	43217.094815	3943.899668	23218.862141
11.536500	0.000000	-0.000384	0.000858	-0.000025	7158.545400	43192.057891	3944.934164	23197.879342
12.039500	0.000157	0.000274	-0.000319	0.000109	7158.771246	43240.667305	3941.625402	23191.602355
12.537000	-0.002636	-0.000130	0.001200	0.002645	7106.726655	42969.018100	3939.067659	23073.422097
13.034500	-0.002436	-0.000817	-0.001966	-0.000326	7137.612718	43179.848569	3938.577652	23211.959424
13.535000	-0.001291	-0.000158	-0.002083	0.001153	7134.358530	43104.096798	3934.577293	23142.888376
14.035000	-0.001581	-0.000607	-0.000284	0.002242	7120.896357	42962.114607	3936.352824	23092.146684
14.535500	-0.002432	0.000100	0.000204	0.005589	7080.218279	42719.874568	3929.213276	22937.106558
15.041000	-0.001292	0.000060	0.006424	0.001117	7134.696632	43127.554224	3956.167612	23144.575446
15.536000	-0.000606	0.000130	-0.000484	0.001201	7140.582512	43126.272751	3938.464351	23140.649260
16.036500	-0.002629	-0.000055	0.001009	0.000978	7123.004122	43129.793730	3942.784474	23151.052196
16.539500	-0.002248	0.000139	0.004530	0.003562	7101.584915	42909.366853	3945.147236	23030.846698
17.037000	0.000874	0.000474	0.002868	-0.002031	7186.938658	43458.201258	3955.126351	23291.877604
17.542000	0.000234	0.000155	0.003839	0.002312	7137.932095	43025.961691	3946.562363	23088.906732
18.034000	-0.001777	0.000560	0.000471	0.002260	7118.817990	43068.109192	3938.203115	23091.324401
18.535500	-0.001747	-0.000604	0.001293	0.002361	7118.124493	42951.567803	3940.016809	23086.645603
19.035000	0.000703	-0.000030	-0.003854	0.001937	7146.193978	43043.458808	3928.202517	23106.363663
19.535500	-0.001821	-0.000092	-0.003752	0.001884	7122.047870	43042.639881	3928.587193	23108.833551
20.036000	-0.001650	-0.000282	-0.000627	0.001775	7124.779318	43035.189742	3936.666425	23113.894467
20.536000	-0.000473	0.000203	-0.000817	0.002762	7126.626650	42988.898003	3933.718601	23067.983248
21.039000	-0.001740	-0.000524	-0.000620	0.001874	7122.934554	43003.737874	3936.434486	23109.278267
21.537000	-0.002981	0.000134	0.001077	0.002527	7104.521506	43004.169567	3939.056315	23078.913196
22.037000	-0.001354	0.000347	-0.001132	0.002495	7120.652180	43026.756942	3933.599361	23080.409133
22.537500	-0.000223	-0.000340	-0.000300	0.002570	7130.940107	42956.527653	3935.493083	23076.911090
23.035000	-0.002511	-0.000553	-0.003051	0.001478	7119.281491	43037.591425	3931.346664	23127.735108
23.538000	-0.001655	0.000234	0.001721	0.001898	7123.527950	43071.431061	3942.259523	23108.172712
24.035500	-0.002653	-0.000570	0.003995	0.002040	7112.440051	42984.216732	3947.646675	23101.569651
24.538500	-0.001601	0.000133	-0.000718	0.003451	7108.944847	42919.045750	3932.243519	23036.017918
25.036000	-0.001262	-0.000122	0.002690	0.002183	7124.580943	43012.299856	3943.984187	23094.908689
25.536500	-0.000963	0.000028	0.001478	0.002187	7127.459529	43025.715211	3940.918174	23094.717076
26.037000	-0.000110	0.000273	0.000135	0.002252	7135.146397	43042.362602	3937.380039	23091.683897
26.537000	-0.004038	-0.000237	0.003568	0.001894	7100.408945	43028.393770	3946.934421	23108.367426
27.037000	-0.001391	0.000059	0.004499	-0.000484	7149.390952	43275.659322	3955.341075	23219.334589
27.534500	-0.001207	0.000095	0.001977	0.000230	7144.203954	43212.815115	3947.117593	23185.949995
28.035000	0.000052	0.000398	0.003516	0.001497	7144.120108	43123.633578	3947.807159	23126.826070
28.535500	-0.001609	0.000281	-0.003036	0.006048	7083.727218	42694.427064	3920.040643	22915.918125
29.035500	-0.000332	0.000054	-0.000391	0.001153	7143.728744	43123.652218	3938.820177	23142.877607
29.536000	0.000856	0.000288	0.000433	0.001490	7152.071262	43114.120173	3940.043404	23127.154915
30.036000	0.001081	-0.000168	-0.001132	0.001097	7158.138274	43108.307760	3937.098886	23145.472058
30.536500	-0.003377	-0.000122	0.001896	0.004561	7081.007876	42793.720454	3936.007361	22984.601493
31.036000	-0.002471	-0.000186	-0.001164	0.002694	7107.853761	42959.390473	3933.021443	23071.165086
31.539000	-0.002932	0.000472	-0.000755	0.001563	7114.361002	43124.452230	3936.877707	23123.784437
32.037000	0.000967	0.000114	0.000050	0.001383	7154.216379	43107.958099	3939.349483	23132.172512
32.537500	-0.003623	0.000651	-0.005229	0.007066	7054.552318	42635.221115	3912.142397	22869.044534
33.035000	-0.002923	-0.000628	0.002659	0.000989	7120.038429	43075.830421	3946.924798	23150.531141
33.535500	-0.000604	0.000699	0.001679	0.001786	7134.882111	43124.688749	3942.434432	23113.375696
34.035500	-0.000533	-0.000104	0.004347	0.002027	7133.217342	43028.356490	3948.571709	23102.175835
34.539000	-0.002258	-0.000483	-0.004471	0.004167	7095.637669	42796.725273	3921.143133	23002.838356
35.039000	-0.003316	0.000437	0.001192	0.002955	7097.125852	42992.660060	3938.269302	23059.017684
35.536000	-0.001451	0.000046	0.001801	0.002910	7115.657875	42960.802574	3939.912218	23061.113343
36.036500	-0.001060	0.000034	-0.000552	0.002873	7119.835063	42963.095163	3934.104774	23062.851432
36.537000	-0.002810	0.000098	-0.000391	0.004687	7085.263673	42802.338557	3929.976396	22978.763082
37.037500	-0.001599	-0.000284	0.005700	0.002856	7114.754689	42935.410076	3949.900801	23063.642072
37.535500	-0.004138	0.000015	-0.002463	0.002815	7090.523796	42966.748784	3929.480364	23065.544583
38.035500	-0.002063	0.000097	-0.001768	0.002746	7111.316157	42980.615589	3931.383329	23068.754153
38.536000	-0.001906	-0.001296	-0.001721	0.001801	7122.027761	42939.325797	3933.860460	23112.682520
39.036000	-0.001415	0.000141	0.001694	0.003152	7113.659303	42947.344262	3939.036933	23049.894922
39.539000	-0.002636	-0.000247	0.003032	0.002947	7103.788829	42930.374164	3942.917915	23059.384580
40.036500	-0.001649	-0.000282	0.000916	0.002629	7116.472522	42956.515385	3938.395978	23074.182745
40.536500	-0.003460	-0.000496	-0.001046	0.003563	7089.851396	42851.015390	3931.146502	23030.837342
41.037000	-0.002674	-0.001142	0.000772	0.002431	7108.426405	42895.560089	3938.530538	23083.362873
41.537500	-0.003818	-0.000719	0.004615	0.002567	7096.020041	42921.979999	3947.881316	23077.056709
42.034500	-0.002118	-0.000406	-0.002021	0.002829	7109.974816	42926.690568	3930.546654	23064.898271
42.535000	-0.002253	-0.000117	-0.000040	0.004052	7096.794618	42840.866147	3932.436984	23008.157180
43.035500	-0.001572	-0.000678	0.000971	0.002819	7115.377037	42902.591426	3938.055559	23065.358561
43.536000	-0.003631	-0.000787	0.000448	0.002498	7098.498419	42922.016053	3937.548028	23080.249078
44.036500	-0.000372	-0.000086	0.007425	0.000014	7154.509668	43216.038508	3961.548912	23196.042134
44.536500	-0.002488	-0.000496	0.002815	0.003965	7095.366614	42814.052851	3939.811174	23012.202544
45.036000	-0.001796	-0.001319	-0.001393	0.001061	7130.318895	43005.444100	3936.535014	23147.172967
45.536500	-0.001033	-0.000290	0.003927	0.001127	7137.133654	43094.327758	3949.789152	23144.110307
46.037000	-0.002679	-0.000151	0.000870	0.001069	7121.624983	43112.434181	3942.203543	23146.778460
46.537000	-0.002732	-0.000524	-0.000233	0.006441	7069.110913	42585.070658	3926.008571	22897.814340
47.035000	-0.002939	-0.000973	-0.000088	0.002353	7106.617858	42918.360674	3936.568530	23087.020947
47.535000	-0.001482	-0.000042	-0.004742	0.002708	7117.322396	42971.249952	3924.080371	23070.483641
48.035500	-0.003679	-0.000510	0.002213	0.003418	7089.136851	42863.032286	3939.671501	23037.557053
48.536000	-0.004168	-0.000865	-0.002721	0.005738	7062.065071	42617.980971	3921.583117	22930.200886
49.036000	-0.002630	0.000295	0.001475	0.002899	7104.321106	42984.733661	3939.121160	23061.626249
49.536000	0.000560	-0.000824	-0.000678	0.000572	7158.180370	43096.175471	3939.557976	23169.983740
50.036500	0.000664	-0.000189	0.004491	-0.001471	7179.332573	43344.394387	3957.843149	23265.625849
50.537000	-0.003345	-0.000204	0.001968	0.006713	7060.610782	42589.452860	3930.807133	22885.296680
51.037000	0.206359	-0.008306	0.397347	0.895157	3764.628730	8002.537953	3195.737424	5477.102913
51.534500	-0.063975	-0.015217	0.329758	1.602193	2982.971060	3946.934830	2906.197584	3399.711534
52.035000	0.002355	-0.022830	0.302280	1.536913	3015.551981	4084.861590	2911.515468	3482.019140
52.535500	0.000066	-0.021527	0.259099	1.361863	3076.436386	4640.479828	2934.148029	3774.783903
53.035500	-0.052030	-0.014958	-0.043269	0.736533	3585.307374	10108.633887	3029.527186	6616.672483
53.538500	-0.037865	-0.026340	-0.008177	-0.159977	8543.840901	57727.661753	4400.852473	32239.582765
54.036000	-0.026707	-0.075432	-0.002952	-0.264839	10274.944528	65230.025763	4848.938723	40254.275196
54.536500	-0.015296	-0.064428	-0.000101	-0.250354	10222.853938	64732.950262	4796.041412	39028.669016
55.037000	-0.015998	-0.040141	-0.004269	-0.212870	9605.728884	62884.721140	4617.867207	36040.586750
55.537000	-0.007826	-0.037019	-0.005332	-0.209890	9686.474301	62904.205423	4601.463724	35813.870861
56.037500	-0.006602	-0.037210	-0.003200	-0.210593	9716.694239	62974.923698	4612.948803	35867.219156
56.535000	-0.007936	-0.028281	-0.003287	-0.192885	9423.883250	61774.249997	4542.079404	34549.742344
57.035500	-0.004696	-0.017967	-0.002789	-0.158523	8972.108225	58606.885141	4414.984754	32141.499882
57.535000	-0.003750	-0.013234	-0.000897	-0.128700	8580.916114	55484.126617	4317.362523	30200.381149
58.038500	-0.005429	-0.010204	0.000885	-0.099192	8186.633208	52378.366574	4226.468999	28406.540295
58.536000	-0.006891	-0.007351	-0.005376	-0.067028	7792.063931	49154.155520	4109.722441	26585.203523
59.036500	-0.005869	-0.006747	0.000851	-0.042056	7529.111853	46634.439323	4056.410243	25261.306840
59.537000	-0.006340	-0.004799	-0.001179	-0.024816	7343.766026	45123.931017	4003.953208	24390.740986
60.037000	-0.004169	-0.003874	0.001674	-0.008007	7196.183029	43610.275435	3967.388511	23574.537017
60.536500	-0.003969	-0.002872	0.005692	0.005306	7068.129711	42474.486153	3943.679073	22950.136611
61.037500	-0.001077	-0.000652	0.004681	0.012532	7026.654083	42021.830381	3923.087790	22619.174805
61.535000	-0.000396	-0.001383	0.006911	0.015587	7004.107227	41682.985490	3921.049525	22480.914105
62.035000	0.000011	-0.000414	0.007201	0.017362	6991.166709	41611.132063	3917.383801	22400.997995
62.538000	0.003037	0.000563	0.008624	0.014241	7049.619576	41977.476937	3928.636029	22541.720799
63.036000	0.006085	0.001728	0.014647	0.018041	7042.423136	41741.504899	3934.179844	22370.518619
63.536500	0.008348	0.002061	0.014202	0.019818	7047.072372	41612.847957	3928.635203	22290.972146
64.036500	0.007919	0.003975	0.016242	0.031181	6935.739023	40781.316983	3905.681071	21790.022544
64.536500	0.010532	0.004450	0.016518	0.035031	6924.238069	40488.612658	3897.008068	21623.212919
65.037000	0.015222	0.005695	0.020194	0.029587	7019.459471	41070.840102	3919.275938	21859.497813
65.537500	0.017371	0.008211	0.028064	0.032524	7011.973448	41034.009307	3931.517442	21731.663390
66.037500	0.025758	0.009040	0.027071	0.034292	7075.259153	40951.752320	3924.648821	21655.118721
66.535000	0.027428	0.010494	0.028860	0.033178	7102.170306	41177.019972	3931.870410	21703.310896
67.035500	0.032197	0.012360	0.028605	0.037315	7108.305305	40977.716056	3920.963714	21524.967094
67.535500	0.035010	0.013971	0.033307	0.038479	7124.348871	41016.948534	3929.741979	21475.116965
68.035500	0.036088	0.015663	0.038260	0.040394	7116.200330	40997.421129	3937.338261	21393.355351
68.536500	0.035380	0.015320	0.034200	0.045878	7056.380431	40490.650692	3913.653319	21161.185995
69.036500	0.039911	0.016588	0.034896	0.044777	7110.748948	40695.821093	3918.073075	21207.550896
69.537000	0.040620	0.017817	0.039447	0.047732	7088.982697	40546.223345	3922.013995	21083.375869
70.037000	0.044144	0.018973	0.047428	0.051181	7089.713447	40348.350372	3933.283953	20939.479888
70.534500	0.042048	0.019767	0.044177	0.057440	7009.705897	39881.080279	3909.772044	20681.260020
71.035000	0.049096	0.022383	0.045198	0.058448	7067.390511	40017.890142	3909.802770	20640.000829
71.535500	0.052481	0.023614	0.053055	0.062251	7063.380719	39799.243320	3919.763777	20485.295529
72.035500	0.053782	0.025680	0.049187	0.066537	7034.794174	39611.446658	3899.821711	20312.501331
72.536000	0.054073	0.026780	0.051034	0.074248	6964.602551	39058.071790	3885.712944	20005.952933
73.036000	0.056919	0.027422	0.059415	0.073090	7002.326448	39207.855649	3908.763386	20051.613583
73.536500	0.059157	0.029187	0.058125	0.076821	6988.220335	39044.200499	3896.568015	19904.842890
74.036500	0.061257	0.031752	0.065658	0.080694	6971.523292	38935.728736	3905.443280	19753.811153
74.536500	0.065150	0.031877	0.067062	0.083409	6982.606250	38721.960776	3902.255032	19648.720270
75.037000	0.067357	0.034339	0.069983	0.087433	6965.518534	38593.527151	3899.580236	19494.160199
75.534500	0.070387	0.035353	0.073962	0.090780	6962.547456	38402.707414	3901.112864	19366.711255
76.035000	0.070661	0.036297	0.071840	0.094299	6932.240064	38193.342550	3887.518375	19233.784900
76.538000	0.074324	0.038922	0.077201	0.098887	6923.646057	38034.546744	3889.371145	19062.045901
77.035500	0.076063	0.039418	0.079340	0.101114	6919.118365	37895.061269	3889.160018	18979.354740
77.536000	0.078365	0.041164	0.078729	0.104948	6904.932210	37727.571772	3878.554907	18837.953737
78.036000	0.079966	0.043881	0.085372	0.109142	6881.035467	37609.596565	3884.383851	18684.706233
78.537000	0.084238	0.043805	0.085334	0.111814	6895.764472	37391.118879	3877.935211	18587.838100
79.036500	0.084658	0.046271	0.090302	0.115966	6861.497191	37257.809376	3879.875066	18438.502673
79.537000	0.089510	0.046197	0.085467	0.118784	6880.133812	37030.188655	3861.844451	18337.934986
80.037500	0.091144	0.049432	0.099556	0.123684	6850.252075	36899.958221	3883.529962	18164.661243
80.535000	0.092985	0.049832	0.097976	0.126918	6837.564182	36679.263679	3872.110795	18051.342766
81.038000	0.093937	0.051779	0.098452	0.130551	6813.277457	36548.674649	3864.691746	17925.057492
81.535500	0.098797	0.053170	0.100239	0.133747	6828.339278	36409.472459	3861.399509	17814.862433
82.035500	0.097367	0.054288	0.107674	0.136240	6792.925226	36303.722999	3872.999903	17729.425872
82.536000	0.098749	0.055071	0.104944	0.144514	6731.494611	35733.820895	3847.347840	17449.444290
83.036500	0.102890	0.056936	0.105339	0.143536	6777.029440	35948.954027	3850.510922	17482.243154
83.536500	0.102906	0.057796	0.112319	0.145960	6755.543977	35830.442299	3861.088611	17401.053644
84.037500	0.107677	0.059133	0.114655	0.148858	6772.242305	35712.554122	3859.777249	17304.547382
84.537500	0.109024	0.060551	0.114224	0.151645	6759.401937	35609.553444	3852.306973	17212.373750
85.034500	0.109623	0.061358	0.116877	0.154593	6738.528892	35449.016182	3851.624153	17115.476350
85.535000	0.111471	0.062240	0.116893	0.157097	6732.725672	35328.006255	3845.889214	17033.710161
86.035500	0.112613	0.062658	0.124036	0.159484	6721.734564	35181.672183	3856.881032	16956.221985
86.535500	0.114473	0.063985	0.119066	0.166566	6675.947653	34757.730265	3829.261780	16728.737774
87.036000	0.116985	0.065595	0.124752	0.165598	6706.396995	34946.956112	3844.416989	16759.618430
87.536000	0.119043	0.067429	0.123663	0.168293	6700.802031	34883.624694	3835.770134	16673.828538
88.036500	0.118331	0.067009	0.131187	0.170081	6678.931034	34721.775380	3848.904137	16617.186866
88.537000	0.114767	0.069054	0.125939	0.177297	6586.062463	34346.048059	3820.579533	16391.031771
89.037000	0.122323	0.069788	0.133096	0.175640	6665.286346	34519.242944	3840.526626	16442.632591
89.536500	0.121889	0.069893	0.132112	0.176572	6653.437310	34459.181794	3836.156618	16413.586890
90.037500	0.124533	0.071095	0.137623	0.179634	6649.821204	34324.693340	3841.744603	16318.590733
90.538000	0.122228	0.070371	0.137196	0.185480	6579.930923	33853.959307	3827.489554	16139.067261
91.035500	0.127606	0.072965	0.139604	0.183899	6639.516973	34152.278894	3836.532205	16187.389382
91.535500	0.127994	0.073111	0.140259	0.185545	6628.672460	34044.775692	3834.277700	16137.088556
92.036000	0.126519	0.075058	0.143412	0.189766	6579.975539	33882.494558	3831.854449	16008.990895
92.536500	0.126282	0.075041	0.141515	0.194600	6537.147058	33539.209072	3816.719449	15863.803162
93.036500	0.130636	0.076489	0.143174	0.192395	6592.625190	33797.360926	3825.378250	15929.809387
93.537000	0.133440	0.076607	0.143616	0.192546	6615.315330	33795.084891	3826.034456	15925.300030
94.037500	0.135101	0.078809	0.150665	0.196210	6598.180923	33691.453922	3833.691365	15815.807808
94.537500	0.135445	0.078232	0.152596	0.200776	6562.309004	33329.854736	3827.724418	15680.636356
95.038000	0.137263	0.079602	0.147172	0.200224	6582.393144	33464.481014	3816.792625	15696.886425
95.535000	0.136140	0.079393	0.147683	0.202184	6556.289918	33312.645774	3813.565301	15639.252962
96.036000	0.137033	0.080663	0.155708	0.207006	6523.278056	33065.438176	3820.714404	15498.484828
96.536000	0.138782	0.081206	0.151700	0.206827	6539.445292	33115.595006	3812.173619	15503.698551
97.036000	0.139812	0.081246	0.154520	0.208268	6535.985663	33018.513345	3815.241061	15461.917129
