sample name	sample
index	353
start time	 03-01-2021  12:11:10 PM


Wavelength (nm)	Absorbance
494.344910	NaN
494.563924	NaN
494.782919	NaN
495.001897	NaN
495.220856	NaN
495.439797	1.581551
495.658719	1.241154
495.877624	0.731404
496.096510	0.470108
496.315378	0.349125
496.534227	0.195155
496.753059	0.135085
496.971872	0.134765
497.190667	0.058580
497.409444	0.049629
497.628203	0.049745
497.846943	0.050935
498.065665	0.049056
498.284369	0.049263
498.503055	0.051775
498.721723	0.053007
498.940372	0.053279
499.159003	0.053660
499.377616	0.054969
499.596210	0.055551
499.814787	0.055665
500.033345	0.056130
500.251885	0.057043
500.470406	0.056831
500.688910	0.056447
500.907395	0.056065
501.125862	0.055989
501.344311	0.055596
501.562742	0.055423
501.781154	0.055439
501.999548	0.055711
502.217924	0.055592
502.436282	0.054867
502.654621	0.054650
502.872942	0.054218
503.091245	0.054269
503.309530	0.053903
503.527797	0.053171
503.746045	0.051943
503.964275	0.052842
504.182487	0.052561
504.400681	0.053880
504.618856	0.054796
504.837013	0.054997
505.055152	0.054878
505.273273	0.055056
505.491376	0.055636
505.709460	0.056667
505.927526	0.056014
506.145574	0.056008
506.363604	0.055059
506.581615	0.053486
506.799608	0.054143
507.017583	0.053925
507.235540	0.055426
507.453478	0.054573
507.671399	0.055051
507.889301	0.054478
508.107185	0.054538
508.325050	0.054933
508.542898	0.055066
508.760727	0.054821
508.978538	0.055056
509.196330	0.054155
509.414105	0.054857
509.631861	0.054421
509.849599	0.055165
510.067319	0.055312
510.285021	0.055430
510.502704	0.056739
510.720369	0.056677
510.938016	0.056621
511.155645	0.057124
511.373255	0.057638
511.590848	0.057496
511.808422	0.057680
512.025977	0.057262
512.243515	0.056853
512.461034	0.057203
512.678536	0.057685
512.896018	0.058337
513.113483	0.059216
513.330930	0.059161
513.548358	0.059633
513.765768	0.058856
513.983160	0.059169
514.200533	0.059436
514.417889	0.058564
514.635226	0.058083
514.852545	0.057726
515.069845	0.056366
515.287128	0.057258
515.504392	0.056460
515.721638	0.056892
515.938866	0.057920
516.156075	0.058269
516.373267	0.057891
516.590440	0.057940
516.807594	0.057556
517.024731	0.057644
517.241850	0.056933
517.458950	0.058061
517.676032	0.058409
517.893095	0.057732
518.110141	0.057764
518.327168	0.058730
518.544177	0.059199
518.761168	0.059979
518.978141	0.060405
519.195095	0.061007
519.412031	0.060460
519.628949	0.060809
519.845849	0.060996
520.062731	0.060763
520.279594	0.060879
520.496439	0.061208
520.713266	0.061490
520.930074	0.062028
521.146865	0.061681
521.363637	0.061735
521.580391	0.062215
521.797127	0.062468
522.013844	0.062633
522.230543	0.062656
522.447224	0.062865
522.663887	0.063200
522.880532	0.063381
523.097158	0.063222
523.313766	0.063989
523.530356	0.063945
523.746928	0.064140
523.963481	0.064911
524.180017	0.065031
524.396534	0.065335
524.613032	0.065387
524.829513	0.065333
525.045975	0.065743
525.262420	0.066202
525.478845	0.066035
525.695253	0.066099
525.911643	0.066273
526.128014	0.066392
526.344367	0.066449
526.560702	0.066643
526.777018	0.066679
526.993316	0.066860
527.209597	0.066821
527.425858	0.067567
527.642102	0.067507
527.858328	0.067741
528.074535	0.068285
528.290724	0.068338
528.506894	0.068234
528.723047	0.067880
528.939181	0.067888
529.155297	0.067923
529.371395	0.067687
529.587475	0.068112
529.803536	0.068514
530.019579	0.068638
530.235604	0.068908
530.451611	0.069567
530.667600	0.070569
530.883570	0.071485
531.099522	0.071849
531.315456	0.071689
531.531372	0.072364
531.747269	0.072389
531.963148	0.072676
532.179009	0.072992
532.394852	0.072975
532.610676	0.073158
532.826482	0.072654
533.042271	0.072770
533.258040	0.072810
533.473792	0.072877
533.689525	0.073344
533.905240	0.073605
534.120937	0.073407
534.336616	0.073649
534.552277	0.073554
534.767919	0.073902
534.983543	0.073830
535.199149	0.074533
535.414736	0.074790
535.630306	0.074481
535.845857	0.074394
536.061390	0.074722
536.276904	0.074997
536.492401	0.075257
536.707879	0.075115
536.923339	0.075288
537.138781	0.075862
537.354204	0.075950
537.569610	0.076372
537.784997	0.076799
538.000366	0.077207
538.215716	0.076949
538.431049	0.076890
538.646363	0.077592
538.861659	0.078260
539.076937	0.078159
539.292196	0.077806
539.507438	0.077849
539.722661	0.078190
539.937866	0.078575
540.153052	0.079253
540.368221	0.079900
540.583371	0.080069
540.798503	0.080584
541.013617	0.080920
541.228712	0.081725
541.443789	0.081755
541.658848	0.081586
541.873889	0.081116
542.088912	0.080896
542.303916	0.081266
542.518902	0.081418
542.733870	0.081360
542.948820	0.081562
543.163752	0.081592
543.378665	0.082400
543.593560	0.082545
543.808437	0.083103
544.023295	0.083560
544.238136	0.083490
544.452958	0.083459
544.667762	0.083524
544.882548	0.083439
545.097315	0.083454
545.312064	0.083371
545.526795	0.083736
545.741508	0.084337
545.956203	0.084624
546.170879	0.084749
546.385537	0.085452
546.600177	0.085825
546.814799	0.085895
547.029402	0.086153
547.243988	0.086026
547.458555	0.086073
547.673103	0.085958
547.887634	0.085989
548.102146	0.085866
548.316640	0.085702
548.531116	0.085578
548.745574	0.086231
548.960013	0.086173
549.174435	0.086306
549.388838	0.086319
549.603222	0.086014
549.817589	0.086033
550.031937	0.086483
550.246267	0.086591
550.460579	0.086671
550.674873	0.086546
550.889148	0.086956
551.103405	0.087189
551.317644	0.087102
551.531865	0.087617
551.746068	0.087700
551.960252	0.087881
552.174418	0.087932
552.388566	0.088085
552.602696	0.087943
552.816807	0.088520
553.030900	0.088729
553.244975	0.089609
553.459032	0.089622
553.673070	0.090075
553.887091	0.090148
554.101093	0.090407
554.315077	0.090725
554.529042	0.090871
554.742990	0.090336
554.956919	0.090240
555.170830	0.089943
555.384722	0.090242
555.598597	0.089894
555.812453	0.090111
556.026291	0.090236
556.240111	0.090182
556.453913	0.090042
556.667696	0.090161
556.881461	0.089874
557.095208	0.090127
557.308937	0.090084
557.522647	0.090332
557.736339	0.090208
557.950013	0.090152
558.163669	0.090323
558.377307	0.090670
558.590926	0.091158
558.804527	0.091802
559.018110	0.091429
559.231675	0.091348
559.445221	0.091514
559.658749	0.091619
559.872259	0.091689
560.085751	0.091833
560.299225	0.092114
560.512680	0.091816
560.726117	0.091900
560.939536	0.092122
561.152937	0.092315
561.366319	0.092325
561.579683	0.092620
561.793029	0.092673
562.006357	0.092540
562.219667	0.092424
562.432958	0.092922
562.646231	0.093055
562.859486	0.093521
563.072723	0.093526
563.285941	0.093618
563.499141	0.093585
563.712323	0.093823
563.925487	0.094232
564.138632	0.094284
564.351760	0.093993
564.564869	0.093738
564.777960	0.093656
564.991032	0.093542
565.204087	0.093807
565.417123	0.093776
565.630141	0.093722
565.843140	0.093445
566.056122	0.093756
566.269085	0.093769
566.482030	0.094045
566.694957	0.094147
566.907866	0.094321
567.120756	0.094153
567.333628	0.094559
567.546482	0.094837
567.759318	0.095034
567.972135	0.095084
568.184935	0.095556
568.397716	0.095752
568.610478	0.095796
568.823223	0.096164
569.035949	0.096541
569.248657	0.096385
569.461347	0.096500
569.674019	0.096504
569.886672	0.096483
570.099308	0.096238
570.311925	0.096406
570.524523	0.096832
570.737104	0.097020
570.949666	0.096834
571.162210	0.097036
571.374736	0.097248
571.587244	0.097403
571.799733	0.097435
572.012205	0.097704
572.224658	0.097653
572.437092	0.097396
572.649509	0.097504
572.861907	0.097581
573.074287	0.097582
573.286649	0.097401
573.498993	0.097654
573.711318	0.097977
573.923625	0.098035
574.135914	0.097883
574.348185	0.097834
574.560438	0.097825
574.772672	0.098070
574.984888	0.098244
575.197086	0.098189
575.409266	0.098300
575.621427	0.098315
575.833570	0.098338
576.045695	0.098692
576.257802	0.098792
576.469890	0.098815
576.681961	0.099115
576.894013	0.099266
577.106046	0.099615
577.318062	0.099428
577.530059	0.099433
577.742039	0.099268
577.954000	0.099363
578.165942	0.099871
578.377867	0.100148
578.589773	0.100077
578.801661	0.100281
579.013531	0.100550
579.225382	0.100950
579.437216	0.101353
579.649031	0.101884
579.860828	0.102017
580.072606	0.101943
580.284367	0.101939
580.496109	0.102306
580.707833	0.102123
580.919539	0.102034
581.131227	0.102087
581.342896	0.102122
581.554547	0.102105
581.766180	0.102233
581.977795	0.102252
582.189391	0.102592
582.400969	0.102471
582.612529	0.102705
582.824071	0.103117
583.035595	0.103114
583.247100	0.103052
583.458587	0.103233
583.670056	0.103421
583.881506	0.103413
584.092939	0.103196
584.304353	0.103312
584.515749	0.103348
584.727127	0.103411
584.938486	0.103801
585.149828	0.103791
585.361151	0.103656
585.572456	0.103509
585.783742	0.103930
585.995011	0.104169
586.206261	0.104381
586.417493	0.104623
586.628706	0.104322
586.839902	0.104204
587.051079	0.104624
587.262238	0.104940
587.473379	0.104945
587.684502	0.104831
587.895606	0.104957
588.106692	0.104681
588.317760	0.104924
588.528810	0.105225
588.739841	0.105239
588.950855	0.105449
589.161850	0.105543
589.372827	0.105844
589.583785	0.106016
589.794726	0.106097
590.005648	0.106472
590.216552	0.106434
590.427437	0.106459
590.638305	0.106564
590.849154	0.106871
591.059985	0.106894
591.270798	0.107060
591.481592	0.106952
591.692369	0.107239
591.903127	0.107302
592.113867	0.107157
592.324588	0.107659
592.535292	0.107997
592.745977	0.107934
592.956644	0.108245
593.167293	0.108248
593.377923	0.108631
593.588536	0.108422
593.799130	0.108821
594.009706	0.109226
594.220263	0.109043
594.430803	0.108984
594.641324	0.108763
594.851827	0.109099
595.062312	0.109218
595.272778	0.109393
595.483227	0.109664
595.693657	0.109559
595.904069	0.109791
596.114462	0.110110
596.324838	0.110295
596.535195	0.110500
596.745534	0.110185
596.955855	0.110408
597.166157	0.110649
597.376441	0.110751
597.586707	0.110817
597.796955	0.110843
598.007185	0.110721
598.217396	0.110869
598.427589	0.110898
598.637764	0.111321
598.847921	0.111596
599.058060	0.111647
599.268180	0.112080
599.478282	0.111941
599.688366	0.112014
599.898431	0.111993
600.108479	0.112172
600.318508	0.112207
600.528519	0.111945
600.738511	0.111980
600.948486	0.112018
601.158442	0.111862
601.368380	0.112301
601.578300	0.112152
601.788202	0.112433
601.998085	0.112528
602.207950	0.112842
602.417797	0.113128
602.627626	0.113126
602.837436	0.113181
603.047228	0.113462
603.257002	0.113505
603.466758	0.113887
603.676496	0.114178
603.886215	0.114193
604.095916	0.114464
604.305599	0.114472
604.515264	0.114520
604.724910	0.114791
604.934538	0.114971
605.144148	0.115065
605.353740	0.114805
605.563314	0.114767
605.772869	0.114938
605.982406	0.114632
606.191925	0.114762
606.401425	0.114821
606.610908	0.114663
606.820372	0.114600
607.029818	0.114751
607.239246	0.115255
607.448655	0.115263
607.658047	0.115060
607.867420	0.115387
608.076775	0.115645
608.286111	0.115877
608.495430	0.116034
608.704730	0.116165
608.914012	0.116198
609.123275	0.116209
609.332521	0.116242
609.541748	0.116628
609.750957	0.116644
609.960148	0.116755
610.169321	0.116791
610.378475	0.116995
610.587611	0.117143
610.796729	0.117313
611.005829	0.117330
611.214910	0.117505
611.423974	0.117654
611.633019	0.117711
611.842045	0.117757
612.051054	0.117636
612.260044	0.117657
612.469017	0.117500
612.677970	0.117663
612.886906	0.117767
613.095824	0.117766
613.304723	0.117852
613.513604	0.118176
613.722467	0.117893
613.931311	0.118232
614.140138	0.118312
614.348946	0.118493
614.557736	0.118740
614.766507	0.118803
614.975261	0.119012
615.183996	0.118883
615.392713	0.118564
615.601412	0.119110
615.810092	0.119361
616.018754	0.119366
616.227399	0.119457
616.436024	0.119439
616.644632	0.119504
616.853222	0.119555
617.061793	0.119672
617.270346	0.120168
617.478880	0.120180
617.687397	0.120142
617.895895	0.120304
618.104375	0.120443
618.312837	0.120578
618.521281	0.120726
618.729706	0.120941
618.938113	0.121152
619.146502	0.121196
619.354873	0.121141
619.563226	0.121242
619.771560	0.121180
619.979876	0.121174
620.188174	0.120866
620.396453	0.121016
620.604715	0.121129
620.812958	0.121216
621.021183	0.121243
621.229390	0.121429
621.437578	0.121624
621.645748	0.121947
621.853900	0.122050
622.062034	0.122522
622.270150	0.122601
622.478247	0.122598
622.686326	0.122853
622.894387	0.122730
623.102430	0.122839
623.310454	0.122683
623.518461	0.122835
623.726449	0.122894
623.934418	0.122678
624.142370	0.122794
624.350303	0.122793
624.558218	0.122621
624.766115	0.122842
624.973994	0.122820
625.181855	0.122822
625.389697	0.122650
625.597521	0.122877
625.805327	0.123024
626.013114	0.122874
626.220883	0.122881
626.428634	0.122970
626.636367	0.123267
626.844082	0.123331
627.051778	0.123673
627.259457	0.123889
627.467117	0.123943
627.674758	0.124017
627.882382	0.124313
628.089987	0.124663
628.297574	0.124868
628.505143	0.124621
628.712694	0.124703
628.920226	0.124800
629.127740	0.125048
629.335236	0.124940
629.542714	0.125064
629.750174	0.124913
629.957615	0.124865
630.165038	0.124770
630.372443	0.124901
630.579829	0.125155
630.787198	0.125080
630.994548	0.124874
631.201880	0.125142
631.409194	0.125132
631.616489	0.125376
631.823766	0.125288
632.031025	0.125370
632.238266	0.125563
632.445489	0.125580
632.652693	0.125837
632.859879	0.125944
633.067047	0.125983
633.274197	0.126169
633.481329	0.126232
633.688442	0.126556
633.895537	0.126981
634.102614	0.127100
634.309672	0.127254
634.516713	0.127265
634.723735	0.127504
634.930739	0.127809
635.137724	0.128019
635.344692	0.128104
635.551641	0.128111
635.758572	0.128150
635.965485	0.128301
636.172379	0.128470
636.379256	0.128428
636.586114	0.128456
636.792954	0.128299
636.999775	0.128343
637.206579	0.128559
637.413364	0.128835
637.620131	0.128833
637.826880	0.128938
638.033610	0.128929
638.240323	0.129220
638.447017	0.129598
638.653692	0.129805
638.860350	0.129871
639.066990	0.130043
639.273611	0.130127
639.480214	0.130299
639.686798	0.130274
639.893365	0.130553
640.099913	0.130686
640.306443	0.130677
640.512955	0.130789
640.719449	0.130932
640.925924	0.130998
641.132381	0.131255
641.338820	0.131177
641.545241	0.131456
641.751644	0.131435
641.958028	0.131726
642.164394	0.131688
642.370742	0.131626
642.577071	0.131865
642.783383	0.131872
642.989676	0.131770
643.195951	0.131902
643.402207	0.132068
643.608446	0.132011
643.814666	0.132015
644.020868	0.132423
644.227052	0.132615
644.433218	0.132491
644.639365	0.132803
644.845494	0.132916
645.051605	0.133135
645.257698	0.133123
645.463772	0.133525
645.669828	0.133533
645.875866	0.133560
646.081886	0.133755
646.287888	0.134003
646.493871	0.134079
646.699836	0.134317
646.905783	0.134472
647.111712	0.134434
647.317622	0.134489
647.523514	0.134662
647.729388	0.134712
647.935244	0.134891
648.141082	0.135217
648.346901	0.135255
648.552702	0.135353
648.758485	0.135476
648.964250	0.135785
649.169996	0.135782
649.375724	0.135927
649.581434	0.136171
649.787126	0.136171
649.992800	0.136014
650.198455	0.136071
650.404092	0.135990
650.609711	0.136018
650.815311	0.136089
651.020894	0.136329
651.226458	0.136402
651.432004	0.136359
651.637532	0.136541
651.843041	0.136594
652.048532	0.136764
652.254006	0.136879
652.459460	0.137128
652.664897	0.137288
652.870315	0.137299
653.075716	0.137506
653.281097	0.137573
653.486461	0.137690
653.691807	0.137959
653.897134	0.138175
654.102443	0.138354
654.307734	0.138464
654.513006	0.138543
654.718261	0.138523
654.923497	0.138417
655.128715	0.138526
655.333915	0.138830
655.539096	0.138870
655.744259	0.139079
655.949404	0.139328
656.154531	0.139336
656.359640	0.139394
656.564730	0.139817
656.769802	0.139999
656.974856	0.140194
657.179892	0.140395
657.384909	0.140745
657.589908	0.140644
657.794889	0.140812
657.999852	0.141178
658.204797	0.141641
658.409723	0.141822
658.614631	0.142509
658.819521	0.142661
659.024393	0.142520
659.229246	0.142660
659.434081	0.142795
659.638898	0.142866
659.843697	0.142824
660.048478	0.142789
660.253240	0.142896
660.457984	0.142380
660.662710	0.142464
660.867417	0.142858
661.072107	0.142634
661.276778	0.142986
661.481431	0.143060
661.686066	0.143393
661.890682	0.143503
662.095281	0.143478
662.299861	0.143713
662.504422	0.144025
662.708966	0.144185
662.913491	0.144587
663.117999	0.144601
663.322488	0.144699
663.526958	0.144739
663.731411	0.144842
663.935845	0.145124
664.140261	0.145318
664.344659	0.145224
664.549038	0.145255
664.753400	0.145424
664.957743	0.145633
665.162068	0.145910
665.366375	0.145769
665.570663	0.146013
665.774933	0.146077
665.979185	0.146357
666.183419	0.146519
666.387635	0.146605
666.591832	0.146655
666.796011	0.146762
667.000172	0.146644
667.204315	0.147014
667.408439	0.147224
667.612545	0.147366
667.816634	0.147398
668.020703	0.147529
668.224755	0.147765
668.428788	0.147802
668.632803	0.147846
668.836800	0.148212
669.040779	0.148334
669.244739	0.148266
669.448681	0.148241
669.652605	0.148430
669.856511	0.148790
670.060399	0.148636
670.264268	0.148783
670.468119	0.149033
670.671952	0.149215
670.875767	0.149421
671.079563	0.149542
671.283341	0.149975
671.487101	0.150033
671.690843	0.150017
671.894567	0.150274
672.098272	0.150507
672.301959	0.150519
672.505628	0.150621
672.709278	0.150638
672.912911	0.150762
673.116525	0.150696
673.320121	0.150730
673.523699	0.150739
673.727258	0.150804
673.930799	0.150987
674.134322	0.151280
674.337827	0.151334
674.541314	0.151440
674.744782	0.151688
674.948232	0.151754
675.151664	0.152023
675.355078	0.152339
675.558474	0.152587
675.761851	0.152828
675.965210	0.152884
676.168551	0.153150
676.371873	0.153398
676.575178	0.153651
676.778464	0.153810
676.981732	0.154105
677.184981	0.154097
677.388213	0.154417
677.591426	0.154255
677.794621	0.154348
677.997798	0.154249
678.200956	0.154327
678.404097	0.154343
678.607219	0.154594
678.810323	0.154594
679.013408	0.154935
679.216476	0.154887
679.419525	0.155185
679.622556	0.155356
679.825569	0.155594
680.028563	0.155657
680.231540	0.155736
680.434498	0.155959
680.637438	0.156092
680.840359	0.156164
681.043263	0.156393
681.246148	0.156465
681.449015	0.156453
681.651864	0.156548
681.854694	0.156808
682.057506	0.156870
682.260301	0.156924
682.463076	0.157109
682.665834	0.157260
682.868573	0.157258
683.071295	0.157520
683.273998	0.157894
683.476682	0.157904
683.679349	0.158017
683.881997	0.158164
684.084627	0.158350
684.287239	0.158295
684.489833	0.158382
684.692408	0.158488
684.894965	0.158466
685.097504	0.158462
685.300025	0.158748
685.502527	0.158781
685.705012	0.158858
685.907478	0.158942
686.109925	0.159149
686.312355	0.159213
686.514766	0.159427
686.717159	0.159426
686.919534	0.159333
687.121891	0.159451
687.324230	0.159699
687.526550	0.159987
687.728852	0.159996
687.931136	0.160213
688.133401	0.160463
688.335649	0.160523
688.537878	0.160781
688.740089	0.161163
688.942281	0.161293
689.144456	0.161092
689.346612	0.161117
689.548750	0.161161
689.750870	0.161376
689.952971	0.161144
690.155055	0.161314
690.357120	0.161410
690.559167	0.161651
690.761195	0.161695
690.963206	0.161949
691.165198	0.161928
691.367172	0.162151
691.569128	0.161843
691.771065	0.162232
691.972984	0.161975
692.174885	0.161981
692.376768	0.161927
692.578633	0.162093
692.780479	0.162110
692.982308	0.162265
693.184118	0.162483
693.385909	0.162530
693.587683	0.162345
