sample name	sample
index	957
start time	 04-12-2021  03:58:16 PM


Wavelength (nm)	Absorbance
494.344910	0.011418
494.563924	0.011418
494.782919	0.011418
495.001897	-0.262586
495.220856	0.071412
495.439797	0.077907
495.658719	0.032534
495.877624	0.020453
496.096510	0.049584
496.315378	0.062343
496.534227	0.044513
496.753059	0.082791
496.971872	0.045179
497.190667	0.078698
497.409444	0.086002
497.628203	0.087712
497.846943	0.089797
498.065665	0.091637
498.284369	0.091924
498.503055	0.090654
498.721723	0.090211
498.940372	0.091558
499.159003	0.091741
499.377616	0.092681
499.596210	0.093139
499.814787	0.093298
500.033345	0.092600
500.251885	0.093005
500.470406	0.094116
500.688910	0.094150
500.907395	0.094109
501.125862	0.094608
501.344311	0.093597
501.562742	0.094012
501.781154	0.094562
501.999548	0.095073
502.217924	0.094816
502.436282	0.095056
502.654621	0.095021
502.872942	0.094265
503.091245	0.093448
503.309530	0.092874
503.527797	0.093108
503.746045	0.093048
503.964275	0.093261
504.182487	0.093474
504.400681	0.093290
504.618856	0.093690
504.837013	0.094607
505.055152	0.095614
505.273273	0.097618
505.491376	0.097482
505.709460	0.098384
505.927526	0.097410
506.145574	0.097813
506.363604	0.097494
506.581615	0.097251
506.799608	0.097189
507.017583	0.096622
507.235540	0.094852
507.453478	0.095130
507.671399	0.094437
507.889301	0.095839
508.107185	0.095680
508.325050	0.096421
508.542898	0.096675
508.760727	0.096700
508.978538	0.096301
509.196330	0.097405
509.414105	0.097199
509.631861	0.096982
509.849599	0.096526
510.067319	0.095976
510.285021	0.096243
510.502704	0.096405
510.720369	0.097430
510.938016	0.097843
511.155645	0.098589
511.373255	0.099040
511.590848	0.098586
511.808422	0.098496
512.025977	0.099386
512.243515	0.099017
512.461034	0.099518
512.678536	0.098840
512.896018	0.100142
513.113483	0.099657
513.330930	0.099176
513.548358	0.100227
513.765768	0.101061
513.983160	0.100917
514.200533	0.101205
514.417889	0.101103
514.635226	0.101167
514.852545	0.100771
515.069845	0.100363
515.287128	0.100706
515.504392	0.100326
515.721638	0.100477
515.938866	0.100619
516.156075	0.100544
516.373267	0.100329
516.590440	0.100152
516.807594	0.099783
517.024731	0.100420
517.241850	0.101154
517.458950	0.101801
517.676032	0.102025
517.893095	0.102254
518.110141	0.102528
518.327168	0.102914
518.544177	0.103532
518.761168	0.104080
518.978141	0.104627
519.195095	0.104300
519.412031	0.104258
519.628949	0.103802
519.845849	0.103940
520.062731	0.104116
520.279594	0.104385
520.496439	0.104121
520.713266	0.104165
520.930074	0.104068
521.146865	0.104153
521.363637	0.103852
521.580391	0.104468
521.797127	0.104680
522.013844	0.104908
522.230543	0.105061
522.447224	0.105058
522.663887	0.104909
522.880532	0.105097
523.097158	0.105310
523.313766	0.106416
523.530356	0.106749
523.746928	0.106342
523.963481	0.106641
524.180017	0.107034
524.396534	0.107340
524.613032	0.107523
524.829513	0.107824
525.045975	0.108515
525.262420	0.107931
525.478845	0.107839
525.695253	0.108056
525.911643	0.108233
526.128014	0.108760
526.344367	0.109092
526.560702	0.109867
526.777018	0.109692
526.993316	0.109616
527.209597	0.110030
527.425858	0.110456
527.642102	0.111359
527.858328	0.111051
528.074535	0.111019
528.290724	0.110735
528.506894	0.110232
528.723047	0.109916
528.939181	0.110753
529.155297	0.111463
529.371395	0.111626
529.587475	0.111695
529.803536	0.111880
530.019579	0.111986
530.235604	0.112819
530.451611	0.113167
530.667600	0.114135
530.883570	0.113606
531.099522	0.113448
531.315456	0.113335
531.531372	0.113271
531.747269	0.113795
531.963148	0.113678
532.179009	0.113753
532.394852	0.114636
532.610676	0.114816
532.826482	0.114917
533.042271	0.114644
533.258040	0.114798
533.473792	0.114799
533.689525	0.115322
533.905240	0.115835
534.120937	0.115676
534.336616	0.115179
534.552277	0.115393
534.767919	0.115984
534.983543	0.116532
535.199149	0.116632
535.414736	0.117088
535.630306	0.116833
535.845857	0.116827
536.061390	0.117385
536.276904	0.118074
536.492401	0.118093
536.707879	0.118316
536.923339	0.118760
537.138781	0.119259
537.354204	0.119407
537.569610	0.119460
537.784997	0.119935
538.000366	0.120030
538.215716	0.120488
538.431049	0.119915
538.646363	0.119556
538.861659	0.119499
539.076937	0.119273
539.292196	0.119095
539.507438	0.119401
539.722661	0.119459
539.937866	0.119545
540.153052	0.118877
540.368221	0.119680
540.583371	0.120251
540.798503	0.120162
541.013617	0.120599
541.228712	0.121520
541.443789	0.121818
541.658848	0.121853
541.873889	0.122383
542.088912	0.122340
542.303916	0.122480
542.518902	0.122279
542.733870	0.122594
542.948820	0.122600
543.163752	0.122275
543.378665	0.122085
543.593560	0.122214
543.808437	0.121942
544.023295	0.122558
544.238136	0.122697
544.452958	0.122924
544.667762	0.122668
544.882548	0.123265
545.097315	0.123517
545.312064	0.123662
545.526795	0.123628
545.741508	0.123634
545.956203	0.123671
546.170879	0.123638
546.385537	0.123720
546.600177	0.124079
546.814799	0.123689
547.029402	0.123735
547.243988	0.123791
547.458555	0.124014
547.673103	0.124309
547.887634	0.124541
548.102146	0.124824
548.316640	0.125303
548.531116	0.125489
548.745574	0.125484
548.960013	0.125633
549.174435	0.125639
549.388838	0.125623
549.603222	0.125884
549.817589	0.125822
550.031937	0.125830
550.246267	0.125721
550.460579	0.126406
550.674873	0.126486
550.889148	0.126856
551.103405	0.127136
551.317644	0.127065
551.531865	0.127186
551.746068	0.126988
551.960252	0.127161
552.174418	0.127520
552.388566	0.127100
552.602696	0.127369
552.816807	0.127472
553.030900	0.127439
553.244975	0.128074
553.459032	0.127819
553.673070	0.128126
553.887091	0.128563
554.101093	0.128195
554.315077	0.128409
554.529042	0.128750
554.742990	0.128605
554.956919	0.129078
555.170830	0.128770
555.384722	0.129022
555.598597	0.129126
555.812453	0.129139
556.026291	0.129192
556.240111	0.129478
556.453913	0.129754
556.667696	0.129943
556.881461	0.129790
557.095208	0.130026
557.308937	0.130127
557.522647	0.130384
557.736339	0.130154
557.950013	0.130524
558.163669	0.129967
558.377307	0.129854
558.590926	0.130056
558.804527	0.130679
559.018110	0.130794
559.231675	0.130861
559.445221	0.131365
559.658749	0.131775
559.872259	0.131955
560.085751	0.132543
560.299225	0.132507
560.512680	0.132514
560.726117	0.132649
560.939536	0.133051
561.152937	0.133579
561.366319	0.133656
561.579683	0.133717
561.793029	0.133566
562.006357	0.133702
562.219667	0.133708
562.432958	0.133744
562.646231	0.133340
562.859486	0.132524
563.072723	0.132514
563.285941	0.132352
563.499141	0.132615
563.712323	0.132887
563.925487	0.132819
564.138632	0.132671
564.351760	0.132845
564.564869	0.132832
564.777960	0.133358
564.991032	0.133529
565.204087	0.133353
565.417123	0.133181
565.630141	0.133260
565.843140	0.133342
566.056122	0.133681
566.269085	0.133770
566.482030	0.134181
566.694957	0.134740
566.907866	0.134750
567.120756	0.135096
567.333628	0.135280
567.546482	0.135352
567.759318	0.135391
567.972135	0.135513
568.184935	0.135672
568.397716	0.135554
568.610478	0.135165
568.823223	0.135018
569.035949	0.135177
569.248657	0.135365
569.461347	0.135598
569.674019	0.135802
569.886672	0.136265
570.099308	0.136280
570.311925	0.136641
570.524523	0.136673
570.737104	0.136756
570.949666	0.136647
571.162210	0.136485
571.374736	0.136371
571.587244	0.136321
571.799733	0.136101
572.012205	0.135663
572.224658	0.135367
572.437092	0.135194
572.649509	0.135210
572.861907	0.135294
573.074287	0.135138
573.286649	0.135261
573.498993	0.135409
573.711318	0.135363
573.923625	0.135747
574.135914	0.135858
574.348185	0.136166
574.560438	0.136212
574.772672	0.136247
574.984888	0.136569
575.197086	0.136570
575.409266	0.136662
575.621427	0.136441
575.833570	0.136924
576.045695	0.136830
576.257802	0.137131
576.469890	0.137323
576.681961	0.137603
576.894013	0.137867
577.106046	0.138260
577.318062	0.138083
577.530059	0.138449
577.742039	0.138372
577.954000	0.138666
578.165942	0.138650
578.377867	0.138654
578.589773	0.138390
578.801661	0.138042
579.013531	0.138042
579.225382	0.138094
579.437216	0.138122
579.649031	0.137940
579.860828	0.138124
580.072606	0.138156
580.284367	0.138203
580.496109	0.138199
580.707833	0.138436
580.919539	0.138438
581.131227	0.138802
581.342896	0.139157
581.554547	0.139418
581.766180	0.139244
581.977795	0.139396
582.189391	0.139360
582.400969	0.139449
582.612529	0.139502
582.824071	0.139464
583.035595	0.139417
583.247100	0.139097
583.458587	0.139186
583.670056	0.139493
583.881506	0.139750
584.092939	0.140029
584.304353	0.140514
584.515749	0.140527
584.727127	0.140828
584.938486	0.140960
585.149828	0.141242
585.361151	0.141132
585.572456	0.140895
585.783742	0.140843
585.995011	0.140985
586.206261	0.141004
586.417493	0.141268
586.628706	0.141409
586.839902	0.141380
587.051079	0.141349
587.262238	0.141283
587.473379	0.141667
587.684502	0.141730
587.895606	0.141858
588.106692	0.141892
588.317760	0.141997
588.528810	0.141900
588.739841	0.142463
588.950855	0.142798
589.161850	0.143037
589.372827	0.143126
589.583785	0.143075
589.794726	0.143260
590.005648	0.143060
590.216552	0.143056
590.427437	0.142750
590.638305	0.142090
590.849154	0.142119
591.059985	0.142166
591.270798	0.142085
591.481592	0.142554
591.692369	0.142369
591.903127	0.142717
592.113867	0.142887
592.324588	0.143331
592.535292	0.143700
592.745977	0.143780
592.956644	0.143915
593.167293	0.144285
593.377923	0.144018
593.588536	0.143844
593.799130	0.143678
594.009706	0.143549
594.220263	0.143406
594.430803	0.143449
594.641324	0.143242
594.851827	0.143275
595.062312	0.143185
595.272778	0.143492
595.483227	0.143620
595.693657	0.143725
595.904069	0.143635
596.114462	0.143879
596.324838	0.143882
596.535195	0.144130
596.745534	0.144150
596.955855	0.144155
597.166157	0.144384
597.376441	0.144515
597.586707	0.144995
597.796955	0.145144
598.007185	0.145001
598.217396	0.145276
598.427589	0.145492
598.637764	0.145683
598.847921	0.146071
599.058060	0.145595
599.268180	0.145746
599.478282	0.145680
599.688366	0.145825
599.898431	0.146204
600.108479	0.146245
600.318508	0.146265
600.528519	0.146409
600.738511	0.146384
600.948486	0.146734
601.158442	0.146952
601.368380	0.146946
601.578300	0.147057
601.788202	0.147040
601.998085	0.147117
602.207950	0.146996
602.417797	0.147172
602.627626	0.147242
602.837436	0.147313
603.047228	0.147216
603.257002	0.147033
603.466758	0.147162
603.676496	0.146939
603.886215	0.147036
604.095916	0.147297
604.305599	0.147252
604.515264	0.147286
604.724910	0.147342
604.934538	0.147369
605.144148	0.147604
605.353740	0.147796
605.563314	0.148083
605.772869	0.148007
605.982406	0.147930
606.191925	0.147928
606.401425	0.147910
606.610908	0.147923
606.820372	0.148260
607.029818	0.148172
607.239246	0.148375
607.448655	0.148566
607.658047	0.148843
607.867420	0.149041
608.076775	0.148846
608.286111	0.148939
608.495430	0.149146
608.704730	0.149026
608.914012	0.149490
609.123275	0.149320
609.332521	0.149175
609.541748	0.148983
609.750957	0.148798
609.960148	0.148865
610.169321	0.148760
610.378475	0.148486
610.587611	0.148707
610.796729	0.148725
611.005829	0.148664
611.214910	0.148644
611.423974	0.148845
611.633019	0.149033
611.842045	0.149339
612.051054	0.149456
612.260044	0.149744
612.469017	0.149817
612.677970	0.149721
612.886906	0.150223
613.095824	0.150555
613.304723	0.150556
613.513604	0.150858
613.722467	0.151086
613.931311	0.151147
614.140138	0.150925
614.348946	0.150766
614.557736	0.150620
614.766507	0.150536
614.975261	0.150418
615.183996	0.150399
615.392713	0.150361
615.601412	0.150408
615.810092	0.150624
616.018754	0.150972
616.227399	0.151104
616.436024	0.151533
616.644632	0.151443
616.853222	0.151555
617.061793	0.151585
617.270346	0.151570
617.478880	0.151405
617.687397	0.151339
617.895895	0.151251
618.104375	0.151228
618.312837	0.151248
618.521281	0.151259
618.729706	0.151512
618.938113	0.151735
619.146502	0.151626
619.354873	0.151634
619.563226	0.151739
619.771560	0.151866
619.979876	0.152024
620.188174	0.151714
620.396453	0.151470
620.604715	0.151238
620.812958	0.151306
621.021183	0.151359
621.229390	0.151680
621.437578	0.151629
621.645748	0.151535
621.853900	0.151470
622.062034	0.151647
622.270150	0.152067
622.478247	0.152193
622.686326	0.152299
622.894387	0.152399
623.102430	0.152414
623.310454	0.152794
623.518461	0.153127
623.726449	0.153156
623.934418	0.153626
624.142370	0.153622
624.350303	0.153605
624.558218	0.153662
624.766115	0.153705
624.973994	0.153403
625.181855	0.153006
625.389697	0.153112
625.597521	0.153460
625.805327	0.153480
626.013114	0.153542
626.220883	0.153711
626.428634	0.153807
626.636367	0.154239
626.844082	0.154648
627.051778	0.155317
627.259457	0.155399
627.467117	0.155275
627.674758	0.154872
627.882382	0.154929
628.089987	0.155039
628.297574	0.154842
628.505143	0.154540
628.712694	0.154663
628.920226	0.154437
629.127740	0.154417
629.335236	0.154510
629.542714	0.154687
629.750174	0.154847
629.957615	0.154923
630.165038	0.154807
630.372443	0.155099
630.579829	0.154983
630.787198	0.155017
630.994548	0.155027
631.201880	0.155145
631.409194	0.155453
631.616489	0.155394
631.823766	0.155602
632.031025	0.156051
632.238266	0.155947
632.445489	0.156163
632.652693	0.156349
632.859879	0.156678
633.067047	0.156750
633.274197	0.156631
633.481329	0.156993
633.688442	0.157019
633.895537	0.157085
634.102614	0.157374
634.309672	0.157368
634.516713	0.157439
634.723735	0.157113
634.930739	0.157132
635.137724	0.157282
635.344692	0.157168
635.551641	0.157183
635.758572	0.157294
635.965485	0.157137
636.172379	0.157120
636.379256	0.156979
636.586114	0.157076
636.792954	0.157246
636.999775	0.157238
637.206579	0.156959
637.413364	0.157060
637.620131	0.157147
637.826880	0.157299
638.033610	0.157625
638.240323	0.157577
638.447017	0.157848
638.653692	0.157924
638.860350	0.158002
639.066990	0.158606
639.273611	0.158699
639.480214	0.158907
639.686798	0.158971
639.893365	0.158799
640.099913	0.159077
640.306443	0.159106
640.512955	0.159004
640.719449	0.158959
640.925924	0.158818
641.132381	0.158848
641.338820	0.158811
641.545241	0.159006
641.751644	0.159258
641.958028	0.159371
642.164394	0.159424
642.370742	0.159588
642.577071	0.159943
642.783383	0.159959
642.989676	0.159875
643.195951	0.159754
643.402207	0.159718
643.608446	0.159632
643.814666	0.159799
644.020868	0.159782
644.227052	0.160101
644.433218	0.160099
644.639365	0.160446
644.845494	0.160689
645.051605	0.160893
645.257698	0.160954
645.463772	0.161063
645.669828	0.161059
645.875866	0.161126
646.081886	0.160993
646.287888	0.160955
646.493871	0.160666
646.699836	0.160887
646.905783	0.160979
647.111712	0.161266
647.317622	0.161584
647.523514	0.161369
647.729388	0.161722
647.935244	0.162035
648.141082	0.162194
648.346901	0.162814
648.552702	0.162907
648.758485	0.162983
648.964250	0.162886
649.169996	0.162877
649.375724	0.163123
649.581434	0.163141
649.787126	0.163063
649.992800	0.163164
650.198455	0.163205
650.404092	0.163020
650.609711	0.163255
650.815311	0.163449
651.020894	0.163523
651.226458	0.163855
651.432004	0.163994
651.637532	0.164256
651.843041	0.164424
652.048532	0.164346
652.254006	0.164533
652.459460	0.164551
652.664897	0.164516
652.870315	0.164526
653.075716	0.164505
653.281097	0.164354
653.486461	0.164199
653.691807	0.164377
653.897134	0.164514
654.102443	0.164889
654.307734	0.165008
654.513006	0.165167
654.718261	0.165394
654.923497	0.165670
655.128715	0.166040
655.333915	0.166392
655.539096	0.166484
655.744259	0.166534
655.949404	0.166378
656.154531	0.166415
656.359640	0.166730
656.564730	0.166868
656.769802	0.167127
656.974856	0.167016
657.179892	0.166983
657.384909	0.166894
657.589908	0.166860
657.794889	0.166973
657.999852	0.167175
658.204797	0.167247
658.409723	0.167223
658.614631	0.167068
658.819521	0.167488
659.024393	0.167613
659.229246	0.167796
659.434081	0.167997
659.638898	0.168049
659.843697	0.168138
660.048478	0.168213
660.253240	0.168330
660.457984	0.168474
660.662710	0.168435
660.867417	0.168550
661.072107	0.168884
661.276778	0.169126
661.481431	0.169350
661.686066	0.169506
661.890682	0.169600
662.095281	0.169892
662.299861	0.169972
662.504422	0.170094
662.708966	0.170136
662.913491	0.170161
663.117999	0.170227
663.322488	0.170189
663.526958	0.170226
663.731411	0.170441
663.935845	0.170661
664.140261	0.170847
664.344659	0.171014
664.549038	0.171173
664.753400	0.171266
664.957743	0.171265
665.162068	0.171642
665.366375	0.171685
665.570663	0.171693
665.774933	0.171655
665.979185	0.171671
666.183419	0.171832
666.387635	0.171889
666.591832	0.171709
666.796011	0.171866
667.000172	0.171841
667.204315	0.172014
667.408439	0.172027
667.612545	0.171729
667.816634	0.171864
668.020703	0.171810
668.224755	0.171845
668.428788	0.172078
668.632803	0.171996
668.836800	0.172069
669.040779	0.172170
669.244739	0.172227
669.448681	0.172564
669.652605	0.172618
669.856511	0.172707
670.060399	0.172916
670.264268	0.173168
670.468119	0.173536
670.671952	0.173683
670.875767	0.173786
671.079563	0.173961
671.283341	0.173923
671.487101	0.174102
671.690843	0.174120
671.894567	0.174232
672.098272	0.174161
672.301959	0.174129
672.505628	0.174167
672.709278	0.174199
672.912911	0.174167
673.116525	0.174406
673.320121	0.174467
673.523699	0.174705
673.727258	0.174694
673.930799	0.174640
674.134322	0.174749
674.337827	0.174879
674.541314	0.175148
674.744782	0.175377
674.948232	0.175544
675.151664	0.175588
675.355078	0.175597
675.558474	0.175684
675.761851	0.175971
675.965210	0.176076
676.168551	0.175934
676.371873	0.175876
676.575178	0.176031
676.778464	0.176034
676.981732	0.176146
677.184981	0.176182
677.388213	0.176344
677.591426	0.176374
677.794621	0.176440
677.997798	0.176712
678.200956	0.176910
678.404097	0.177115
678.607219	0.177214
678.810323	0.177319
679.013408	0.177448
679.216476	0.177741
679.419525	0.177903
679.622556	0.177979
679.825569	0.178092
680.028563	0.178081
680.231540	0.177920
680.434498	0.177936
680.637438	0.177923
680.840359	0.177929
681.043263	0.177868
681.246148	0.177884
681.449015	0.177846
681.651864	0.178070
681.854694	0.178341
682.057506	0.178523
682.260301	0.178858
682.463076	0.179270
682.665834	0.179373
682.868573	0.179453
683.071295	0.179733
683.273998	0.179989
683.476682	0.179962
683.679349	0.179882
683.881997	0.179933
684.084627	0.179903
684.287239	0.179760
684.489833	0.180012
684.692408	0.180153
684.894965	0.180339
685.097504	0.180481
685.300025	0.180743
685.502527	0.180853
685.705012	0.180832
685.907478	0.181070
686.109925	0.181146
686.312355	0.180948
686.514766	0.180946
686.717159	0.180834
686.919534	0.180930
687.121891	0.180896
687.324230	0.181139
687.526550	0.181255
687.728852	0.181244
687.931136	0.181435
688.133401	0.181888
688.335649	0.182018
688.537878	0.182170
688.740089	0.182061
688.942281	0.182285
689.144456	0.182331
689.346612	0.182322
689.548750	0.182409
689.750870	0.182396
689.952971	0.182397
690.155055	0.182390
690.357120	0.182121
690.559167	0.182345
690.761195	0.182268
690.963206	0.182362
691.165198	0.182481
691.367172	0.182462
691.569128	0.182467
691.771065	0.182674
691.972984	0.182771
692.174885	0.183033
692.376768	0.183248
692.578633	0.183175
692.780479	0.183104
692.982308	0.183362
693.184118	0.183603
693.385909	0.183605
