sample name	sample
index	1415
start time	 05-10-2021  11:51:05 AM


Wavelength (nm)	Absorbance
494.344910	-0.000836
494.563924	-0.000836
494.782919	-0.000836
495.001897	0.021446
495.220856	-0.012255
495.439797	-0.020405
495.658719	-0.020407
495.877624	-0.021075
496.096510	-0.026546
496.315378	-0.026049
496.534227	-0.023847
496.753059	-0.023136
496.971872	-0.017431
497.190667	0.052215
497.409444	0.083459
497.628203	0.097823
497.846943	0.102082
498.065665	0.104743
498.284369	0.107221
498.503055	0.108045
498.721723	0.109764
498.940372	0.109255
499.159003	0.109201
499.377616	0.109538
499.596210	0.107646
499.814787	0.107258
500.033345	0.108400
500.251885	0.107317
500.470406	0.107976
500.688910	0.107344
500.907395	0.108821
501.125862	0.108954
501.344311	0.110168
501.562742	0.110723
501.781154	0.111087
501.999548	0.111667
502.217924	0.111993
502.436282	0.112166
502.654621	0.112962
502.872942	0.112127
503.091245	0.112468
503.309530	0.111427
503.527797	0.111293
503.746045	0.111443
503.964275	0.109479
504.182487	0.109451
504.400681	0.109378
504.618856	0.108094
504.837013	0.108419
505.055152	0.108766
505.273273	0.108646
505.491376	0.109790
505.709460	0.110308
505.927526	0.111175
506.145574	0.110919
506.363604	0.110390
506.581615	0.112331
506.799608	0.112351
507.017583	0.112542
507.235540	0.112287
507.453478	0.112387
507.671399	0.111906
507.889301	0.112352
508.107185	0.113080
508.325050	0.113824
508.542898	0.112863
508.760727	0.113505
508.978538	0.113930
509.196330	0.113942
509.414105	0.113661
509.631861	0.114427
509.849599	0.114152
510.067319	0.114222
510.285021	0.114742
510.502704	0.114912
510.720369	0.115372
510.938016	0.115300
511.155645	0.115815
511.373255	0.116009
511.590848	0.116172
511.808422	0.116941
512.025977	0.117921
512.243515	0.117928
512.461034	0.118407
512.678536	0.118102
512.896018	0.118157
513.113483	0.118117
513.330930	0.117841
513.548358	0.117841
513.765768	0.117551
513.983160	0.117405
514.200533	0.118025
514.417889	0.118149
514.635226	0.118102
514.852545	0.118440
515.069845	0.119122
515.287128	0.119993
515.504392	0.120309
515.721638	0.120673
515.938866	0.120495
516.156075	0.120562
516.373267	0.120385
516.590440	0.120162
516.807594	0.119704
517.024731	0.119964
517.241850	0.119972
517.458950	0.120236
517.676032	0.120367
517.893095	0.120379
518.110141	0.120281
518.327168	0.120370
518.544177	0.121199
518.761168	0.121924
518.978141	0.122355
519.195095	0.122180
519.412031	0.122547
519.628949	0.122465
519.845849	0.123026
520.062731	0.123124
520.279594	0.123748
520.496439	0.123331
520.713266	0.123501
520.930074	0.123888
521.146865	0.123839
521.363637	0.123147
521.580391	0.123912
521.797127	0.124547
522.013844	0.124941
522.230543	0.125173
522.447224	0.125863
522.663887	0.126504
522.880532	0.125897
523.097158	0.126384
523.313766	0.127766
523.530356	0.127731
523.746928	0.127172
523.963481	0.127015
524.180017	0.127262
524.396534	0.127069
524.613032	0.126923
524.829513	0.127233
525.045975	0.127746
525.262420	0.127475
525.478845	0.127156
525.695253	0.127541
525.911643	0.127920
526.128014	0.127667
526.344367	0.128454
526.560702	0.128186
526.777018	0.128340
526.993316	0.128624
527.209597	0.129012
527.425858	0.129506
527.642102	0.130469
527.858328	0.130766
528.074535	0.130833
528.290724	0.130635
528.506894	0.131104
528.723047	0.131640
528.939181	0.131389
529.155297	0.130574
529.371395	0.130888
529.587475	0.130205
529.803536	0.130286
530.019579	0.130813
530.235604	0.130984
530.451611	0.131151
530.667600	0.131015
530.883570	0.131376
531.099522	0.131882
531.315456	0.132254
531.531372	0.133214
531.747269	0.133260
531.963148	0.134359
532.179009	0.134500
532.394852	0.135352
532.610676	0.136178
532.826482	0.136314
533.042271	0.136137
533.258040	0.136508
533.473792	0.136473
533.689525	0.137292
533.905240	0.136867
534.120937	0.137633
534.336616	0.137390
534.552277	0.137263
534.767919	0.137670
534.983543	0.138556
535.199149	0.138676
535.414736	0.139056
535.630306	0.138833
535.845857	0.139730
536.061390	0.140340
536.276904	0.140208
536.492401	0.140094
536.707879	0.139853
536.923339	0.140443
537.138781	0.141515
537.354204	0.141510
537.569610	0.141582
537.784997	0.141161
538.000366	0.140107
538.215716	0.140002
538.431049	0.140671
538.646363	0.140969
538.861659	0.140523
539.076937	0.139745
539.292196	0.139892
539.507438	0.140303
539.722661	0.140425
539.937866	0.141256
540.153052	0.142037
540.368221	0.142152
540.583371	0.142273
540.798503	0.142811
541.013617	0.143056
541.228712	0.143409
541.443789	0.143788
541.658848	0.143729
541.873889	0.143972
542.088912	0.143959
542.303916	0.143867
542.518902	0.144396
542.733870	0.144434
542.948820	0.144770
543.163752	0.145023
543.378665	0.145178
543.593560	0.145499
543.808437	0.145881
544.023295	0.146159
544.238136	0.146685
544.452958	0.147020
544.667762	0.146995
544.882548	0.147014
545.097315	0.147035
545.312064	0.146823
545.526795	0.146856
545.741508	0.146670
545.956203	0.146801
546.170879	0.147073
546.385537	0.147390
546.600177	0.148002
546.814799	0.147997
547.029402	0.148410
547.243988	0.148704
547.458555	0.149392
547.673103	0.149757
547.887634	0.149862
548.102146	0.149674
548.316640	0.149758
548.531116	0.149647
548.745574	0.150285
548.960013	0.149760
549.174435	0.149897
549.388838	0.149690
549.603222	0.149459
549.817589	0.149641
550.031937	0.150089
550.246267	0.150233
550.460579	0.150946
550.674873	0.150605
550.889148	0.151006
551.103405	0.150791
551.317644	0.150971
551.531865	0.151609
551.746068	0.151518
551.960252	0.151182
552.174418	0.150813
552.388566	0.150573
552.602696	0.151215
552.816807	0.151812
553.030900	0.152071
553.244975	0.152227
553.459032	0.152232
553.673070	0.152740
553.887091	0.153262
554.101093	0.153810
554.315077	0.153598
554.529042	0.153640
554.742990	0.153473
554.956919	0.154069
555.170830	0.154829
555.384722	0.154899
555.598597	0.154648
555.812453	0.154661
556.026291	0.154636
556.240111	0.155187
556.453913	0.155241
556.667696	0.155598
556.881461	0.155732
557.095208	0.155176
557.308937	0.155343
557.522647	0.155888
557.736339	0.155958
557.950013	0.156209
558.163669	0.156130
558.377307	0.156102
558.590926	0.156113
558.804527	0.156168
559.018110	0.156688
559.231675	0.156489
559.445221	0.156552
559.658749	0.156585
559.872259	0.156687
560.085751	0.157194
560.299225	0.157297
560.512680	0.157288
560.726117	0.157563
560.939536	0.157482
561.152937	0.157887
561.366319	0.158041
561.579683	0.158238
561.793029	0.158483
562.006357	0.158460
562.219667	0.158849
562.432958	0.158754
562.646231	0.159036
562.859486	0.159328
563.072723	0.159390
563.285941	0.159753
563.499141	0.159639
563.712323	0.159471
563.925487	0.159479
564.138632	0.159458
564.351760	0.159700
564.564869	0.159620
564.777960	0.159757
564.991032	0.159824
565.204087	0.159678
565.417123	0.160165
565.630141	0.160371
565.843140	0.160757
566.056122	0.160805
566.269085	0.161385
566.482030	0.161396
566.694957	0.161147
566.907866	0.161527
567.120756	0.161797
567.333628	0.161863
567.546482	0.162031
567.759318	0.162025
567.972135	0.161929
568.184935	0.161545
568.397716	0.161767
568.610478	0.161957
568.823223	0.162195
569.035949	0.162170
569.248657	0.162363
569.461347	0.162508
569.674019	0.162581
569.886672	0.162993
570.099308	0.163236
570.311925	0.163355
570.524523	0.163836
570.737104	0.163312
570.949666	0.163835
571.162210	0.163640
571.374736	0.163698
571.587244	0.163823
571.799733	0.164023
572.012205	0.164317
572.224658	0.164309
572.437092	0.164044
572.649509	0.164289
572.861907	0.164023
573.074287	0.164142
573.286649	0.164571
573.498993	0.164612
573.711318	0.164703
573.923625	0.164604
574.135914	0.164420
574.348185	0.164901
574.560438	0.165581
574.772672	0.165639
574.984888	0.166170
575.197086	0.165931
575.409266	0.166110
575.621427	0.166181
575.833570	0.166180
576.045695	0.166801
576.257802	0.166914
576.469890	0.167054
576.681961	0.167663
576.894013	0.167762
577.106046	0.167796
577.318062	0.168185
577.530059	0.167969
577.742039	0.168444
577.954000	0.168456
578.165942	0.168576
578.377867	0.168364
578.589773	0.167879
578.801661	0.167904
579.013531	0.168247
579.225382	0.168430
579.437216	0.168768
579.649031	0.168988
579.860828	0.168828
580.072606	0.168745
580.284367	0.169205
580.496109	0.169630
580.707833	0.169602
580.919539	0.169669
581.131227	0.169594
581.342896	0.169719
581.554547	0.170047
581.766180	0.170326
581.977795	0.170706
582.189391	0.170454
582.400969	0.170611
582.612529	0.170830
582.824071	0.171214
583.035595	0.171350
583.247100	0.171610
583.458587	0.171625
583.670056	0.171754
583.881506	0.171673
584.092939	0.171909
584.304353	0.171938
584.515749	0.172161
584.727127	0.172077
584.938486	0.172043
585.149828	0.172369
585.361151	0.172041
585.572456	0.172534
585.783742	0.172634
585.995011	0.172850
586.206261	0.173214
586.417493	0.173601
586.628706	0.173691
586.839902	0.173906
587.051079	0.173825
587.262238	0.174153
587.473379	0.173870
587.684502	0.174113
587.895606	0.174255
588.106692	0.174211
588.317760	0.174098
588.528810	0.174248
588.739841	0.174457
588.950855	0.174639
589.161850	0.174702
589.372827	0.174749
589.583785	0.174616
589.794726	0.174895
590.005648	0.175072
590.216552	0.175331
590.427437	0.175225
590.638305	0.174994
590.849154	0.174995
591.059985	0.175121
591.270798	0.175440
591.481592	0.175965
591.692369	0.175588
591.903127	0.175736
592.113867	0.175561
592.324588	0.176181
592.535292	0.176496
592.745977	0.176678
592.956644	0.176761
593.167293	0.176775
593.377923	0.176762
593.588536	0.177376
593.799130	0.177205
594.009706	0.177537
594.220263	0.177573
594.430803	0.177433
594.641324	0.177595
594.851827	0.178240
595.062312	0.178544
595.272778	0.178699
595.483227	0.178647
595.693657	0.178853
595.904069	0.178572
596.114462	0.178696
596.324838	0.179434
596.535195	0.179358
596.745534	0.179333
596.955855	0.179541
597.166157	0.179803
597.376441	0.180286
597.586707	0.180700
597.796955	0.181497
598.007185	0.181348
598.217396	0.181278
598.427589	0.181589
598.637764	0.181665
598.847921	0.181822
599.058060	0.181925
599.268180	0.181814
599.478282	0.181546
599.688366	0.181432
599.898431	0.181814
600.108479	0.181979
600.318508	0.182270
600.528519	0.182179
600.738511	0.182342
600.948486	0.182324
601.158442	0.182174
601.368380	0.182623
601.578300	0.182862
601.788202	0.182922
601.998085	0.182899
602.207950	0.182525
602.417797	0.182532
602.627626	0.182405
602.837436	0.182126
603.047228	0.182451
603.257002	0.182232
603.466758	0.181864
603.676496	0.181575
603.886215	0.181497
604.095916	0.181894
604.305599	0.182254
604.515264	0.182474
604.724910	0.182854
604.934538	0.182785
605.144148	0.183106
605.353740	0.183512
605.563314	0.183897
605.772869	0.184179
605.982406	0.184001
606.191925	0.183999
606.401425	0.183991
606.610908	0.184295
606.820372	0.184343
607.029818	0.184262
607.239246	0.184604
607.448655	0.184913
607.658047	0.184747
607.867420	0.185045
608.076775	0.185191
608.286111	0.185442
608.495430	0.185643
608.704730	0.185658
608.914012	0.185778
609.123275	0.185656
609.332521	0.185737
609.541748	0.186302
609.750957	0.186705
609.960148	0.186743
610.169321	0.186896
610.378475	0.186859
610.587611	0.187339
610.796729	0.187734
611.005829	0.187800
611.214910	0.188234
611.423974	0.188274
611.633019	0.188161
611.842045	0.188380
612.051054	0.188305
612.260044	0.188480
612.469017	0.188580
612.677970	0.188601
612.886906	0.188812
613.095824	0.188833
613.304723	0.188808
613.513604	0.189070
613.722467	0.189100
613.931311	0.189366
614.140138	0.189135
614.348946	0.189356
614.557736	0.189806
614.766507	0.189847
614.975261	0.189704
615.183996	0.189875
615.392713	0.190082
615.601412	0.190349
615.810092	0.190439
616.018754	0.190653
616.227399	0.190595
616.436024	0.190620
616.644632	0.190522
616.853222	0.190655
617.061793	0.191016
617.270346	0.191130
617.478880	0.191324
617.687397	0.191163
617.895895	0.191426
618.104375	0.191399
618.312837	0.191326
618.521281	0.191835
618.729706	0.191947
618.938113	0.191811
619.146502	0.191674
619.354873	0.191400
619.563226	0.191924
619.771560	0.191737
619.979876	0.192101
620.188174	0.192379
620.396453	0.192167
620.604715	0.192292
620.812958	0.192440
621.021183	0.192726
621.229390	0.193236
621.437578	0.193346
621.645748	0.194099
621.853900	0.194022
622.062034	0.194029
622.270150	0.194277
622.478247	0.194635
622.686326	0.194834
622.894387	0.194880
623.102430	0.194903
623.310454	0.194736
623.518461	0.194661
623.726449	0.195049
623.934418	0.195127
624.142370	0.195456
624.350303	0.195549
624.558218	0.195478
624.766115	0.195765
624.973994	0.195772
625.181855	0.195945
625.389697	0.195962
625.597521	0.195821
625.805327	0.196068
626.013114	0.196135
626.220883	0.196073
626.428634	0.196589
626.636367	0.196416
626.844082	0.196709
627.051778	0.196944
627.259457	0.197105
627.467117	0.197134
627.674758	0.197234
627.882382	0.197129
628.089987	0.197054
628.297574	0.196898
628.505143	0.196949
628.712694	0.196787
628.920226	0.197010
629.127740	0.197333
629.335236	0.197626
629.542714	0.197744
629.750174	0.198065
629.957615	0.198407
630.165038	0.198450
630.372443	0.198693
630.579829	0.199131
630.787198	0.199146
630.994548	0.199072
631.201880	0.199408
631.409194	0.199585
631.616489	0.199631
631.823766	0.199676
632.031025	0.199823
632.238266	0.200063
632.445489	0.200072
632.652693	0.200221
632.859879	0.200196
633.067047	0.200075
633.274197	0.200078
633.481329	0.200292
633.688442	0.200476
633.895537	0.200811
634.102614	0.201055
634.309672	0.200998
634.516713	0.201358
634.723735	0.201811
634.930739	0.201910
635.137724	0.202344
635.344692	0.202423
635.551641	0.202526
635.758572	0.202662
635.965485	0.202681
636.172379	0.202967
636.379256	0.202801
636.586114	0.202663
636.792954	0.203122
636.999775	0.202871
637.206579	0.203027
637.413364	0.202996
637.620131	0.202889
637.826880	0.203131
638.033610	0.203271
638.240323	0.203469
638.447017	0.203695
638.653692	0.203567
638.860350	0.203494
639.066990	0.203682
639.273611	0.203963
639.480214	0.204061
639.686798	0.204077
639.893365	0.204117
640.099913	0.204330
640.306443	0.204313
640.512955	0.204390
640.719449	0.204985
640.925924	0.205040
641.132381	0.204951
641.338820	0.205220
641.545241	0.205461
641.751644	0.205776
641.958028	0.205990
642.164394	0.206343
642.370742	0.206515
642.577071	0.206436
642.783383	0.206634
642.989676	0.206925
643.195951	0.206950
643.402207	0.206956
643.608446	0.207221
643.814666	0.207070
644.020868	0.207224
644.227052	0.207396
644.433218	0.207621
644.639365	0.207675
644.845494	0.207874
645.051605	0.207979
645.257698	0.208094
645.463772	0.207973
645.669828	0.208023
645.875866	0.208175
646.081886	0.208530
646.287888	0.208183
646.493871	0.208146
646.699836	0.208283
646.905783	0.208332
647.111712	0.208460
647.317622	0.208535
647.523514	0.208794
647.729388	0.208612
647.935244	0.208343
648.141082	0.208807
648.346901	0.208976
648.552702	0.209341
648.758485	0.209586
648.964250	0.209802
649.169996	0.209929
649.375724	0.209995
649.581434	0.210089
649.787126	0.210289
649.992800	0.210409
650.198455	0.210645
650.404092	0.210421
650.609711	0.210601
650.815311	0.210654
651.020894	0.210574
651.226458	0.210819
651.432004	0.211113
651.637532	0.211288
651.843041	0.211532
652.048532	0.211758
652.254006	0.211932
652.459460	0.212255
652.664897	0.212235
652.870315	0.212577
653.075716	0.212582
653.281097	0.212466
653.486461	0.212547
653.691807	0.212622
653.897134	0.212563
654.102443	0.212738
654.307734	0.212480
654.513006	0.212424
654.718261	0.212765
654.923497	0.213035
655.128715	0.213386
655.333915	0.213413
655.539096	0.213340
655.744259	0.213495
655.949404	0.213442
656.154531	0.213493
656.359640	0.213932
656.564730	0.213642
656.769802	0.213665
656.974856	0.213676
657.179892	0.213674
657.384909	0.213747
657.589908	0.213752
657.794889	0.213729
657.999852	0.213806
658.204797	0.213812
658.409723	0.213948
658.614631	0.214162
658.819521	0.214371
659.024393	0.214628
659.229246	0.214907
659.434081	0.215194
659.638898	0.215461
659.843697	0.215771
660.048478	0.215890
660.253240	0.216207
660.457984	0.216620
660.662710	0.217019
660.867417	0.217290
661.072107	0.217653
661.276778	0.217851
661.481431	0.218472
661.686066	0.218692
661.890682	0.218786
662.095281	0.219176
662.299861	0.219216
662.504422	0.219225
662.708966	0.219436
662.913491	0.219526
663.117999	0.219700
663.322488	0.219599
663.526958	0.220103
663.731411	0.220465
663.935845	0.220391
664.140261	0.220347
664.344659	0.220382
664.549038	0.220471
664.753400	0.220655
664.957743	0.220812
665.162068	0.221180
665.366375	0.221119
665.570663	0.221164
665.774933	0.221306
665.979185	0.221642
666.183419	0.221852
666.387635	0.221884
666.591832	0.222019
666.796011	0.222059
667.000172	0.221816
667.204315	0.222068
667.408439	0.222266
667.612545	0.222502
667.816634	0.222510
668.020703	0.222561
668.224755	0.222695
668.428788	0.222943
668.632803	0.223302
668.836800	0.223360
669.040779	0.223489
669.244739	0.223580
669.448681	0.223733
669.652605	0.223985
669.856511	0.224263
670.060399	0.224641
670.264268	0.224609
670.468119	0.224664
670.671952	0.225066
670.875767	0.225030
671.079563	0.225346
671.283341	0.225342
671.487101	0.225378
671.690843	0.225304
671.894567	0.225434
672.098272	0.225608
672.301959	0.225810
672.505628	0.225661
672.709278	0.225838
672.912911	0.226132
673.116525	0.226589
673.320121	0.226648
673.523699	0.226992
673.727258	0.227053
673.930799	0.227090
674.134322	0.227232
674.337827	0.227536
674.541314	0.227869
674.744782	0.227898
674.948232	0.228010
675.151664	0.228400
675.355078	0.228487
675.558474	0.228802
675.761851	0.229113
675.965210	0.229327
676.168551	0.229459
676.371873	0.229440
676.575178	0.229800
676.778464	0.229821
676.981732	0.229768
677.184981	0.230126
677.388213	0.230227
677.591426	0.230474
677.794621	0.230648
677.997798	0.231002
678.200956	0.231250
678.404097	0.231178
678.607219	0.231411
678.810323	0.231575
679.013408	0.231518
679.216476	0.231506
679.419525	0.231533
679.622556	0.231506
679.825569	0.231881
680.028563	0.231766
680.231540	0.231878
680.434498	0.231927
680.637438	0.232089
680.840359	0.232454
681.043263	0.232771
681.246148	0.232654
681.449015	0.232876
681.651864	0.232833
681.854694	0.233248
682.057506	0.233640
682.260301	0.233983
682.463076	0.234292
682.665834	0.234433
682.868573	0.234777
683.071295	0.235195
683.273998	0.235554
683.476682	0.235686
683.679349	0.235987
683.881997	0.236082
684.084627	0.236169
684.287239	0.236400
684.489833	0.236625
684.692408	0.236615
684.894965	0.236821
685.097504	0.236869
685.300025	0.237003
685.502527	0.236908
685.705012	0.236595
685.907478	0.236509
686.109925	0.236554
686.312355	0.236527
686.514766	0.236573
686.717159	0.236771
686.919534	0.236728
687.121891	0.236876
687.324230	0.236886
687.526550	0.237415
687.728852	0.237577
687.931136	0.237623
688.133401	0.237802
688.335649	0.238017
688.537878	0.237951
688.740089	0.238390
688.942281	0.238640
689.144456	0.239243
689.346612	0.239314
689.548750	0.239623
689.750870	0.239985
689.952971	0.240165
690.155055	0.240541
690.357120	0.241122
690.559167	0.241169
690.761195	0.241362
690.963206	0.241337
691.165198	0.241527
691.367172	0.241728
691.569128	0.241757
691.771065	0.242011
691.972984	0.241931
692.174885	0.241843
692.376768	0.242068
692.578633	0.242200
692.780479	0.242228
692.982308	0.242271
693.184118	0.242361
693.385909	0.242484
