sample name	sample
index	723
start time	 03-25-2021  11:51:13 AM
880	0.259453
Peak Time (s)	92.535
Peak Height 	0.2595
calc peak height	90,93
Baseline Time (s)	10.037
Baseline Value 	-0.004918
subtract baseline	10,4
Abs	0.165132
Peak Time (s)	90.036
Peak Height 	0.1651
calc peak height	90,93
Baseline Time (s)	11.035
Baseline Value 	0.005007
subtract baseline	10,3
PK_550	0.094507
Peak Time (s)	92.038
Peak Height 	0.09451
calc peak height	90,93
Baseline Time (s)	9.037
Baseline Value 	6.2443E-4
subtract baseline	10,2
PK_880	0.155951
Peak Time (s)	91.537
Peak Height 	0.156
calc peak height	90,93
Baseline Time (s)	8.536
Baseline Value 	0.003989
subtract baseline	10,1


Time (s)	A880-A510	A880-A775	A880-A975	A880	I510	I775	I975	I880	
0.036500	-0.003733	-0.000572	-0.001440	0.001909	7163.086876	44084.745487	3941.447188	23493.792345
0.537000	-0.005743	-0.001264	-0.003786	0.003849	7124.132709	43836.093561	3930.498042	23401.850692
1.037500	-0.005198	-0.000638	-0.002963	0.002511	7142.660780	44021.507966	3936.007585	23465.237347
1.538000	-0.004955	0.000155	-0.003686	0.006328	7107.565956	43736.474571	3924.468954	23284.977043
2.035000	-0.001534	-0.000328	-0.003487	0.000433	7199.642658	44247.973576	3939.980299	23564.001583
2.535500	-0.001564	-0.000114	-0.000572	0.000140	7202.270447	44296.151773	3948.234973	23577.954300
3.035500	0.000384	0.000145	-0.005272	-0.001877	7242.100823	44513.564236	3941.330805	23674.409458
3.536000	-0.002708	0.000089	-0.001338	0.003429	7158.193858	44003.460266	3937.814979	23421.742829
4.039000	0.000340	0.000129	0.002143	0.000183	7220.922977	44315.226665	3955.157456	23575.930625
4.536500	-0.000959	-0.000567	-0.000946	-0.000501	7214.748057	44314.132053	3948.927087	23608.583900
5.037000	-0.001885	-0.000866	-0.003061	-0.000719	7207.656265	44306.392441	3944.036552	23618.999499
5.537000	-0.000385	0.000067	-0.000147	0.000518	7210.289142	44277.531919	3948.357500	23559.977093
6.034500	-0.001592	-0.000185	-0.006745	-0.000555	7208.951260	44355.664957	3934.178415	23611.150648
6.535000	-0.000736	0.001076	-0.000104	0.000657	7205.381647	44360.296460	3948.108366	23553.333003
7.035000	-0.001076	0.000177	-0.001437	0.000082	7207.736059	44329.495976	3946.155291	23580.758082
7.535500	0.000111	0.000117	-0.003488	-0.000107	7221.521956	44341.694001	3941.362358	23589.738929
8.035500	-0.000867	0.000998	0.000860	0.000098	7209.662100	44406.172107	3952.047565	23579.964708
8.536000	0.000000	-0.000075	0.000198	-0.000621	7225.577155	44372.470241	3952.197978	23614.292809
9.036500	0.000026	0.000000	0.000112	-0.000174	7221.344728	44336.941757	3950.815093	23592.937340
9.537000	0.000635	0.000780	-0.001494	0.000627	7219.418688	44334.982276	3944.602231	23554.750975
10.037000	-0.001020	-0.000100	0.000939	0.000000	7209.115346	44310.912981	3952.508429	23584.654817
10.537000	-0.000229	0.000576	-0.002182	0.000173	7215.312549	44358.793959	3944.000489	23576.400966
11.035000	-0.000962	-0.000049	0.000000	-0.000238	7212.083311	44338.437575	3950.693598	23596.033086
11.535000	0.001398	0.001280	-0.003667	0.001156	7221.777744	44332.248364	3937.669591	23529.594785
12.035000	-0.000581	0.000142	-0.000584	0.000375	7209.751677	44298.146667	3947.597461	23566.764367
12.535000	-0.003585	0.000323	-0.001581	0.005435	7129.753662	43836.232667	3932.074014	23326.999141
13.036000	0.001181	0.000194	0.001151	-0.000182	7233.051764	44356.306691	3953.530083	23593.361328
13.536500	-0.000024	0.000978	-0.002012	0.000335	7215.737116	44381.706184	3944.021300	23568.666153
14.036500	-0.002422	0.001623	0.001692	0.004140	7153.981047	44081.288687	3943.760219	23388.092926
14.537000	-0.003144	0.000162	0.000198	0.005388	7134.556608	43825.484866	3936.732611	23329.224448
15.040500	0.000347	0.000606	-0.003457	0.000073	7222.090400	44371.169487	3940.982347	23581.161799
15.537500	0.000088	0.000591	-0.004516	0.000346	7216.753151	44343.756809	3937.569597	23568.177222
16.035000	-0.000203	0.000877	0.000717	0.000321	7214.090184	44373.416848	3951.102322	23569.343358
16.535000	-0.003030	0.000919	-0.004418	0.004980	7139.693111	43935.273827	3926.027575	23348.453096
17.035500	0.002977	0.001552	0.001298	-0.001660	7266.123608	44627.505654	3957.753517	23663.979149
17.536000	-0.000602	0.000678	0.003503	0.001912	7194.184161	44203.005059	3954.198322	23493.642450
18.038500	0.000261	0.000940	-0.000241	0.002362	7198.306506	44185.166558	3943.362839	23472.292694
18.536500	-0.001013	0.000910	0.001968	0.004014	7169.185361	44025.779445	3944.796901	23394.077797
19.037000	-0.000451	0.000567	-0.005073	0.002600	7188.833225	44127.236808	3930.403074	23461.018686
19.537000	-0.000553	0.000724	-0.002635	0.002061	7193.188778	44193.213643	3937.994398	23486.578587
20.037500	-0.000834	0.000783	0.001391	0.001866	7192.326699	44217.304179	3948.847594	23495.818182
20.537000	-0.002476	0.001178	0.002768	0.004333	7151.541900	44020.949454	3946.037635	23379.001058
21.035000	-0.000952	0.000771	0.006750	0.002217	7187.650338	44182.847584	3961.862736	23479.159559
21.535000	0.000815	0.000457	0.002107	0.001960	7207.870944	44177.477428	3950.457013	23491.377830
22.035500	0.000190	0.001384	0.001270	0.002612	7195.102516	44203.585800	3946.611198	23460.446375
22.539000	-0.002130	0.000331	-0.002597	0.003726	7160.964931	43998.189098	3933.839562	23407.671506
23.036000	0.000317	0.001656	0.001580	0.002250	7199.988765	44263.848129	3948.345933	23477.612755
23.536500	0.000691	0.000871	-0.000572	0.002941	7196.820349	44123.676626	3941.025846	23444.841655
24.036500	0.001217	0.000486	0.000252	0.002145	7210.033009	44162.638857	3945.189616	23482.573382
24.537000	-0.004498	0.000401	-0.000882	0.003654	7138.296778	44011.595224	3938.404688	23411.078318
25.037500	0.000586	0.000730	0.001657	0.002309	7202.081608	44170.265566	3948.392289	23474.799013
25.538000	0.000184	0.001875	0.002543	0.003479	7186.398377	44167.894534	3947.656366	23419.352563
26.035000	-0.000036	0.000827	-0.002999	0.002341	7195.553714	44176.442911	3936.347333	23473.294950
26.535500	0.000748	0.001801	-0.002239	0.002922	7197.580596	44213.734604	3936.804289	23445.727139
27.036000	0.000673	0.001634	0.006295	0.000428	7221.807883	44435.444693	3965.356098	23564.261141
27.537000	-0.000509	0.001384	0.002682	0.001199	7202.234181	44338.015092	3953.920319	23527.551168
28.036500	0.002067	0.001421	-0.001603	0.001219	7227.857651	44339.663566	3942.799949	23526.577339
28.536500	-0.000408	0.001140	0.002307	0.001151	7203.720190	44319.293724	3953.070716	23529.801169
29.037000	0.002533	0.001116	-0.001097	0.001162	7233.122715	44315.967241	3944.247386	23529.278518
29.537500	0.000129	0.001237	0.000425	0.001564	7204.960638	44289.231801	3947.132999	23510.182948
30.035000	-0.000818	0.000482	-0.001030	0.000517	7205.965507	44317.018714	3946.079792	23559.990780
30.535000	-0.000702	0.000568	0.001900	0.003923	7173.166398	44001.973952	3944.855583	23398.342964
31.035500	-0.000822	0.001113	-0.002997	0.003984	7171.371735	44047.707215	3932.160273	23395.454892
31.538000	0.000504	0.001164	0.003387	0.002097	7203.390191	44231.607309	3953.418882	23484.866337
32.036000	0.001028	0.000740	0.002264	0.001352	7216.090979	44262.110501	3952.439540	23520.263897
32.536500	-0.003039	0.000452	0.000429	0.006741	7122.297630	43725.615258	3933.866984	23265.584033
33.036500	0.002196	0.001554	0.000238	0.001588	7225.452744	44317.190321	3946.590679	23509.055557
33.536500	0.002530	0.001364	0.001481	0.000580	7238.951232	44395.136407	3952.409553	23556.988373
34.037000	0.000271	0.001750	0.000875	0.004038	7181.703487	44102.935389	3941.925024	23392.916205
34.537500	-0.001084	0.001301	0.000788	0.005179	7156.940070	43952.523090	3938.774492	23339.058374
35.034500	-0.000702	0.000632	-0.005291	0.003871	7173.696600	44012.974531	3926.625701	23400.832313
35.534500	-0.000385	0.001397	-0.002865	0.004396	7171.620457	44035.593694	3931.449895	23375.995788
36.035500	-0.000778	0.001269	-0.001899	0.003566	7175.962274	44102.134260	3936.028396	23415.221863
36.538500	-0.001918	0.001367	-0.001922	0.005174	7148.751014	43959.319757	3931.870410	23339.304703
37.035500	-0.001520	0.000358	-0.003261	0.003090	7173.324999	44060.913626	3933.768555	23437.780892
37.536000	-0.000869	0.001056	-0.001641	0.004035	7170.397054	44037.568519	3935.487746	23393.048954
38.036000	-0.000289	0.001461	0.000137	0.004693	7169.626826	44013.589715	3938.352324	23361.981137
38.537000	-0.000321	0.001423	0.003152	0.005670	7159.627297	43917.770338	3943.583055	23315.934885
39.037000	-0.001199	0.000452	-0.000409	0.003880	7168.672946	43995.129548	3939.037604	23400.401771
39.535000	-0.000241	0.000838	0.001205	0.003890	7178.084861	44030.713696	3943.153072	23399.928872
40.035000	0.000831	0.000975	0.002244	0.004330	7184.368233	44001.976643	3944.694789	23379.132960
40.535000	-0.002489	0.001218	-0.002829	0.006009	7134.884087	43866.456602	3927.445025	23299.971699
41.038500	-0.000160	0.000876	0.004409	0.003984	7177.952249	44025.401018	3951.176858	23395.483618
41.536000	0.000672	0.001906	-0.002953	0.004420	7181.885607	44081.585485	3931.163629	23374.866472
42.036500	-0.000022	0.001099	0.004442	0.004105	7178.128143	44035.009803	3950.949498	23389.777925
42.536500	0.000066	0.001927	0.001610	0.005903	7161.159057	43943.387270	3939.027086	23304.990441
43.036500	-0.000428	0.001910	0.000591	0.004636	7168.814156	44061.476991	3939.660605	23364.678948
43.537000	0.001351	0.001643	0.005754	0.004199	7190.852796	44077.591689	3954.107622	23385.319404
44.037000	0.001843	0.000791	0.001500	-0.001463	7252.642907	44535.648360	3957.767786	23654.553600
44.535000	-0.001184	0.001715	0.003855	0.007428	7133.767802	43779.641355	3940.871370	23233.321178
45.035000	0.000156	0.001575	-0.000962	0.004645	7174.523895	44028.927087	3935.664153	23364.238386
45.538000	0.001601	0.000618	0.001636	0.001746	7217.886235	44213.132366	3949.792991	23501.551248
46.035500	0.000600	0.001822	0.003617	0.002546	7199.854522	44251.515850	3952.850432	23463.571900
46.536000	-0.003529	0.001565	-0.002354	0.007453	7110.511441	43763.150593	3924.991650	23232.142226
47.036500	0.000400	0.001535	0.000340	0.004968	7173.734447	43994.539121	3938.166897	23349.000532
47.536500	0.000395	0.001119	0.000966	0.005127	7172.113208	43940.346177	3939.366834	23341.542071
48.036500	-0.001029	0.001409	0.005349	0.003180	7177.312607	44152.074877	3955.701187	23433.527281
48.537500	0.000555	0.001517	0.000464	0.007329	7151.883164	43770.384519	3932.457795	23237.969418
49.034000	-0.000539	0.002051	0.000964	0.005826	7155.929123	43962.309635	3937.568392	23308.588866
49.535000	0.002741	0.002661	0.003272	0.002005	7226.734054	44382.907474	3953.358411	23489.223033
50.035000	0.001902	0.001675	0.003259	0.000740	7231.015790	44409.488171	3956.611193	23549.361159
50.535500	0.000551	0.001920	0.003800	0.009161	7133.786281	43636.245415	3936.293316	23152.219624
51.036000	-0.002657	-0.002816	0.007112	-0.004547	7238.346473	44485.672641	3980.644232	23802.703093
51.536000	-0.029842	-0.000981	0.002928	0.258154	5106.537434	25727.331827	3450.840998	14300.910300
52.036500	-0.046553	-0.012053	0.001191	-0.014629	6910.458398	44566.575646	3991.755135	24294.391800
52.536000	-0.020065	-0.019167	0.010272	-0.143837	8656.539505	58078.331460	4428.617629	31718.886889
53.037000	-0.005689	-0.007349	0.024690	-0.058359	7781.299757	49477.196116	4186.821091	26564.259044
53.537000	0.000413	-0.004394	0.024872	-0.067786	7960.422639	50822.975077	4217.253693	27084.269442
54.038000	0.041618	0.006530	0.032942	-0.080268	8631.436652	53474.176356	4284.642727	27790.371782
54.535000	0.051542	0.014112	0.046661	-0.035376	8185.033906	49314.376337	4183.655307	25342.831870
55.035500	0.076471	0.024167	0.056397	-0.035573	8502.130039	50422.035527	4215.049900	25353.026857
55.535500	0.097842	0.036446	0.086483	0.006542	8239.018026	47269.776688	4177.124402	23274.918594
56.036000	0.108175	0.046338	0.103152	0.057287	7761.154300	43290.256430	4075.209694	21024.453570
56.536000	0.114743	0.053379	0.112632	0.102254	7346.495497	39916.414615	3977.247336	19238.538150
57.036500	0.119096	0.060411	0.121559	0.132139	7090.391134	38021.133164	3923.037526	18149.875261
57.537000	0.129336	0.066328	0.131743	0.155034	6968.935178	36676.348729	3891.416399	17365.104409
58.036500	0.129442	0.069917	0.137830	0.177363	6764.010610	35251.760279	3852.328679	16638.554639
58.537000	0.133151	0.074752	0.146543	0.197818	6616.373560	34110.370951	3824.969682	16004.980634
59.037500	0.136365	0.077102	0.151466	0.207275	6562.783720	33604.568819	3814.603033	15722.003176
59.538000	0.136883	0.078307	0.150897	0.211197	6533.875131	33413.326454	3804.437665	15606.438005
60.035500	0.145961	0.084519	0.155597	0.218754	6546.765352	33319.065773	3798.025932	15386.687767
60.536000	0.146292	0.083386	0.151337	0.203490	6681.521914	34323.719670	3822.954397	15834.519373
61.036000	0.135785	0.082969	0.144842	0.252328	6193.545217	30959.150931	3703.768958	14455.316839
61.536500	0.135809	0.080240	0.142306	0.235341	6326.673673	31894.221302	3733.446478	14917.556822
62.036500	0.147634	0.084497	0.138271	0.217030	6575.699781	33438.330033	3763.748652	15436.463238
62.537000	0.147194	0.085576	0.140178	0.200135	6719.158062	34726.935494	3805.209961	15935.083814
63.037000	0.147145	0.085088	0.141201	0.198865	6730.012950	34784.157829	3810.389670	15973.330761
63.534000	0.149750	0.086803	0.141342	0.200562	6738.114948	34785.536568	3806.873551	15922.246123
64.038000	0.149106	0.086243	0.139970	0.203286	6708.165817	34545.627953	3797.672361	15840.618068
64.535500	0.149849	0.086401	0.146107	0.206418	6687.057291	34329.956836	3804.414151	15747.388969
65.035500	0.145682	0.085651	0.137544	0.214183	6583.370740	33720.594195	3768.335347	15519.144172
65.536000	0.148836	0.087363	0.140784	0.212429	6625.676084	33967.214570	3779.225965	15570.355151
66.036000	0.149801	0.087138	0.139953	0.214374	6617.183019	33812.568293	3773.154944	15513.566952
66.536500	0.146157	0.086998	0.139227	0.222083	6520.270119	33259.677248	3754.950401	15291.085457
67.036000	0.148584	0.087789	0.138850	0.223956	6524.936599	33184.258933	3750.151977	15237.616420
67.536500	0.150837	0.087890	0.141869	0.220576	6572.766895	33427.618286	3763.860748	15334.258677
68.034500	0.150812	0.088304	0.145837	0.222974	6552.115892	33288.665670	3767.254563	15265.616490
68.535500	0.147941	0.088650	0.151087	0.229896	6469.819050	32832.685722	3763.642787	15069.593732
69.035500	0.144842	0.088676	0.140916	0.231564	6430.430137	32719.891485	3738.444599	15022.818506
69.535500	0.148780	0.087482	0.147617	0.225929	6509.976905	33025.879053	3764.713948	15181.541529
70.035500	0.148414	0.089352	0.149097	0.227539	6493.406793	33043.872902	3764.433037	15135.971001
70.536000	0.145887	0.088361	0.146320	0.234910	6411.567621	32469.968505	3742.776066	14929.526389
71.036000	0.147072	0.089301	0.144146	0.236176	6410.896308	32447.771476	3735.545456	14894.396215
71.536500	0.151221	0.090072	0.148204	0.231375	6484.815997	32828.790895	3754.278410	15028.105267
72.037000	0.148684	0.089545	0.148042	0.231606	6461.793783	32776.625438	3753.437827	15021.634505
72.537000	0.150161	0.090099	0.147859	0.239088	6412.347583	32304.504114	3737.225572	14814.046287
73.037500	0.151532	0.091417	0.149604	0.240009	6416.028512	32331.378477	3738.955125	14788.734701
73.535000	0.151382	0.091335	0.158634	0.234900	6456.854025	32673.498818	3769.144893	14929.798136
74.035500	0.154260	0.091774	0.151523	0.235640	6474.606877	32652.934828	3752.259304	14909.271748
74.535500	0.147826	0.091795	0.150141	0.242145	6368.529055	32212.623162	3735.602107	14730.245868
75.036000	0.149264	0.091863	0.145972	0.243345	6370.449907	32136.477584	3724.434019	14697.510053
75.535500	0.150220	0.090884	0.151348	0.236608	6433.176210	32526.079821	3749.825604	14882.459833
76.036500	0.151318	0.092923	0.148625	0.239126	6421.503018	32493.423642	3738.750540	14812.981731
76.537000	0.149667	0.091728	0.150479	0.244518	6364.230223	32048.624230	3731.352457	14665.596460
77.037000	0.148869	0.093395	0.148311	0.247092	6337.133986	31987.949399	3721.527974	14595.880246
77.537000	0.152874	0.092420	0.148360	0.239987	6427.208459	32400.781075	3736.388673	14789.320614
78.037500	0.152809	0.092559	0.156127	0.241742	6412.298224	32291.386564	3749.070522	14741.241239
78.535000	0.153561	0.092974	0.153756	0.242349	6413.480568	32278.437765	3742.768251	14724.664408
79.035000	0.148266	0.092314	0.147944	0.247308	6330.593146	31901.333408	3720.326676	14590.055223
79.535500	0.154755	0.093852	0.156001	0.244555	6405.214781	32188.883862	3742.850223	14664.604132
80.036000	0.152681	0.093260	0.154041	0.244203	6391.187968	32172.710535	3739.464894	14674.165982
80.536500	0.155490	0.093848	0.151142	0.245199	6405.956649	32145.275407	3731.312934	14647.106470
81.036500	0.154319	0.093483	0.153110	0.245601	6393.133476	32093.702575	3734.581055	14636.200772
81.536500	0.154222	0.094069	0.155422	0.246265	6386.960482	32088.521313	3738.033776	14618.241644
82.037000	0.152071	0.092805	0.151914	0.246559	6367.164048	31984.136914	3730.092186	14610.293076
82.540000	0.151979	0.093481	0.155682	0.247005	6362.824948	31999.537092	3737.026994	14598.235982
83.034500	0.148439	0.093621	0.154350	0.253506	6282.785924	31577.001213	3720.754336	14423.932128
83.535000	0.154451	0.093401	0.154417	0.247695	6377.215258	31948.026864	3732.939033	14579.603979
84.036000	0.153201	0.095035	0.157011	0.249101	6355.779549	31963.227401	3735.419383	14541.737852
84.535500	0.156257	0.094218	0.153344	0.249459	6377.556028	31884.888001	3727.036690	14532.130581
85.036500	0.151887	0.093648	0.157045	0.254800	6299.799526	31493.639433	3723.643477	14389.561639
85.536500	0.153064	0.094161	0.157492	0.249609	6350.592206	31871.063256	3735.364161	14528.093703
86.037000	0.153920	0.093877	0.159553	0.250726	6348.497435	31777.953859	3737.341886	14498.160769
86.537000	0.150433	0.092505	0.150585	0.255411	6283.486782	31378.559199	3709.156868	14373.359915
87.040000	0.150314	0.093777	0.152451	0.256221	6276.167563	31408.796502	3711.304303	14351.906051
87.535000	0.154259	0.093088	0.155512	0.250898	6349.839468	31714.185237	3728.551811	14493.555216
88.035000	0.153624	0.093944	0.159110	0.251702	6338.298839	31717.602632	3734.370978	14472.042573
88.535000	0.156015	0.094438	0.158384	0.252784	6348.792947	31678.682919	3730.599630	14443.153680
89.036000	0.151854	0.093305	0.154980	0.257726	6276.449438	31279.532908	3713.393813	14312.191770
89.536000	0.153281	0.093206	0.156075	0.252108	6332.310584	31641.967647	3727.207554	14461.202749
90.036000	0.153886	0.094149	0.165132	0.253394	6326.865625	31619.310508	3743.466390	14426.925210
90.536500	0.152159	0.092614	0.155946	0.258540	6272.442907	31181.527309	3713.703593	14290.750478
91.036500	0.151450	0.093638	0.153540	0.257620	6274.111578	31308.203988	3710.674916	14314.989839
91.536500	0.155951	0.093268	0.155997	0.253257	6344.488088	31570.181603	3724.667008	14430.575043
92.037500	0.153819	0.094507	0.156897	0.254575	6316.923162	31565.004203	3723.802756	14395.525247
92.535000	0.151536	0.092813	0.149813	0.259453	6260.403747	31135.098826	3699.428248	14266.759132
93.035000	0.151064	0.094175	0.154450	0.259842	6253.675649	31198.370899	3708.009071	14256.572266
93.538000	0.155238	0.093921	0.160428	0.255041	6324.511608	31495.711011	3730.156720	14383.152451
94.036000	0.155839	0.093330	0.158757	0.254806	6331.187777	31472.341660	3727.175244	14389.395986
94.536000	0.155278	0.093739	0.157018	0.254538	6328.847546	31516.871326	3724.130266	14396.517879
95.036500	0.149404	0.092489	0.153507	0.259993	6239.553973	31079.094810	3705.790474	14252.595549
95.536500	0.156111	0.093770	0.155725	0.255266	6329.685612	31470.984418	3719.961762	14377.195045
96.036500	0.155841	0.093040	0.155429	0.255360	6326.778666	31416.899361	3719.160392	14374.695675
