sample name	sample
index	444
start time	 03-11-2021  10:49:14 AM


Wavelength (nm)	Absorbance
494.344910	-0.059128
494.563924	-0.059128
494.782919	-0.059128
495.001897	0.032347
495.220856	-0.043814
495.439797	-0.044200
495.658719	-0.030330
495.877624	-0.027177
496.096510	-0.030005
496.315378	-0.039318
496.534227	-0.042523
496.753059	-0.047066
496.971872	-0.038968
497.190667	0.086917
497.409444	0.123083
497.628203	0.130693
497.846943	0.135872
498.065665	0.140067
498.284369	0.143268
498.503055	0.143714
498.721723	0.145636
498.940372	0.146800
499.159003	0.147165
499.377616	0.147566
499.596210	0.148789
499.814787	0.148817
500.033345	0.148952
500.251885	0.149141
500.470406	0.149556
500.688910	0.149563
500.907395	0.149346
501.125862	0.151723
501.344311	0.151775
501.562742	0.151736
501.781154	0.151637
501.999548	0.152285
502.217924	0.152834
502.436282	0.153131
502.654621	0.153591
502.872942	0.153452
503.091245	0.150983
503.309530	0.150699
503.527797	0.150460
503.746045	0.151449
503.964275	0.150721
504.182487	0.149745
504.400681	0.150640
504.618856	0.149741
504.837013	0.149976
505.055152	0.151800
505.273273	0.152804
505.491376	0.153827
505.709460	0.154186
505.927526	0.154351
506.145574	0.155013
506.363604	0.155639
506.581615	0.155773
506.799608	0.157330
507.017583	0.158428
507.235540	0.157773
507.453478	0.157091
507.671399	0.156626
507.889301	0.156650
508.107185	0.156049
508.325050	0.155239
508.542898	0.155907
508.760727	0.155164
508.978538	0.154312
509.196330	0.154297
509.414105	0.154555
509.631861	0.155788
509.849599	0.156599
510.067319	0.157812
510.285021	0.158446
510.502704	0.158662
510.720369	0.159133
510.938016	0.159963
511.155645	0.161124
511.373255	0.161954
511.590848	0.161419
511.808422	0.160835
512.025977	0.161545
512.243515	0.161411
512.461034	0.161329
512.678536	0.161565
512.896018	0.161488
513.113483	0.161634
513.330930	0.161290
513.548358	0.161434
513.765768	0.162134
513.983160	0.161228
514.200533	0.161834
514.417889	0.162287
514.635226	0.162374
514.852545	0.162615
515.069845	0.163042
515.287128	0.163773
515.504392	0.163985
515.721638	0.164703
515.938866	0.165334
516.156075	0.166189
516.373267	0.166332
516.590440	0.167175
516.807594	0.167163
517.024731	0.167113
517.241850	0.167517
517.458950	0.167976
517.676032	0.168095
517.893095	0.168375
518.110141	0.167224
518.327168	0.168114
518.544177	0.167804
518.761168	0.167646
518.978141	0.167506
519.195095	0.166736
519.412031	0.166454
519.628949	0.166549
519.845849	0.166483
520.062731	0.167316
520.279594	0.167585
520.496439	0.167968
520.713266	0.168990
520.930074	0.169426
521.146865	0.170381
521.363637	0.170424
521.580391	0.170630
521.797127	0.172113
522.013844	0.171988
522.230543	0.172461
522.447224	0.172980
522.663887	0.172513
522.880532	0.172564
523.097158	0.172175
523.313766	0.172438
523.530356	0.172218
523.746928	0.171794
523.963481	0.172818
524.180017	0.172304
524.396534	0.172650
524.613032	0.172992
524.829513	0.173259
525.045975	0.173457
525.262420	0.173897
525.478845	0.174367
525.695253	0.174577
525.911643	0.174290
526.128014	0.175306
526.344367	0.175412
526.560702	0.175774
526.777018	0.175849
526.993316	0.176376
527.209597	0.177355
527.425858	0.177883
527.642102	0.177824
527.858328	0.178433
528.074535	0.178183
528.290724	0.178784
528.506894	0.178880
528.723047	0.179650
528.939181	0.179766
529.155297	0.180019
529.371395	0.180093
529.587475	0.181109
529.803536	0.181502
530.019579	0.182133
530.235604	0.181740
530.451611	0.181550
530.667600	0.181817
530.883570	0.182800
531.099522	0.183018
531.315456	0.183606
531.531372	0.183477
531.747269	0.183889
531.963148	0.183600
532.179009	0.183578
532.394852	0.184847
532.610676	0.185094
532.826482	0.185046
533.042271	0.185047
533.258040	0.185645
533.473792	0.186343
533.689525	0.185926
533.905240	0.186463
534.120937	0.187287
534.336616	0.187495
534.552277	0.188029
534.767919	0.187955
534.983543	0.188619
535.199149	0.189270
535.414736	0.189506
535.630306	0.190779
535.845857	0.190657
536.061390	0.190674
536.276904	0.190738
536.492401	0.190590
536.707879	0.191485
536.923339	0.191893
537.138781	0.191116
537.354204	0.191645
537.569610	0.191087
537.784997	0.192007
538.000366	0.192432
538.215716	0.192856
538.431049	0.193242
538.646363	0.193717
538.861659	0.193637
539.076937	0.194008
539.292196	0.193603
539.507438	0.193949
539.722661	0.194107
539.937866	0.194764
540.153052	0.194753
540.368221	0.195021
540.583371	0.194905
540.798503	0.195443
541.013617	0.196003
541.228712	0.196336
541.443789	0.196829
541.658848	0.197497
541.873889	0.197881
542.088912	0.198438
542.303916	0.199069
542.518902	0.199453
542.733870	0.199584
542.948820	0.199584
543.163752	0.199964
543.378665	0.200443
543.593560	0.200232
543.808437	0.200212
544.023295	0.200712
544.238136	0.200801
544.452958	0.201106
544.667762	0.201206
544.882548	0.201514
545.097315	0.202077
545.312064	0.202171
545.526795	0.202651
545.741508	0.202485
545.956203	0.202582
546.170879	0.202578
546.385537	0.202819
546.600177	0.202797
546.814799	0.203298
547.029402	0.203319
547.243988	0.203420
547.458555	0.203804
547.673103	0.204748
547.887634	0.204379
548.102146	0.205287
548.316640	0.205295
548.531116	0.206206
548.745574	0.206158
548.960013	0.206502
549.174435	0.206222
549.388838	0.206075
549.603222	0.205769
549.817589	0.206223
550.031937	0.205938
550.246267	0.206240
550.460579	0.206300
550.674873	0.206699
550.889148	0.206585
551.103405	0.207504
551.317644	0.207350
551.531865	0.207410
551.746068	0.207663
551.960252	0.207908
552.174418	0.207989
552.388566	0.208207
552.602696	0.208721
552.816807	0.209099
553.030900	0.208991
553.244975	0.209482
553.459032	0.210011
553.673070	0.210536
553.887091	0.210598
554.101093	0.210827
554.315077	0.211264
554.529042	0.211357
554.742990	0.211848
554.956919	0.212363
555.170830	0.212675
555.384722	0.212831
555.598597	0.212890
555.812453	0.213147
556.026291	0.213172
556.240111	0.212614
556.453913	0.212566
556.667696	0.212703
556.881461	0.212475
557.095208	0.212754
557.308937	0.212697
557.522647	0.212816
557.736339	0.213271
557.950013	0.213934
558.163669	0.214776
558.377307	0.215016
558.590926	0.215482
558.804527	0.215875
559.018110	0.216043
559.231675	0.216097
559.445221	0.215998
559.658749	0.215906
559.872259	0.215946
560.085751	0.215997
560.299225	0.216172
560.512680	0.215828
560.726117	0.215913
560.939536	0.216352
561.152937	0.216502
561.366319	0.217189
561.579683	0.217584
561.793029	0.217965
562.006357	0.218054
562.219667	0.218296
562.432958	0.218608
562.646231	0.219124
562.859486	0.218700
563.072723	0.219554
563.285941	0.219627
563.499141	0.219585
563.712323	0.219718
563.925487	0.220238
564.138632	0.220411
564.351760	0.220742
564.564869	0.220761
564.777960	0.221207
564.991032	0.220846
565.204087	0.220961
565.417123	0.221431
565.630141	0.221327
565.843140	0.221015
566.056122	0.221414
566.269085	0.221432
566.482030	0.221566
566.694957	0.221811
566.907866	0.222022
567.120756	0.221976
567.333628	0.222278
567.546482	0.222728
567.759318	0.222682
567.972135	0.222433
568.184935	0.222436
568.397716	0.222674
568.610478	0.222909
568.823223	0.223454
569.035949	0.223721
569.248657	0.223724
569.461347	0.223411
569.674019	0.223987
569.886672	0.224324
570.099308	0.224490
570.311925	0.224438
570.524523	0.225044
570.737104	0.224820
570.949666	0.224628
571.162210	0.224787
571.374736	0.225442
571.587244	0.225143
571.799733	0.225121
572.012205	0.225381
572.224658	0.225552
572.437092	0.224931
572.649509	0.225200
572.861907	0.225982
573.074287	0.226335
573.286649	0.226787
573.498993	0.227184
573.711318	0.227498
573.923625	0.227707
574.135914	0.228039
574.348185	0.228480
574.560438	0.228925
574.772672	0.228956
574.984888	0.228759
575.197086	0.228422
575.409266	0.228631
575.621427	0.229035
575.833570	0.229064
576.045695	0.229396
576.257802	0.229394
576.469890	0.229210
576.681961	0.229128
576.894013	0.229288
577.106046	0.229538
577.318062	0.229914
577.530059	0.229941
577.742039	0.229997
577.954000	0.230000
578.165942	0.230088
578.377867	0.230393
578.589773	0.230755
578.801661	0.230915
579.013531	0.230865
579.225382	0.230762
579.437216	0.230773
579.649031	0.230770
579.860828	0.230827
580.072606	0.231264
580.284367	0.231225
580.496109	0.231498
580.707833	0.231762
580.919539	0.231980
581.131227	0.232026
581.342896	0.232188
581.554547	0.232562
581.766180	0.232651
581.977795	0.232909
582.189391	0.232959
582.400969	0.232896
582.612529	0.232764
582.824071	0.232852
583.035595	0.233265
583.247100	0.233244
583.458587	0.233322
583.670056	0.233437
583.881506	0.233754
584.092939	0.234113
584.304353	0.234252
584.515749	0.234730
584.727127	0.235023
584.938486	0.235308
585.149828	0.235879
585.361151	0.236173
585.572456	0.236691
585.783742	0.236101
585.995011	0.236318
586.206261	0.236520
586.417493	0.236630
586.628706	0.237103
586.839902	0.237042
587.051079	0.236680
587.262238	0.236739
587.473379	0.236724
587.684502	0.237257
587.895606	0.237611
588.106692	0.238085
588.317760	0.237822
588.528810	0.237546
588.739841	0.237651
588.950855	0.238083
589.161850	0.238318
589.372827	0.238712
589.583785	0.238828
589.794726	0.238913
590.005648	0.238692
590.216552	0.239014
590.427437	0.239596
590.638305	0.240076
590.849154	0.240051
591.059985	0.239986
591.270798	0.239924
591.481592	0.240417
591.692369	0.240609
591.903127	0.240364
592.113867	0.240663
592.324588	0.240417
592.535292	0.240155
592.745977	0.240296
592.956644	0.240551
593.167293	0.240707
593.377923	0.240451
593.588536	0.240223
593.799130	0.240860
594.009706	0.241018
594.220263	0.241247
594.430803	0.241516
594.641324	0.242096
594.851827	0.242238
595.062312	0.242395
595.272778	0.242604
595.483227	0.243075
595.693657	0.243531
595.904069	0.243604
596.114462	0.243844
596.324838	0.244265
596.535195	0.244335
596.745534	0.244723
596.955855	0.244887
597.166157	0.245423
597.376441	0.245764
597.586707	0.245692
597.796955	0.245795
598.007185	0.246021
598.217396	0.246080
598.427589	0.246126
598.637764	0.246135
598.847921	0.246383
599.058060	0.246407
599.268180	0.246356
599.478282	0.246585
599.688366	0.247182
599.898431	0.247196
600.108479	0.247204
600.318508	0.247415
600.528519	0.247574
600.738511	0.247662
600.948486	0.247589
601.158442	0.247905
601.368380	0.248075
601.578300	0.248092
601.788202	0.248080
601.998085	0.247943
602.207950	0.247916
602.417797	0.248203
602.627626	0.248495
602.837436	0.248302
603.047228	0.248474
603.257002	0.248594
603.466758	0.248513
603.676496	0.248717
603.886215	0.249364
604.095916	0.249486
604.305599	0.249276
604.515264	0.249255
604.724910	0.249798
604.934538	0.249953
605.144148	0.249965
605.353740	0.249900
605.563314	0.249869
605.772869	0.249786
605.982406	0.250006
606.191925	0.250220
606.401425	0.250134
606.610908	0.250380
606.820372	0.250248
607.029818	0.250281
607.239246	0.250509
607.448655	0.250623
607.658047	0.250942
607.867420	0.250970
608.076775	0.251110
608.286111	0.251480
608.495430	0.251632
608.704730	0.251517
608.914012	0.251539
609.123275	0.252177
609.332521	0.252702
609.541748	0.253192
609.750957	0.253449
609.960148	0.253801
610.169321	0.253771
610.378475	0.253753
610.587611	0.254261
610.796729	0.254816
611.005829	0.254592
611.214910	0.254718
611.423974	0.254346
611.633019	0.254420
611.842045	0.254562
612.051054	0.254814
612.260044	0.254895
612.469017	0.255118
612.677970	0.254957
612.886906	0.255278
613.095824	0.255305
613.304723	0.255727
613.513604	0.255987
613.722467	0.256280
613.931311	0.256490
614.140138	0.256817
614.348946	0.256955
614.557736	0.257111
614.766507	0.257205
614.975261	0.257565
615.183996	0.257630
615.392713	0.257611
615.601412	0.257676
615.810092	0.257865
616.018754	0.257689
616.227399	0.257953
616.436024	0.258052
616.644632	0.258084
616.853222	0.257956
617.061793	0.257990
617.270346	0.258331
617.478880	0.258338
617.687397	0.258365
617.895895	0.258681
618.104375	0.258700
618.312837	0.259078
618.521281	0.259091
618.729706	0.259454
618.938113	0.259643
619.146502	0.259840
619.354873	0.260156
619.563226	0.260405
619.771560	0.260496
619.979876	0.260426
620.188174	0.260637
620.396453	0.260869
620.604715	0.260767
620.812958	0.260596
621.021183	0.260751
621.229390	0.260730
621.437578	0.260785
621.645748	0.260848
621.853900	0.260963
622.062034	0.261000
622.270150	0.261188
622.478247	0.261836
622.686326	0.262361
622.894387	0.262215
623.102430	0.262306
623.310454	0.262328
623.518461	0.262585
623.726449	0.262924
623.934418	0.262936
624.142370	0.263189
624.350303	0.262909
624.558218	0.262755
624.766115	0.262917
624.973994	0.263114
625.181855	0.263433
625.389697	0.263555
625.597521	0.263817
625.805327	0.264077
626.013114	0.263946
626.220883	0.264125
626.428634	0.264458
626.636367	0.264937
626.844082	0.265200
627.051778	0.265175
627.259457	0.265656
627.467117	0.265495
627.674758	0.265578
627.882382	0.265859
628.089987	0.265965
628.297574	0.265991
628.505143	0.265820
628.712694	0.266126
628.920226	0.266405
629.127740	0.266373
629.335236	0.266444
629.542714	0.266662
629.750174	0.266890
629.957615	0.266909
630.165038	0.266880
630.372443	0.267080
630.579829	0.267225
630.787198	0.267377
630.994548	0.267604
631.201880	0.267947
631.409194	0.267996
631.616489	0.268013
631.823766	0.268373
632.031025	0.268700
632.238266	0.268922
632.445489	0.269090
632.652693	0.269021
632.859879	0.268942
633.067047	0.268957
633.274197	0.269296
633.481329	0.269433
633.688442	0.269573
633.895537	0.269656
634.102614	0.270006
634.309672	0.269815
634.516713	0.270445
634.723735	0.270647
634.930739	0.270980
635.137724	0.270856
635.344692	0.271184
635.551641	0.271475
635.758572	0.271851
635.965485	0.271711
636.172379	0.272075
636.379256	0.271754
636.586114	0.271956
636.792954	0.271861
636.999775	0.271975
637.206579	0.272165
637.413364	0.271964
637.620131	0.272020
637.826880	0.272218
638.033610	0.272400
638.240323	0.272604
638.447017	0.272709
638.653692	0.273083
638.860350	0.273385
639.066990	0.273447
639.273611	0.273788
639.480214	0.273961
639.686798	0.274045
639.893365	0.274088
640.099913	0.274658
640.306443	0.274825
640.512955	0.275061
640.719449	0.275624
640.925924	0.275943
641.132381	0.276322
641.338820	0.276487
641.545241	0.277127
641.751644	0.277475
641.958028	0.277398
642.164394	0.277681
642.370742	0.278018
642.577071	0.277812
642.783383	0.277707
642.989676	0.277537
643.195951	0.277701
643.402207	0.277468
643.608446	0.277452
643.814666	0.277554
644.020868	0.277577
644.227052	0.277277
644.433218	0.277318
644.639365	0.277543
644.845494	0.277756
645.051605	0.278065
645.257698	0.278178
645.463772	0.278455
645.669828	0.278761
645.875866	0.279106
646.081886	0.279464
646.287888	0.279876
646.493871	0.280242
646.699836	0.280491
646.905783	0.280754
647.111712	0.280928
647.317622	0.281072
647.523514	0.281073
647.729388	0.281433
647.935244	0.281490
648.141082	0.281743
648.346901	0.282095
648.552702	0.282275
648.758485	0.282440
648.964250	0.282803
649.169996	0.283003
649.375724	0.283333
649.581434	0.283383
649.787126	0.283702
649.992800	0.283730
650.198455	0.283620
650.404092	0.283750
650.609711	0.283677
650.815311	0.283718
651.020894	0.283821
651.226458	0.283889
651.432004	0.283717
651.637532	0.283824
651.843041	0.284040
652.048532	0.284217
652.254006	0.284329
652.459460	0.284615
652.664897	0.284831
652.870315	0.284841
653.075716	0.285041
653.281097	0.285272
653.486461	0.285513
653.691807	0.285583
653.897134	0.285685
654.102443	0.285996
654.307734	0.286072
654.513006	0.286200
654.718261	0.286493
654.923497	0.286553
655.128715	0.286983
655.333915	0.287020
655.539096	0.287137
655.744259	0.287169
655.949404	0.287304
656.154531	0.287576
656.359640	0.287588
656.564730	0.287651
656.769802	0.288017
656.974856	0.288089
657.179892	0.288305
657.384909	0.288516
657.589908	0.288687
657.794889	0.289034
657.999852	0.289204
658.204797	0.289641
658.409723	0.290033
658.614631	0.290195
658.819521	0.290335
659.024393	0.290667
659.229246	0.291009
659.434081	0.291387
659.638898	0.291561
659.843697	0.291407
660.048478	0.291632
660.253240	0.291628
660.457984	0.291799
660.662710	0.292046
660.867417	0.292270
661.072107	0.292496
661.276778	0.292716
661.481431	0.292661
661.686066	0.293219
661.890682	0.293259
662.095281	0.293690
662.299861	0.293887
662.504422	0.294150
662.708966	0.294128
662.913491	0.294344
663.117999	0.294388
663.322488	0.294637
663.526958	0.294752
663.731411	0.294965
663.935845	0.294922
664.140261	0.295138
664.344659	0.295151
664.549038	0.295566
664.753400	0.295858
664.957743	0.296285
665.162068	0.296482
665.366375	0.296561
665.570663	0.296703
665.774933	0.297055
665.979185	0.297176
666.183419	0.297473
666.387635	0.297527
666.591832	0.297666
666.796011	0.297898
667.000172	0.298241
667.204315	0.298529
667.408439	0.298965
667.612545	0.299302
667.816634	0.299530
668.020703	0.299851
668.224755	0.300258
668.428788	0.300239
668.632803	0.300406
668.836800	0.300587
669.040779	0.300752
669.244739	0.300828
669.448681	0.300911
669.652605	0.301034
669.856511	0.301078
670.060399	0.301125
670.264268	0.301421
670.468119	0.301404
670.671952	0.301353
670.875767	0.301378
671.079563	0.301752
671.283341	0.301793
671.487101	0.301849
671.690843	0.301851
671.894567	0.301801
672.098272	0.301853
672.301959	0.302278
672.505628	0.302589
672.709278	0.302909
672.912911	0.302811
673.116525	0.303113
673.320121	0.303446
673.523699	0.303651
673.727258	0.304056
673.930799	0.304416
674.134322	0.304421
674.337827	0.304425
674.541314	0.304708
674.744782	0.305147
674.948232	0.305270
675.151664	0.305505
675.355078	0.305962
675.558474	0.306266
675.761851	0.306409
675.965210	0.306681
676.168551	0.306934
676.371873	0.307267
676.575178	0.307267
676.778464	0.307426
676.981732	0.307746
677.184981	0.307622
677.388213	0.307576
677.591426	0.307726
677.794621	0.308038
677.997798	0.308499
678.200956	0.308682
678.404097	0.309031
678.607219	0.309322
678.810323	0.309417
679.013408	0.309697
679.216476	0.310161
679.419525	0.310565
679.622556	0.310914
679.825569	0.311025
680.028563	0.311120
680.231540	0.311190
680.434498	0.311356
680.637438	0.311492
680.840359	0.311880
681.043263	0.311847
681.246148	0.311868
681.449015	0.311705
681.651864	0.311901
681.854694	0.312090
682.057506	0.312319
682.260301	0.312687
682.463076	0.312991
682.665834	0.312817
682.868573	0.313326
683.071295	0.313539
683.273998	0.313960
683.476682	0.314026
683.679349	0.314065
683.881997	0.314448
684.084627	0.314497
684.287239	0.314631
684.489833	0.315098
684.692408	0.315006
684.894965	0.315126
685.097504	0.315278
685.300025	0.315999
685.502527	0.316226
685.705012	0.316181
685.907478	0.316237
686.109925	0.316502
686.312355	0.316933
686.514766	0.316941
686.717159	0.317165
686.919534	0.317412
687.121891	0.317103
687.324230	0.317403
687.526550	0.317510
687.728852	0.317620
687.931136	0.317600
688.133401	0.317699
688.335649	0.318117
688.537878	0.318234
688.740089	0.318056
688.942281	0.318291
689.144456	0.318229
689.346612	0.318509
689.548750	0.318717
689.750870	0.319053
689.952971	0.318821
690.155055	0.319066
690.357120	0.319022
690.559167	0.319183
690.761195	0.319276
690.963206	0.319670
691.165198	0.319704
691.367172	0.320055
691.569128	0.320220
691.771065	0.320933
691.972984	0.320793
692.174885	0.321079
692.376768	0.321375
692.578633	0.321608
692.780479	0.321594
692.982308	0.321806
693.184118	0.322035
693.385909	0.321852
