sample name	sample
index	1315
start time	 04-29-2021  04:32:29 PM
880	0.469876
Peak Time (s)	102.036
Peak Height 	0.4699
calc peak height	100,103
Baseline Time (s)	10.036
Baseline Value 	-0.003807
subtract baseline	10,4
Abs	0.337549
Peak Time (s)	101.035
Peak Height 	0.3375
calc peak height	100,103
Baseline Time (s)	10.536
Baseline Value 	0.001629
subtract baseline	10,3
PK_550	0.174785
Peak Time (s)	101.535
Peak Height 	0.1748
calc peak height	100,103
Baseline Time (s)	8.534
Baseline Value 	6.7784E-4
subtract baseline	10,2
PK_880	0.316202
Peak Time (s)	101.035
Peak Height 	0.3162
calc peak height	100,103
Baseline Time (s)	10.536
Baseline Value 	0.001977
subtract baseline	10,1


Time (s)	A880-A510	A880-A775	A880-A975	A880	I510	I775	I975	I880	
0.035000	-0.002949	-0.001025	-0.000624	0.005022	6318.323990	40861.707160	3882.988107	20881.753031
0.536000	0.000939	-0.000406	-0.001854	0.003458	6360.283822	41052.405112	3883.691651	20946.296880
1.036000	-0.002905	0.000278	-0.002040	0.003790	6328.104492	41083.219914	3882.602002	20932.594464
1.536000	-0.003134	-0.000754	0.003721	0.001854	6341.220065	41162.526466	3898.916438	21012.731332
2.036500	-0.005385	-0.000149	-0.005002	0.002134	6321.788807	41191.000578	3879.863119	21001.126890
2.536000	0.000114	0.000086	0.002731	0.000978	6373.121867	41313.405851	3898.670454	21049.095083
3.037000	0.000490	0.000394	0.001332	-0.001366	6394.328419	41547.883629	3900.694380	21146.810856
3.537000	-0.002731	-0.000148	0.001352	0.001708	6345.447946	41228.592877	3894.173993	21018.790411
4.038000	-0.001322	0.000195	-0.000564	0.000526	6365.481542	41362.902582	3892.614994	21067.905640
4.535000	-0.000214	-0.000152	-0.001036	-0.000206	6379.782324	41396.949165	3893.166987	21098.408631
5.035000	-0.000495	-0.000021	0.000779	0.000108	6375.149442	41380.712628	3896.360727	21085.297024
5.536000	-0.003386	-0.000862	0.002372	0.001282	6343.682829	41203.232678	3897.256463	21036.474332
6.036500	-0.000320	0.000631	0.000891	0.000205	6375.758401	41429.735789	3896.393416	21081.282196
6.536500	-0.000232	0.001028	-0.001754	0.000559	6373.688186	41433.588063	3890.020138	21066.530506
7.036500	0.001016	-0.000206	-0.002412	-0.000538	6391.972278	41421.516638	3890.951782	21112.254474
7.536500	-0.000598	0.000070	0.001313	-0.000208	6376.804476	41416.693184	3898.176608	21098.478660
8.037000	-0.000884	0.000309	0.005023	0.000181	6371.557249	41403.443522	3905.298426	21082.269864
8.534500	-0.000795	0.000000	-0.000278	-0.000298	6375.971351	41418.440481	3894.973779	21102.230976
9.037500	0.000704	0.000233	-0.002728	0.000233	6383.512069	41392.123605	3888.648976	21080.102823
9.535000	0.000314	0.000393	-0.001128	0.000402	6379.157356	41391.288088	3891.680269	21073.056344
10.035500	-0.002292	-0.000180	0.004116	0.000000	6362.037822	41376.251323	3903.736793	21089.806534
10.536000	0.000000	-0.000179	0.000000	-0.000363	6382.667333	41408.311233	3895.704142	21104.918468
11.036000	0.000399	0.000193	0.003349	0.000123	6381.993401	41398.280607	3901.826323	21084.693819
11.536000	-0.002852	-0.000562	0.001308	-0.001358	6368.226082	41462.503535	3900.625404	21146.484813
12.037000	0.001122	0.000195	0.003960	0.000536	6384.410167	41362.008435	3902.249317	21067.474526
12.536500	-0.000720	-0.000469	-0.004482	-0.000722	6379.857277	41414.464353	3886.961269	21119.911467
13.037500	0.000086	0.000616	0.003603	-0.000056	6380.952267	41451.557613	3902.756469	21092.157183
13.538000	0.000889	0.000472	0.003605	0.000911	6379.674712	41353.402580	3900.684912	21051.896277
14.035000	-0.000220	0.000062	0.004532	0.002265	6360.545637	41198.016387	3899.771223	20995.677149
14.535500	-0.001971	0.000209	0.002062	0.001973	6349.261438	41236.598909	3895.120441	21007.784995
15.041000	-0.003208	0.000041	0.004654	-0.000142	6356.049221	41408.218947	3905.200153	21095.712112
15.536000	-0.003070	-0.000588	-0.003309	-0.001220	6365.463853	41447.972108	3890.494894	21140.703981
16.036500	-0.001300	-0.000113	0.007852	0.000414	6366.515957	41345.584965	3910.905347	21072.560257
16.535500	-0.001368	-0.000102	0.002280	0.000153	6368.011798	41369.559777	3899.471066	21083.412324
17.037000	0.003853	0.000158	-0.001155	-0.003108	6434.494872	41681.682484	3899.101039	21219.784626
17.537500	-0.002019	0.000034	0.000866	0.002294	6346.417142	41192.968719	3891.895303	20994.467608
18.036500	-0.001379	0.000271	0.009760	0.000521	6365.081383	41370.034426	3914.812838	21068.114673
18.538000	-0.000472	0.000109	0.002027	0.000434	6372.794141	41363.401896	3898.330327	21071.725792
19.035500	0.001211	0.000158	0.003790	0.000860	6382.582647	41330.191855	3901.192133	21054.027130
19.535500	-0.000514	0.000683	0.003443	0.001401	6364.964779	41328.823260	3899.291423	21031.545349
20.035500	-0.002412	-0.000590	-0.002003	0.000520	6357.085810	41294.228016	3889.576557	21068.156001
20.536000	-0.002089	0.000387	0.001079	0.000634	6358.704975	41370.329942	3895.879878	21063.412284
21.036500	-0.002066	0.001282	0.003007	0.000879	6356.979137	41427.713704	3899.472942	21053.206772
21.539500	-0.000915	-0.000165	-0.002195	0.000652	6367.659515	41320.000131	3888.889693	21062.671128
22.037000	-0.000855	-0.000813	0.003397	0.000188	6371.728598	41303.827115	3901.790036	21081.978113
22.537000	-0.000795	-0.000049	0.004521	0.000671	6368.442936	41328.556894	3903.164056	21061.863104
23.040500	-0.000569	0.000683	0.004666	0.000993	6367.704329	41364.735480	3902.787040	21048.498103
23.535000	0.000882	0.000635	0.004507	0.001252	6376.961299	41337.671529	3901.889205	21037.721535
24.035500	-0.001251	-0.000664	-0.005485	0.000364	6367.287865	41301.413072	3882.561808	21074.649928
24.535500	-0.001240	-0.000167	0.003323	0.000742	6364.442185	41311.951215	3900.444332	21058.926511
25.036000	-0.002470	-0.000338	-0.001380	0.000259	6358.648649	41339.352614	3891.447435	21079.001240
25.536000	0.000800	0.000150	0.000839	0.000940	6378.756407	41322.455190	3894.716519	21050.691609
26.036500	-0.001009	-0.000080	0.002162	0.000721	6366.394017	41321.436787	3898.005004	21059.780352
26.537000	-0.001414	-0.000344	0.003476	-0.000010	6368.928176	41362.675328	3902.384100	21090.241230
27.037500	0.002205	0.000238	0.005817	-0.001944	6412.310082	41585.283684	3911.605207	21170.994807
27.537500	-0.003007	0.000135	-0.002922	0.004019	6325.560303	41050.553133	3880.270862	20923.108387
28.034500	-0.001062	-0.000232	-0.001670	0.000097	6370.827586	41363.013270	3891.177937	21085.756931
28.535000	0.000462	0.000462	0.004004	0.000031	6383.199363	41430.174842	3903.428529	21088.509817
29.036000	0.001371	0.001061	0.003377	0.000193	6389.026003	41468.782139	3901.736088	21081.754492
29.535500	-0.004862	-0.000964	0.003221	0.003928	6312.070708	40962.507390	3893.426950	20926.872136
30.036000	-0.001732	0.000772	0.000180	0.000998	6358.647019	41372.102251	3893.190209	21048.257365
30.536500	-0.003538	-0.000412	0.000331	0.001135	6343.644290	41255.724999	3893.220867	21042.576158
31.036500	-0.000025	0.000447	-0.001353	0.001865	6365.155693	41267.034608	3888.105916	21012.255516
31.537000	-0.002859	-0.000482	-0.002278	0.003255	6332.562568	41063.562834	3883.226948	20954.714886
32.040000	-0.000527	-0.000234	0.005123	-0.000737	6381.476391	41436.544706	3907.491994	21120.531277
32.540500	0.000602	0.000541	0.001211	-0.000476	6388.252316	41482.025373	3898.531228	21109.668983
33.035000	0.002392	0.000830	0.005571	-0.000104	6399.335521	41474.687552	3907.092514	21094.124851
33.535000	-0.003687	-0.000538	-0.001211	0.003582	6323.705608	41029.983540	3884.783624	20941.197401
34.035500	-0.001691	-0.000011	0.001617	0.001309	6356.560450	41275.750308	3895.588673	21035.356206
34.536000	-0.001703	-0.000172	0.009508	0.001027	6358.645932	41286.363836	3913.166462	21047.057509
35.036000	0.000825	0.000146	0.004311	0.001466	6374.853534	41275.773324	3901.009478	21028.843810
35.536500	-0.000509	0.000401	0.001728	0.004127	6343.923843	41064.387693	3889.836588	20918.655762
36.036500	-0.001179	-0.000696	0.005082	0.000555	6366.369609	41281.844779	3904.620875	21066.709785
36.537500	0.001083	0.000173	0.007169	0.001389	6377.459040	41284.880927	3907.319632	21032.028596
37.040000	0.000343	0.000692	-0.000669	0.001761	6368.821059	41297.824380	3889.773482	21016.587939
37.534500	-0.002692	0.000222	0.003461	0.001231	6349.426166	41303.071195	3899.691127	21038.587375
38.034500	-0.000016	-0.000261	-0.000079	0.001269	6369.850187	41257.281516	3892.066150	21037.023966
38.535500	-0.002938	-0.000208	-0.002161	0.000845	6350.511225	41299.305256	3888.555660	21054.652988
39.035500	-0.000160	0.000399	-0.002503	0.000804	6372.341115	41356.343056	3887.916874	21056.335612
39.535500	-0.001915	-0.000400	-0.001683	0.000780	6358.919407	41288.082971	3889.704128	21057.346919
40.036500	-0.000445	0.000287	-0.000156	0.001096	6367.869551	41320.740725	3892.272096	21044.219524
40.537000	0.000264	0.000662	0.006847	0.001438	6370.709647	41323.564542	3906.520001	21029.972523
41.036500	-0.001907	0.000647	0.000795	0.001398	6354.201839	41325.854879	3893.648595	21031.643324
41.537000	-0.001115	0.000591	0.003821	0.001357	6360.647122	41324.563061	3900.192943	21033.368810
42.038000	-0.001007	0.000275	0.003126	0.001677	6358.999153	41268.428160	3898.021976	21020.056898
42.535000	-0.002173	0.000112	0.002475	0.001558	6350.908765	41264.595498	3896.885747	21025.010544
43.035500	-0.000570	-0.000438	0.002716	0.001295	6365.344433	41239.361991	3897.961728	21035.916518
43.536500	-0.000429	-0.000513	0.002302	-0.000184	6377.934497	41363.090340	3900.239971	21097.484462
44.035500	-0.000008	0.000444	0.003531	0.000843	6373.227403	41356.909405	3900.673637	21054.737423
44.536500	-0.001568	0.000725	-0.001040	0.000447	6364.180716	41416.608626	3891.769901	21071.176967
45.036000	-0.006054	0.000691	-0.005394	0.000702	6327.636051	41391.163173	3882.044138	21060.579325
45.537000	-0.006156	-0.000016	-0.006472	0.005922	6287.072502	40871.254036	3868.916298	20844.752561
46.037000	-0.003315	-0.000296	-0.000639	0.001068	6345.875576	41271.805125	3891.303029	21045.350131
46.540000	-0.005929	-0.000316	-0.005513	0.000704	6328.575305	41302.073995	3881.788841	21060.485504
47.037500	-0.004993	-0.000336	-0.005026	0.000394	6338.152343	41327.736722	3883.464670	21073.412532
47.534000	-0.001581	0.000751	0.001439	0.002812	6345.803094	41210.514872	3892.013631	20973.029684
48.035500	-0.002738	-0.000522	0.003135	0.000126	6357.606328	41334.871350	3901.359227	21084.547116
48.535000	0.000905	0.000114	0.005276	0.000032	6386.649555	41399.331072	3906.164176	21088.478953
49.036000	-0.000651	-0.000459	0.006663	-0.001009	6382.632846	41440.680393	3911.411810	21131.895889
49.541000	-0.002336	-0.000371	-0.002633	0.003146	6337.412797	41082.695076	3882.707936	20959.193411
50.036500	0.000959	0.000275	0.000152	0.001165	6378.241126	41313.609283	3892.778628	21041.342399
50.536500	0.000307	-0.000132	0.006187	0.008882	6313.720803	40604.238055	3889.213140	20723.512050
51.037500	0.003640	-0.025046	0.076938	0.435837	4247.837017	16309.632897	3374.924039	9628.141025
51.537500	-0.010949	-0.029214	-0.008918	0.050376	5934.429557	34969.694422	3776.928254	19108.081659
52.035000	-0.028489	-0.065045	-0.018207	-0.248390	8609.495742	61538.272429	4541.233329	35053.530863
52.535000	-0.022282	-0.121402	-0.004114	-0.333449	9921.904932	65535.000000	4944.135603	41989.371776
53.035500	-0.023039	-0.068760	-0.000596	-0.264324	8892.725790	63207.467282	4667.383252	36251.542522
53.536000	-0.023720	-0.056434	-0.000065	-0.242960	8600.958801	61968.384735	4587.896227	34655.209778
54.037500	-0.010640	-0.034343	0.000947	-0.190613	8116.548900	58002.518165	4407.556032	31060.098396
54.536500	-0.007725	-0.023815	0.005068	-0.167360	7882.358717	56415.439765	4345.612522	29596.963815
55.039500	-0.000782	-0.018947	0.004533	-0.168444	7973.483812	57151.984516	4347.352662	29663.446302
55.537000	-0.002156	-0.018715	0.010045	-0.164493	7912.844720	56690.621466	4352.313137	29421.937664
56.037000	0.008883	-0.013871	0.017712	-0.140914	7772.932732	54425.216550	4302.589269	28025.369170
56.534500	0.020376	-0.005523	0.030840	-0.089828	7356.842912	49609.195325	4191.088694	25247.654358
57.035000	0.044313	0.009069	0.057237	-0.031392	7023.950847	45137.160189	4104.269326	22446.194384
57.535500	0.063811	0.024250	0.077599	0.020665	6733.124299	41709.973013	4024.454860	20248.961510
58.035500	0.094334	0.040444	0.102810	0.073452	6546.449434	38585.029916	3959.598987	18274.253182
58.536000	0.118190	0.055673	0.121712	0.122942	6343.035924	35888.587803	3892.317247	16628.664822
59.036000	0.138810	0.067640	0.145852	0.166990	6167.348263	33549.410409	3851.004544	15313.706061
59.536500	0.159877	0.080115	0.170371	0.202175	6065.958118	31994.819052	3829.637367	14355.029743
60.036500	0.177363	0.088006	0.186759	0.236706	5947.867520	30271.993230	3794.478174	13486.786081
60.537500	0.196311	0.099516	0.205982	0.268747	5860.245385	29014.455753	3770.506227	12740.601096
61.035000	0.211422	0.108781	0.220124	0.317147	5649.011456	26776.031420	3709.806688	11712.833788
61.535000	0.220620	0.115465	0.243447	0.344604	5539.847730	25667.288458	3702.799823	11178.733228
62.035500	0.235994	0.122651	0.256046	0.355008	5569.111270	25500.246181	3706.512730	10985.022045
62.535500	0.240766	0.122833	0.269910	0.400235	5340.384377	23287.224656	3655.219035	10194.815292
63.035500	0.250328	0.128085	0.277115	0.420068	5285.622815	22618.622849	3635.588469	9873.414075
63.536000	0.242151	0.124039	0.272462	0.429018	5197.145470	22041.343427	3615.072101	9733.107919
64.036500	0.250245	0.131578	0.287594	0.436470	5200.398473	22045.171970	3626.576700	9618.482888
64.536500	0.256501	0.135615	0.292049	0.441470	5206.776116	22003.076270	3625.753021	9542.656935
65.037000	0.261828	0.141093	0.290029	0.441140	5235.746465	22258.420658	3623.207380	9547.639008
65.539500	0.266957	0.146589	0.289647	0.438512	5276.083575	22621.359472	3626.594430	9587.415254
66.036500	0.270504	0.148997	0.292387	0.440046	5286.666964	22660.822957	3628.419778	9564.173909
66.537500	0.273667	0.151922	0.302376	0.439434	5306.650312	22821.248963	3644.681093	9573.431765
67.035500	0.274387	0.154048	0.296089	0.436825	5324.418431	23038.104854	3638.993629	9613.063262
67.535500	0.279837	0.156066	0.292652	0.439137	5341.290231	23024.577877	3630.200267	9577.929269
68.036000	0.282334	0.158196	0.290911	0.438752	5356.902067	23140.682447	3628.143291	9583.774417
68.536500	0.284719	0.161328	0.298851	0.437866	5374.735702	23327.526953	3641.650247	9597.229122
69.036500	0.289304	0.164440	0.306751	0.438861	5394.464596	23426.658677	3652.408629	9582.110445
69.537000	0.291039	0.165987	0.306266	0.437696	5410.528173	23554.399372	3653.478448	9599.811841
70.039500	0.288838	0.166615	0.303823	0.436302	5406.050186	23650.120292	3651.829214	9621.044374
70.537500	0.292348	0.166263	0.306626	0.432732	5445.631989	23803.433094	3661.904485	9675.728490
71.034500	0.292242	0.168054	0.300483	0.431766	5450.482367	23935.678893	3653.709250	9690.606849
71.535000	0.292453	0.167790	0.311327	0.433313	5442.952716	23848.718112	3668.496997	9666.800258
72.035500	0.293638	0.170612	0.307313	0.436374	5432.407767	23837.261633	3657.214714	9619.942912
72.536000	0.294214	0.171483	0.309715	0.434339	5447.093589	23976.894509	3664.269209	9651.060779
73.036000	0.297178	0.174003	0.307090	0.434717	5461.718294	24080.421125	3659.485365	9645.263281
73.536000	0.296840	0.174830	0.312690	0.434213	5462.661353	24145.027717	3669.241493	9652.989128
74.036500	0.301667	0.176977	0.308569	0.434294	5489.751118	24245.667509	3662.510737	9651.746409
74.536500	0.300519	0.179296	0.304365	0.436483	5470.671401	24252.004798	3652.395117	9618.277107
75.037000	0.302897	0.178524	0.309714	0.435624	5489.179857	24256.280122	3662.216519	9631.393312
75.537500	0.303888	0.178870	0.310343	0.439038	5475.315549	24106.905910	3657.794061	9579.431767
76.035000	0.301823	0.179388	0.315511	0.439936	5458.472010	24088.477531	3664.587922	9565.836194
76.535000	0.306095	0.180875	0.318826	0.442100	5470.444271	24055.669556	3666.429038	9533.170706
77.035500	0.303617	0.179619	0.307279	0.442210	5455.746590	23989.662966	3647.992488	9531.512545
77.536000	0.300854	0.181848	0.306485	0.447006	5413.338130	23866.225885	3639.326319	9459.737669
78.036000	0.301573	0.181764	0.304750	0.448919	5406.704749	23770.677616	3633.729847	9431.321432
78.536000	0.304701	0.180873	0.309968	0.446650	5436.831157	23836.534589	3645.265999	9465.035291
79.036500	0.303638	0.181785	0.307030	0.446378	5432.387312	23893.316992	3641.134006	9469.081495
79.539500	0.305526	0.180938	0.315405	0.447393	5437.285666	23804.078289	3652.599547	9453.968416
80.037500	0.305531	0.180103	0.315405	0.447533	5436.533076	23757.575172	3652.381810	9451.897724
80.535000	0.310888	0.181421	0.312603	0.446305	5473.794065	23879.393643	3649.913029	9470.179107
81.038000	0.309052	0.178770	0.318194	0.443308	5480.418849	23895.959552	3663.485208	9515.005980
81.535000	0.308012	0.177793	0.312732	0.443638	5472.603272	23833.300612	3654.303624	9510.061928
82.035500	0.307029	0.178493	0.311062	0.445216	5458.043985	23791.285314	3649.205956	9486.423670
82.536000	0.307540	0.179487	0.318102	0.443816	5468.901690	23906.033849	3662.529517	9507.393324
83.036500	0.310215	0.178035	0.321647	0.443138	5488.051813	23868.853596	3669.294150	9517.563404
83.536500	0.308853	0.177301	0.315945	0.443227	5479.749711	23829.418089	3660.035793	9516.233119
84.036500	0.308371	0.178287	0.313471	0.446606	5457.776290	23715.176320	3650.801018	9465.689814
84.537500	0.312263	0.178578	0.321676	0.445321	5487.280399	23790.335814	3665.834974	9484.860980
85.034500	0.314072	0.177880	0.321289	0.445794	5494.946960	23734.443182	3664.458544	9477.791160
85.535000	0.313722	0.178480	0.326399	0.448967	5474.774131	23612.204865	3667.563099	9430.610025
86.035500	0.313511	0.179583	0.323619	0.448260	5477.606421	23698.151289	3664.242614	9441.098357
86.535500	0.308165	0.176736	0.325008	0.446825	5455.369703	23631.071071	3668.768975	9462.428774
87.036000	0.311814	0.176089	0.325286	0.447619	5471.581802	23562.847809	3667.940941	9450.617222
87.536000	0.311282	0.176763	0.319908	0.449563	5457.512103	23502.916866	3656.275031	9421.775164
88.036000	0.307040	0.174087	0.323419	0.447647	5444.377360	23467.157210	3664.902796	9450.203583
88.537000	0.310093	0.176144	0.325807	0.449264	5452.482273	23487.859922	3666.137833	9426.212689
89.039500	0.312071	0.175775	0.329080	0.449255	5463.738012	23470.862156	3671.414765	9426.333402
89.536500	0.313075	0.176036	0.324044	0.450307	5463.467155	23433.720575	3661.655798	9410.785359
90.034500	0.313118	0.176873	0.323143	0.451723	5455.679840	23406.505047	3657.974753	9389.889310
90.535000	0.312264	0.176066	0.325301	0.451468	5452.296695	23380.702921	3661.808622	9393.658108
91.035500	0.316111	0.177031	0.327820	0.453305	5463.679809	23339.872598	3662.894587	9366.645284
91.535500	0.312272	0.176155	0.325347	0.453036	5443.493442	23311.547828	3659.388675	9370.598752
92.035500	0.314312	0.175549	0.318989	0.453538	5452.173865	23259.863833	3648.590168	9363.231645
92.536500	0.313351	0.175343	0.324919	0.453903	5444.684384	23233.250214	3657.335520	9357.869714
93.036500	0.313849	0.176756	0.331101	0.456198	5434.584012	23192.331048	3663.513680	9324.346688
93.536500	0.313475	0.176750	0.331019	0.456459	5431.023046	23179.902894	3662.965731	9320.537579
94.036000	0.311848	0.176211	0.326866	0.456432	5422.077151	23156.206478	3656.417251	9320.937708
94.537000	0.312223	0.177834	0.327300	0.458266	5413.939876	23146.431853	3654.207606	9294.273429
95.034500	0.315157	0.176543	0.329127	0.458510	5428.953128	23075.441243	3656.705685	9290.732309
95.538000	0.313234	0.174792	0.328520	0.457679	5422.848516	23033.077658	3657.060237	9302.800416
96.035500	0.311624	0.176661	0.328366	0.462767	5385.725920	22885.406925	3648.818646	9229.320241
96.535500	0.314899	0.176465	0.327953	0.460765	5414.925624	22968.110949	3651.307413	9258.128487
97.036500	0.314421	0.176257	0.329606	0.461508	5408.133839	22924.508610	3652.735157	9247.419031
97.536500	0.315438	0.176986	0.336627	0.462491	5408.326285	22912.896875	3662.290745	9233.291122
