sample name	sample
index	1456
start time	 05-10-2021  01:42:52 PM


Wavelength (nm)	Absorbance
494.344910	0.006360
494.563924	0.006360
494.782919	0.006360
495.001897	-0.033988
495.220856	0.002500
495.439797	-0.002369
495.658719	0.001393
495.877624	-0.004001
496.096510	-0.005926
496.315378	-0.009848
496.534227	-0.008790
496.753059	-0.007033
496.971872	-0.000306
497.190667	0.063320
497.409444	0.089558
497.628203	0.099627
497.846943	0.106135
498.065665	0.110273
498.284369	0.113967
498.503055	0.115943
498.721723	0.117340
498.940372	0.119029
499.159003	0.120151
499.377616	0.121264
499.596210	0.122717
499.814787	0.122695
500.033345	0.122970
500.251885	0.122603
500.470406	0.123917
500.688910	0.123263
500.907395	0.123367
501.125862	0.121983
501.344311	0.122276
501.562742	0.121574
501.781154	0.122070
501.999548	0.122962
502.217924	0.123131
502.436282	0.122108
502.654621	0.122629
502.872942	0.121756
503.091245	0.121002
503.309530	0.121106
503.527797	0.121567
503.746045	0.122600
503.964275	0.121862
504.182487	0.122273
504.400681	0.121941
504.618856	0.122121
504.837013	0.124019
505.055152	0.124741
505.273273	0.124876
505.491376	0.124476
505.709460	0.123097
505.927526	0.123651
506.145574	0.122466
506.363604	0.122810
506.581615	0.122763
506.799608	0.120586
507.017583	0.120993
507.235540	0.120716
507.453478	0.120011
507.671399	0.119621
507.889301	0.119102
508.107185	0.120530
508.325050	0.120472
508.542898	0.121033
508.760727	0.121905
508.978538	0.121945
509.196330	0.122637
509.414105	0.122966
509.631861	0.123958
509.849599	0.123916
510.067319	0.123155
510.285021	0.123786
510.502704	0.123250
510.720369	0.123922
510.938016	0.124090
511.155645	0.123127
511.373255	0.124397
511.590848	0.124150
511.808422	0.124791
512.025977	0.125232
512.243515	0.125028
512.461034	0.125383
512.678536	0.124586
512.896018	0.124059
513.113483	0.125021
513.330930	0.124613
513.548358	0.125625
513.765768	0.126198
513.983160	0.125916
514.200533	0.125811
514.417889	0.126492
514.635226	0.127257
514.852545	0.128727
515.069845	0.129549
515.287128	0.129393
515.504392	0.129762
515.721638	0.130658
515.938866	0.131088
516.156075	0.131773
516.373267	0.131621
516.590440	0.131516
516.807594	0.130886
517.024731	0.130569
517.241850	0.130644
517.458950	0.130632
517.676032	0.129611
517.893095	0.129894
518.110141	0.129673
518.327168	0.131094
518.544177	0.130922
518.761168	0.131456
518.978141	0.130930
519.195095	0.131267
519.412031	0.131045
519.628949	0.131403
519.845849	0.131969
520.062731	0.133115
520.279594	0.132834
520.496439	0.133258
520.713266	0.133064
520.930074	0.134439
521.146865	0.134727
521.363637	0.135110
521.580391	0.135612
521.797127	0.135967
522.013844	0.135335
522.230543	0.134791
522.447224	0.134416
522.663887	0.134902
522.880532	0.134568
523.097158	0.134696
523.313766	0.134613
523.530356	0.133733
523.746928	0.133381
523.963481	0.133944
524.180017	0.134813
524.396534	0.135339
524.613032	0.135133
524.829513	0.135007
525.045975	0.135741
525.262420	0.135991
525.478845	0.136766
525.695253	0.136822
525.911643	0.137184
526.128014	0.136569
526.344367	0.136933
526.560702	0.137309
526.777018	0.137589
526.993316	0.137746
527.209597	0.138609
527.425858	0.139066
527.642102	0.139201
527.858328	0.138923
528.074535	0.139727
528.290724	0.139863
528.506894	0.140179
528.723047	0.140100
528.939181	0.139492
529.155297	0.139274
529.371395	0.138715
529.587475	0.138584
529.803536	0.139145
530.019579	0.139371
530.235604	0.139594
530.451611	0.139884
530.667600	0.140073
530.883570	0.140017
531.099522	0.139642
531.315456	0.140979
531.531372	0.141609
531.747269	0.141244
531.963148	0.140818
532.179009	0.141339
532.394852	0.140763
532.610676	0.141093
532.826482	0.142119
533.042271	0.141892
533.258040	0.141628
533.473792	0.142049
533.689525	0.142573
533.905240	0.143062
534.120937	0.143021
534.336616	0.143675
534.552277	0.143512
534.767919	0.143301
534.983543	0.144645
535.199149	0.144747
535.414736	0.145062
535.630306	0.145584
535.845857	0.145632
536.061390	0.145552
536.276904	0.145906
536.492401	0.146308
536.707879	0.146659
536.923339	0.146503
537.138781	0.147137
537.354204	0.146494
537.569610	0.146212
537.784997	0.146837
538.000366	0.147539
538.215716	0.147503
538.431049	0.147560
538.646363	0.147641
538.861659	0.147986
539.076937	0.147744
539.292196	0.148143
539.507438	0.148477
539.722661	0.148016
539.937866	0.147715
540.153052	0.148103
540.368221	0.148562
540.583371	0.148979
540.798503	0.148842
541.013617	0.149156
541.228712	0.149302
541.443789	0.149802
541.658848	0.150279
541.873889	0.150823
542.088912	0.150745
542.303916	0.150881
542.518902	0.150853
542.733870	0.151067
542.948820	0.150919
543.163752	0.151504
543.378665	0.151357
543.593560	0.151064
543.808437	0.151379
544.023295	0.151565
544.238136	0.151893
544.452958	0.152454
544.667762	0.152495
544.882548	0.153012
545.097315	0.153291
545.312064	0.153460
545.526795	0.153965
545.741508	0.153884
545.956203	0.154037
546.170879	0.153990
546.385537	0.153367
546.600177	0.154058
546.814799	0.154171
547.029402	0.153800
547.243988	0.153563
547.458555	0.153569
547.673103	0.153790
547.887634	0.154075
548.102146	0.154260
548.316640	0.155220
548.531116	0.155306
548.745574	0.155475
548.960013	0.155812
549.174435	0.156036
549.388838	0.156140
549.603222	0.156649
549.817589	0.156899
550.031937	0.156941
550.246267	0.156788
550.460579	0.156678
550.674873	0.156744
550.889148	0.157003
551.103405	0.157322
551.317644	0.157499
551.531865	0.157147
551.746068	0.157424
551.960252	0.157990
552.174418	0.158145
552.388566	0.158670
552.602696	0.158849
552.816807	0.158812
553.030900	0.158919
553.244975	0.159126
553.459032	0.159164
553.673070	0.159246
553.887091	0.159325
554.101093	0.159099
554.315077	0.158774
554.529042	0.158807
554.742990	0.159118
554.956919	0.159607
555.170830	0.159536
555.384722	0.160167
555.598597	0.160018
555.812453	0.159790
556.026291	0.159920
556.240111	0.159970
556.453913	0.160129
556.667696	0.160402
556.881461	0.160038
557.095208	0.160219
557.308937	0.160178
557.522647	0.160021
557.736339	0.159813
557.950013	0.160020
558.163669	0.160134
558.377307	0.160042
558.590926	0.159981
558.804527	0.160371
559.018110	0.160277
559.231675	0.159935
559.445221	0.160287
559.658749	0.160430
559.872259	0.160790
560.085751	0.160804
560.299225	0.160717
560.512680	0.160522
560.726117	0.160260
560.939536	0.160410
561.152937	0.160915
561.366319	0.160819
561.579683	0.161596
561.793029	0.161712
562.006357	0.161928
562.219667	0.162384
562.432958	0.162747
562.646231	0.163465
562.859486	0.163780
563.072723	0.163637
563.285941	0.163887
563.499141	0.164058
563.712323	0.164234
563.925487	0.164306
564.138632	0.164350
564.351760	0.164663
564.564869	0.164254
564.777960	0.164536
564.991032	0.164543
565.204087	0.164521
565.417123	0.164318
565.630141	0.164284
565.843140	0.164525
566.056122	0.164603
566.269085	0.164244
566.482030	0.164796
566.694957	0.164437
566.907866	0.164499
567.120756	0.164939
567.333628	0.165056
567.546482	0.165286
567.759318	0.165431
567.972135	0.165549
568.184935	0.166215
568.397716	0.166493
568.610478	0.167237
568.823223	0.167569
569.035949	0.167690
569.248657	0.167740
569.461347	0.167753
569.674019	0.167783
569.886672	0.168065
570.099308	0.167730
570.311925	0.167065
570.524523	0.166986
570.737104	0.166999
570.949666	0.166691
571.162210	0.166675
571.374736	0.166842
571.587244	0.166486
571.799733	0.166461
572.012205	0.166779
572.224658	0.166698
572.437092	0.166521
572.649509	0.166594
572.861907	0.167120
573.074287	0.167362
573.286649	0.167376
573.498993	0.168175
573.711318	0.168457
573.923625	0.168577
574.135914	0.169499
574.348185	0.170381
574.560438	0.170633
574.772672	0.170677
574.984888	0.170833
575.197086	0.170777
575.409266	0.170878
575.621427	0.170694
575.833570	0.170539
576.045695	0.170549
576.257802	0.170106
576.469890	0.170276
576.681961	0.170556
576.894013	0.170742
577.106046	0.171130
577.318062	0.171368
577.530059	0.172008
577.742039	0.172719
577.954000	0.172730
578.165942	0.172674
578.377867	0.172423
578.589773	0.172541
578.801661	0.172323
579.013531	0.172401
579.225382	0.172240
579.437216	0.171631
579.649031	0.171173
579.860828	0.170908
580.072606	0.171213
580.284367	0.171628
580.496109	0.171639
580.707833	0.172086
580.919539	0.171897
581.131227	0.172197
581.342896	0.172794
581.554547	0.173097
581.766180	0.173683
581.977795	0.173957
582.189391	0.174268
582.400969	0.174177
582.612529	0.174044
582.824071	0.174400
583.035595	0.174442
583.247100	0.174208
583.458587	0.174479
583.670056	0.174411
583.881506	0.174499
584.092939	0.174553
584.304353	0.174959
584.515749	0.175135
584.727127	0.175215
584.938486	0.175468
585.149828	0.176145
585.361151	0.176452
585.572456	0.176526
585.783742	0.176852
585.995011	0.176974
586.206261	0.177205
586.417493	0.177642
586.628706	0.178130
586.839902	0.178121
587.051079	0.178154
587.262238	0.178128
587.473379	0.178668
587.684502	0.178750
587.895606	0.178950
588.106692	0.179127
588.317760	0.178933
588.528810	0.178822
588.739841	0.179114
588.950855	0.179363
589.161850	0.179491
589.372827	0.179333
589.583785	0.179093
589.794726	0.179453
590.005648	0.179456
590.216552	0.180055
590.427437	0.180061
590.638305	0.179960
590.849154	0.180203
591.059985	0.180269
591.270798	0.180713
591.481592	0.181282
591.692369	0.181243
591.903127	0.181284
592.113867	0.180890
592.324588	0.181219
592.535292	0.181437
592.745977	0.181205
592.956644	0.181265
593.167293	0.180902
593.377923	0.180700
593.588536	0.180691
593.799130	0.180870
594.009706	0.181255
594.220263	0.180888
594.430803	0.181046
594.641324	0.181479
594.851827	0.181720
595.062312	0.182255
595.272778	0.182685
595.483227	0.182882
595.693657	0.182924
595.904069	0.182624
596.114462	0.183098
596.324838	0.183241
596.535195	0.183312
596.745534	0.183358
596.955855	0.183184
597.166157	0.183105
597.376441	0.183224
597.586707	0.183396
597.796955	0.183774
598.007185	0.183986
598.217396	0.184024
598.427589	0.183941
598.637764	0.184161
598.847921	0.184282
599.058060	0.184562
599.268180	0.184681
599.478282	0.184936
599.688366	0.185372
599.898431	0.185458
600.108479	0.185849
600.318508	0.185905
600.528519	0.185980
600.738511	0.186043
600.948486	0.186214
601.158442	0.186583
601.368380	0.186960
601.578300	0.186417
601.788202	0.186269
601.998085	0.186049
602.207950	0.186270
602.417797	0.186455
602.627626	0.186525
602.837436	0.186742
603.047228	0.186231
603.257002	0.185896
603.466758	0.186372
603.676496	0.186753
603.886215	0.186615
604.095916	0.186725
604.305599	0.186762
604.515264	0.186694
604.724910	0.186495
604.934538	0.186946
605.144148	0.187125
605.353740	0.187312
605.563314	0.187244
605.772869	0.187497
605.982406	0.187289
606.191925	0.187248
606.401425	0.187654
606.610908	0.187577
606.820372	0.187411
607.029818	0.187213
607.239246	0.187074
607.448655	0.187297
607.658047	0.187402
607.867420	0.187742
608.076775	0.188067
608.286111	0.188414
608.495430	0.188786
608.704730	0.189103
608.914012	0.189569
609.123275	0.189969
609.332521	0.190125
609.541748	0.190364
609.750957	0.190243
609.960148	0.190116
610.169321	0.190083
610.378475	0.189974
610.587611	0.190208
610.796729	0.190414
611.005829	0.190135
611.214910	0.190178
611.423974	0.190294
611.633019	0.190545
611.842045	0.190747
612.051054	0.190814
612.260044	0.191250
612.469017	0.190976
612.677970	0.190796
612.886906	0.191160
613.095824	0.191466
613.304723	0.191593
613.513604	0.191801
613.722467	0.192189
613.931311	0.192401
614.140138	0.192308
614.348946	0.192546
614.557736	0.192794
614.766507	0.192967
614.975261	0.192818
615.183996	0.192864
615.392713	0.192624
615.601412	0.192418
615.810092	0.192773
616.018754	0.193046
616.227399	0.193365
616.436024	0.193288
616.644632	0.193302
616.853222	0.193857
617.061793	0.194058
617.270346	0.194159
617.478880	0.194433
617.687397	0.194324
617.895895	0.194444
618.104375	0.194429
618.312837	0.194751
618.521281	0.194895
618.729706	0.194437
618.938113	0.194346
619.146502	0.194852
619.354873	0.194766
619.563226	0.194633
619.771560	0.194668
619.979876	0.194773
620.188174	0.194690
620.396453	0.194788
620.604715	0.194943
620.812958	0.195361
621.021183	0.195054
621.229390	0.195022
621.437578	0.195187
621.645748	0.194927
621.853900	0.195111
622.062034	0.195149
622.270150	0.195156
622.478247	0.195328
622.686326	0.195206
622.894387	0.195407
623.102430	0.195794
623.310454	0.196057
623.518461	0.196364
623.726449	0.196436
623.934418	0.196584
624.142370	0.196612
624.350303	0.196576
624.558218	0.196674
624.766115	0.196859
624.973994	0.196771
625.181855	0.196756
625.389697	0.196765
625.597521	0.196968
625.805327	0.197206
626.013114	0.197490
626.220883	0.197671
626.428634	0.197558
626.636367	0.197537
626.844082	0.197648
627.051778	0.197355
627.259457	0.197481
627.467117	0.197325
627.674758	0.197236
627.882382	0.197251
628.089987	0.197332
628.297574	0.197715
628.505143	0.197721
628.712694	0.197893
628.920226	0.198403
629.127740	0.198661
629.335236	0.198758
629.542714	0.199061
629.750174	0.199241
629.957615	0.199460
630.165038	0.199513
630.372443	0.200071
630.579829	0.200154
630.787198	0.200126
630.994548	0.199639
631.201880	0.199611
631.409194	0.199552
631.616489	0.199715
631.823766	0.199528
632.031025	0.199297
632.238266	0.199187
632.445489	0.199341
632.652693	0.199463
632.859879	0.199998
633.067047	0.200234
633.274197	0.200670
633.481329	0.200747
633.688442	0.200984
633.895537	0.201225
634.102614	0.201199
634.309672	0.201210
634.516713	0.201116
634.723735	0.201296
634.930739	0.201589
635.137724	0.201520
635.344692	0.201492
635.551641	0.201569
635.758572	0.201667
635.965485	0.201888
636.172379	0.202028
636.379256	0.201989
636.586114	0.202203
636.792954	0.202294
636.999775	0.202195
637.206579	0.202513
637.413364	0.202865
637.620131	0.203342
637.826880	0.203547
638.033610	0.203633
638.240323	0.204065
638.447017	0.203965
638.653692	0.204091
638.860350	0.204270
639.066990	0.204541
639.273611	0.204470
639.480214	0.204520
639.686798	0.204633
639.893365	0.204831
640.099913	0.205099
640.306443	0.205280
640.512955	0.205211
640.719449	0.205520
640.925924	0.205439
641.132381	0.205837
641.338820	0.205854
641.545241	0.205982
641.751644	0.206140
641.958028	0.206301
642.164394	0.206572
642.370742	0.206824
642.577071	0.206956
642.783383	0.206909
642.989676	0.206819
643.195951	0.206938
643.402207	0.207234
643.608446	0.207356
643.814666	0.207503
644.020868	0.207512
644.227052	0.207596
644.433218	0.207712
644.639365	0.208053
644.845494	0.208317
645.051605	0.208394
645.257698	0.208118
645.463772	0.207926
645.669828	0.208124
645.875866	0.208275
646.081886	0.208334
646.287888	0.208210
646.493871	0.208171
646.699836	0.208038
646.905783	0.208136
647.111712	0.208262
647.317622	0.208548
647.523514	0.208248
647.729388	0.208429
647.935244	0.208613
648.141082	0.208881
648.346901	0.209038
648.552702	0.209265
648.758485	0.208992
648.964250	0.209371
649.169996	0.209564
649.375724	0.209548
649.581434	0.209393
649.787126	0.209511
649.992800	0.209468
650.198455	0.209589
650.404092	0.209455
650.609711	0.209798
650.815311	0.209701
651.020894	0.209750
651.226458	0.210193
651.432004	0.210487
651.637532	0.210504
651.843041	0.210570
652.048532	0.210399
652.254006	0.210762
652.459460	0.210942
652.664897	0.210862
652.870315	0.210960
653.075716	0.210903
653.281097	0.211248
653.486461	0.211292
653.691807	0.211520
653.897134	0.211856
654.102443	0.212062
654.307734	0.212580
654.513006	0.213191
654.718261	0.213579
654.923497	0.214063
655.128715	0.213988
655.333915	0.214475
655.539096	0.214601
655.744259	0.214701
655.949404	0.214798
656.154531	0.214561
656.359640	0.214384
656.564730	0.214465
656.769802	0.214199
656.974856	0.214231
657.179892	0.213977
657.384909	0.214062
657.589908	0.214274
657.794889	0.214456
657.999852	0.214450
658.204797	0.214877
658.409723	0.214780
658.614631	0.215026
658.819521	0.214894
659.024393	0.215177
659.229246	0.215289
659.434081	0.215193
659.638898	0.215240
659.843697	0.215466
660.048478	0.215211
660.253240	0.215335
660.457984	0.215443
660.662710	0.215839
660.867417	0.215947
661.072107	0.216111
661.276778	0.216446
661.481431	0.216418
661.686066	0.216656
661.890682	0.216896
662.095281	0.217134
662.299861	0.217259
662.504422	0.217479
662.708966	0.217690
662.913491	0.218009
663.117999	0.218048
663.322488	0.218256
663.526958	0.218296
663.731411	0.218452
663.935845	0.218524
664.140261	0.218722
664.344659	0.218840
664.549038	0.218877
664.753400	0.218980
664.957743	0.219283
665.162068	0.219472
665.366375	0.219491
665.570663	0.219499
665.774933	0.219716
665.979185	0.219771
666.183419	0.219872
666.387635	0.220114
666.591832	0.220109
666.796011	0.220020
667.000172	0.219993
667.204315	0.220346
667.408439	0.220436
667.612545	0.220506
667.816634	0.220783
668.020703	0.220784
668.224755	0.220905
668.428788	0.220928
668.632803	0.220906
668.836800	0.221182
669.040779	0.221302
669.244739	0.221390
669.448681	0.221429
669.652605	0.221448
669.856511	0.221825
670.060399	0.221738
670.264268	0.222010
670.468119	0.222438
670.671952	0.222866
670.875767	0.222903
671.079563	0.223065
671.283341	0.223393
671.487101	0.223676
671.690843	0.223643
671.894567	0.223796
672.098272	0.223729
672.301959	0.223859
672.505628	0.223535
672.709278	0.223796
672.912911	0.223997
673.116525	0.224005
673.320121	0.223954
673.523699	0.224210
673.727258	0.224468
673.930799	0.224862
674.134322	0.225048
674.337827	0.225405
674.541314	0.225300
674.744782	0.225653
674.948232	0.225548
675.151664	0.225683
675.355078	0.225766
675.558474	0.225700
675.761851	0.225670
675.965210	0.225854
676.168551	0.225976
676.371873	0.226290
676.575178	0.226255
676.778464	0.226598
676.981732	0.226460
677.184981	0.226349
677.388213	0.226595
677.591426	0.226722
677.794621	0.226761
677.997798	0.226901
678.200956	0.227067
678.404097	0.227246
678.607219	0.227262
678.810323	0.227469
679.013408	0.227735
679.216476	0.227937
679.419525	0.228380
679.622556	0.228452
679.825569	0.228582
680.028563	0.228571
680.231540	0.228901
680.434498	0.229092
680.637438	0.229446
680.840359	0.229839
681.043263	0.229934
681.246148	0.229820
681.449015	0.229790
681.651864	0.229706
681.854694	0.230039
682.057506	0.229868
682.260301	0.230001
682.463076	0.229993
682.665834	0.229982
682.868573	0.230139
683.071295	0.230279
683.273998	0.230349
683.476682	0.230680
683.679349	0.230842
683.881997	0.231056
684.084627	0.231354
684.287239	0.231509
684.489833	0.231566
684.692408	0.231574
684.894965	0.231564
685.097504	0.231998
685.300025	0.232221
685.502527	0.232193
685.705012	0.232299
685.907478	0.232187
686.109925	0.232257
686.312355	0.232188
686.514766	0.232353
686.717159	0.232664
686.919534	0.232606
687.121891	0.232415
687.324230	0.232231
687.526550	0.232221
687.728852	0.232203
687.931136	0.232289
688.133401	0.232620
688.335649	0.232773
688.537878	0.232663
688.740089	0.232700
688.942281	0.232943
689.144456	0.233193
689.346612	0.233503
689.548750	0.234097
689.750870	0.234519
689.952971	0.234440
690.155055	0.234589
690.357120	0.234883
690.559167	0.235024
690.761195	0.235057
690.963206	0.235224
691.165198	0.235021
691.367172	0.235019
691.569128	0.234795
691.771065	0.235061
691.972984	0.235002
692.174885	0.235140
692.376768	0.235202
692.578633	0.235334
692.780479	0.235403
692.982308	0.235615
693.184118	0.235370
693.385909	0.235721
