sample name	sample
index	162
start time	 02-15-2021  03:11:58 PM
880	0.400026
Peak Time (s)	91.536
Peak Height 	0.4
calc peak height	90,93
Baseline Time (s)	9.536
Baseline Value 	-0.004021
subtract baseline	10,4
Abs	0.329682
Peak Time (s)	92.537
Peak Height 	0.3297
calc peak height	90,93
Baseline Time (s)	8.535
Baseline Value 	0.007955
subtract baseline	10,3
PK_550	0.156192
Peak Time (s)	92.037
Peak Height 	0.1562
calc peak height	90,93
Baseline Time (s)	8.535
Baseline Value 	0.001506
subtract baseline	10,2
PK_880	0.312584
Peak Time (s)	90.535
Peak Height 	0.3126
calc peak height	90,93
Baseline Time (s)	9.035
Baseline Value 	0.003684
subtract baseline	10,1


Time (s)	A880-A510	A880-A775	A880-A975	A880	I510	I775	I975	I880	
0.036000	-0.004637	-0.002103	-0.003259	0.003763	3895.384591	12223.155718	3192.197550	7353.415192
0.535000	-0.008123	-0.002370	-0.007902	0.002081	3891.814633	12253.033747	3190.817970	7370.234564
1.036000	-0.004552	-0.001495	-0.012749	0.003116	3896.836706	12249.644678	3188.105459	7359.872932
1.537500	-0.003190	-0.001588	-0.006662	0.004271	3897.250106	12223.302332	3190.377538	7348.345554
2.036500	-0.002969	-0.000217	0.012828	0.002265	3901.688122	12294.756294	3200.586182	7368.390893
2.537000	-0.007174	-0.001380	-0.009751	0.000881	3896.069047	12299.465361	3190.517142	7382.276231
3.037500	-0.002578	-0.002420	-0.022956	-0.003208	3913.484587	12364.494142	3186.335108	7423.552537
3.538000	0.001985	0.002002	-0.014469	0.003524	3909.102799	12315.190572	3187.133397	7355.798088
4.038500	-0.007471	-0.001164	-0.001653	-0.000762	3898.745848	12339.060427	3195.083852	7398.816095
4.535000	0.000849	-0.000607	0.003842	0.000754	3912.402641	12318.611501	3196.978692	7383.553487
5.035500	0.001766	-0.000988	-0.001887	0.000593	3914.585605	12313.946306	3194.331920	7385.174681
5.536000	-0.005519	-0.002424	-0.000682	0.000876	3899.371310	12277.399034	3194.767687	7382.322675
6.036500	-0.000833	-0.001591	0.022900	0.000211	3910.102974	12309.229182	3206.571840	7389.016517
6.536500	-0.001705	-0.001513	-0.003036	0.000210	3908.345071	12310.913637	3193.970311	7389.023979
7.034000	-0.000698	-0.001134	-0.002208	-0.000912	3912.642766	12342.914037	3194.891884	7400.330775
7.537500	-0.001315	-0.000179	-0.022019	0.000973	3907.595544	12323.058505	3184.867996	7381.349687
8.035000	-0.002526	0.001349	-0.009319	0.001640	3903.824395	12341.430415	3190.365300	7374.651544
8.535000	-0.003814	0.000000	0.000000	-0.000966	3906.470909	12368.325725	3195.966126	7400.876767
9.035000	0.000000	0.003060	-0.016042	0.002246	3907.680428	12365.074884	3186.999508	7368.586928
9.535500	0.002221	-0.000016	0.008276	0.000000	3916.713133	12347.303198	3199.475877	7391.136479
10.035500	0.002418	0.000984	0.000190	0.001061	3914.958935	12346.022879	3195.093320	7380.469618
10.536000	-0.004394	0.000067	0.005075	-0.000250	3903.869505	12354.434420	3198.051506	7393.651972
11.036500	0.002053	-0.000178	-0.011133	0.000857	3914.633185	12325.581717	3189.888805	7382.520726
11.537000	-0.004378	-0.002590	-0.010688	-0.000796	3904.995375	12309.400973	3190.860195	7399.158261
12.037000	0.002935	0.000301	-0.000460	0.000925	3916.284515	12334.321825	3194.849659	7381.833355
12.537500	-0.005576	-0.000941	-0.003861	-0.000247	3901.498640	12332.842596	3193.797054	7393.624568
13.035000	-0.001381	0.002308	-0.014711	0.000860	3907.689667	12378.651648	3188.240621	7382.489412
13.541500	-0.002211	0.001370	0.000148	0.002099	3903.535652	12332.075800	3194.581365	7370.050321
14.035500	0.002337	0.000548	-0.006118	0.001653	3913.594472	12324.064256	3191.847508	7374.521926
14.536000	0.000540	-0.000118	-0.023400	0.001473	3910.326448	12313.720096	3184.022456	7376.335428
15.048500	-0.005385	-0.001570	-0.019703	-0.002345	3906.084535	12364.231457	3187.423329	7414.811198
15.536500	-0.005117	0.000549	-0.002572	0.002522	3896.896638	12305.604583	3193.100946	7365.823663
16.036500	0.002035	0.000386	-0.004993	-0.000689	3917.736679	12370.641257	3193.471955	7398.077644
16.536500	-0.000777	0.001965	-0.000289	0.000435	3909.762451	12380.409125	3195.163259	7386.762637
17.039000	-0.000908	0.000588	-0.000870	-0.004061	3918.609232	12447.514538	3197.027751	7432.211366
17.534500	-0.000667	-0.000588	-0.015172	0.001002	3908.841131	12313.745474	3187.964512	7381.062358
18.035000	-0.003051	-0.001575	-0.016019	-0.001413	3908.904078	12344.205087	3188.683221	7405.387208
18.535000	0.000488	0.000616	-0.005111	0.001520	3910.126443	12328.363658	3192.380430	7375.860154
19.035500	-0.001665	-0.000569	-0.007986	-0.000533	3909.924955	12346.890842	3191.996046	7396.508790
19.536000	-0.003870	-0.000042	0.016905	0.000156	3904.105232	12343.432650	3203.618611	7389.568557
20.036000	-0.003492	-0.002700	-0.022158	-0.001653	3908.498879	12325.322492	3185.992055	7407.813150
20.536500	-0.004647	-0.000985	-0.003697	-0.000722	3904.308499	12342.051440	3194.098105	7398.415059
21.037000	-0.006299	0.000262	-0.015835	0.000617	3898.333189	12340.053287	3187.837078	7384.925251
21.534000	0.000119	-0.000070	0.001543	0.001058	3910.311972	12323.565674	3195.736598	7380.492782
22.037500	-0.006198	-0.000115	0.001463	0.000497	3898.774110	12334.586194	3195.965903	7386.132326
22.537500	0.000451	-0.001582	0.005021	-0.001175	3915.506282	12338.973268	3198.471350	7402.985479
23.038000	0.001402	0.000237	-0.010448	0.000879	3913.268820	12333.945064	3190.195417	7382.300205
23.535500	-0.004803	0.001484	0.006611	0.001268	3900.017029	12352.273083	3198.060147	7378.386324
24.035500	0.004474	-0.000164	-0.000732	0.000321	3920.649060	12337.285591	3195.007061	7387.905280
24.536000	0.002552	0.001495	0.020567	0.002066	3913.193868	12335.451465	3204.485342	7370.385660
25.036000	0.000025	0.000574	0.002284	0.000537	3911.174742	12348.458016	3196.338030	7385.735444
25.536500	-0.000194	0.001149	-0.002394	0.000825	3910.151246	12354.590464	3193.983152	7382.840392
26.036500	-0.001061	0.000540	-0.002143	-0.000839	3911.761517	12377.169105	3194.887977	7399.595363
26.537000	0.000149	-0.000469	0.006017	-0.000208	3912.933683	12342.090020	3198.485241	7393.232979
27.034500	0.003559	-0.000628	-0.006430	-0.000428	3920.310068	12343.382461	3192.674492	7395.444356
27.535000	0.002421	0.000267	0.001004	-0.003723	3924.724368	12433.305470	3197.764053	7428.778327
28.035000	0.000924	0.001278	0.008196	0.000557	3912.952903	12363.079111	3199.167681	7385.531405
28.535500	-0.000506	0.001816	-0.009358	0.000337	3910.507876	12379.322532	3190.951859	7387.747235
29.035500	-0.001000	0.001040	-0.031711	0.000774	3908.628428	12353.322028	3180.637437	7383.347462
29.536000	0.004271	0.000692	-0.001768	0.003354	3914.066866	12290.936540	3193.087726	7357.497255
30.036500	0.004531	0.001260	-0.006357	-0.000109	3921.643454	12376.942181	3192.559694	7392.233641
30.542000	-0.000403	0.000624	0.007087	-0.000208	3911.816064	12365.435220	3199.001258	7393.229129
31.037000	0.001190	0.001161	-0.007149	0.001909	3910.757685	12331.673350	3191.248108	7371.958515
31.551000	0.002168	0.000951	0.004775	0.002797	3910.938273	12308.299403	3196.448181	7363.067433
32.035000	0.000534	0.001137	0.021838	0.000937	3911.395598	12351.922360	3205.678669	7381.714895
32.538000	0.003638	0.001243	-0.010759	-0.000461	3920.539768	12384.137380	3190.671843	7395.780389
33.035500	0.000945	-0.000385	-0.013869	-0.001030	3916.213119	12361.444975	3189.496538	7401.514387
33.535500	-0.004435	-0.001217	-0.005222	0.002225	3898.842244	12274.389308	3191.998903	7368.790693
34.035500	0.001675	0.000274	0.007674	0.001373	3912.819895	12324.191753	3198.521614	7377.333232
34.538000	-0.003598	-0.001043	-0.013779	-0.000710	3906.389682	12340.539417	3189.390828	7398.293895
35.036000	-0.001193	-0.000448	0.009049	-0.000015	3909.830783	12338.397599	3199.857471	7391.286283
35.537000	0.000215	0.000460	-0.003811	0.002534	3907.532796	12303.448153	3192.514387	7365.702286
36.037000	-0.000062	-0.000784	0.016962	-0.000963	3914.033663	12351.483307	3204.200058	7400.840221
36.537500	0.000811	-0.000338	-0.004033	0.000547	3912.744696	12328.765797	3193.342197	7385.636567
37.040000	0.002489	-0.000178	-0.015807	0.000635	3915.968152	12330.304041	3187.841812	7384.747295
37.538000	0.000867	-0.000047	-0.010108	0.002632	3908.646759	12290.572359	3189.542068	7364.713687
38.035500	0.001050	0.000080	-0.012162	0.000513	3913.297477	12338.411332	3189.572124	7385.976961
38.538500	-0.000592	-0.000696	0.007868	0.000693	3909.613978	12318.008365	3198.943179	7384.162588
39.038500	0.001411	0.002195	0.013640	0.002475	3910.061570	12341.677737	3200.879573	7366.293821
39.536000	0.003234	0.002501	-0.008592	0.004871	3908.905362	12297.160834	3189.209154	7342.371421
40.036500	-0.004301	-0.000387	0.007895	-0.000050	3903.654035	12340.466248	3199.315840	7391.640662
40.536500	0.001846	-0.001337	0.006650	-0.001245	3918.483586	12345.691163	3199.291724	7403.693037
41.037000	-0.001337	-0.000524	0.003722	-0.000531	3910.582680	12347.814341	3197.537004	7396.489329
41.537500	-0.003712	-0.000048	-0.008120	0.000326	3904.080676	12339.651276	3191.532858	7387.852519
42.038000	-0.003520	0.000811	0.027142	-0.000087	3905.293407	12366.847486	3208.855797	7392.010774
42.535000	0.005394	0.001424	0.004070	0.001822	3919.464986	12339.170657	3196.577560	7372.835155
43.035500	-0.001826	0.001984	0.001940	0.001196	3906.120504	12364.520217	3195.860572	7379.116863
43.536000	0.001137	0.000263	0.010188	-0.001057	3916.658240	12375.917112	3200.918494	7401.794558
44.035500	0.008282	0.001706	0.015702	-0.002770	3934.849543	12443.809537	3204.471364	7419.118021
44.539000	0.000569	-0.000346	0.000045	-0.001704	3916.817928	12376.707584	3196.338856	7408.321724
45.036000	-0.000664	0.001533	-0.001220	-0.000290	3911.454196	12386.700619	3195.065141	7394.060226
45.537000	0.002792	0.000193	-0.000580	0.001108	3915.622639	12328.129300	3194.706234	7379.998796
46.037500	0.006219	0.002001	-0.008153	0.000631	3923.583378	12376.972265	3191.375524	7384.787782
46.540500	0.003234	0.000903	0.005724	-0.000418	3919.628182	12375.923704	3198.444978	7395.347618
47.035000	0.005258	0.000180	0.001986	-0.000479	3923.889217	12361.750617	3196.681014	7395.962103
47.535000	-0.002628	-0.000285	-0.007466	0.001809	3903.282631	12303.005438	3191.147045	7372.961374
48.035500	0.005515	0.000479	0.010936	-0.000257	3923.960809	12363.391492	3200.892725	7393.719924
48.536000	0.001627	0.001608	-0.017793	-0.000900	3917.334741	12401.397923	3187.635282	7400.205037
49.036500	0.006447	0.001083	-0.007307	0.000263	3924.805150	12365.173981	3191.941203	7388.485174
49.536500	-0.000663	-0.000149	-0.000236	0.003901	3903.028770	12261.522321	3193.550914	7352.041862
50.037000	-0.003018	-0.001619	-0.023368	-0.004037	3914.273541	12399.455380	3186.524822	7431.969941
50.537000	0.005262	-0.000493	0.003370	-0.003616	3930.349915	12414.610744	3198.851894	7427.690461
51.037500	-0.004740	-0.004903	0.021489	0.010030	3882.842206	12033.996578	3201.022706	7291.313164
51.535000	-0.014451	-0.013989	-0.001179	0.273467	3486.510678	7854.953994	3098.810767	5348.175897
52.035500	-0.028595	-0.015630	-0.013810	-0.058638	3975.119704	13313.687466	3217.939934	8023.201975
52.536000	0.003208	-0.007942	-0.018528	-0.127991	4221.985280	15302.441359	3254.647902	8889.721381
53.035500	-0.004381	-0.011593	0.004924	-0.069531	4054.364735	13672.057784	3234.089376	8150.314855
53.536000	-0.001835	-0.006230	0.008879	-0.022172	3954.318202	12694.642943	3210.797596	7620.161507
54.036500	0.015835	0.000105	0.013106	0.005606	3933.142678	12230.845910	3199.100737	7335.061016
54.536500	0.034501	0.011150	0.059731	-0.005925	3997.895370	12719.781747	3229.177737	7451.199673
55.034000	0.055612	0.017165	0.072305	0.043829	3936.366975	11795.037079	3209.487663	6971.408816
55.534500	0.082705	0.031628	0.106289	0.085508	3906.559993	11264.909174	3205.618714	6609.705961
56.037500	0.111033	0.050423	0.133015	0.103821	3926.917856	11273.991069	3209.852285	6461.429974
56.535500	0.142150	0.065138	0.154005	0.152103	3892.310496	10663.606563	3196.411963	6099.198481
57.035500	0.164989	0.077623	0.206999	0.205504	3833.977494	9980.659054	3196.217895	5742.784885
57.536000	0.183409	0.090045	0.193124	0.233177	3817.112166	9742.100230	3177.330173	5574.622864
58.035500	0.203815	0.103605	0.195418	0.260005	3805.615709	9541.268050	3166.996660	5421.511988
58.537500	0.215663	0.109676	0.238955	0.278095	3794.601725	9364.567458	3177.725745	5323.481057
59.036500	0.229118	0.118928	0.245661	0.306451	3768.944855	9093.590530	3168.558139	5177.809571
59.536500	0.228038	0.122555	0.272906	0.324748	3736.870222	8893.437364	3172.291702	5088.733221
60.037500	0.244073	0.128121	0.289519	0.346018	3728.447118	8686.545595	3170.339006	4989.795840
60.535000	0.245484	0.132383	0.276204	0.348538	3726.674343	8709.117333	3163.852893	4978.388815
61.034500	0.252865	0.138777	0.284985	0.373211	3699.633690	8476.610133	3157.577062	4870.161874
61.535500	0.261371	0.141259	0.277106	0.346139	3756.467540	8857.505221	3165.185514	4989.245274
62.035500	0.275688	0.142009	0.293022	0.343235	3785.695950	8906.418885	3172.979616	5002.465258
62.536000	0.276713	0.139255	0.292776	0.345088	3784.263599	8844.807224	3172.093882	4994.019702
63.036000	0.278991	0.142039	0.282069	0.351493	3777.168348	8796.848627	3165.027440	4965.103856
63.536000	0.274363	0.144019	0.289941	0.353125	3766.530214	8801.434427	3167.571876	4957.800340
64.036500	0.279857	0.149794	0.314330	0.349924	3781.345585	8921.167806	3179.271593	4972.145158
64.537000	0.280666	0.150646	0.316455	0.350329	3782.041948	8927.209818	3180.026004	4970.326515
65.037000	0.287047	0.150131	0.311945	0.349414	3794.715957	8932.594915	3178.452872	4974.440732
65.540000	0.282328	0.152227	0.290866	0.349459	3786.417264	8960.365018	3169.467697	4974.240817
66.035000	0.280631	0.152101	0.302648	0.348550	3785.051763	8971.000007	3174.813450	4978.335963
66.535000	0.286960	0.150499	0.300077	0.347282	3798.308940	8966.462877	3174.257325	4984.067616
67.035500	0.282764	0.151764	0.281928	0.347999	3789.708262	8973.903439	3166.390116	4980.824624
67.536000	0.285970	0.154449	0.313364	0.351563	3789.085074	8961.963851	3178.134761	4964.787407
68.036500	0.293193	0.156400	0.304212	0.350742	3803.204329	8999.717028	3174.545157	4968.471953
68.536500	0.289747	0.157360	0.311047	0.352162	3794.631666	8993.427530	3176.870358	4962.105238
69.037000	0.295084	0.153877	0.309778	0.349187	3809.332855	8986.496370	3177.609363	4975.464587
69.537000	0.291132	0.157896	0.313412	0.355898	3790.524935	8949.932765	3176.279065	4945.460303
70.040500	0.292199	0.153537	0.308757	0.350307	3802.214727	8966.636334	3176.682521	4970.424307
70.534500	0.294472	0.154394	0.303015	0.352949	3801.563228	8942.451169	3173.098322	4958.589354
71.035000	0.294268	0.154613	0.305193	0.353587	3800.075934	8936.779930	3173.751533	4955.741441
71.535000	0.295075	0.156421	0.321284	0.356164	3796.958805	8926.399772	3179.584367	4944.281052
72.035500	0.294269	0.153510	0.320332	0.354422	3798.605292	8910.649640	3179.931259	4952.019294
72.536000	0.292200	0.159277	0.304160	0.360915	3783.677714	8900.891733	3170.232247	4923.331761
73.036000	0.297678	0.155305	0.302589	0.357779	3798.696895	8889.664321	3170.885974	4937.133894
73.536500	0.294044	0.155263	0.294180	0.361289	3786.218593	8842.241989	3165.967191	4921.691434
74.037000	0.296428	0.153561	0.276017	0.359901	3792.781962	8838.063785	3159.269279	4927.782430
74.537000	0.289437	0.152064	0.301260	0.359096	3782.048569	8828.890758	3169.782124	4931.325627
75.037500	0.295174	0.154947	0.310516	0.364309	3782.952002	8798.052152	3171.470949	4908.503153
75.535000	0.292657	0.156282	0.297356	0.368840	3770.893919	8756.043701	3164.195120	4888.891096
76.035000	0.298242	0.152757	0.306914	0.363968	3788.854682	8773.717644	3170.107447	4909.988596
76.535500	0.297805	0.155665	0.317065	0.367028	3782.800763	8771.717422	3173.085928	4896.709442
77.035000	0.298584	0.152331	0.292641	0.365320	3787.101720	8750.392550	3163.714270	4904.108765
77.536000	0.298573	0.155235	0.311013	0.370779	3777.673945	8717.054939	3168.981288	4880.557409
78.036500	0.299094	0.156165	0.306950	0.370098	3779.735068	8738.054669	3167.586301	4883.478688
78.536500	0.289411	0.156883	0.310506	0.369859	3763.690661	8750.562638	3169.152289	4884.505912
79.037000	0.294329	0.153355	0.310844	0.368047	3775.089290	8728.150239	3170.045236	4892.307111
79.540000	0.300302	0.155739	0.311180	0.375993	3771.728576	8656.126944	3166.903947	4858.338835
80.035000	0.304221	0.153790	0.302137	0.372594	3784.268540	8674.815774	3164.609472	4872.795222
80.534500	0.299466	0.153540	0.282184	0.373692	3774.223555	8657.447235	3156.309733	4868.113415
81.035500	0.309471	0.157360	0.304786	0.377448	3784.952452	8658.265558	3163.721327	4852.187165
81.536000	0.295863	0.153676	0.312990	0.377352	3761.944171	8612.266314	3167.088479	4852.591058
82.036000	0.302316	0.156205	0.306926	0.379766	3768.747863	8613.739957	3163.649581	4842.427715
82.536000	0.303563	0.154835	0.325043	0.377793	3774.215798	8621.443955	3171.909660	4850.733036
83.036500	0.302202	0.153607	0.323239	0.377337	3772.674303	8611.567670	3171.343154	4852.653717
83.537000	0.306938	0.153954	0.330755	0.379160	3777.647659	8592.770129	3173.746799	4844.975125
84.037500	0.313124	0.160843	0.328228	0.385158	3777.967233	8604.103724	3170.158916	4819.923165
84.537500	0.307695	0.157531	0.326279	0.384803	3769.325843	8566.545410	3169.496479	4821.399641
85.034500	0.302369	0.157688	0.305341	0.385134	3759.807157	8564.330679	3160.878766	4820.022401
85.535000	0.305796	0.152218	0.315287	0.385154	3765.526432	8495.295265	3164.848021	4819.942236
86.035500	0.305621	0.155722	0.312442	0.386251	3763.384823	8525.453996	3163.260618	4815.396150
86.535500	0.308259	0.153632	0.316390	0.385785	3768.617277	8505.081938	3165.039076	4817.325583
87.036500	0.309358	0.158375	0.301591	0.391903	3760.176485	8487.899911	3156.770442	4792.166024
87.536000	0.312346	0.159401	0.328619	0.393045	3763.269997	8486.454338	3167.062245	4787.508520
88.036500	0.305135	0.154002	0.318412	0.388696	3758.478712	8473.367696	3164.679119	4805.309725
88.537000	0.308050	0.157299	0.330081	0.393002	3756.162591	8460.821769	3167.679841	4787.685094
89.037500	0.313900	0.159231	0.318497	0.396509	3760.068725	8441.295902	3161.584410	4773.455934
89.535000	0.300091	0.155006	0.341459	0.396053	3738.082458	8394.863134	3171.135264	4775.301682
90.035000	0.305265	0.154060	0.309889	0.393042	3751.478473	8420.250981	3159.555458	4787.519831
90.535500	0.312584	0.153690	0.316694	0.394900	3760.560389	8392.875876	3161.507551	4779.971430
91.035500	0.306564	0.153020	0.315164	0.395780	3749.105879	8373.900832	3160.553891	4776.406061
91.536000	0.311085	0.154601	0.327197	0.400026	3749.557818	8341.432776	3163.653936	4759.304082
92.036500	0.310291	0.156192	0.317276	0.399569	3749.001825	8366.358700	3159.893243	4761.135601
92.536500	0.298433	0.154863	0.329682	0.399258	3730.239508	8353.953929	3164.965677	4762.384789
93.037000	0.309875	0.155164	0.328834	0.401050	3745.886819	8335.838406	3163.900747	4755.206408
93.559500	0.306252	0.156970	0.331251	0.402591	3737.471473	8339.063942	3164.253267	4749.056243
94.037500	0.305772	0.153599	0.333223	0.401487	3738.482666	8311.608453	3165.497685	4753.459506
94.535000	0.307938	0.154662	0.334428	0.402852	3739.782257	8307.967118	3165.432617	4748.015425
95.035500	0.300372	0.149912	0.355812	0.398894	3733.943512	8298.410281	3176.022631	4763.847098
95.535500	0.304944	0.156451	0.313487	0.406424	3729.190024	8286.496163	3155.760579	4733.849343
96.035500	0.305715	0.155741	0.324506	0.405528	3731.865145	8288.730084	3160.394009	4737.393984
