sample name	sample
index	453
start time	 03-11-2021  11:21:37 AM


Wavelength (nm)	Absorbance
494.344910	0.102826
494.563924	0.102826
494.782919	0.102826
495.001897	0.055041
495.220856	-0.025608
495.439797	-0.090157
495.658719	-0.054878
495.877624	-0.053942
496.096510	-0.060310
496.315378	-0.050378
496.534227	0.023956
496.753059	0.099741
496.971872	0.084421
497.190667	0.073411
497.409444	0.078514
497.628203	0.070970
497.846943	0.068750
498.065665	0.069649
498.284369	0.070462
498.503055	0.068926
498.721723	0.068133
498.940372	0.068668
499.159003	0.067576
499.377616	0.067536
499.596210	0.068075
499.814787	0.069360
500.033345	0.069347
500.251885	0.069054
500.470406	0.070387
500.688910	0.071689
500.907395	0.071932
501.125862	0.072845
501.344311	0.073040
501.562742	0.073503
501.781154	0.073395
501.999548	0.072723
502.217924	0.073304
502.436282	0.072812
502.654621	0.072825
502.872942	0.073140
503.091245	0.072411
503.309530	0.071685
503.527797	0.072469
503.746045	0.072139
503.964275	0.072434
504.182487	0.071675
504.400681	0.072609
504.618856	0.072302
504.837013	0.073136
505.055152	0.073414
505.273273	0.073719
505.491376	0.072875
505.709460	0.073058
505.927526	0.073836
506.145574	0.074974
506.363604	0.074132
506.581615	0.074242
506.799608	0.074180
507.017583	0.074851
507.235540	0.074548
507.453478	0.074971
507.671399	0.075202
507.889301	0.074609
508.107185	0.074579
508.325050	0.075061
508.542898	0.075041
508.760727	0.073739
508.978538	0.073121
509.196330	0.073699
509.414105	0.073285
509.631861	0.072766
509.849599	0.073101
510.067319	0.073380
510.285021	0.072123
510.502704	0.072291
510.720369	0.072245
510.938016	0.073519
511.155645	0.073906
511.373255	0.073897
511.590848	0.074361
511.808422	0.074530
512.025977	0.073696
512.243515	0.075146
512.461034	0.075218
512.678536	0.075976
512.896018	0.074857
513.113483	0.074755
513.330930	0.075424
513.548358	0.075635
513.765768	0.075824
513.983160	0.076733
514.200533	0.076461
514.417889	0.077083
514.635226	0.076927
514.852545	0.077528
515.069845	0.077940
515.287128	0.077800
515.504392	0.077492
515.721638	0.077754
515.938866	0.077724
516.156075	0.077547
516.373267	0.076782
516.590440	0.076892
516.807594	0.076327
517.024731	0.076814
517.241850	0.076821
517.458950	0.077620
517.676032	0.077802
517.893095	0.077567
518.110141	0.078693
518.327168	0.078688
518.544177	0.078991
518.761168	0.080165
518.978141	0.079282
519.195095	0.079135
519.412031	0.078997
519.628949	0.078482
519.845849	0.078615
520.062731	0.077781
520.279594	0.078150
520.496439	0.078454
520.713266	0.077829
520.930074	0.078030
521.146865	0.078316
521.363637	0.077916
521.580391	0.077966
521.797127	0.078176
522.013844	0.078059
522.230543	0.078429
522.447224	0.078067
522.663887	0.078730
522.880532	0.078313
523.097158	0.078489
523.313766	0.079384
523.530356	0.079697
523.746928	0.080051
523.963481	0.080381
524.180017	0.079820
524.396534	0.080057
524.613032	0.079372
524.829513	0.079384
525.045975	0.079267
525.262420	0.078664
525.478845	0.078938
525.695253	0.078663
525.911643	0.078944
526.128014	0.079059
526.344367	0.078683
526.560702	0.079059
526.777018	0.079659
526.993316	0.079776
527.209597	0.080019
527.425858	0.079992
527.642102	0.080109
527.858328	0.080447
528.074535	0.080831
528.290724	0.081470
528.506894	0.082151
528.723047	0.082585
528.939181	0.083243
529.155297	0.082934
529.371395	0.083049
529.587475	0.083388
529.803536	0.083242
530.019579	0.083112
530.235604	0.082875
530.451611	0.082845
530.667600	0.082543
530.883570	0.081943
531.099522	0.082501
531.315456	0.082547
531.531372	0.082591
531.747269	0.082643
531.963148	0.082791
532.179009	0.082969
532.394852	0.082716
532.610676	0.083168
532.826482	0.083938
533.042271	0.084342
533.258040	0.085238
533.473792	0.085530
533.689525	0.085350
533.905240	0.085730
534.120937	0.085961
534.336616	0.085946
534.552277	0.085955
534.767919	0.086166
534.983543	0.086268
535.199149	0.085810
535.414736	0.085622
535.630306	0.086547
535.845857	0.086772
536.061390	0.087008
536.276904	0.087707
536.492401	0.087733
536.707879	0.087547
536.923339	0.087280
537.138781	0.087224
537.354204	0.087402
537.569610	0.087508
537.784997	0.087900
538.000366	0.088040
538.215716	0.087781
538.431049	0.087819
538.646363	0.087497
538.861659	0.087326
539.076937	0.087496
539.292196	0.087866
539.507438	0.087772
539.722661	0.087918
539.937866	0.088151
540.153052	0.088431
540.368221	0.088974
540.583371	0.089704
540.798503	0.090194
541.013617	0.090493
541.228712	0.090169
541.443789	0.090227
541.658848	0.090214
541.873889	0.089910
542.088912	0.089885
542.303916	0.089494
542.518902	0.089909
542.733870	0.090177
542.948820	0.090393
543.163752	0.090692
543.378665	0.090604
543.593560	0.090093
543.808437	0.090663
544.023295	0.090818
544.238136	0.091206
544.452958	0.090723
544.667762	0.090709
544.882548	0.090803
545.097315	0.091197
545.312064	0.091271
545.526795	0.092049
545.741508	0.092165
545.956203	0.092385
546.170879	0.092834
546.385537	0.093029
546.600177	0.093471
546.814799	0.093585
547.029402	0.093368
547.243988	0.093821
547.458555	0.093494
547.673103	0.093429
547.887634	0.093547
548.102146	0.093248
548.316640	0.093422
548.531116	0.093452
548.745574	0.093546
548.960013	0.093821
549.174435	0.093841
549.388838	0.093904
549.603222	0.094378
549.817589	0.094274
550.031937	0.094383
550.246267	0.094388
550.460579	0.094411
550.674873	0.094145
550.889148	0.094058
551.103405	0.093982
551.317644	0.094087
551.531865	0.094041
551.746068	0.094280
551.960252	0.094428
552.174418	0.094610
552.388566	0.094434
552.602696	0.094834
552.816807	0.095357
553.030900	0.095339
553.244975	0.095638
553.459032	0.095345
553.673070	0.095549
553.887091	0.095884
554.101093	0.095838
554.315077	0.096360
554.529042	0.096282
554.742990	0.096203
554.956919	0.096483
555.170830	0.096836
555.384722	0.097239
555.598597	0.097184
555.812453	0.096951
556.026291	0.097397
556.240111	0.097123
556.453913	0.097492
556.667696	0.097662
556.881461	0.097763
557.095208	0.098023
557.308937	0.098040
557.522647	0.098332
557.736339	0.098458
557.950013	0.098244
558.163669	0.098372
558.377307	0.098617
558.590926	0.098278
558.804527	0.098323
559.018110	0.097801
559.231675	0.098580
559.445221	0.098637
559.658749	0.098975
559.872259	0.099047
560.085751	0.099241
560.299225	0.098887
560.512680	0.099071
560.726117	0.099208
560.939536	0.099346
561.152937	0.098828
561.366319	0.098779
561.579683	0.098829
561.793029	0.099016
562.006357	0.099036
562.219667	0.099057
562.432958	0.099494
562.646231	0.099556
562.859486	0.099757
563.072723	0.099773
563.285941	0.100173
563.499141	0.100209
563.712323	0.100207
563.925487	0.100514
564.138632	0.100692
564.351760	0.100158
564.564869	0.100049
564.777960	0.100113
564.991032	0.099993
565.204087	0.099661
565.417123	0.099731
565.630141	0.099403
565.843140	0.099322
566.056122	0.099480
566.269085	0.099873
566.482030	0.100018
566.694957	0.099912
566.907866	0.100098
567.120756	0.100143
567.333628	0.099927
567.546482	0.100508
567.759318	0.100582
567.972135	0.100240
568.184935	0.100294
568.397716	0.100409
568.610478	0.100530
568.823223	0.100916
569.035949	0.101070
569.248657	0.101194
569.461347	0.101173
569.674019	0.101129
569.886672	0.101690
570.099308	0.101685
570.311925	0.101734
570.524523	0.101858
570.737104	0.101638
570.949666	0.101577
571.162210	0.101608
571.374736	0.101767
571.587244	0.102041
571.799733	0.101939
572.012205	0.102055
572.224658	0.102196
572.437092	0.102284
572.649509	0.102250
572.861907	0.102449
573.074287	0.102631
573.286649	0.102789
573.498993	0.102500
573.711318	0.102344
573.923625	0.102425
574.135914	0.102618
574.348185	0.102831
574.560438	0.103122
574.772672	0.103187
574.984888	0.103428
575.197086	0.103197
575.409266	0.103370
575.621427	0.103808
575.833570	0.103938
576.045695	0.103887
576.257802	0.103373
576.469890	0.103183
576.681961	0.103239
576.894013	0.103291
577.106046	0.103429
577.318062	0.103484
577.530059	0.103059
577.742039	0.103139
577.954000	0.103097
578.165942	0.103936
578.377867	0.104100
578.589773	0.104193
578.801661	0.104136
579.013531	0.104209
579.225382	0.104328
579.437216	0.104902
579.649031	0.104799
579.860828	0.104832
580.072606	0.104767
580.284367	0.104599
580.496109	0.104650
580.707833	0.104407
580.919539	0.104795
581.131227	0.104826
581.342896	0.104535
581.554547	0.104509
581.766180	0.104617
581.977795	0.104363
582.189391	0.104594
582.400969	0.104889
582.612529	0.105220
582.824071	0.104979
583.035595	0.104981
583.247100	0.105138
583.458587	0.105264
583.670056	0.105336
583.881506	0.105407
584.092939	0.105712
584.304353	0.105364
584.515749	0.105454
584.727127	0.105706
584.938486	0.105970
585.149828	0.106207
585.361151	0.106341
585.572456	0.106434
585.783742	0.106285
585.995011	0.106136
586.206261	0.106657
586.417493	0.106973
586.628706	0.106978
586.839902	0.106918
587.051079	0.106831
587.262238	0.106919
587.473379	0.107182
587.684502	0.107575
587.895606	0.107726
588.106692	0.107529
588.317760	0.107545
588.528810	0.107458
588.739841	0.107360
588.950855	0.107297
589.161850	0.107517
589.372827	0.107621
589.583785	0.107981
589.794726	0.108207
590.005648	0.108354
590.216552	0.108521
590.427437	0.108971
590.638305	0.109151
590.849154	0.109304
591.059985	0.109227
591.270798	0.109210
591.481592	0.108914
591.692369	0.108971
591.903127	0.108502
592.113867	0.108415
592.324588	0.108057
592.535292	0.108042
592.745977	0.108255
592.956644	0.108772
593.167293	0.108737
593.377923	0.109015
593.588536	0.108864
593.799130	0.109360
594.009706	0.109464
594.220263	0.109767
594.430803	0.110033
594.641324	0.109784
594.851827	0.109331
595.062312	0.109357
595.272778	0.109220
595.483227	0.109361
595.693657	0.109673
595.904069	0.109604
596.114462	0.109463
596.324838	0.109413
596.535195	0.109641
596.745534	0.110046
596.955855	0.110243
597.166157	0.110874
597.376441	0.111003
597.586707	0.111250
597.796955	0.111423
598.007185	0.111747
598.217396	0.112109
598.427589	0.112689
598.637764	0.112545
598.847921	0.112399
599.058060	0.111751
599.268180	0.111796
599.478282	0.111474
599.688366	0.111610
599.898431	0.111590
600.108479	0.111645
600.318508	0.111489
600.528519	0.111568
600.738511	0.111750
600.948486	0.112102
601.158442	0.112075
601.368380	0.112078
601.578300	0.112031
601.788202	0.112322
601.998085	0.112110
602.207950	0.112117
602.417797	0.112581
602.627626	0.112782
602.837436	0.112902
603.047228	0.113133
603.257002	0.113369
603.466758	0.113226
603.676496	0.113058
603.886215	0.112850
604.095916	0.112813
604.305599	0.112485
604.515264	0.112221
604.724910	0.111935
604.934538	0.111922
605.144148	0.111842
605.353740	0.111925
605.563314	0.111812
605.772869	0.112101
605.982406	0.112147
606.191925	0.112063
606.401425	0.112237
606.610908	0.112887
606.820372	0.112655
607.029818	0.112687
607.239246	0.112963
607.448655	0.113018
607.658047	0.113197
607.867420	0.112992
608.076775	0.113203
608.286111	0.113372
608.495430	0.113071
608.704730	0.113350
608.914012	0.113539
609.123275	0.113490
609.332521	0.113492
609.541748	0.113495
609.750957	0.113795
609.960148	0.113902
610.169321	0.113880
610.378475	0.113550
610.587611	0.113889
610.796729	0.113911
611.005829	0.114142
611.214910	0.114447
611.423974	0.114516
611.633019	0.114493
611.842045	0.114399
612.051054	0.114389
612.260044	0.114804
612.469017	0.114581
612.677970	0.114744
612.886906	0.114603
613.095824	0.114705
613.304723	0.114791
613.513604	0.115069
613.722467	0.115340
613.931311	0.115264
614.140138	0.115274
614.348946	0.115500
614.557736	0.115342
614.766507	0.115553
614.975261	0.115451
615.183996	0.115535
615.392713	0.115427
615.601412	0.115251
615.810092	0.115530
616.018754	0.115852
616.227399	0.115935
616.436024	0.116128
616.644632	0.116083
616.853222	0.115882
617.061793	0.115939
617.270346	0.116097
617.478880	0.116157
617.687397	0.116181
617.895895	0.116075
618.104375	0.116079
618.312837	0.116115
618.521281	0.116175
618.729706	0.116460
618.938113	0.116523
619.146502	0.116465
619.354873	0.116486
619.563226	0.116469
619.771560	0.116346
619.979876	0.116244
620.188174	0.116322
620.396453	0.116423
620.604715	0.116506
620.812958	0.116563
621.021183	0.117006
621.229390	0.117199
621.437578	0.117322
621.645748	0.117530
621.853900	0.117529
622.062034	0.117615
622.270150	0.117908
622.478247	0.117858
622.686326	0.117832
622.894387	0.117485
623.102430	0.117683
623.310454	0.117882
623.518461	0.117812
623.726449	0.118018
623.934418	0.117898
624.142370	0.117706
624.350303	0.118022
624.558218	0.118053
624.766115	0.118402
624.973994	0.118331
625.181855	0.118350
625.389697	0.118595
625.597521	0.118534
625.805327	0.118734
626.013114	0.118904
626.220883	0.118552
626.428634	0.118645
626.636367	0.118557
626.844082	0.118650
627.051778	0.118530
627.259457	0.118396
627.467117	0.118460
627.674758	0.118325
627.882382	0.118342
628.089987	0.118889
628.297574	0.119048
628.505143	0.118953
628.712694	0.118835
628.920226	0.119099
629.127740	0.119461
629.335236	0.119677
629.542714	0.119881
629.750174	0.119883
629.957615	0.119682
630.165038	0.119842
630.372443	0.120174
630.579829	0.120454
630.787198	0.120306
630.994548	0.120445
631.201880	0.120632
631.409194	0.120896
631.616489	0.120979
631.823766	0.120940
632.031025	0.121025
632.238266	0.120931
632.445489	0.121125
632.652693	0.121277
632.859879	0.121292
633.067047	0.121290
633.274197	0.120968
633.481329	0.120999
633.688442	0.121138
633.895537	0.120976
634.102614	0.120849
634.309672	0.120775
634.516713	0.120929
634.723735	0.120857
634.930739	0.120911
635.137724	0.121258
635.344692	0.121405
635.551641	0.121618
635.758572	0.121910
635.965485	0.122158
636.172379	0.122059
636.379256	0.122079
636.586114	0.122080
636.792954	0.122068
636.999775	0.122206
637.206579	0.122131
637.413364	0.122105
637.620131	0.121781
637.826880	0.121786
638.033610	0.121948
638.240323	0.121827
638.447017	0.122035
638.653692	0.121907
638.860350	0.121866
639.066990	0.121866
639.273611	0.121829
639.480214	0.122198
639.686798	0.122493
639.893365	0.122547
640.099913	0.122687
640.306443	0.122644
640.512955	0.123141
640.719449	0.122990
640.925924	0.123160
641.132381	0.123438
641.338820	0.123338
641.545241	0.123396
641.751644	0.123554
641.958028	0.123741
642.164394	0.123764
642.370742	0.123505
642.577071	0.123782
642.783383	0.123919
642.989676	0.124015
643.195951	0.124287
643.402207	0.124141
643.608446	0.123928
643.814666	0.124099
644.020868	0.124354
644.227052	0.124550
644.433218	0.124623
644.639365	0.124610
644.845494	0.124551
645.051605	0.124662
645.257698	0.124869
645.463772	0.125075
645.669828	0.124877
645.875866	0.124711
646.081886	0.124842
646.287888	0.124788
646.493871	0.124987
646.699836	0.124993
646.905783	0.124927
647.111712	0.124928
647.317622	0.125109
647.523514	0.125381
647.729388	0.125426
647.935244	0.125484
648.141082	0.125772
648.346901	0.125791
648.552702	0.126212
648.758485	0.126276
648.964250	0.126410
649.169996	0.126545
649.375724	0.126779
649.581434	0.127121
649.787126	0.127062
649.992800	0.127022
650.198455	0.127056
650.404092	0.126706
650.609711	0.126618
650.815311	0.126797
651.020894	0.126860
651.226458	0.126792
651.432004	0.126737
651.637532	0.126724
651.843041	0.126836
652.048532	0.127062
652.254006	0.127332
652.459460	0.127731
652.664897	0.127780
652.870315	0.127783
653.075716	0.127818
653.281097	0.127872
653.486461	0.128158
653.691807	0.128245
653.897134	0.128030
654.102443	0.128049
654.307734	0.127916
654.513006	0.127476
654.718261	0.127525
654.923497	0.127607
655.128715	0.127772
655.333915	0.127894
655.539096	0.127664
655.744259	0.127657
655.949404	0.127793
656.154531	0.127949
656.359640	0.128583
656.564730	0.128509
656.769802	0.128486
656.974856	0.128518
657.179892	0.128463
657.384909	0.128668
657.589908	0.128969
657.794889	0.129088
657.999852	0.129319
658.204797	0.129200
658.409723	0.129448
658.614631	0.129532
658.819521	0.129662
659.024393	0.129657
659.229246	0.129853
659.434081	0.130059
659.638898	0.130008
659.843697	0.129833
660.048478	0.130173
660.253240	0.130264
660.457984	0.130178
660.662710	0.130192
660.867417	0.130407
661.072107	0.130448
661.276778	0.130626
661.481431	0.130692
661.686066	0.130969
661.890682	0.130828
662.095281	0.131021
662.299861	0.131533
662.504422	0.131452
662.708966	0.131590
662.913491	0.131726
663.117999	0.131536
663.322488	0.131775
663.526958	0.131699
663.731411	0.131640
663.935845	0.131750
664.140261	0.131760
664.344659	0.132139
664.549038	0.132219
664.753400	0.132391
664.957743	0.132610
665.162068	0.132651
665.366375	0.132788
665.570663	0.133112
665.774933	0.133125
665.979185	0.133360
666.183419	0.133237
666.387635	0.133202
666.591832	0.133098
666.796011	0.132868
667.000172	0.132774
667.204315	0.132866
667.408439	0.132929
667.612545	0.132938
667.816634	0.132915
668.020703	0.133006
668.224755	0.132969
668.428788	0.133038
668.632803	0.133210
668.836800	0.133330
669.040779	0.133417
669.244739	0.133368
669.448681	0.133530
669.652605	0.133210
669.856511	0.133217
670.060399	0.133333
670.264268	0.133560
670.468119	0.133753
670.671952	0.133948
670.875767	0.133986
671.079563	0.134161
671.283341	0.134186
671.487101	0.134447
671.690843	0.134576
671.894567	0.134618
672.098272	0.134570
672.301959	0.134743
672.505628	0.134802
672.709278	0.134908
672.912911	0.134914
673.116525	0.134910
673.320121	0.135027
673.523699	0.135131
673.727258	0.135224
673.930799	0.135334
674.134322	0.135460
674.337827	0.135410
674.541314	0.135484
674.744782	0.135564
674.948232	0.135735
675.151664	0.135849
675.355078	0.136030
675.558474	0.136371
675.761851	0.136583
675.965210	0.136446
676.168551	0.136610
676.371873	0.136766
676.575178	0.136878
676.778464	0.137150
676.981732	0.137236
677.184981	0.137157
677.388213	0.137226
677.591426	0.137312
677.794621	0.137594
677.997798	0.137853
678.200956	0.137739
678.404097	0.137787
678.607219	0.137557
678.810323	0.137516
679.013408	0.137839
679.216476	0.137750
679.419525	0.137918
679.622556	0.137891
679.825569	0.137759
680.028563	0.137918
680.231540	0.138042
680.434498	0.138332
680.637438	0.138424
680.840359	0.138391
681.043263	0.138441
681.246148	0.138380
681.449015	0.138570
681.651864	0.138726
681.854694	0.138809
682.057506	0.138692
682.260301	0.138787
682.463076	0.139014
682.665834	0.138991
682.868573	0.139142
683.071295	0.139176
683.273998	0.139172
683.476682	0.139372
683.679349	0.139514
683.881997	0.139937
684.084627	0.139838
684.287239	0.139899
684.489833	0.140036
684.692408	0.140130
684.894965	0.140079
685.097504	0.140160
685.300025	0.140417
685.502527	0.140625
685.705012	0.140668
685.907478	0.140814
686.109925	0.140718
686.312355	0.140917
686.514766	0.140985
686.717159	0.141191
686.919534	0.141218
687.121891	0.141102
687.324230	0.140900
687.526550	0.140872
687.728852	0.140634
687.931136	0.140948
688.133401	0.140922
688.335649	0.140869
688.537878	0.140814
688.740089	0.140873
688.942281	0.140639
689.144456	0.140792
689.346612	0.140856
689.548750	0.141230
689.750870	0.141227
689.952971	0.141167
690.155055	0.141650
690.357120	0.141875
690.559167	0.142006
690.761195	0.142337
690.963206	0.142527
691.165198	0.142406
691.367172	0.142367
691.569128	0.142388
691.771065	0.142724
691.972984	0.142719
692.174885	0.142881
692.376768	0.142975
692.578633	0.142982
692.780479	0.143013
692.982308	0.143246
693.184118	0.143582
693.385909	0.143538
