sample name	sample
index	516
start time	 03-11-2021  03:35:49 PM
880	0.456419
Peak Time (s)	91.036
Peak Height 	0.4564
calc peak height	90,93
Baseline Time (s)	11.535
Baseline Value 	-0.003147
subtract baseline	10,4
Abs	0.312378
Peak Time (s)	91.537
Peak Height 	0.3124
calc peak height	90,93
Baseline Time (s)	9.537
Baseline Value 	0.00183
subtract baseline	10,3
PK_550	0.167071
Peak Time (s)	92.037
Peak Height 	0.1671
calc peak height	90,93
Baseline Time (s)	9.537
Baseline Value 	-4.5448E-4
subtract baseline	10,2
PK_880	0.301573
Peak Time (s)	92.037
Peak Height 	0.3016
calc peak height	90,93
Baseline Time (s)	9.036
Baseline Value 	-1.44E-4
subtract baseline	10,1


Time (s)	A880-A510	A880-A775	A880-A975	A880	I510	I775	I975	I880	
0.036000	-0.002046	-0.000268	-0.002036	0.006151	6944.717527	44500.643012	3963.489798	23672.797436
0.536500	-0.001732	-0.000498	-0.005649	0.004992	6958.404706	44589.525664	3957.375364	23728.221715
1.037000	-0.002035	0.000405	-0.005099	0.004131	6963.596990	44758.780713	3960.884959	23769.516100
1.538000	0.000408	0.000306	-0.005331	0.001216	7013.875080	45030.591088	3967.595575	23909.964294
2.037500	-0.002394	0.000264	-0.005366	0.005190	6950.399696	44643.527773	3957.586336	23718.743789
2.537500	0.000375	0.000485	-0.001942	0.000929	7016.276331	45075.746833	3976.853863	23923.847469
3.035500	0.000556	-0.000003	-0.000701	-0.001544	7041.419749	45268.628223	3986.288490	24043.808471
3.535500	-0.002202	-0.000676	0.004809	0.000283	6998.074159	45025.798854	3995.723408	23955.100400
4.038500	-0.004048	-0.000978	-0.004548	0.004429	6942.113059	44597.429651	3961.517806	23755.225426
4.536000	0.001616	0.000111	0.001228	0.000630	7030.837793	45068.427469	3985.662408	23938.295677
5.036500	0.001246	-0.000858	0.001737	-0.000158	7034.808009	45050.867308	3988.974698	23976.466851
5.537000	0.002344	0.000301	-0.001198	0.000940	7034.803266	45056.837816	3978.708888	23923.293474
6.036500	0.000091	0.000462	0.001153	0.000912	7013.744049	45075.153036	3984.751352	23924.649719
6.537500	-0.000343	0.000751	-0.001089	0.001035	7008.497613	45091.249788	3978.746225	23918.733670
7.037000	-0.001863	0.000680	-0.000517	0.000468	6999.523111	45139.372577	3981.634782	23946.150569
7.535000	-0.000976	0.000552	-0.003449	0.000215	7010.258827	45151.451948	3974.848046	23958.397566
8.035500	0.002509	0.000290	-0.001811	0.000577	7039.817137	45090.989026	3978.075749	23940.866007
8.538500	0.003031	0.000764	0.001453	0.000796	7042.700070	45115.726753	3985.812821	23930.287972
9.036000	0.000000	-0.000747	-0.001821	-0.000581	7027.000534	45102.680175	3980.983981	23996.975313
9.536500	-0.000382	0.000000	0.000000	-0.000084	7018.694628	45126.952480	3984.353369	23972.899978
10.036500	0.000203	0.000182	-0.000742	-0.000053	7023.920362	45141.536002	3982.385577	23971.366288
10.540000	-0.000251	0.000150	0.004690	0.000311	7016.194659	45103.099819	3995.342485	23953.726978
11.037000	-0.001851	-0.000194	0.000465	0.003343	6972.676040	44777.051731	3976.834102	23807.401627
11.535000	0.000709	-0.000242	-0.000608	0.000000	7028.215488	45095.314631	3982.592865	23968.816533
12.035000	-0.000579	-0.000688	0.003815	-0.000833	7023.911716	45132.852968	3996.036561	24009.252540
12.535500	-0.000494	-0.000095	0.000262	-0.000124	7018.005133	45121.536017	3985.121534	23974.821743
13.038500	-0.000891	0.000069	0.000508	0.003350	6981.587695	44801.686295	3976.925765	23807.067038
13.536000	-0.000859	0.000150	0.003155	-0.000603	7019.080903	45191.853508	3993.747044	23998.052739
14.036000	-0.000462	0.000134	-0.000141	-0.000893	7025.584241	45218.519074	3986.054520	24012.135975
14.536500	-0.000822	-0.000581	-0.001378	0.001201	7002.415432	44946.188016	3977.591439	23910.673028
15.037000	-0.001999	0.000577	-0.000782	0.004585	6959.711065	44731.717017	3970.557979	23747.760618
15.567000	-0.001088	-0.000350	0.001960	-0.000854	7019.295385	45167.683156	3991.325824	24010.242102
16.037000	-0.001424	-0.000006	0.002628	-0.001000	7017.498054	45215.290206	3993.413458	24017.329549
16.535000	0.000865	-0.000284	0.000115	-0.001632	7045.185958	45249.754821	3988.595203	24048.072370
17.035000	-0.000922	0.000113	-0.002388	0.002764	6986.797470	44862.401007	3971.098784	23835.270788
17.538500	0.003080	0.000137	0.003838	-0.002451	7074.145289	45370.589551	4000.267052	24087.929444
18.035500	0.002030	0.000246	0.003873	-0.003026	7069.601540	45437.388701	4001.843265	24115.976739
18.536000	-0.000737	0.000007	0.003569	0.000381	7010.948815	45082.498254	3992.286318	23950.349915
19.036000	-0.000992	-0.000002	0.004142	0.001492	6998.087598	44974.079721	3990.906359	23896.642369
19.536500	0.000616	0.000382	-0.001695	0.000553	7022.103367	45102.224861	3978.431351	23942.051544
20.037000	-0.001495	0.000390	-0.002359	0.000938	6998.565773	45065.691322	3975.777366	23923.419151
20.537500	0.000247	-0.000049	-0.001156	0.000332	7020.706985	45081.804610	3980.357141	23952.732543
21.037000	-0.000627	0.000599	0.001815	0.002138	6995.432684	44969.739669	3983.316016	23865.425114
21.535000	0.001066	0.000045	0.001549	0.000072	7030.912350	45116.150993	3987.906240	23965.324264
22.038000	-0.001012	-0.000421	-0.000147	-0.000142	7013.285687	45091.726800	3984.125872	23975.696787
22.535500	-0.000731	0.000660	0.001480	0.000643	7008.538572	45120.443345	3986.272257	23937.686996
23.036000	-0.000898	0.000317	0.002085	0.000255	7010.619607	45124.794915	3988.808654	23956.455171
23.536000	-0.000365	-0.000174	-0.004427	0.000273	7015.476161	45075.472282	3972.237802	23955.582831
24.036500	-0.001059	-0.000528	-0.001611	-0.000483	7016.063331	45114.398825	3981.268799	23992.226845
24.536500	-0.001020	-0.000781	-0.002401	-0.000484	7016.437057	45089.962932	3979.268852	23992.265255
25.037000	0.002663	0.000373	0.001506	0.000520	7041.817289	45104.466436	3986.652354	23943.616640
25.537500	-0.000427	0.000166	0.001917	-0.000156	7018.942411	45149.994821	3989.429176	23976.355311
26.035000	-0.000234	0.000142	-0.002112	-0.000125	7020.475753	45144.686116	3979.092893	23974.886534
26.537500	-0.000989	0.000032	-0.000287	0.000348	7008.884283	45088.163322	3982.524337	23951.979503
27.035500	0.000230	0.000514	-0.003190	0.000219	7021.608343	45147.447293	3975.494337	23958.215851
27.536000	-0.001347	-0.000274	0.003718	-0.000065	7009.398625	45098.513909	3993.810907	23971.956470
28.036000	-0.000794	-0.000598	-0.000444	0.001066	7003.954259	44957.653797	3980.302677	23917.223955
28.536500	0.001342	-0.000228	-0.001511	-0.001852	7051.824626	45276.628800	3985.008233	24058.770004
29.061500	0.002098	0.000885	0.002432	-0.001033	7051.230044	45305.313686	3992.997677	24018.965783
29.536500	0.001727	0.000129	0.001023	-0.001399	7051.183403	45267.260086	3990.322657	24036.746022
30.037000	-0.001826	-0.000425	0.000617	0.000825	6996.514581	44997.769911	3983.609631	23928.889132
30.537500	0.000245	-0.000020	-0.004246	-0.001875	7041.607254	45299.149579	3978.119850	24059.906240
31.038000	-0.000421	-0.001046	0.006003	-0.002289	7039.212723	45239.599371	4005.454060	24080.073254
31.535500	-0.000672	0.000216	-0.002780	0.000128	7013.944055	45127.320873	3976.758292	23962.594207
32.036000	-0.001311	-0.001143	0.004300	0.000612	7003.357256	44948.851598	3993.568314	23939.153788
32.541000	0.000336	0.000275	0.000178	-0.001412	7038.068423	45282.741545	3988.194381	24037.352358
33.038000	-0.003450	-0.000298	-0.003435	0.003036	6960.617957	44796.540005	3967.784909	23822.165261
33.536000	-0.001687	0.000002	-0.000358	-0.001497	7019.706562	45264.473439	3987.041988	24041.489885
34.036500	-0.001396	0.000388	-0.000729	0.004187	6969.044519	44751.857079	3971.693382	23766.862627
34.537500	0.001328	0.000709	0.006381	-0.002198	7054.992893	45401.751213	4006.199898	24075.633506
35.036500	-0.002521	-0.000140	-0.005143	0.003001	6969.613705	44815.102785	3963.596576	23823.842707
35.537500	-0.002403	-0.000251	0.004238	0.000713	6992.140550	45025.398748	3993.150191	23934.292007
36.035500	-0.001419	-0.000508	0.003915	0.000372	7004.599879	45033.491537	3993.195497	23950.775919
36.535500	-0.000827	0.000266	0.000133	0.000840	7005.771650	45063.112520	3982.338618	23928.128003
37.035500	-0.000919	0.000576	0.000186	0.002142	6992.666947	44967.210323	3979.171405	23865.269688
37.536000	-0.000543	-0.000554	0.001414	-0.000172	7018.006862	45081.737208	3988.186411	23977.175097
38.036500	-0.000951	-0.000772	0.000772	0.000163	7010.984044	45028.185249	3985.690879	23960.938598
38.536500	0.000267	0.000150	-0.000016	0.000763	7016.816662	45059.407500	3982.158149	23931.878638
39.036500	-0.000581	0.000487	-0.000503	0.002222	6995.088060	44950.767883	3977.223064	23861.399784
39.537000	-0.003639	-0.000560	-0.000856	-0.000001	6987.237996	45064.563128	3981.963410	23968.847244
40.037500	0.000418	0.000559	-0.002440	0.000861	7017.311389	45089.452009	3975.766091	23927.109892
40.534500	-0.002965	-0.000711	-0.002812	-0.000079	6994.301675	45057.565794	3977.203682	23972.658193
41.035000	-0.001203	-0.000241	0.004797	0.001608	6995.009007	44939.777595	3992.289554	23891.041717
41.535500	-0.000292	-0.000230	0.002035	0.000471	7014.299203	45050.805015	3988.127574	23945.999474
42.035500	-0.000493	0.000572	0.002055	0.000862	7008.712342	45090.653062	3987.180387	23927.076202
42.536000	-0.002120	-0.000440	-0.000889	-0.000131	7002.737477	45088.779275	3982.210513	23975.173923
43.036500	-0.000503	-0.000496	0.003287	0.001517	7002.444732	44923.958743	3988.652904	23895.405601
43.536000	-0.001260	0.000060	0.000806	0.000359	7006.222699	45089.769407	3985.277955	23951.408575
44.036500	-0.001472	0.000395	0.000624	0.000578	7002.167699	45101.087255	3984.256301	23940.830301
44.539500	-0.000650	-0.000289	0.003692	0.000293	7012.592536	45062.296779	3992.826141	23954.609904
45.034500	-0.002000	-0.000635	0.003634	0.000344	6999.398503	45023.851239	3992.545678	23952.144224
45.535500	0.000077	0.000092	0.003579	-0.001426	7035.742174	45266.303481	3996.955432	24038.033383
46.047500	0.000691	0.000441	0.004530	-0.001407	7041.393365	45298.483015	3999.359232	24037.125368
46.538000	0.001869	0.000643	0.000965	-0.001281	7051.402974	45305.852606	3989.871863	24030.977761
47.036000	-0.001452	0.000571	0.002027	0.002619	6983.191987	44920.584067	3982.634712	23842.276628
47.536500	0.000961	0.000523	-0.000053	-0.001074	7040.793299	45273.975875	3986.742365	24020.939882
48.036500	-0.002528	-0.000501	0.002528	-0.000503	7002.400116	45118.921673	3991.882930	23993.199528
48.537000	-0.002153	0.000143	0.002325	0.000085	7000.391514	45124.402608	3989.856835	23964.694014
49.040000	-0.001414	-0.000245	0.001072	0.003515	6975.150860	44755.508430	3977.936300	23799.120463
49.537000	0.000139	0.000018	0.001114	-0.001139	7033.610348	45231.144708	3989.890798	24024.098622
50.035000	0.000832	0.000013	-0.000179	-0.000523	7034.339864	45170.773156	3985.015135	23994.178291
50.535000	-0.000032	0.000192	0.001493	-0.002179	7041.855630	45349.416822	3993.527430	24074.687799
51.035000	-0.002045	-0.000353	0.000168	0.002309	6980.536233	44861.269352	3978.699868	23857.191777
51.535500	0.002178	-0.000091	0.000752	-0.003055	7071.300548	45407.386252	3993.876354	24117.431081
52.036000	0.001653	-0.000695	0.002756	0.001643	7021.600487	44892.556753	3986.974149	23889.310907
52.536500	-0.014399	-0.004592	-0.002682	0.177646	5553.652748	30679.824059	3608.402505	16902.043854
53.036500	-0.052393	-0.017003	-0.014552	0.186303	5284.824869	29368.488894	3574.701111	16626.068081
53.539500	-0.048438	-0.021910	-0.004742	-0.004179	6623.550928	43433.233550	3982.706993	24172.347535
54.036500	-0.019085	-0.008325	-0.005449	-0.022923	7057.960217	46559.015716	4029.537053	25109.722734
54.537000	-0.017268	-0.033963	0.004358	-0.176557	8841.339122	61493.804214	4555.533014	34527.633141
55.035000	-0.006706	-0.059064	0.022576	-0.221635	9651.488868	64247.871625	4818.678328	37984.796509
55.535000	0.009488	-0.011765	0.030856	-0.110060	8323.039717	55820.090963	4407.966924	30040.184209
56.035500	0.022932	0.001941	0.044440	-0.057122	7852.873779	51256.614094	4275.456719	26927.782076
56.535500	0.049336	0.016428	0.063772	-0.002350	7540.602678	46980.516309	4165.982015	24083.044621
57.036500	0.081525	0.036266	0.090583	0.052835	7302.001951	43541.615792	4084.549352	21557.593087
57.536500	0.119585	0.057426	0.127529	0.103096	7180.450736	40913.185856	4048.131539	19520.687856
58.039500	0.152824	0.078504	0.155470	0.150369	7044.789603	38693.155369	3997.202691	17808.432852
58.537000	0.179191	0.093418	0.182207	0.188135	6937.788881	36862.953146	3969.149014	16568.374072
59.034500	0.197726	0.106726	0.201158	0.225488	6767.168106	35038.220818	3923.896441	15443.453764
59.535000	0.223295	0.123263	0.217139	0.254043	6740.761166	34163.476771	3894.060245	14646.453903
60.035000	0.227417	0.129253	0.227703	0.310312	6307.810366	30755.067983	3792.604816	13221.299212
60.535500	0.236680	0.134251	0.238066	0.339610	6154.822578	29244.044305	3753.601995	12549.223958
61.035500	0.245946	0.139175	0.250115	0.322485	6357.848529	30611.553720	3814.415351	12936.550518
61.535500	0.255114	0.147493	0.259596	0.316626	6479.084320	31528.250149	3848.066481	13072.603751
62.036000	0.256821	0.149205	0.268722	0.354469	6194.475776	29249.789646	3786.024182	12225.308028
62.539000	0.263904	0.153285	0.277994	0.373899	6102.524275	28337.699250	3765.038376	11818.107441
63.037000	0.269398	0.157701	0.280565	0.376206	6126.015722	28461.151143	3765.579560	11770.975790
63.536500	0.283985	0.166110	0.279132	0.398598	6068.803550	27653.980056	3718.219659	11326.126259
64.050500	0.281656	0.164532	0.283272	0.389011	6121.971442	28113.122551	3745.188576	11513.784978
64.534500	0.279991	0.163330	0.288067	0.394746	6067.766220	27714.900122	3743.314392	11401.017968
65.061000	0.281826	0.164546	0.279344	0.401445	6032.651880	27404.723309	3713.140926	11271.200358
65.535500	0.282904	0.164706	0.291809	0.409339	5984.092315	26973.711948	3721.972605	11120.748547
66.038000	0.284422	0.165255	0.291763	0.417010	5940.900236	26583.521535	3707.114161	10977.146096
66.536000	0.284175	0.165595	0.289474	0.421765	5906.243419	26344.832778	3693.781890	10889.394317
67.039000	0.288926	0.166377	0.290485	0.426561	5905.935604	26129.957443	3686.707702	10801.871721
67.536500	0.288360	0.165832	0.288258	0.429339	5882.984687	25953.543102	3677.445885	10751.608197
68.036500	0.285259	0.167052	0.284121	0.432823	5838.312084	25834.135378	3663.545835	10689.016817
68.537000	0.289423	0.168183	0.297607	0.434195	5857.164917	25821.400851	3685.754111	10664.503631
69.035000	0.286148	0.167221	0.289881	0.440682	5791.756377	25433.125698	3659.760200	10549.678387
69.535500	0.288365	0.167234	0.290114	0.435004	5844.540958	25729.197100	3670.465839	10650.087761
70.035000	0.289194	0.169229	0.293776	0.437607	5832.598837	25697.390206	3672.400960	10603.897845
70.538500	0.291760	0.169024	0.289344	0.438242	5845.610602	25653.523973	3663.191507	10592.676537
71.036000	0.288867	0.168902	0.299057	0.443660	5790.041904	25366.137765	3670.989672	10497.523450
71.539000	0.294330	0.168199	0.297770	0.438361	5862.197069	25604.310766	3678.346734	10590.572217
72.036500	0.294797	0.168439	0.292749	0.439877	5855.081313	25537.899052	3666.396814	10563.832706
72.537000	0.292422	0.169258	0.296475	0.439846	5839.256280	25582.140342	3673.244090	10564.386190
73.037000	0.293332	0.170449	0.297685	0.446011	5804.071385	25324.770024	3664.225779	10456.614910
73.537500	0.294697	0.167984	0.297361	0.438842	5861.420368	25568.029621	3676.707931	10582.068844
74.034500	0.293414	0.168359	0.296334	0.438868	5852.553132	25586.214725	3674.776047	10581.609455
74.535000	0.295574	0.169684	0.303599	0.439832	5860.660713	25605.015782	3686.415137	10564.633122
75.035500	0.294223	0.169861	0.293312	0.446493	5806.800559	25269.842548	3655.488999	10448.257279
75.536000	0.295347	0.169302	0.304612	0.439952	5858.301212	25578.882342	3688.076920	10562.508165
76.039000	0.296304	0.170631	0.299123	0.441152	5856.651760	25585.590569	3675.702801	10541.420533
76.536500	0.296257	0.168429	0.298785	0.439937	5864.577321	25534.293057	3677.314028	10562.779011
77.037000	0.294414	0.168535	0.301070	0.445958	5811.641204	25229.270956	3670.472381	10457.542325
77.537000	0.295373	0.167911	0.304657	0.439077	5864.420548	25552.068825	3689.794975	10577.933272
78.037500	0.298578	0.168662	0.298593	0.439125	5885.943462	25588.603975	3678.455972	10577.081776
78.535000	0.296025	0.169167	0.308402	0.440290	5860.611057	25554.302801	3694.539675	10556.568684
79.035000	0.296189	0.169439	0.310038	0.439992	5863.742861	25583.902745	3698.180593	10561.801661
79.535000	0.298288	0.169127	0.303321	0.440053	5877.613691	25564.497070	3685.485438	10560.729498
80.035000	0.296405	0.169121	0.300165	0.440716	5860.292076	25529.758985	3678.419754	10549.074877
80.538500	0.296663	0.168684	0.302873	0.439589	5869.708932	25565.632405	3685.516854	10568.912121
81.036000	0.296824	0.168690	0.303888	0.439804	5869.344495	25554.751669	3687.004175	10565.123886
81.535500	0.300051	0.170117	0.306015	0.441182	5881.947702	25557.301266	3688.399764	10540.890902
82.036500	0.296290	0.168809	0.301993	0.440103	5863.674628	25545.397806	3682.928832	10559.853248
82.537000	0.298024	0.169259	0.302765	0.439783	5877.654849	25585.448038	3684.953964	10565.484642
83.037000	0.296984	0.168496	0.301022	0.439768	5870.667555	25546.501372	3681.750756	10565.744871
83.537500	0.298523	0.168647	0.308567	0.440540	5875.901886	25514.332220	3694.378743	10552.171738
84.035000	0.298700	0.169950	0.311075	0.441290	5871.995061	25543.020530	3697.689313	10538.995792
84.535000	0.298125	0.169572	0.302781	0.441362	5867.597511	25519.684706	3682.059175	10537.746092
85.038500	0.294814	0.167913	0.301471	0.446682	5809.478300	25160.462393	3669.881914	10444.981888
85.535500	0.297273	0.169381	0.308035	0.442673	5852.915197	25441.827848	3689.387611	10514.771682
86.036500	0.296334	0.168425	0.312860	0.442394	5848.460234	25406.870968	3698.975801	10519.659423
86.536500	0.297374	0.167558	0.304890	0.442715	5853.320149	25345.626363	3683.457691	10514.041716
87.037000	0.294865	0.167072	0.302056	0.448566	5797.282515	25021.732032	3667.517568	10412.398703
87.537000	0.297324	0.166102	0.304513	0.444339	5842.006651	25187.589388	3679.756662	10485.686663
88.037500	0.295739	0.165949	0.297487	0.443847	5834.649683	25204.951189	3667.790303	10494.266832
88.535000	0.294755	0.164410	0.303745	0.444391	5824.388733	25098.640049	3678.244087	10484.778709
89.035000	0.292840	0.164950	0.305077	0.451424	5765.044785	24770.512417	3667.813438	10363.245875
89.538000	0.296596	0.166768	0.306543	0.449422	5803.096408	24962.970831	3674.142304	10397.640094
90.036000	0.295771	0.165683	0.306806	0.448466	5803.964218	24956.418574	3676.379682	10414.121150
90.536000	0.296504	0.163656	0.301372	0.447803	5813.269608	24887.548011	3667.661975	10425.576392
91.036000	0.294188	0.165421	0.310118	0.456419	5741.207133	24544.744352	3667.897958	10278.120884
91.536500	0.298316	0.165987	0.312378	0.452456	5794.365391	24770.734068	3679.291063	10345.572333
92.037000	0.301573	0.167071	0.309662	0.454286	5803.849343	24733.364079	3670.953677	10314.356522
92.534000	0.298793	0.164607	0.308605	0.454116	5786.533410	24618.805919	3669.334946	10317.246128
93.034500	0.293611	0.164050	0.303882	0.460676	5709.917206	24267.189020	3649.051479	10206.334941
93.535000	0.297239	0.164338	0.309898	0.459846	5738.760476	24322.024905	3661.296133	10220.275147
94.041000	0.298479	0.161966	0.310233	0.456623	5767.934339	24363.849461	3667.734926	10274.658364
94.535500	0.299575	0.163996	0.307235	0.459438	5756.662196	24325.285250	3657.241757	10227.134100
95.036000	0.291957	0.163186	0.305858	0.465937	5665.757067	23969.160719	3643.245086	10118.589509
95.541000	0.294757	0.163408	0.298953	0.465095	5688.927655	24020.622643	3632.641851	10132.564276
96.036000	0.299116	0.164343	0.310174	0.463666	5726.154651	24135.434148	3654.933235	10156.332724
96.561000	0.297220	0.162762	0.302619	0.463509	5714.920997	24066.224417	3641.818167	10158.960031
97.036500	0.300084	0.164017	0.306127	0.466318	5715.266609	23990.871947	3643.046886	10112.269781
97.534000	0.301542	0.161214	0.299802	0.465993	5726.794342	23871.415608	3632.556195	10117.659688
