sample name	sample
index	1128
start time	 04-22-2021  02:12:02 PM


Wavelength (nm)	Absorbance
494.344910	0.098486
494.563924	0.098486
494.782919	0.098486
495.001897	0.372599
495.220856	0.753197
495.439797	0.570648
495.658719	0.395939
495.877624	0.466106
496.096510	0.105468
496.315378	0.048764
496.534227	0.109069
496.753059	-0.110365
496.971872	-0.090534
497.190667	0.113667
497.409444	0.135297
497.628203	0.138123
497.846943	0.139088
498.065665	0.146139
498.284369	0.149686
498.503055	0.147405
498.721723	0.148801
498.940372	0.148320
499.159003	0.147841
499.377616	0.147447
499.596210	0.149702
499.814787	0.150777
500.033345	0.149936
500.251885	0.150128
500.470406	0.152171
500.688910	0.149688
500.907395	0.150243
501.125862	0.151075
501.344311	0.151908
501.562742	0.150870
501.781154	0.150524
501.999548	0.150276
502.217924	0.149018
502.436282	0.148438
502.654621	0.150157
502.872942	0.150248
503.091245	0.151261
503.309530	0.149921
503.527797	0.149769
503.746045	0.149646
503.964275	0.148616
504.182487	0.149300
504.400681	0.150050
504.618856	0.149709
504.837013	0.150608
505.055152	0.150212
505.273273	0.150992
505.491376	0.151605
505.709460	0.151253
505.927526	0.152447
506.145574	0.151948
506.363604	0.151187
506.581615	0.152758
506.799608	0.152564
507.017583	0.152238
507.235540	0.152497
507.453478	0.152365
507.671399	0.152815
507.889301	0.153681
508.107185	0.154368
508.325050	0.154085
508.542898	0.153879
508.760727	0.153932
508.978538	0.154735
509.196330	0.155827
509.414105	0.155973
509.631861	0.155393
509.849599	0.154643
510.067319	0.155701
510.285021	0.156192
510.502704	0.154766
510.720369	0.154070
510.938016	0.154361
511.155645	0.154689
511.373255	0.154619
511.590848	0.156254
511.808422	0.155952
512.025977	0.155330
512.243515	0.155800
512.461034	0.157028
512.678536	0.158222
512.896018	0.158722
513.113483	0.158034
513.330930	0.158472
513.548358	0.158277
513.765768	0.159865
513.983160	0.160112
514.200533	0.160452
514.417889	0.161098
514.635226	0.160247
514.852545	0.159575
515.069845	0.159310
515.287128	0.160039
515.504392	0.159954
515.721638	0.158909
515.938866	0.158685
516.156075	0.159259
516.373267	0.159460
516.590440	0.160525
516.807594	0.160644
517.024731	0.161343
517.241850	0.161068
517.458950	0.162062
517.676032	0.162613
517.893095	0.163604
518.110141	0.163670
518.327168	0.163107
518.544177	0.163233
518.761168	0.163887
518.978141	0.164471
519.195095	0.165051
519.412031	0.164554
519.628949	0.164248
519.845849	0.164521
520.062731	0.165276
520.279594	0.165973
520.496439	0.166162
520.713266	0.166089
520.930074	0.166264
521.146865	0.165941
521.363637	0.166964
521.580391	0.168157
521.797127	0.167601
522.013844	0.167540
522.230543	0.167693
522.447224	0.168357
522.663887	0.169047
522.880532	0.169184
523.097158	0.169410
523.313766	0.168524
523.530356	0.168513
523.746928	0.168904
523.963481	0.168819
524.180017	0.168908
524.396534	0.169303
524.613032	0.169291
524.829513	0.169995
525.045975	0.169732
525.262420	0.170614
525.478845	0.170489
525.695253	0.171175
525.911643	0.171505
526.128014	0.171535
526.344367	0.170912
526.560702	0.170738
526.777018	0.171203
526.993316	0.172217
527.209597	0.172283
527.425858	0.173382
527.642102	0.173057
527.858328	0.173114
528.074535	0.173444
528.290724	0.174466
528.506894	0.175301
528.723047	0.175343
528.939181	0.176095
529.155297	0.176447
529.371395	0.175712
529.587475	0.176456
529.803536	0.176788
530.019579	0.177585
530.235604	0.176876
530.451611	0.177345
530.667600	0.177057
530.883570	0.176969
531.099522	0.177325
531.315456	0.178009
531.531372	0.178290
531.747269	0.178337
531.963148	0.178460
532.179009	0.179526
532.394852	0.179773
532.610676	0.180063
532.826482	0.180223
533.042271	0.179843
533.258040	0.180379
533.473792	0.180570
533.689525	0.181830
533.905240	0.182256
534.120937	0.182523
534.336616	0.182344
534.552277	0.182246
534.767919	0.182359
534.983543	0.183800
535.199149	0.183878
535.414736	0.184398
535.630306	0.183918
535.845857	0.184024
536.061390	0.184194
536.276904	0.184816
536.492401	0.185689
536.707879	0.186529
536.923339	0.186343
537.138781	0.186051
537.354204	0.186086
537.569610	0.186618
537.784997	0.186159
538.000366	0.186683
538.215716	0.187037
538.431049	0.187418
538.646363	0.187541
538.861659	0.187468
539.076937	0.188510
539.292196	0.188354
539.507438	0.187833
539.722661	0.189140
539.937866	0.189013
540.153052	0.189021
540.368221	0.189115
540.583371	0.188899
540.798503	0.189364
541.013617	0.189617
541.228712	0.190539
541.443789	0.191696
541.658848	0.191685
541.873889	0.192004
542.088912	0.192566
542.303916	0.192515
542.518902	0.192930
542.733870	0.193272
542.948820	0.193182
543.163752	0.193340
543.378665	0.192795
543.593560	0.192716
543.808437	0.193125
544.023295	0.193442
544.238136	0.194326
544.452958	0.194588
544.667762	0.194891
544.882548	0.195104
545.097315	0.194890
545.312064	0.195193
545.526795	0.195489
545.741508	0.195804
545.956203	0.195807
546.170879	0.195495
546.385537	0.195775
546.600177	0.195989
546.814799	0.196427
547.029402	0.196606
547.243988	0.197224
547.458555	0.197623
547.673103	0.197681
547.887634	0.198005
548.102146	0.197600
548.316640	0.197415
548.531116	0.197615
548.745574	0.197456
548.960013	0.197952
549.174435	0.197797
549.388838	0.198030
549.603222	0.197987
549.817589	0.198006
550.031937	0.199109
550.246267	0.199753
550.460579	0.200039
550.674873	0.200495
550.889148	0.200639
551.103405	0.201125
551.317644	0.201717
551.531865	0.202030
551.746068	0.202451
551.960252	0.202057
552.174418	0.202185
552.388566	0.202382
552.602696	0.202798
552.816807	0.202927
553.030900	0.203243
553.244975	0.203214
553.459032	0.203347
553.673070	0.203797
553.887091	0.204263
554.101093	0.204979
554.315077	0.205194
554.529042	0.205312
554.742990	0.205846
554.956919	0.206262
555.170830	0.206328
555.384722	0.206910
555.598597	0.206635
555.812453	0.207075
556.026291	0.206584
556.240111	0.206423
556.453913	0.206250
556.667696	0.205741
556.881461	0.205534
557.095208	0.205416
557.308937	0.205369
557.522647	0.205222
557.736339	0.205016
557.950013	0.205094
558.163669	0.205410
558.377307	0.205649
558.590926	0.206199
558.804527	0.206231
559.018110	0.206586
559.231675	0.206784
559.445221	0.207811
559.658749	0.208191
559.872259	0.208563
560.085751	0.208714
560.299225	0.208776
560.512680	0.208950
560.726117	0.209245
560.939536	0.209442
561.152937	0.209474
561.366319	0.209160
561.579683	0.209576
561.793029	0.209834
562.006357	0.210164
562.219667	0.210634
562.432958	0.211161
562.646231	0.211718
562.859486	0.211882
563.072723	0.212365
563.285941	0.212714
563.499141	0.213064
563.712323	0.212964
563.925487	0.212981
564.138632	0.212758
564.351760	0.212369
564.564869	0.211690
564.777960	0.212165
564.991032	0.212167
565.204087	0.212615
565.417123	0.212458
565.630141	0.212412
565.843140	0.212656
566.056122	0.213133
566.269085	0.213842
566.482030	0.214188
566.694957	0.214189
566.907866	0.213989
567.120756	0.213972
567.333628	0.214183
567.546482	0.215108
567.759318	0.214990
567.972135	0.215574
568.184935	0.215541
568.397716	0.216302
568.610478	0.216826
568.823223	0.217353
569.035949	0.217081
569.248657	0.216923
569.461347	0.216782
569.674019	0.217106
569.886672	0.217043
570.099308	0.217031
570.311925	0.216939
570.524523	0.216964
570.737104	0.217429
570.949666	0.217305
571.162210	0.217522
571.374736	0.217590
571.587244	0.217963
571.799733	0.217784
572.012205	0.217861
572.224658	0.217696
572.437092	0.217779
572.649509	0.217354
572.861907	0.217519
573.074287	0.217642
573.286649	0.217637
573.498993	0.217576
573.711318	0.217999
573.923625	0.218342
574.135914	0.218679
574.348185	0.218554
574.560438	0.218695
574.772672	0.219159
574.984888	0.219728
575.197086	0.220445
575.409266	0.220652
575.621427	0.220470
575.833570	0.220729
576.045695	0.220772
576.257802	0.221052
576.469890	0.221458
576.681961	0.221319
576.894013	0.221420
577.106046	0.221149
577.318062	0.220880
577.530059	0.221276
577.742039	0.221427
577.954000	0.221530
578.165942	0.221575
578.377867	0.221496
578.589773	0.221889
578.801661	0.221892
579.013531	0.221878
579.225382	0.222290
579.437216	0.222223
579.649031	0.221937
579.860828	0.222364
580.072606	0.222317
580.284367	0.222712
580.496109	0.223008
580.707833	0.223130
580.919539	0.223479
581.131227	0.223572
581.342896	0.223734
581.554547	0.224106
581.766180	0.224501
581.977795	0.224755
582.189391	0.224744
582.400969	0.224952
582.612529	0.225197
582.824071	0.225293
583.035595	0.225729
583.247100	0.225722
583.458587	0.225894
583.670056	0.225405
583.881506	0.225369
584.092939	0.225605
584.304353	0.225666
584.515749	0.225424
584.727127	0.225754
584.938486	0.225957
585.149828	0.226171
585.361151	0.226076
585.572456	0.226624
585.783742	0.226898
585.995011	0.226716
586.206261	0.226727
586.417493	0.226751
586.628706	0.226590
586.839902	0.226338
587.051079	0.226922
587.262238	0.227333
587.473379	0.227462
587.684502	0.227369
587.895606	0.227522
588.106692	0.227751
588.317760	0.228180
588.528810	0.228963
588.739841	0.229345
588.950855	0.229400
589.161850	0.229321
589.372827	0.229633
589.583785	0.230231
589.794726	0.230829
590.005648	0.230632
590.216552	0.230705
590.427437	0.230397
590.638305	0.230777
590.849154	0.230833
591.059985	0.231200
591.270798	0.231021
591.481592	0.231264
591.692369	0.231239
591.903127	0.231457
592.113867	0.232074
592.324588	0.232306
592.535292	0.232208
592.745977	0.232175
592.956644	0.232060
593.167293	0.232359
593.377923	0.232178
593.588536	0.232455
593.799130	0.232952
594.009706	0.233141
594.220263	0.233130
594.430803	0.233603
594.641324	0.233973
594.851827	0.234426
595.062312	0.234674
595.272778	0.235010
595.483227	0.235355
595.693657	0.235517
595.904069	0.235386
596.114462	0.235631
596.324838	0.235614
596.535195	0.235782
596.745534	0.236020
596.955855	0.236098
597.166157	0.236467
597.376441	0.236360
597.586707	0.236215
597.796955	0.236248
598.007185	0.236661
598.217396	0.236637
598.427589	0.236427
598.637764	0.236482
598.847921	0.236782
599.058060	0.236562
599.268180	0.236751
599.478282	0.237206
599.688366	0.237408
599.898431	0.237342
600.108479	0.237686
600.318508	0.238115
600.528519	0.238083
600.738511	0.238234
600.948486	0.238383
601.158442	0.238602
601.368380	0.238978
601.578300	0.238875
601.788202	0.238952
601.998085	0.239310
602.207950	0.239351
602.417797	0.239584
602.627626	0.239574
602.837436	0.239705
603.047228	0.239616
603.257002	0.239409
603.466758	0.239916
603.676496	0.239984
603.886215	0.239903
604.095916	0.240258
604.305599	0.240518
604.515264	0.240643
604.724910	0.240749
604.934538	0.241148
605.144148	0.241603
605.353740	0.241895
605.563314	0.242310
605.772869	0.242500
605.982406	0.242497
606.191925	0.242592
606.401425	0.242794
606.610908	0.243137
606.820372	0.243202
607.029818	0.242902
607.239246	0.242647
607.448655	0.242889
607.658047	0.242633
607.867420	0.242456
608.076775	0.242325
608.286111	0.242269
608.495430	0.242048
608.704730	0.242493
608.914012	0.242945
609.123275	0.243366
609.332521	0.243060
609.541748	0.243171
609.750957	0.243713
609.960148	0.244586
610.169321	0.245002
610.378475	0.245697
610.587611	0.245490
610.796729	0.245430
611.005829	0.245511
611.214910	0.245673
611.423974	0.246360
611.633019	0.246329
611.842045	0.245902
612.051054	0.245795
612.260044	0.245623
612.469017	0.245609
612.677970	0.245812
612.886906	0.245819
613.095824	0.246087
613.304723	0.245963
613.513604	0.246163
613.722467	0.246574
613.931311	0.246990
614.140138	0.247193
614.348946	0.247550
614.557736	0.247473
614.766507	0.247727
614.975261	0.247849
615.183996	0.248145
615.392713	0.248253
615.601412	0.248044
615.810092	0.247920
616.018754	0.248161
616.227399	0.248179
616.436024	0.248360
616.644632	0.248273
616.853222	0.248107
617.061793	0.247817
617.270346	0.247804
617.478880	0.247807
617.687397	0.248031
617.895895	0.247820
618.104375	0.247778
618.312837	0.247941
618.521281	0.248238
618.729706	0.248496
618.938113	0.248816
619.146502	0.248996
619.354873	0.249342
619.563226	0.249672
619.771560	0.250068
619.979876	0.250423
620.188174	0.250615
620.396453	0.250514
620.604715	0.250710
620.812958	0.250771
621.021183	0.251237
621.229390	0.251430
621.437578	0.251426
621.645748	0.251437
621.853900	0.251576
622.062034	0.251673
622.270150	0.252032
622.478247	0.252128
622.686326	0.252289
622.894387	0.252106
623.102430	0.252127
623.310454	0.252212
623.518461	0.252388
623.726449	0.252030
623.934418	0.252284
624.142370	0.252046
624.350303	0.252132
624.558218	0.252281
624.766115	0.252449
624.973994	0.252838
625.181855	0.252890
625.389697	0.253121
625.597521	0.253841
625.805327	0.253993
626.013114	0.254218
626.220883	0.254852
626.428634	0.255016
626.636367	0.255199
626.844082	0.255071
627.051778	0.255251
627.259457	0.255305
627.467117	0.255412
627.674758	0.255580
627.882382	0.255616
628.089987	0.255294
628.297574	0.255580
628.505143	0.255534
628.712694	0.255590
628.920226	0.255423
629.127740	0.255727
629.335236	0.255498
629.542714	0.255373
629.750174	0.256067
629.957615	0.256319
630.165038	0.256518
630.372443	0.256997
630.579829	0.257139
630.787198	0.257743
630.994548	0.257785
631.201880	0.258037
631.409194	0.258258
631.616489	0.258337
631.823766	0.258596
632.031025	0.258569
632.238266	0.258407
632.445489	0.258643
632.652693	0.258716
632.859879	0.258668
633.067047	0.258997
633.274197	0.259355
633.481329	0.259285
633.688442	0.259299
633.895537	0.259290
634.102614	0.259487
634.309672	0.259713
634.516713	0.259919
634.723735	0.260129
634.930739	0.260169
635.137724	0.260143
635.344692	0.260171
635.551641	0.260335
635.758572	0.260603
635.965485	0.260702
636.172379	0.260851
636.379256	0.260593
636.586114	0.260792
636.792954	0.261304
636.999775	0.261487
637.206579	0.261890
637.413364	0.262142
637.620131	0.262085
637.826880	0.262550
638.033610	0.262737
638.240323	0.263288
638.447017	0.263344
638.653692	0.263205
638.860350	0.263251
639.066990	0.263284
639.273611	0.263417
639.480214	0.263614
639.686798	0.263553
639.893365	0.263709
640.099913	0.263613
640.306443	0.263681
640.512955	0.263585
640.719449	0.263668
640.925924	0.263866
641.132381	0.263818
641.338820	0.263982
641.545241	0.264445
641.751644	0.264832
641.958028	0.264853
642.164394	0.265302
642.370742	0.265780
642.577071	0.265982
642.783383	0.266049
642.989676	0.266323
643.195951	0.266796
643.402207	0.266464
643.608446	0.266319
643.814666	0.266461
644.020868	0.266575
644.227052	0.266656
644.433218	0.267027
644.639365	0.267113
644.845494	0.267378
645.051605	0.267454
645.257698	0.267966
645.463772	0.268402
645.669828	0.268671
645.875866	0.268536
646.081886	0.268847
646.287888	0.268869
646.493871	0.269041
646.699836	0.269038
646.905783	0.269216
647.111712	0.269262
647.317622	0.269151
647.523514	0.269512
647.729388	0.269909
647.935244	0.269706
648.141082	0.270011
648.346901	0.270543
648.552702	0.270965
648.758485	0.271008
648.964250	0.271194
649.169996	0.271525
649.375724	0.271626
649.581434	0.271780
649.787126	0.272200
649.992800	0.272198
650.198455	0.272191
650.404092	0.271948
650.609711	0.271978
650.815311	0.271993
651.020894	0.272019
651.226458	0.272103
651.432004	0.272325
651.637532	0.272582
651.843041	0.272880
652.048532	0.273153
652.254006	0.273342
652.459460	0.273628
652.664897	0.273977
652.870315	0.274168
653.075716	0.274280
653.281097	0.274259
653.486461	0.274330
653.691807	0.274197
653.897134	0.274358
654.102443	0.274688
654.307734	0.274677
654.513006	0.274849
654.718261	0.274957
654.923497	0.275194
655.128715	0.275563
655.333915	0.275691
655.539096	0.276067
655.744259	0.276253
655.949404	0.276415
656.154531	0.276903
656.359640	0.277014
656.564730	0.277284
656.769802	0.277467
656.974856	0.277831
657.179892	0.278025
657.384909	0.278451
657.589908	0.278567
657.794889	0.278896
657.999852	0.279233
658.204797	0.279654
658.409723	0.279586
658.614631	0.279861
658.819521	0.280118
659.024393	0.280441
659.229246	0.280376
659.434081	0.280399
659.638898	0.280627
659.843697	0.280407
660.048478	0.280311
660.253240	0.280770
660.457984	0.280860
660.662710	0.280668
660.867417	0.280661
661.072107	0.280968
661.276778	0.281274
661.481431	0.281473
661.686066	0.281874
661.890682	0.282366
662.095281	0.282218
662.299861	0.282510
662.504422	0.282661
662.708966	0.282852
662.913491	0.283145
663.117999	0.283623
663.322488	0.283683
663.526958	0.283745
663.731411	0.283897
663.935845	0.284372
664.140261	0.284766
664.344659	0.284913
664.549038	0.285488
664.753400	0.285381
664.957743	0.285368
665.162068	0.285552
665.366375	0.285876
665.570663	0.286065
665.774933	0.286439
665.979185	0.286359
666.183419	0.286496
666.387635	0.286463
666.591832	0.286881
666.796011	0.287181
667.000172	0.287576
667.204315	0.287655
667.408439	0.287745
667.612545	0.287766
667.816634	0.288126
668.020703	0.288597
668.224755	0.288901
668.428788	0.289211
668.632803	0.289497
668.836800	0.289639
669.040779	0.289738
669.244739	0.289889
669.448681	0.290049
669.652605	0.289971
669.856511	0.290112
670.060399	0.290363
670.264268	0.290310
670.468119	0.290312
670.671952	0.290611
670.875767	0.291241
671.079563	0.291371
671.283341	0.291715
671.487101	0.291989
671.690843	0.292165
671.894567	0.292220
672.098272	0.292321
672.301959	0.292475
672.505628	0.292440
672.709278	0.292488
672.912911	0.292814
673.116525	0.292892
673.320121	0.293214
673.523699	0.293568
673.727258	0.293538
673.930799	0.293933
674.134322	0.294047
674.337827	0.294215
674.541314	0.294575
674.744782	0.294857
674.948232	0.295002
675.151664	0.295208
675.355078	0.295216
675.558474	0.295727
675.761851	0.295910
675.965210	0.296154
676.168551	0.296310
676.371873	0.296474
676.575178	0.296747
676.778464	0.297042
676.981732	0.297450
677.184981	0.297860
677.388213	0.297980
677.591426	0.298222
677.794621	0.298355
677.997798	0.298702
678.200956	0.298980
678.404097	0.299175
678.607219	0.299311
678.810323	0.299562
679.013408	0.299747
679.216476	0.299779
679.419525	0.299997
679.622556	0.300258
679.825569	0.300511
680.028563	0.300480
680.231540	0.300596
680.434498	0.300854
680.637438	0.300804
680.840359	0.301122
681.043263	0.301354
681.246148	0.301571
681.449015	0.301979
681.651864	0.302172
681.854694	0.302070
682.057506	0.302245
682.260301	0.302441
682.463076	0.302579
682.665834	0.302771
682.868573	0.303062
683.071295	0.303303
683.273998	0.303335
683.476682	0.303416
683.679349	0.303913
683.881997	0.303877
684.084627	0.304003
684.287239	0.304149
684.489833	0.304106
684.692408	0.304279
684.894965	0.304239
685.097504	0.304110
685.300025	0.304361
685.502527	0.304379
685.705012	0.304561
685.907478	0.304831
686.109925	0.304931
686.312355	0.304907
686.514766	0.304933
686.717159	0.304868
686.919534	0.305282
687.121891	0.305327
687.324230	0.305446
687.526550	0.305776
687.728852	0.305851
687.931136	0.306130
688.133401	0.306365
688.335649	0.306674
688.537878	0.307067
688.740089	0.307217
688.942281	0.307281
689.144456	0.307316
689.346612	0.307588
689.548750	0.307505
689.750870	0.307732
689.952971	0.307940
690.155055	0.308063
690.357120	0.308319
690.559167	0.308644
690.761195	0.308828
690.963206	0.309210
691.165198	0.309126
691.367172	0.309497
691.569128	0.309521
691.771065	0.309595
691.972984	0.309653
692.174885	0.309616
692.376768	0.309760
692.578633	0.310077
692.780479	0.310220
692.982308	0.310495
693.184118	0.310776
693.385909	0.310687
