sample name	sample
index	1418
start time	 05-10-2021  11:59:02 AM


Wavelength (nm)	Absorbance
494.344910	0.006503
494.563924	0.006503
494.782919	0.006503
495.001897	-0.073909
495.220856	-0.018308
495.439797	-0.020314
495.658719	-0.026070
495.877624	-0.021438
496.096510	-0.010269
496.315378	-0.005225
496.534227	0.019310
496.753059	0.023212
496.971872	0.026210
497.190667	0.108641
497.409444	0.144926
497.628203	0.157442
497.846943	0.163299
498.065665	0.165815
498.284369	0.170645
498.503055	0.170909
498.721723	0.172856
498.940372	0.173730
499.159003	0.173786
499.377616	0.173966
499.596210	0.175104
499.814787	0.175670
500.033345	0.177023
500.251885	0.176830
500.470406	0.177212
500.688910	0.177361
500.907395	0.179016
501.125862	0.179573
501.344311	0.178957
501.562742	0.178750
501.781154	0.179210
501.999548	0.179265
502.217924	0.178462
502.436282	0.178612
502.654621	0.179541
502.872942	0.179216
503.091245	0.179727
503.309530	0.179774
503.527797	0.179637
503.746045	0.179699
503.964275	0.179209
504.182487	0.179530
504.400681	0.179030
504.618856	0.179022
504.837013	0.179096
505.055152	0.177974
505.273273	0.178008
505.491376	0.178968
505.709460	0.178559
505.927526	0.178658
506.145574	0.178235
506.363604	0.178648
506.581615	0.177449
506.799608	0.177983
507.017583	0.179310
507.235540	0.180840
507.453478	0.180430
507.671399	0.180826
507.889301	0.181862
508.107185	0.183397
508.325050	0.183297
508.542898	0.184457
508.760727	0.182722
508.978538	0.182542
509.196330	0.181749
509.414105	0.182485
509.631861	0.182473
509.849599	0.182118
510.067319	0.181512
510.285021	0.182067
510.502704	0.182113
510.720369	0.183330
510.938016	0.182711
511.155645	0.183116
511.373255	0.182477
511.590848	0.183848
511.808422	0.184431
512.025977	0.185136
512.243515	0.185313
512.461034	0.185294
512.678536	0.185850
512.896018	0.187467
513.113483	0.188101
513.330930	0.188636
513.548358	0.187394
513.765768	0.187864
513.983160	0.188274
514.200533	0.188975
514.417889	0.188674
514.635226	0.188578
514.852545	0.187973
515.069845	0.187021
515.287128	0.187527
515.504392	0.189128
515.721638	0.187933
515.938866	0.187550
516.156075	0.187408
516.373267	0.188393
516.590440	0.187980
516.807594	0.188446
517.024731	0.189338
517.241850	0.190233
517.458950	0.189298
517.676032	0.189839
517.893095	0.189568
518.110141	0.190063
518.327168	0.190058
518.544177	0.191132
518.761168	0.191605
518.978141	0.192436
519.195095	0.192168
519.412031	0.192109
519.628949	0.193500
519.845849	0.194403
520.062731	0.194626
520.279594	0.195637
520.496439	0.195382
520.713266	0.195776
520.930074	0.195594
521.146865	0.194993
521.363637	0.195720
521.580391	0.195585
521.797127	0.195332
522.013844	0.194822
522.230543	0.194401
522.447224	0.194965
522.663887	0.195023
522.880532	0.194822
523.097158	0.195718
523.313766	0.195599
523.530356	0.195817
523.746928	0.196620
523.963481	0.197892
524.180017	0.198899
524.396534	0.199692
524.613032	0.200199
524.829513	0.201262
525.045975	0.201700
525.262420	0.202371
525.478845	0.203144
525.695253	0.202762
525.911643	0.202884
526.128014	0.203240
526.344367	0.203403
526.560702	0.203473
526.777018	0.203480
526.993316	0.203915
527.209597	0.204517
527.425858	0.204325
527.642102	0.205245
527.858328	0.205254
528.074535	0.204859
528.290724	0.205543
528.506894	0.206023
528.723047	0.205983
528.939181	0.206204
529.155297	0.206083
529.371395	0.206043
529.587475	0.206202
529.803536	0.206916
530.019579	0.207180
530.235604	0.206298
530.451611	0.206684
530.667600	0.207010
530.883570	0.206881
531.099522	0.207132
531.315456	0.207910
531.531372	0.208453
531.747269	0.208923
531.963148	0.209702
532.179009	0.211551
532.394852	0.211663
532.610676	0.212215
532.826482	0.212504
533.042271	0.212947
533.258040	0.213104
533.473792	0.213133
533.689525	0.212992
533.905240	0.213147
534.120937	0.212208
534.336616	0.212239
534.552277	0.213019
534.767919	0.213721
534.983543	0.213759
535.199149	0.214253
535.414736	0.214950
535.630306	0.215254
535.845857	0.215122
536.061390	0.215431
536.276904	0.215948
536.492401	0.216246
536.707879	0.216171
536.923339	0.216521
537.138781	0.216875
537.354204	0.217300
537.569610	0.217531
537.784997	0.218161
538.000366	0.218397
538.215716	0.218319
538.431049	0.218472
538.646363	0.219215
538.861659	0.220103
539.076937	0.220449
539.292196	0.220375
539.507438	0.220459
539.722661	0.220916
539.937866	0.221695
540.153052	0.222911
540.368221	0.222646
540.583371	0.222565
540.798503	0.222607
541.013617	0.222428
541.228712	0.223038
541.443789	0.223675
541.658848	0.223485
541.873889	0.223121
542.088912	0.223165
542.303916	0.223708
542.518902	0.224553
542.733870	0.224578
542.948820	0.225458
543.163752	0.225187
543.378665	0.225399
543.593560	0.225811
543.808437	0.226486
544.023295	0.226199
544.238136	0.226396
544.452958	0.225449
544.667762	0.225787
544.882548	0.225669
545.097315	0.226274
545.312064	0.226337
545.526795	0.226531
545.741508	0.226589
545.956203	0.226939
546.170879	0.227299
546.385537	0.228472
546.600177	0.229072
546.814799	0.228633
547.029402	0.228252
547.243988	0.228600
547.458555	0.229033
547.673103	0.229717
547.887634	0.229848
548.102146	0.230319
548.316640	0.230718
548.531116	0.230868
548.745574	0.232051
548.960013	0.232704
549.174435	0.232800
549.388838	0.233280
549.603222	0.233047
549.817589	0.232796
550.031937	0.232729
550.246267	0.232624
550.460579	0.232715
550.674873	0.232618
550.889148	0.233342
551.103405	0.233755
551.317644	0.233408
551.531865	0.233560
551.746068	0.234329
551.960252	0.234348
552.174418	0.234234
552.388566	0.234664
552.602696	0.234908
552.816807	0.234792
553.030900	0.234163
553.244975	0.234589
553.459032	0.235198
553.673070	0.235394
553.887091	0.235808
554.101093	0.236614
554.315077	0.236514
554.529042	0.236597
554.742990	0.236685
554.956919	0.237376
555.170830	0.237584
555.384722	0.237453
555.598597	0.237737
555.812453	0.237891
556.026291	0.237579
556.240111	0.237831
556.453913	0.238095
556.667696	0.237798
556.881461	0.238531
557.095208	0.238077
557.308937	0.238351
557.522647	0.238631
557.736339	0.238534
557.950013	0.238656
558.163669	0.238811
558.377307	0.239216
558.590926	0.239885
558.804527	0.239444
559.018110	0.240358
559.231675	0.240573
559.445221	0.240637
559.658749	0.241217
559.872259	0.241829
560.085751	0.241644
560.299225	0.241535
560.512680	0.241584
560.726117	0.242504
560.939536	0.242642
561.152937	0.242887
561.366319	0.243322
561.579683	0.242918
561.793029	0.242726
562.006357	0.242961
562.219667	0.243597
562.432958	0.244050
562.646231	0.243467
562.859486	0.243158
563.072723	0.242997
563.285941	0.243101
563.499141	0.243952
563.712323	0.243968
563.925487	0.244382
564.138632	0.244325
564.351760	0.244091
564.564869	0.244562
564.777960	0.245214
564.991032	0.245774
565.204087	0.245475
565.417123	0.245611
565.630141	0.245911
565.843140	0.245931
566.056122	0.245552
566.269085	0.245893
566.482030	0.245791
566.694957	0.245686
566.907866	0.245691
567.120756	0.246002
567.333628	0.246053
567.546482	0.246678
567.759318	0.247280
567.972135	0.247912
568.184935	0.248261
568.397716	0.248537
568.610478	0.248465
568.823223	0.248513
569.035949	0.248938
569.248657	0.249039
569.461347	0.248786
569.674019	0.248452
569.886672	0.248208
570.099308	0.247981
570.311925	0.248245
570.524523	0.248467
570.737104	0.249043
570.949666	0.249073
571.162210	0.248992
571.374736	0.249000
571.587244	0.249064
571.799733	0.249315
572.012205	0.249414
572.224658	0.249779
572.437092	0.250014
572.649509	0.250154
572.861907	0.250420
573.074287	0.250515
573.286649	0.251024
573.498993	0.251278
573.711318	0.251948
573.923625	0.252230
574.135914	0.252542
574.348185	0.252950
574.560438	0.252826
574.772672	0.252744
574.984888	0.253282
575.197086	0.253402
575.409266	0.253746
575.621427	0.253645
575.833570	0.254168
576.045695	0.253864
576.257802	0.254569
576.469890	0.254945
576.681961	0.255146
576.894013	0.255039
577.106046	0.255000
577.318062	0.254986
577.530059	0.255322
577.742039	0.255093
577.954000	0.255593
578.165942	0.255320
578.377867	0.255482
578.589773	0.255360
578.801661	0.255730
579.013531	0.255804
579.225382	0.255991
579.437216	0.255389
579.649031	0.255673
579.860828	0.255345
580.072606	0.255317
580.284367	0.255313
580.496109	0.255603
580.707833	0.255521
580.919539	0.255960
581.131227	0.256120
581.342896	0.256630
581.554547	0.256890
581.766180	0.257158
581.977795	0.257098
582.189391	0.257414
582.400969	0.257825
582.612529	0.258105
582.824071	0.258448
583.035595	0.258542
583.247100	0.258541
583.458587	0.258510
583.670056	0.258641
583.881506	0.258957
584.092939	0.258892
584.304353	0.259138
584.515749	0.258939
584.727127	0.258595
584.938486	0.258849
585.149828	0.258622
585.361151	0.258663
585.572456	0.258647
585.783742	0.259153
585.995011	0.259467
586.206261	0.259223
586.417493	0.259720
586.628706	0.259790
586.839902	0.259940
587.051079	0.260967
587.262238	0.261272
587.473379	0.261474
587.684502	0.261208
587.895606	0.261479
588.106692	0.261616
588.317760	0.261779
588.528810	0.262501
588.739841	0.262728
588.950855	0.262458
589.161850	0.263072
589.372827	0.263634
589.583785	0.263724
589.794726	0.263578
590.005648	0.264194
590.216552	0.264206
590.427437	0.264306
590.638305	0.264596
590.849154	0.265087
591.059985	0.264985
591.270798	0.265056
591.481592	0.265631
591.692369	0.265837
591.903127	0.265459
592.113867	0.265904
592.324588	0.266151
592.535292	0.266412
592.745977	0.266319
592.956644	0.266368
593.167293	0.266522
593.377923	0.266437
593.588536	0.266322
593.799130	0.266913
594.009706	0.266775
594.220263	0.266667
594.430803	0.266552
594.641324	0.266819
594.851827	0.266733
595.062312	0.266717
595.272778	0.266789
595.483227	0.267442
595.693657	0.267411
595.904069	0.267974
596.114462	0.268088
596.324838	0.268470
596.535195	0.268992
596.745534	0.268983
596.955855	0.269360
597.166157	0.269981
597.376441	0.270167
597.586707	0.270557
597.796955	0.270607
598.007185	0.271114
598.217396	0.271240
598.427589	0.270914
598.637764	0.271030
598.847921	0.271045
599.058060	0.271011
599.268180	0.271004
599.478282	0.271042
599.688366	0.271130
599.898431	0.270928
600.108479	0.271065
600.318508	0.271250
600.528519	0.271951
600.738511	0.272217
600.948486	0.272289
601.158442	0.272841
601.368380	0.272825
601.578300	0.272806
601.788202	0.272920
601.998085	0.273312
602.207950	0.273824
602.417797	0.274068
602.627626	0.274042
602.837436	0.273993
603.047228	0.273754
603.257002	0.274121
603.466758	0.274375
603.676496	0.274531
603.886215	0.274260
604.095916	0.274047
604.305599	0.273870
604.515264	0.274328
604.724910	0.274252
604.934538	0.274391
605.144148	0.274556
605.353740	0.274980
605.563314	0.275564
605.772869	0.275886
605.982406	0.276222
606.191925	0.276603
606.401425	0.277061
606.610908	0.277664
606.820372	0.277784
607.029818	0.277842
607.239246	0.277791
607.448655	0.277919
607.658047	0.277847
607.867420	0.278027
608.076775	0.278099
608.286111	0.277788
608.495430	0.277815
608.704730	0.277673
608.914012	0.278152
609.123275	0.278330
609.332521	0.278454
609.541748	0.278913
609.750957	0.279430
609.960148	0.279761
610.169321	0.280244
610.378475	0.280821
610.587611	0.281428
610.796729	0.281697
611.005829	0.281949
611.214910	0.282035
611.423974	0.282098
611.633019	0.281882
611.842045	0.282125
612.051054	0.282147
612.260044	0.281789
612.469017	0.281993
612.677970	0.281690
612.886906	0.281751
613.095824	0.281497
613.304723	0.281989
613.513604	0.282301
613.722467	0.282458
613.931311	0.282626
614.140138	0.283380
614.348946	0.283262
614.557736	0.283401
614.766507	0.283827
614.975261	0.284221
615.183996	0.284401
615.392713	0.284424
615.601412	0.284794
615.810092	0.285006
616.018754	0.285051
616.227399	0.285161
616.436024	0.285584
616.644632	0.285601
616.853222	0.285731
617.061793	0.285445
617.270346	0.285441
617.478880	0.285290
617.687397	0.285107
617.895895	0.284804
618.104375	0.285002
618.312837	0.285239
618.521281	0.285507
618.729706	0.285879
618.938113	0.286321
619.146502	0.286457
619.354873	0.286580
619.563226	0.286903
619.771560	0.287193
619.979876	0.287684
620.188174	0.287554
620.396453	0.287462
620.604715	0.287650
620.812958	0.287482
621.021183	0.287949
621.229390	0.288143
621.437578	0.288464
621.645748	0.289065
621.853900	0.289224
622.062034	0.289566
622.270150	0.289533
622.478247	0.289700
622.686326	0.290038
622.894387	0.290203
623.102430	0.290581
623.310454	0.290632
623.518461	0.290501
623.726449	0.290511
623.934418	0.290760
624.142370	0.291244
624.350303	0.291414
624.558218	0.291584
624.766115	0.291461
624.973994	0.291396
625.181855	0.291640
625.389697	0.291558
625.597521	0.291533
625.805327	0.291647
626.013114	0.291650
626.220883	0.291577
626.428634	0.291603
626.636367	0.291782
626.844082	0.291749
627.051778	0.291736
627.259457	0.291806
627.467117	0.292369
627.674758	0.292243
627.882382	0.292751
628.089987	0.292853
628.297574	0.293217
628.505143	0.293531
628.712694	0.293793
628.920226	0.293934
629.127740	0.294235
629.335236	0.294310
629.542714	0.294547
629.750174	0.294530
629.957615	0.294865
630.165038	0.294786
630.372443	0.294697
630.579829	0.295134
630.787198	0.295509
630.994548	0.295998
631.201880	0.296198
631.409194	0.296386
631.616489	0.296448
631.823766	0.296734
632.031025	0.297183
632.238266	0.297599
632.445489	0.297782
632.652693	0.297940
632.859879	0.298143
633.067047	0.298262
633.274197	0.298578
633.481329	0.298845
633.688442	0.298987
633.895537	0.298610
634.102614	0.298601
634.309672	0.298412
634.516713	0.298629
634.723735	0.298454
634.930739	0.298578
635.137724	0.298709
635.344692	0.299024
635.551641	0.299166
635.758572	0.299805
635.965485	0.300365
636.172379	0.300658
636.379256	0.300521
636.586114	0.300768
636.792954	0.300939
636.999775	0.300868
637.206579	0.300783
637.413364	0.300760
637.620131	0.300696
637.826880	0.300435
638.033610	0.300527
638.240323	0.300717
638.447017	0.300905
638.653692	0.300983
638.860350	0.301183
639.066990	0.301332
639.273611	0.301863
639.480214	0.302046
639.686798	0.302293
639.893365	0.302573
640.099913	0.302864
640.306443	0.302985
640.512955	0.302939
640.719449	0.303182
640.925924	0.303157
641.132381	0.302999
641.338820	0.303157
641.545241	0.303060
641.751644	0.302925
641.958028	0.303014
642.164394	0.303074
642.370742	0.303332
642.577071	0.303671
642.783383	0.304027
642.989676	0.304150
643.195951	0.304628
643.402207	0.305282
643.608446	0.305556
643.814666	0.305892
644.020868	0.306455
644.227052	0.306631
644.433218	0.306701
644.639365	0.306933
644.845494	0.306997
645.051605	0.307053
645.257698	0.306869
645.463772	0.307111
645.669828	0.307318
645.875866	0.307113
646.081886	0.307073
646.287888	0.307024
646.493871	0.307121
646.699836	0.307411
646.905783	0.307404
647.111712	0.307467
647.317622	0.307685
647.523514	0.307570
647.729388	0.307838
647.935244	0.308470
648.141082	0.308922
648.346901	0.309094
648.552702	0.309253
648.758485	0.309640
648.964250	0.310314
649.169996	0.310290
649.375724	0.310399
649.581434	0.310380
649.787126	0.310311
649.992800	0.310413
650.198455	0.310663
650.404092	0.310979
650.609711	0.311113
650.815311	0.310754
651.020894	0.311247
651.226458	0.311573
651.432004	0.312019
651.637532	0.312188
651.843041	0.312246
652.048532	0.312231
652.254006	0.312230
652.459460	0.312392
652.664897	0.313000
652.870315	0.312868
653.075716	0.313184
653.281097	0.313094
653.486461	0.313494
653.691807	0.313805
653.897134	0.314051
654.102443	0.314182
654.307734	0.314391
654.513006	0.314436
654.718261	0.314520
654.923497	0.314557
655.128715	0.314983
655.333915	0.314810
655.539096	0.314909
655.744259	0.315061
655.949404	0.315345
656.154531	0.315266
656.359640	0.315331
656.564730	0.315690
656.769802	0.315764
656.974856	0.315900
657.179892	0.316303
657.384909	0.316421
657.589908	0.317021
657.794889	0.317207
657.999852	0.317424
658.204797	0.317710
658.409723	0.317771
658.614631	0.318216
658.819521	0.318384
659.024393	0.318421
659.229246	0.318746
659.434081	0.318478
659.638898	0.318686
659.843697	0.318765
660.048478	0.318889
660.253240	0.319368
660.457984	0.319389
660.662710	0.319451
660.867417	0.319834
661.072107	0.319902
661.276778	0.320111
661.481431	0.320159
661.686066	0.320670
661.890682	0.321134
662.095281	0.321152
662.299861	0.321521
662.504422	0.321740
662.708966	0.321790
662.913491	0.321967
663.117999	0.322162
663.322488	0.322527
663.526958	0.322732
663.731411	0.322775
663.935845	0.322904
664.140261	0.323257
664.344659	0.323587
664.549038	0.323892
664.753400	0.324154
664.957743	0.324474
665.162068	0.324655
665.366375	0.324955
665.570663	0.325386
665.774933	0.325675
665.979185	0.325686
666.183419	0.325986
666.387635	0.326216
666.591832	0.326482
666.796011	0.326772
667.000172	0.326926
667.204315	0.326878
667.408439	0.326873
667.612545	0.327195
667.816634	0.327245
668.020703	0.327193
668.224755	0.327325
668.428788	0.327672
668.632803	0.328138
668.836800	0.328202
669.040779	0.328645
669.244739	0.328821
669.448681	0.329086
669.652605	0.329329
669.856511	0.329666
670.060399	0.329900
670.264268	0.329902
670.468119	0.329899
670.671952	0.330183
670.875767	0.330134
671.079563	0.330384
671.283341	0.330354
671.487101	0.330698
671.690843	0.330951
671.894567	0.331080
672.098272	0.331381
672.301959	0.331672
672.505628	0.331707
672.709278	0.331871
672.912911	0.331991
673.116525	0.332129
673.320121	0.332076
673.523699	0.332319
673.727258	0.332801
673.930799	0.333154
674.134322	0.333193
674.337827	0.333554
674.541314	0.334072
674.744782	0.334255
674.948232	0.334948
675.151664	0.335177
675.355078	0.335424
675.558474	0.335360
675.761851	0.335264
675.965210	0.335395
676.168551	0.335475
676.371873	0.335324
676.575178	0.335589
676.778464	0.335578
676.981732	0.336123
677.184981	0.336079
677.388213	0.336487
677.591426	0.336783
677.794621	0.337112
677.997798	0.337373
678.200956	0.337629
678.404097	0.338113
678.607219	0.338302
678.810323	0.338089
679.013408	0.338199
679.216476	0.338225
679.419525	0.338464
679.622556	0.338237
679.825569	0.338623
680.028563	0.339143
680.231540	0.338832
680.434498	0.338637
680.637438	0.338973
680.840359	0.339274
681.043263	0.339586
681.246148	0.339668
681.449015	0.340109
681.651864	0.340334
681.854694	0.340297
682.057506	0.340797
682.260301	0.341357
682.463076	0.341674
682.665834	0.342004
682.868573	0.342319
683.071295	0.342510
683.273998	0.342877
683.476682	0.343166
683.679349	0.343335
683.881997	0.343604
684.084627	0.343853
684.287239	0.343604
684.489833	0.343864
684.692408	0.343818
684.894965	0.343999
685.097504	0.344155
685.300025	0.344194
685.502527	0.344221
685.705012	0.344120
685.907478	0.344103
686.109925	0.344754
686.312355	0.344704
686.514766	0.344735
686.717159	0.344804
686.919534	0.344761
687.121891	0.344833
687.324230	0.345018
687.526550	0.345067
687.728852	0.345271
687.931136	0.345127
688.133401	0.345417
688.335649	0.345695
688.537878	0.346087
688.740089	0.346302
688.942281	0.346362
689.144456	0.346908
689.346612	0.347191
689.548750	0.347224
689.750870	0.347775
689.952971	0.348053
690.155055	0.348376
690.357120	0.348473
690.559167	0.348929
690.761195	0.349393
690.963206	0.349352
691.165198	0.349574
691.367172	0.350011
691.569128	0.350052
691.771065	0.350342
691.972984	0.350653
692.174885	0.351070
692.376768	0.351208
692.578633	0.351276
692.780479	0.351538
692.982308	0.351803
693.184118	0.352040
693.385909	0.352067
