sample name	sample
index	8
start time	 02-11-2021  11:24:56 AM
880	0.076859
Peak Time (s)	82.535
Peak Height 	0.07686
calc peak height	80,83
Baseline Time (s)	9.538
Baseline Value 	-0.002955
subtract baseline	10,4
Abs	0.055949
Peak Time (s)	82.535
Peak Height 	0.05595
calc peak height	80,83
Baseline Time (s)	10.036
Baseline Value 	0.009947
subtract baseline	10,3
PK_550	0.033657
Peak Time (s)	82.535
Peak Height 	0.03366
calc peak height	80,83
Baseline Time (s)	11.536
Baseline Value 	0.001084
subtract baseline	10,2
PK_880	0.054414
Peak Time (s)	81.038
Peak Height 	0.05441
calc peak height	80,83
Baseline Time (s)	11.536
Baseline Value 	0.001639
subtract baseline	10,1


Time (s)	A880-A510	A880-A775	A880-A975	A880	I510	I775	I975	I880	
0.035000	-0.001873	-0.000829	-0.007398	0.004389	4343.208768	18188.297754	3161.303189	9842.735923
0.535500	-0.004604	0.000636	-0.010301	0.005137	4330.996580	18213.612560	3157.943939	9830.610693
1.068000	-0.002172	-0.000215	-0.006704	0.000468	4356.029619	18349.197659	3165.589125	9906.641257
1.539000	0.000059	0.000577	-0.003710	0.001767	4359.347595	18331.116322	3167.174719	9885.407098
2.036000	-0.005821	-0.001171	-0.011215	0.003826	4331.326085	18196.118226	3158.308698	9851.880734
2.536500	0.001119	-0.000364	-0.003673	0.003612	4356.550631	18232.179258	3165.482813	9855.350656
3.037000	-0.000557	-0.000830	-0.006339	0.003436	4351.231021	18221.942417	3163.166097	9858.219266
3.537000	-0.002702	-0.000598	-0.005236	0.004378	4340.327613	18196.827069	3163.314635	9842.907051
4.037500	-0.000876	-0.000013	-0.006404	0.005585	4342.509441	18174.896205	3161.116781	9823.359487
4.535000	-0.002669	-0.001706	-0.011850	0.002211	4348.088149	18234.271455	3159.207739	9878.159351
5.035500	-0.000308	-0.001916	-0.011885	0.002172	4356.600287	18228.244403	3159.211578	9878.797781
5.535500	-0.001234	-0.001230	-0.001466	-0.001425	4366.124754	18380.507216	3172.301170	9937.693906
6.036000	-0.000667	-0.000795	-0.015622	-0.000803	4365.926281	18373.830135	3158.511563	9927.470676
6.536000	-0.003557	-0.000734	-0.007622	0.002578	4343.656854	18255.727578	3162.771351	9872.183263
7.036500	-0.002967	-0.001718	-0.009337	0.002085	4347.479981	18238.314416	3161.639632	9880.214852
7.537000	0.000168	-0.001353	-0.002628	-0.001122	4370.060928	18365.297066	3170.913619	9932.716736
8.064500	0.000791	-0.000029	-0.001108	-0.000346	4369.512642	18384.873122	3171.617387	9919.970040
8.537500	0.002833	0.000061	0.007332	0.000176	4374.972869	18369.442128	3179.188950	9911.416374
9.034500	-0.003214	-0.002006	-0.004498	-0.001851	4360.573171	18368.014133	3169.835246	9944.698814
9.538000	0.001469	0.000910	0.000601	0.000000	4370.704029	18406.071944	3172.911398	9914.303964
10.035500	0.002778	-0.000225	0.000000	-0.001884	4382.201820	18432.917779	3174.132680	9945.245981
10.536000	-0.000424	0.000665	0.001617	0.001447	4358.765958	18345.618983	3172.502003	9890.623111
11.038500	-0.001179	-0.001378	-0.009127	-0.000104	4361.603140	18328.135361	3163.864529	9916.010196
11.536000	0.000000	0.000000	-0.004034	0.001726	4359.282869	18312.036100	3166.909507	9886.076604
12.036500	-0.000409	-0.000312	-0.004874	0.001287	4359.389839	18316.544958	3166.533541	9893.242682
12.536500	-0.001456	-0.001038	0.000401	0.000117	4359.829673	18332.387540	3172.611086	9912.394594
13.037000	-0.001333	-0.000132	-0.007909	0.001772	4354.380711	18305.699818	3163.253629	9885.326543
13.537000	-0.003376	-0.000827	-0.001632	0.000613	4351.243274	18322.200559	3170.215411	9904.262601
14.035000	-0.002593	-0.001228	-0.006398	-0.000308	4357.291017	18340.709707	3166.600262	9919.346199
14.535500	-0.000569	-0.000925	-0.020848	0.000804	4360.542637	18311.936838	3152.292917	9901.145286
15.035500	0.000165	-0.000819	0.000856	0.000493	4364.271641	18326.768066	3172.685622	9906.230956
15.535500	-0.000077	-0.000380	-0.006478	0.001436	4360.039659	18308.831988	3164.896632	9890.807384
16.036000	-0.005707	-0.001109	-0.007880	0.000774	4342.439825	18306.456928	3164.207066	9901.631055
16.536000	-0.000324	-0.000994	-0.004495	0.000608	4362.111355	18316.425371	3167.525519	9904.347486
17.036500	-0.001749	-0.002032	-0.013834	-0.000175	4359.823447	18307.388722	3159.577543	9917.175309
17.537000	0.000149	-0.000721	-0.005053	0.000622	4363.752704	18325.675560	3166.989069	9904.119716
18.037500	-0.002928	-0.000654	-0.005988	0.000512	4353.188979	18331.973572	3166.217083	9905.923022
18.537500	-0.002399	0.000324	-0.002859	0.001631	4351.098014	18326.922737	3168.100803	9887.621575
19.035000	-0.000086	-0.000687	-0.020787	0.000350	4363.885217	18336.581052	3152.757689	9908.577214
19.535500	-0.002063	0.000105	-0.006606	0.001119	4354.105506	18337.398148	3165.073039	9895.995208
20.035500	-0.000878	-0.000690	-0.012499	-0.002219	4370.245814	18428.260952	3162.697728	9950.764270
20.538500	-0.001497	-0.001516	-0.008456	0.000909	4356.861312	18287.157894	3163.545902	9899.415347
21.036000	-0.001516	-0.000739	-0.003287	-0.001271	4364.563842	18392.534237	3170.431272	9935.159313
21.536500	-0.000066	0.000375	0.007099	-0.000485	4366.938759	18404.305641	3179.602855	9922.254303
22.036500	-0.002985	-0.001776	-0.007149	0.004014	4340.611712	18168.128395	3161.879454	9848.816753
22.537000	0.000760	-0.000350	-0.001893	-0.000813	4371.076074	18390.081009	3171.317007	9927.641293
23.037500	0.002317	-0.000024	0.000829	-0.000967	4377.230341	18407.246629	3174.048901	9930.167524
23.554000	0.000992	0.001122	-0.000158	-0.000409	4370.459852	18428.308523	3172.579310	9921.009087
24.035500	-0.003383	0.000220	0.002475	0.004902	4336.097558	18207.216036	3170.043360	9834.418480
24.535500	-0.000002	-0.000224	0.000947	0.003829	4351.803369	18229.473709	3169.614048	9851.827882
25.055500	0.000858	-0.000017	-0.008157	-0.000504	4370.322546	18390.950272	3165.139915	9922.573579
25.536000	0.001377	-0.000984	-0.006550	-0.001732	4376.599346	18400.270608	3167.791937	9942.740296
26.036500	-0.004120	-0.001266	-0.014568	0.003501	4338.428501	18204.245293	3155.541723	9857.162111
26.536000	-0.005430	-0.000836	-0.010933	0.003148	4335.068874	18231.935451	3159.189338	9862.902005
27.036500	0.005178	-0.000944	-0.007773	-0.002520	4393.214223	18429.944784	3167.384039	9955.723124
27.536000	0.000865	-0.001821	-0.002199	-0.000413	4370.017547	18323.344830	3170.648923	9921.072166
28.034500	0.000019	0.000692	-0.000401	0.004625	4349.058235	18233.714114	3167.598024	9838.909546
28.535000	-0.000179	-0.001653	0.002773	0.001046	4361.066268	18277.427215	3173.982938	9897.173557
29.035500	-0.003614	-0.001222	-0.002114	0.001476	4347.347270	18277.489911	3168.946722	9890.153672
29.535500	0.002515	0.001052	-0.001932	0.002217	4366.509152	18332.005268	3168.421547	9878.062162
30.038500	-0.002851	-0.001375	-0.008849	0.000887	4352.132281	18292.992097	3163.201713	9899.784527
30.536500	-0.002163	-0.000802	-0.007705	0.001556	4352.197549	18289.562416	3163.642747	9888.844864
31.036500	-0.000981	-0.001004	-0.012666	0.001441	4356.807407	18286.472763	3159.165222	9890.732964
31.536000	-0.002097	-0.001151	-0.007306	0.000354	4356.699796	18319.878710	3165.132994	9908.498493
32.037000	0.000426	-0.000598	-0.003202	0.001283	4362.382657	18306.519312	3168.105313	9893.311687
32.537500	0.001075	-0.001338	-0.003764	0.001069	4365.463867	18287.810835	3167.777890	9896.800467
33.035000	0.000536	-0.001242	-0.005919	0.000462	4365.708883	18312.820292	3166.328732	9906.742716
33.535000	-0.003658	0.000798	-0.009115	0.001868	4345.804985	18335.377766	3162.045653	9883.753566
34.035000	-0.003076	-0.001094	-0.002580	0.000848	4351.470207	18304.350156	3169.098944	9900.415045
34.538000	0.000095	-0.000809	-0.010204	0.000671	4363.384957	18320.805926	3162.146629	9903.322729
35.036000	-0.001969	-0.001316	-0.014400	0.000511	4356.598558	18308.440286	3158.427112	9905.931171
35.535500	0.000483	-0.000393	-0.005572	0.001718	4361.031879	18298.342276	3165.479129	9886.210492
36.036000	-0.001111	0.000319	0.003659	0.002020	4354.286094	18312.923948	3173.899021	9881.275704
36.536500	0.003650	-0.000594	-0.017311	0.001557	4372.945344	18296.908074	3154.814286	9888.833072
37.037000	-0.003512	-0.000735	-0.010670	0.000895	4349.763491	18315.443406	3161.507551	9899.650426
37.537500	-0.000801	-0.002526	0.004065	-0.004635	4379.215030	18449.055236	3180.682278	9990.676480
38.035000	-0.002884	-0.000928	0.004515	0.003666	4342.195450	18210.330041	3173.147089	9854.479072
38.566500	0.001059	-0.000347	-0.009507	0.000850	4366.186070	18330.829338	3162.625447	9900.378979
39.035500	-0.002084	-0.000370	0.003685	-0.001604	4363.727901	18417.689136	3177.391557	9940.639825
39.535500	-0.003898	0.000506	-0.007283	-0.001476	4356.805431	18444.498533	3166.865406	9938.540889
40.036000	-0.000533	-0.000069	0.001935	0.004853	4346.297933	18198.745900	3169.579569	9835.203163
40.536500	-0.000865	-0.000457	-0.009784	0.001392	4357.394231	18307.660910	3161.867663	9891.533410
41.035500	-0.000522	-0.000832	-0.010850	-0.000882	4366.726796	18375.335090	3162.986386	9928.767180
41.540500	-0.002883	-0.001207	-0.006142	0.001714	4349.089313	18269.572099	3164.950718	9886.269119
42.037500	-0.000470	-0.000224	-0.007169	0.004031	4349.429589	18222.331043	3161.845268	9848.542898
42.553500	-0.002749	-0.000506	-0.007729	0.001696	4349.627421	18295.082920	3163.490973	9886.559158
43.035000	0.001206	0.000160	0.002266	-0.001001	4373.352865	18415.079663	3175.453131	9930.728920
43.535000	-0.000298	-0.001287	-0.004153	-0.001917	4371.242383	18396.070468	3170.223829	9945.792607
44.038500	-0.005532	-0.000517	-0.000860	0.005071	4327.985036	18175.272654	3166.749626	9831.681863
44.536000	0.003718	-0.001448	-0.004052	-0.008264	4408.886534	18618.927245	3176.357801	10051.041956
45.036500	0.001558	-0.002791	-0.000124	-0.010981	4410.932934	18668.836405	3182.775628	10096.564985
45.536500	-0.026491	-0.025920	0.033185	0.178422	3781.279082	12551.910747	3055.163395	7516.331543
46.036500	-0.028883	-0.031357	0.052120	0.217639	3692.762901	11605.144156	3041.700540	7108.817515
46.534500	-0.021898	-0.021247	0.004715	-0.004496	4304.444528	17786.666445	3181.177708	9988.375735
47.034500	-0.013188	-0.008841	-0.014615	-0.162679	5003.563698	24966.994511	3339.814731	13148.485114
47.534500	-0.008192	-0.006372	-0.011625	-0.136250	4898.049726	23780.515540	3309.356739	12537.303455
48.035000	-0.011454	-0.001854	-0.007821	-0.115293	4784.921911	23003.526749	3288.085202	12078.422274
48.534500	-0.007280	-0.000689	-0.012772	-0.093904	4708.264154	22087.101923	3257.015552	11632.369823
49.035500	-0.003720	0.000144	-0.009477	-0.069823	4620.766776	21085.026993	3233.792369	11155.771000
49.536000	0.001933	0.002795	0.000674	-0.071454	4651.352683	21265.593463	3246.819166	11187.226855
50.036000	0.000511	0.006917	0.000218	-0.076017	4664.696473	21637.300180	3251.443421	11275.834186
50.537000	0.006394	0.009072	0.010213	-0.045949	4564.367917	20468.567791	3229.250534	10708.652971
51.037000	0.013622	0.012805	0.010480	-0.026940	4517.480136	19860.049693	3209.434541	10369.802607
51.537500	0.014006	0.015027	0.011258	-0.016069	4476.800724	19524.892408	3199.113131	10182.591941
52.037000	0.016091	0.017143	0.024572	0.011488	4381.991291	18576.859395	3184.948608	9728.493728
52.535500	0.014660	0.017870	0.016791	0.018823	4350.628436	18339.547821	3170.416468	9612.405158
53.035000	0.014877	0.019119	0.014619	0.021335	4342.516111	18294.574048	3166.014821	9573.084963
53.538000	0.019095	0.019448	0.015772	0.023927	4348.259053	18214.419676	3164.672440	9532.770815
54.061000	0.023683	0.021724	0.034058	0.023545	4365.935174	18308.659208	3182.441887	9538.701573
54.536000	0.028487	0.023485	0.030509	0.024940	4378.178440	18321.679858	3177.660900	9517.080583
55.036500	0.028735	0.024425	0.026208	0.026196	4374.548105	18310.432506	3172.352036	9497.672558
55.536500	0.029667	0.025488	0.024952	0.027334	4373.807373	18307.744901	3170.085740	9480.125748
56.037000	0.028222	0.026338	0.039439	0.032636	4349.738145	18150.245692	3178.848375	9399.029096
56.537000	0.033090	0.026369	0.043202	0.028904	4380.483147	18283.280352	3186.138785	9456.017417
57.037500	0.035174	0.026147	0.030433	0.028424	4389.766501	18292.412876	3174.252213	9463.372884
57.535500	0.036172	0.028509	0.032916	0.031254	4383.126944	18275.801300	3173.920951	9420.070284
58.036000	0.031929	0.027249	0.033608	0.031655	4366.421156	18216.989525	3174.198643	9413.962202
58.536000	0.030193	0.027141	0.037739	0.033722	4352.871728	18140.278421	3176.171101	9382.539166
59.036000	0.034736	0.028153	0.027105	0.032083	4374.958887	18233.832950	3167.642573	9407.443040
59.536000	0.034958	0.028256	0.036213	0.033129	4371.994973	18200.472378	3175.278446	9391.539772
60.037000	0.035308	0.028813	0.035165	0.036604	4360.813939	18097.794333	3170.977482	9338.986509
60.537000	0.033651	0.030374	0.040253	0.041253	4338.493176	17989.810714	3171.392816	9269.319864
61.037000	0.038763	0.029941	0.032905	0.038565	4366.151781	18068.593232	3167.003047	9309.510351
61.537500	0.037369	0.030490	0.034872	0.040826	4353.130529	18008.779789	3166.727609	9275.694461
62.035000	0.038722	0.029543	0.026713	0.043621	4348.020954	17878.806712	3156.599888	9234.119965
62.535500	0.037020	0.029660	0.035685	0.046948	4330.344438	17768.253959	3161.787120	9185.002179
63.038500	0.038290	0.029994	0.037348	0.042751	4349.569168	17924.549479	3167.243919	9247.029458
63.535500	0.039383	0.030259	0.041756	0.043786	4349.774361	17897.857930	3170.417897	9231.677420
64.036500	0.039901	0.033087	0.044111	0.049127	4332.796925	17811.126783	3167.606957	9153.023826
64.536500	0.044763	0.031454	0.045133	0.050148	4346.305295	17720.037456	3167.608162	9138.098327
65.037000	0.044039	0.031522	0.039438	0.047158	4354.327301	17825.035428	3165.077549	9181.908357
65.537000	0.045046	0.030739	0.027311	0.048831	4351.966812	17740.656928	3152.411468	9157.361000
66.035000	0.041881	0.030861	0.038311	0.051664	4330.849392	17648.068488	3159.858696	9116.000649
66.535000	0.041612	0.030954	0.056994	0.051280	4331.252417	17664.338076	3177.800194	9121.592488
67.035000	0.047068	0.033335	0.039206	0.053178	4343.747765	17680.802287	3159.289488	9094.013755
67.538500	0.048098	0.032200	0.051790	0.053472	4346.344921	17632.104561	3170.746973	9089.748443
68.036000	0.048145	0.032643	0.048547	0.055151	4340.587996	17590.125903	3166.119189	9065.457855
68.536500	0.044447	0.032234	0.044454	0.058521	4315.919591	17462.547093	3159.201956	9017.010446
69.036000	0.047781	0.032559	0.050220	0.056200	4335.626053	17551.787316	3166.703114	9050.343302
69.536500	0.048783	0.032619	0.056348	0.057125	4335.893897	17522.544338	3171.603564	9037.032956
70.037000	0.049925	0.033316	0.044014	0.058163	4336.258728	17511.030621	3159.126594	9022.134320
70.537000	0.048769	0.033314	0.049904	0.061073	4322.059777	17413.145927	3161.874118	8980.564338
71.037500	0.050076	0.033215	0.052483	0.058682	4334.969119	17490.129237	3166.498149	9014.697969
71.538000	0.047343	0.032586	0.049763	0.059288	4323.308378	17448.571230	3163.397812	9006.027829
72.035000	0.045302	0.032398	0.047772	0.059428	4315.740930	17437.591690	3161.423771	9004.033514
72.535500	0.048639	0.032354	0.046006	0.063121	4314.506312	17312.697939	3156.410398	8951.469061
73.035500	0.050654	0.032739	0.047203	0.061176	4328.268246	17390.432189	3159.288059	8979.095018
73.536000	0.049509	0.031903	0.051706	0.061116	4324.484052	17364.513790	3163.504795	8979.947775
74.036500	0.048705	0.034186	0.048945	0.063625	4312.992733	17356.957797	3158.638979	8944.331290
74.536500	0.053788	0.033012	0.054878	0.063859	4329.843634	17310.056661	3163.903449	8941.025547
75.036500	0.048831	0.033457	0.042242	0.064225	4311.355683	17312.673385	3151.993208	8935.839197
75.537000	0.051130	0.032917	0.042343	0.063797	4320.798824	17308.973658	3152.471423	8941.902248
76.034000	0.048530	0.029904	0.052595	0.063874	4311.531725	17206.522519	3161.772763	8940.810441
76.535000	0.049588	0.032546	0.053892	0.065610	4309.188480	17236.456486	3161.365623	8916.288983
77.038000	0.050901	0.032343	0.048342	0.065657	4313.562511	17228.194067	3156.228432	8915.634911
77.535000	0.048082	0.032093	0.058806	0.067049	4299.074718	17173.995191	3164.589711	8896.050648
78.036000	0.048689	0.033314	0.059137	0.069244	4293.646854	17141.928890	3162.857455	8865.296004
78.536000	0.049143	0.031265	0.058565	0.070013	4292.575827	17049.582719	3161.616187	8854.569614
79.036500	0.050679	0.032330	0.052947	0.068994	4301.311785	17117.827661	3157.387280	8868.802411
79.536500	0.048291	0.032608	0.044787	0.070007	4289.695709	17093.711253	3149.083857	8854.651101
80.037000	0.046168	0.032336	0.047259	0.071112	4278.755393	17048.662205	3150.309408	8839.255384
80.537500	0.049765	0.032589	0.046437	0.072432	4286.464742	17013.853330	3148.390228	8820.921271
81.037500	0.054414	0.033437	0.052565	0.071258	4306.358166	17079.862667	3154.972670	8837.218565
81.535000	0.049186	0.032563	0.051968	0.071533	4287.551630	17042.330134	3154.181147	8833.400581
82.036000	0.048987	0.033262	0.054538	0.072436	4283.813040	17035.681307	3155.696647	8820.861712
82.535500	0.053100	0.033657	0.055949	0.076859	4282.761776	16904.805587	3152.962411	8759.817168
83.035500	0.056567	0.033127	0.046978	0.073627	4305.617484	16992.457101	3147.805545	8804.357615
83.536500	0.053619	0.032772	0.056819	0.073743	4295.121894	16977.141263	3156.585463	8802.759219
84.037000	0.054313	0.034106	0.057951	0.075223	4292.439558	16972.412713	3156.267576	8782.325841
84.534000	0.052003	0.034014	0.055885	0.075989	4281.995056	16944.575025	3153.693240	8771.782732
85.059000	0.056142	0.033443	0.055760	0.075336	4298.298511	16947.215425	3154.172058	8780.772958
85.534500	0.053214	0.033560	0.059261	0.076225	4285.297270	16922.192455	3156.548729	8768.529330
86.035000	0.055134	0.033328	0.047212	0.076456	4291.036408	16907.213496	3145.496421	8765.359072
86.538000	0.052738	0.035790	0.061143	0.078187	4277.051790	16930.883801	3156.475622	8741.617966
87.092000	0.051294	0.033841	0.055915	0.077806	4273.473037	16880.187282	3152.077056	8746.834430
87.535000	0.048994	0.031461	0.053803	0.075803	4272.470243	16868.006470	3151.978180	8774.331853
