sample name	sample
index	293
start time	 02-25-2021  12:55:16 PM


Wavelength (nm)	Absorbance
494.344910	0.401948
494.563924	0.401948
494.782919	0.401948
495.001897	-0.207265
495.220856	-0.164719
495.439797	-0.214305
495.658719	-0.240149
495.877624	-0.183710
496.096510	-0.099468
496.315378	-0.169461
496.534227	-0.191468
496.753059	-0.151888
496.971872	-0.090602
497.190667	0.051365
497.409444	0.064283
497.628203	0.067296
497.846943	0.069432
498.065665	0.068881
498.284369	0.068690
498.503055	0.070672
498.721723	0.069992
498.940372	0.069518
499.159003	0.069305
499.377616	0.070291
499.596210	0.070864
499.814787	0.070652
500.033345	0.071599
500.251885	0.072406
500.470406	0.071937
500.688910	0.072125
500.907395	0.073505
501.125862	0.074171
501.344311	0.072728
501.562742	0.072582
501.781154	0.072836
501.999548	0.071930
502.217924	0.071456
502.436282	0.071583
502.654621	0.071657
502.872942	0.072396
503.091245	0.072854
503.309530	0.073785
503.527797	0.073578
503.746045	0.073629
503.964275	0.074128
504.182487	0.074445
504.400681	0.074503
504.618856	0.075041
504.837013	0.073669
505.055152	0.074218
505.273273	0.074351
505.491376	0.074591
505.709460	0.075060
505.927526	0.074418
506.145574	0.074800
506.363604	0.074958
506.581615	0.075418
506.799608	0.076503
507.017583	0.076147
507.235540	0.076794
507.453478	0.076231
507.671399	0.074527
507.889301	0.075468
508.107185	0.075196
508.325050	0.075439
508.542898	0.074813
508.760727	0.074577
508.978538	0.075024
509.196330	0.074972
509.414105	0.076036
509.631861	0.077003
509.849599	0.077250
510.067319	0.077331
510.285021	0.076813
510.502704	0.077304
510.720369	0.076898
510.938016	0.076480
511.155645	0.076350
511.373255	0.075993
511.590848	0.075721
511.808422	0.075689
512.025977	0.075457
512.243515	0.075478
512.461034	0.074782
512.678536	0.074279
512.896018	0.074824
513.113483	0.074638
513.330930	0.074586
513.548358	0.074943
513.765768	0.074448
513.983160	0.074308
514.200533	0.074498
514.417889	0.074788
514.635226	0.075395
514.852545	0.074864
515.069845	0.075192
515.287128	0.075409
515.504392	0.075840
515.721638	0.076187
515.938866	0.076635
516.156075	0.077076
516.373267	0.076783
516.590440	0.077975
516.807594	0.078071
517.024731	0.077502
517.241850	0.077477
517.458950	0.077329
517.676032	0.077340
517.893095	0.077584
518.110141	0.077455
518.327168	0.078582
518.544177	0.077640
518.761168	0.077937
518.978141	0.077972
519.195095	0.078048
519.412031	0.077945
519.628949	0.078375
519.845849	0.079142
520.062731	0.079441
520.279594	0.079779
520.496439	0.080360
520.713266	0.079676
520.930074	0.080346
521.146865	0.079876
521.363637	0.079724
521.580391	0.079744
521.797127	0.079200
522.013844	0.078234
522.230543	0.077847
522.447224	0.077533
522.663887	0.078389
522.880532	0.078094
523.097158	0.078834
523.313766	0.079012
523.530356	0.079184
523.746928	0.078947
523.963481	0.080211
524.180017	0.080469
524.396534	0.080557
524.613032	0.080648
524.829513	0.080657
525.045975	0.080706
525.262420	0.081097
525.478845	0.080725
525.695253	0.081142
525.911643	0.080943
526.128014	0.080827
526.344367	0.080930
526.560702	0.080955
526.777018	0.081191
526.993316	0.081306
527.209597	0.081466
527.425858	0.082235
527.642102	0.082099
527.858328	0.082489
528.074535	0.082485
528.290724	0.082003
528.506894	0.082446
528.723047	0.082663
528.939181	0.082434
529.155297	0.082425
529.371395	0.082061
529.587475	0.082446
529.803536	0.082010
530.019579	0.082532
530.235604	0.083713
530.451611	0.083829
530.667600	0.083972
530.883570	0.084630
531.099522	0.085017
531.315456	0.085276
531.531372	0.085257
531.747269	0.086042
531.963148	0.086060
532.179009	0.085980
532.394852	0.085635
532.610676	0.085179
532.826482	0.085287
533.042271	0.085159
533.258040	0.085271
533.473792	0.085501
533.689525	0.085442
533.905240	0.085311
534.120937	0.085284
534.336616	0.085627
534.552277	0.086735
534.767919	0.086508
534.983543	0.086202
535.199149	0.085993
535.414736	0.086441
535.630306	0.086639
535.845857	0.087026
536.061390	0.087185
536.276904	0.087128
536.492401	0.087069
536.707879	0.087475
536.923339	0.087929
537.138781	0.087962
537.354204	0.087802
537.569610	0.087891
537.784997	0.087491
538.000366	0.087595
538.215716	0.087649
538.431049	0.087858
538.646363	0.087628
538.861659	0.087868
539.076937	0.088444
539.292196	0.088319
539.507438	0.088301
539.722661	0.088736
539.937866	0.089059
540.153052	0.089467
540.368221	0.089431
540.583371	0.089643
540.798503	0.089715
541.013617	0.089214
541.228712	0.089587
541.443789	0.089552
541.658848	0.089532
541.873889	0.089326
542.088912	0.089096
542.303916	0.089196
542.518902	0.089253
542.733870	0.089378
542.948820	0.089445
543.163752	0.089116
543.378665	0.088988
543.593560	0.089410
543.808437	0.089935
544.023295	0.090096
544.238136	0.090207
544.452958	0.090600
544.667762	0.090686
544.882548	0.091331
545.097315	0.091807
545.312064	0.092173
545.526795	0.092263
545.741508	0.091908
545.956203	0.092101
546.170879	0.092141
546.385537	0.092277
546.600177	0.092420
546.814799	0.092495
547.029402	0.092575
547.243988	0.092999
547.458555	0.092856
547.673103	0.093176
547.887634	0.093298
548.102146	0.093629
548.316640	0.093963
548.531116	0.094049
548.745574	0.093888
548.960013	0.094277
549.174435	0.093844
549.388838	0.094186
549.603222	0.094311
549.817589	0.094019
550.031937	0.093591
550.246267	0.093487
550.460579	0.093553
550.674873	0.093748
550.889148	0.093767
551.103405	0.094180
551.317644	0.094008
551.531865	0.094078
551.746068	0.094729
551.960252	0.094930
552.174418	0.094754
552.388566	0.094712
552.602696	0.095063
552.816807	0.095013
553.030900	0.095117
553.244975	0.095639
553.459032	0.095698
553.673070	0.095631
553.887091	0.096057
554.101093	0.096310
554.315077	0.096288
554.529042	0.096039
554.742990	0.096282
554.956919	0.096515
555.170830	0.096471
555.384722	0.096749
555.598597	0.097200
555.812453	0.097238
556.026291	0.097212
556.240111	0.097150
556.453913	0.097331
556.667696	0.097041
556.881461	0.097092
557.095208	0.097038
557.308937	0.096201
557.522647	0.095821
557.736339	0.095795
557.950013	0.095947
558.163669	0.096148
558.377307	0.096393
558.590926	0.096565
558.804527	0.096358
559.018110	0.096280
559.231675	0.096990
559.445221	0.097019
559.658749	0.096963
559.872259	0.097020
560.085751	0.097651
560.299225	0.097818
560.512680	0.097992
560.726117	0.098240
560.939536	0.098359
561.152937	0.098442
561.366319	0.098460
561.579683	0.098721
561.793029	0.098912
562.006357	0.098518
562.219667	0.098817
562.432958	0.099023
562.646231	0.099037
562.859486	0.099375
563.072723	0.099225
563.285941	0.099212
563.499141	0.099445
563.712323	0.099349
563.925487	0.099330
564.138632	0.099155
564.351760	0.099312
564.564869	0.099553
564.777960	0.099244
564.991032	0.099491
565.204087	0.099804
565.417123	0.099794
565.630141	0.100090
565.843140	0.100465
566.056122	0.100509
566.269085	0.100354
566.482030	0.100463
566.694957	0.100561
566.907866	0.100838
567.120756	0.101471
567.333628	0.101549
567.546482	0.101502
567.759318	0.101413
567.972135	0.101287
568.184935	0.101648
568.397716	0.101798
568.610478	0.102214
568.823223	0.102183
569.035949	0.101797
569.248657	0.101530
569.461347	0.101496
569.674019	0.101395
569.886672	0.101633
570.099308	0.101402
570.311925	0.101100
570.524523	0.100986
570.737104	0.101442
570.949666	0.101769
571.162210	0.102193
571.374736	0.102195
571.587244	0.102645
571.799733	0.103102
572.012205	0.103420
572.224658	0.103950
572.437092	0.103977
572.649509	0.103640
572.861907	0.103453
573.074287	0.103471
573.286649	0.103497
573.498993	0.103519
573.711318	0.102957
573.923625	0.102750
574.135914	0.102510
574.348185	0.102568
574.560438	0.102680
574.772672	0.102483
574.984888	0.102495
575.197086	0.102940
575.409266	0.103113
575.621427	0.103515
575.833570	0.103985
576.045695	0.103739
576.257802	0.104022
576.469890	0.104345
576.681961	0.104512
576.894013	0.104396
577.106046	0.104275
577.318062	0.104214
577.530059	0.104116
577.742039	0.104280
577.954000	0.104746
578.165942	0.104811
578.377867	0.104832
578.589773	0.105107
578.801661	0.105083
579.013531	0.105262
579.225382	0.105141
579.437216	0.105309
579.649031	0.104958
579.860828	0.104787
580.072606	0.104897
580.284367	0.104654
580.496109	0.104875
580.707833	0.105393
580.919539	0.105764
581.131227	0.106048
581.342896	0.105896
581.554547	0.105876
581.766180	0.105994
581.977795	0.105873
582.189391	0.106107
582.400969	0.105982
582.612529	0.105966
582.824071	0.105863
583.035595	0.106281
583.247100	0.106671
583.458587	0.106815
583.670056	0.107353
583.881506	0.107535
584.092939	0.107704
584.304353	0.107918
584.515749	0.107955
584.727127	0.107996
584.938486	0.107984
585.149828	0.108167
585.361151	0.108498
585.572456	0.108338
585.783742	0.108287
585.995011	0.108449
586.206261	0.108368
586.417493	0.108401
586.628706	0.108483
586.839902	0.108545
587.051079	0.108349
587.262238	0.108464
587.473379	0.108620
587.684502	0.108647
587.895606	0.108477
588.106692	0.108393
588.317760	0.108516
588.528810	0.108253
588.739841	0.107988
588.950855	0.107902
589.161850	0.107690
589.372827	0.107652
589.583785	0.107968
589.794726	0.108169
590.005648	0.108467
590.216552	0.108271
590.427437	0.108725
590.638305	0.108875
590.849154	0.109354
591.059985	0.109563
591.270798	0.109695
591.481592	0.109433
591.692369	0.109780
591.903127	0.109978
592.113867	0.110261
592.324588	0.110083
592.535292	0.110293
592.745977	0.110346
592.956644	0.110593
593.167293	0.110765
593.377923	0.111042
593.588536	0.110874
593.799130	0.110704
594.009706	0.110722
594.220263	0.110844
594.430803	0.110708
594.641324	0.110505
594.851827	0.110480
595.062312	0.110559
595.272778	0.110681
595.483227	0.110791
595.693657	0.111300
595.904069	0.111755
596.114462	0.111987
596.324838	0.112321
596.535195	0.112469
596.745534	0.112541
596.955855	0.112113
597.166157	0.112277
597.376441	0.112432
597.586707	0.112208
597.796955	0.112180
598.007185	0.112291
598.217396	0.112221
598.427589	0.112404
598.637764	0.112338
598.847921	0.112859
599.058060	0.113057
599.268180	0.113098
599.478282	0.113178
599.688366	0.113236
599.898431	0.113229
600.108479	0.113530
600.318508	0.113663
600.528519	0.113782
600.738511	0.113731
600.948486	0.113642
601.158442	0.113602
601.368380	0.113826
601.578300	0.113927
601.788202	0.113949
601.998085	0.114041
602.207950	0.114114
602.417797	0.114111
602.627626	0.114056
602.837436	0.114236
603.047228	0.114071
603.257002	0.113893
603.466758	0.113917
603.676496	0.114078
603.886215	0.114107
604.095916	0.114131
604.305599	0.114350
604.515264	0.114687
604.724910	0.114546
604.934538	0.115107
605.144148	0.115447
605.353740	0.115362
605.563314	0.115228
605.772869	0.115292
605.982406	0.115116
606.191925	0.115093
606.401425	0.115128
606.610908	0.115406
606.820372	0.115301
607.029818	0.115255
607.239246	0.115446
607.448655	0.115607
607.658047	0.115584
607.867420	0.115894
608.076775	0.115904
608.286111	0.115858
608.495430	0.115716
608.704730	0.115752
608.914012	0.115776
609.123275	0.115848
609.332521	0.115889
609.541748	0.115864
609.750957	0.115892
609.960148	0.116144
610.169321	0.116421
610.378475	0.116709
610.587611	0.116666
610.796729	0.116742
611.005829	0.116881
611.214910	0.117004
611.423974	0.116901
611.633019	0.116882
611.842045	0.116670
612.051054	0.116564
612.260044	0.116483
612.469017	0.116601
612.677970	0.116525
612.886906	0.116451
613.095824	0.116568
613.304723	0.116894
613.513604	0.116988
613.722467	0.117353
613.931311	0.117572
614.140138	0.117560
614.348946	0.117483
614.557736	0.117845
614.766507	0.117954
614.975261	0.117893
615.183996	0.118030
615.392713	0.118031
615.601412	0.118123
615.810092	0.117968
616.018754	0.117998
616.227399	0.118282
616.436024	0.118192
616.644632	0.118417
616.853222	0.118567
617.061793	0.118579
617.270346	0.118706
617.478880	0.118850
617.687397	0.119122
617.895895	0.119446
618.104375	0.119606
618.312837	0.119547
618.521281	0.119480
618.729706	0.119453
618.938113	0.119529
619.146502	0.119514
619.354873	0.119370
619.563226	0.119346
619.771560	0.119216
619.979876	0.119221
620.188174	0.119266
620.396453	0.119160
620.604715	0.119260
620.812958	0.119103
621.021183	0.119320
621.229390	0.119416
621.437578	0.119290
621.645748	0.119486
621.853900	0.119325
622.062034	0.119527
622.270150	0.119633
622.478247	0.119912
622.686326	0.120127
622.894387	0.120195
623.102430	0.120232
623.310454	0.120648
623.518461	0.120766
623.726449	0.121092
623.934418	0.121334
624.142370	0.121631
624.350303	0.121808
624.558218	0.122224
624.766115	0.122479
624.973994	0.122687
625.181855	0.122617
625.389697	0.122636
625.597521	0.122666
625.805327	0.122721
626.013114	0.122806
626.220883	0.122797
626.428634	0.122710
626.636367	0.122824
626.844082	0.122778
627.051778	0.122845
627.259457	0.122959
627.467117	0.123123
627.674758	0.123297
627.882382	0.123146
628.089987	0.122996
628.297574	0.122903
628.505143	0.122682
628.712694	0.122761
628.920226	0.122827
629.127740	0.122550
629.335236	0.122503
629.542714	0.122394
629.750174	0.122524
629.957615	0.122622
630.165038	0.122669
630.372443	0.122581
630.579829	0.122548
630.787198	0.122786
630.994548	0.122980
631.201880	0.123005
631.409194	0.123062
631.616489	0.123183
631.823766	0.123108
632.031025	0.123099
632.238266	0.123463
632.445489	0.123502
632.652693	0.123558
632.859879	0.124050
633.067047	0.123905
633.274197	0.124214
633.481329	0.124248
633.688442	0.124558
633.895537	0.124877
634.102614	0.124732
634.309672	0.125057
634.516713	0.125039
634.723735	0.124697
634.930739	0.124981
635.137724	0.124784
635.344692	0.124874
635.551641	0.124846
635.758572	0.124637
635.965485	0.125035
636.172379	0.125250
636.379256	0.124932
636.586114	0.125185
636.792954	0.125198
636.999775	0.125162
637.206579	0.125398
637.413364	0.125435
637.620131	0.125521
637.826880	0.125377
638.033610	0.125005
638.240323	0.125472
638.447017	0.125671
638.653692	0.125879
638.860350	0.126043
639.066990	0.125851
639.273611	0.125938
639.480214	0.126195
639.686798	0.126453
639.893365	0.126856
640.099913	0.126790
640.306443	0.126840
640.512955	0.126681
640.719449	0.126850
640.925924	0.126975
641.132381	0.127024
641.338820	0.127130
641.545241	0.127097
641.751644	0.127155
641.958028	0.127568
642.164394	0.127842
642.370742	0.128139
642.577071	0.128275
642.783383	0.128530
642.989676	0.128483
643.195951	0.128465
643.402207	0.128598
643.608446	0.128490
643.814666	0.128299
644.020868	0.128182
644.227052	0.128292
644.433218	0.128140
644.639365	0.128306
644.845494	0.128895
645.051605	0.128926
645.257698	0.128852
645.463772	0.128954
645.669828	0.128870
645.875866	0.128563
646.081886	0.128429
646.287888	0.128469
646.493871	0.128318
646.699836	0.128178
646.905783	0.128448
647.111712	0.128541
647.317622	0.128664
647.523514	0.129092
647.729388	0.129474
647.935244	0.129570
648.141082	0.129852
648.346901	0.129874
648.552702	0.129891
648.758485	0.129972
648.964250	0.130080
649.169996	0.129965
649.375724	0.130066
649.581434	0.130142
649.787126	0.130266
649.992800	0.130359
650.198455	0.130615
650.404092	0.130751
650.609711	0.130794
650.815311	0.130783
651.020894	0.131175
651.226458	0.130941
651.432004	0.131054
651.637532	0.131285
651.843041	0.131154
652.048532	0.131155
652.254006	0.131081
652.459460	0.131205
652.664897	0.131319
652.870315	0.131268
653.075716	0.131624
653.281097	0.131560
653.486461	0.131686
653.691807	0.131960
653.897134	0.132120
654.102443	0.132316
654.307734	0.132397
654.513006	0.132451
654.718261	0.132808
654.923497	0.132785
655.128715	0.132971
655.333915	0.133157
655.539096	0.133076
655.744259	0.133180
655.949404	0.133226
656.154531	0.133348
656.359640	0.133464
656.564730	0.133225
656.769802	0.133215
656.974856	0.133548
657.179892	0.133512
657.384909	0.133761
657.589908	0.133776
657.794889	0.134045
657.999852	0.134204
658.204797	0.134419
658.409723	0.134787
658.614631	0.134901
658.819521	0.134817
659.024393	0.134960
659.229246	0.134881
659.434081	0.134945
659.638898	0.135084
659.843697	0.135063
660.048478	0.135326
660.253240	0.135333
660.457984	0.135514
660.662710	0.135768
660.867417	0.135739
661.072107	0.135992
661.276778	0.136139
661.481431	0.136070
661.686066	0.136168
661.890682	0.136209
662.095281	0.136286
662.299861	0.136286
662.504422	0.136089
662.708966	0.136103
662.913491	0.136386
663.117999	0.136503
663.322488	0.136670
663.526958	0.136893
663.731411	0.136877
663.935845	0.136936
664.140261	0.137240
664.344659	0.137541
664.549038	0.137856
664.753400	0.137838
664.957743	0.137999
665.162068	0.138002
665.366375	0.137891
665.570663	0.138042
665.774933	0.138150
665.979185	0.137975
666.183419	0.137786
666.387635	0.137752
666.591832	0.137641
666.796011	0.137635
667.000172	0.137868
667.204315	0.138022
667.408439	0.137981
667.612545	0.137877
667.816634	0.138130
668.020703	0.138193
668.224755	0.138297
668.428788	0.138446
668.632803	0.138590
668.836800	0.138533
669.040779	0.138503
669.244739	0.138549
669.448681	0.138848
669.652605	0.138905
669.856511	0.139117
670.060399	0.139207
670.264268	0.139325
670.468119	0.139228
670.671952	0.139354
670.875767	0.139509
671.079563	0.139632
671.283341	0.139583
671.487101	0.139712
671.690843	0.139738
671.894567	0.139713
672.098272	0.139777
672.301959	0.139818
672.505628	0.139735
672.709278	0.139873
672.912911	0.140175
673.116525	0.140502
673.320121	0.140556
673.523699	0.140738
673.727258	0.140986
673.930799	0.141274
674.134322	0.141877
674.337827	0.142390
674.541314	0.142550
674.744782	0.142723
674.948232	0.142786
675.151664	0.143009
675.355078	0.143250
675.558474	0.143555
675.761851	0.143585
675.965210	0.143357
676.168551	0.143226
676.371873	0.143319
676.575178	0.143350
676.778464	0.143367
676.981732	0.143194
677.184981	0.143292
677.388213	0.143351
677.591426	0.143501
677.794621	0.143735
677.997798	0.143845
678.200956	0.144026
678.404097	0.144117
678.607219	0.144450
678.810323	0.144671
679.013408	0.144647
679.216476	0.144681
679.419525	0.144723
679.622556	0.144687
679.825569	0.144930
680.028563	0.144782
680.231540	0.144963
680.434498	0.145029
680.637438	0.145087
680.840359	0.145168
681.043263	0.145063
681.246148	0.144978
681.449015	0.145113
681.651864	0.144997
681.854694	0.145239
682.057506	0.145273
682.260301	0.145389
682.463076	0.145609
682.665834	0.145680
682.868573	0.146019
683.071295	0.146138
683.273998	0.146191
683.476682	0.146506
683.679349	0.146344
683.881997	0.146541
684.084627	0.146449
684.287239	0.146359
684.489833	0.146339
684.692408	0.146134
684.894965	0.146238
685.097504	0.146344
685.300025	0.146152
685.502527	0.146416
685.705012	0.146146
685.907478	0.146083
686.109925	0.146207
686.312355	0.146328
686.514766	0.146427
686.717159	0.146549
686.919534	0.146595
687.121891	0.146799
687.324230	0.146855
687.526550	0.147151
687.728852	0.147165
687.931136	0.147302
688.133401	0.147525
688.335649	0.147872
688.537878	0.147884
688.740089	0.147952
688.942281	0.147966
689.144456	0.148091
689.346612	0.148080
689.548750	0.148263
689.750870	0.148296
689.952971	0.148029
690.155055	0.147815
690.357120	0.147863
690.559167	0.147902
690.761195	0.147997
690.963206	0.148013
691.165198	0.147875
691.367172	0.147908
691.569128	0.148025
691.771065	0.148542
691.972984	0.148840
692.174885	0.149160
692.376768	0.149237
692.578633	0.149122
692.780479	0.149214
692.982308	0.149311
693.184118	0.149574
693.385909	0.149497
