sample name	sample
index	84
start time	 02-11-2021  04:32:24 PM


Wavelength (nm)	Absorbance
494.344910	NaN
494.563924	NaN
494.782919	NaN
495.001897	NaN
495.220856	NaN
495.439797	NaN
495.658719	0.289608
495.877624	-0.656528
496.096510	-0.503632
496.315378	-0.398454
496.534227	-0.215434
496.753059	-0.061768
496.971872	-0.425865
497.190667	0.079469
497.409444	0.103872
497.628203	0.111714
497.846943	0.125528
498.065665	0.130224
498.284369	0.132659
498.503055	0.132612
498.721723	0.129358
498.940372	0.131969
499.159003	0.134441
499.377616	0.136625
499.596210	0.136929
499.814787	0.135212
500.033345	0.134794
500.251885	0.135759
500.470406	0.134329
500.688910	0.136722
500.907395	0.133701
501.125862	0.131995
501.344311	0.130984
501.562742	0.130847
501.781154	0.130591
501.999548	0.131057
502.217924	0.130384
502.436282	0.130490
502.654621	0.130360
502.872942	0.132916
503.091245	0.134164
503.309530	0.135329
503.527797	0.136313
503.746045	0.137763
503.964275	0.135887
504.182487	0.134445
504.400681	0.137366
504.618856	0.136298
504.837013	0.137224
505.055152	0.137041
505.273273	0.140084
505.491376	0.139903
505.709460	0.139081
505.927526	0.141130
506.145574	0.141992
506.363604	0.141185
506.581615	0.141023
506.799608	0.140627
507.017583	0.138749
507.235540	0.136419
507.453478	0.137203
507.671399	0.137265
507.889301	0.135568
508.107185	0.138444
508.325050	0.141129
508.542898	0.141846
508.760727	0.140860
508.978538	0.143536
509.196330	0.144288
509.414105	0.145180
509.631861	0.145647
509.849599	0.146827
510.067319	0.145928
510.285021	0.144235
510.502704	0.145206
510.720369	0.145837
510.938016	0.143643
511.155645	0.143553
511.373255	0.142482
511.590848	0.142914
511.808422	0.143094
512.025977	0.141495
512.243515	0.140391
512.461034	0.141369
512.678536	0.142316
512.896018	0.142970
513.113483	0.143595
513.330930	0.145387
513.548358	0.145596
513.765768	0.145571
513.983160	0.147544
514.200533	0.148616
514.417889	0.148009
514.635226	0.147941
514.852545	0.147199
515.069845	0.147164
515.287128	0.146308
515.504392	0.145198
515.721638	0.145625
515.938866	0.146139
516.156075	0.146093
516.373267	0.145179
516.590440	0.145197
516.807594	0.146095
517.024731	0.147234
517.241850	0.146775
517.458950	0.147793
517.676032	0.146538
517.893095	0.145864
518.110141	0.145703
518.327168	0.146265
518.544177	0.146852
518.761168	0.148013
518.978141	0.147735
519.195095	0.148880
519.412031	0.149439
519.628949	0.150510
519.845849	0.150091
520.062731	0.150852
520.279594	0.151951
520.496439	0.151017
520.713266	0.150756
520.930074	0.149946
521.146865	0.149684
521.363637	0.150635
521.580391	0.150872
521.797127	0.151203
522.013844	0.151075
522.230543	0.151492
522.447224	0.152323
522.663887	0.151971
522.880532	0.154072
523.097158	0.152675
523.313766	0.151137
523.530356	0.152218
523.746928	0.154171
523.963481	0.155707
524.180017	0.155298
524.396534	0.156183
524.613032	0.158208
524.829513	0.156943
525.045975	0.158354
525.262420	0.158211
525.478845	0.158607
525.695253	0.159313
525.911643	0.158753
526.128014	0.159172
526.344367	0.160120
526.560702	0.159092
526.777018	0.160230
526.993316	0.160784
527.209597	0.163425
527.425858	0.162552
527.642102	0.161727
527.858328	0.161175
528.074535	0.160834
528.290724	0.160199
528.506894	0.160044
528.723047	0.158992
528.939181	0.159995
529.155297	0.159239
529.371395	0.160279
529.587475	0.160696
529.803536	0.160624
530.019579	0.161856
530.235604	0.162390
530.451611	0.163727
530.667600	0.164990
530.883570	0.164788
531.099522	0.165079
531.315456	0.165503
531.531372	0.166093
531.747269	0.167841
531.963148	0.168174
532.179009	0.168953
532.394852	0.168559
532.610676	0.168568
532.826482	0.169347
533.042271	0.169068
533.258040	0.168697
533.473792	0.167661
533.689525	0.167553
533.905240	0.168649
534.120937	0.169609
534.336616	0.169759
534.552277	0.169497
534.767919	0.169199
534.983543	0.170195
535.199149	0.171585
535.414736	0.172585
535.630306	0.173846
535.845857	0.174508
536.061390	0.173628
536.276904	0.174315
536.492401	0.174876
536.707879	0.175298
536.923339	0.175901
537.138781	0.175656
537.354204	0.176084
537.569610	0.176558
537.784997	0.174922
538.000366	0.175656
538.215716	0.176230
538.431049	0.177403
538.646363	0.177867
538.861659	0.178057
539.076937	0.179058
539.292196	0.179160
539.507438	0.178294
539.722661	0.179236
539.937866	0.179641
540.153052	0.179504
540.368221	0.178711
540.583371	0.179429
540.798503	0.180014
541.013617	0.180126
541.228712	0.180086
541.443789	0.179764
541.658848	0.180130
541.873889	0.180025
542.088912	0.181552
542.303916	0.181757
542.518902	0.181258
542.733870	0.181220
542.948820	0.181218
543.163752	0.181348
543.378665	0.182616
543.593560	0.182871
543.808437	0.183441
544.023295	0.183897
544.238136	0.184781
544.452958	0.185461
544.667762	0.185953
544.882548	0.186370
545.097315	0.186993
545.312064	0.187116
545.526795	0.187640
545.741508	0.187519
545.956203	0.186345
546.170879	0.186921
546.385537	0.187948
546.600177	0.188357
546.814799	0.187931
547.029402	0.188436
547.243988	0.188410
547.458555	0.188782
547.673103	0.189537
547.887634	0.190536
548.102146	0.189402
548.316640	0.188107
548.531116	0.187431
548.745574	0.188492
548.960013	0.188556
549.174435	0.188741
549.388838	0.189144
549.603222	0.189151
549.817589	0.189177
550.031937	0.190164
550.246267	0.191903
550.460579	0.192452
550.674873	0.192104
550.889148	0.191705
551.103405	0.192652
551.317644	0.192091
551.531865	0.192308
551.746068	0.192193
551.960252	0.192422
552.174418	0.191956
552.388566	0.192667
552.602696	0.193489
552.816807	0.194697
553.030900	0.193905
553.244975	0.194722
553.459032	0.194920
553.673070	0.195769
553.887091	0.196025
554.101093	0.196736
554.315077	0.196677
554.529042	0.196936
554.742990	0.196555
554.956919	0.197189
555.170830	0.197095
555.384722	0.197155
555.598597	0.197243
555.812453	0.197586
556.026291	0.197901
556.240111	0.197923
556.453913	0.198422
556.667696	0.198760
556.881461	0.198646
557.095208	0.199030
557.308937	0.198601
557.522647	0.199283
557.736339	0.199826
557.950013	0.200082
558.163669	0.200323
558.377307	0.199725
558.590926	0.200511
558.804527	0.201361
559.018110	0.201705
559.231675	0.203125
559.445221	0.202881
559.658749	0.202037
559.872259	0.201411
560.085751	0.201759
560.299225	0.201961
560.512680	0.201768
560.726117	0.201388
560.939536	0.201539
561.152937	0.201479
561.366319	0.201861
561.579683	0.203060
561.793029	0.204340
562.006357	0.204058
562.219667	0.204922
562.432958	0.205175
562.646231	0.206248
562.859486	0.206810
563.072723	0.206970
563.285941	0.207268
563.499141	0.207309
563.712323	0.206483
563.925487	0.206813
564.138632	0.206930
564.351760	0.207951
564.564869	0.208281
564.777960	0.208081
564.991032	0.208388
565.204087	0.208167
565.417123	0.208214
565.630141	0.208704
565.843140	0.208981
566.056122	0.208850
566.269085	0.207832
566.482030	0.207626
566.694957	0.207694
566.907866	0.207605
567.120756	0.207552
567.333628	0.208238
567.546482	0.208354
567.759318	0.208924
567.972135	0.208591
568.184935	0.209550
568.397716	0.209877
568.610478	0.210190
568.823223	0.210065
569.035949	0.209874
569.248657	0.209301
569.461347	0.209333
569.674019	0.209055
569.886672	0.209664
570.099308	0.209393
570.311925	0.209530
570.524523	0.209900
570.737104	0.210280
570.949666	0.210615
571.162210	0.211320
571.374736	0.211258
571.587244	0.211522
571.799733	0.212098
572.012205	0.212075
572.224658	0.211928
572.437092	0.211741
572.649509	0.212010
572.861907	0.212583
573.074287	0.212815
573.286649	0.213164
573.498993	0.213840
573.711318	0.213611
573.923625	0.213821
574.135914	0.213861
574.348185	0.214302
574.560438	0.214806
574.772672	0.215325
574.984888	0.214934
575.197086	0.215061
575.409266	0.215219
575.621427	0.215831
575.833570	0.215999
576.045695	0.216075
576.257802	0.216070
576.469890	0.215859
576.681961	0.215580
576.894013	0.216097
577.106046	0.216291
577.318062	0.216545
577.530059	0.216289
577.742039	0.217331
577.954000	0.218227
578.165942	0.217928
578.377867	0.218569
578.589773	0.218665
578.801661	0.219565
579.013531	0.219434
579.225382	0.218979
579.437216	0.219077
579.649031	0.219194
579.860828	0.219025
580.072606	0.220456
580.284367	0.220486
580.496109	0.220981
580.707833	0.220799
580.919539	0.220990
581.131227	0.222127
581.342896	0.222328
581.554547	0.221746
581.766180	0.221552
581.977795	0.220684
582.189391	0.220624
582.400969	0.221283
582.612529	0.221079
582.824071	0.221635
583.035595	0.220962
583.247100	0.221161
583.458587	0.221532
583.670056	0.222092
583.881506	0.222361
584.092939	0.222982
584.304353	0.223163
584.515749	0.223265
584.727127	0.223485
584.938486	0.223604
585.149828	0.223677
585.361151	0.224218
585.572456	0.224573
585.783742	0.225139
585.995011	0.224798
586.206261	0.223987
586.417493	0.224241
586.628706	0.224687
586.839902	0.225419
587.051079	0.226002
587.262238	0.226100
587.473379	0.225770
587.684502	0.225675
587.895606	0.226355
588.106692	0.226846
588.317760	0.227881
588.528810	0.228122
588.739841	0.228251
588.950855	0.228094
589.161850	0.228055
589.372827	0.228397
589.583785	0.228513
589.794726	0.228519
590.005648	0.229170
590.216552	0.227851
590.427437	0.228108
590.638305	0.229001
590.849154	0.229527
591.059985	0.229958
591.270798	0.230566
591.481592	0.231701
591.692369	0.231855
591.903127	0.231800
592.113867	0.232529
592.324588	0.232549
592.535292	0.231572
592.745977	0.231811
592.956644	0.231257
593.167293	0.231587
593.377923	0.230706
593.588536	0.230925
593.799130	0.231150
594.009706	0.231639
594.220263	0.231510
594.430803	0.231518
594.641324	0.231032
594.851827	0.231799
595.062312	0.231652
595.272778	0.232601
595.483227	0.231993
595.693657	0.232039
595.904069	0.232480
596.114462	0.232676
596.324838	0.233362
596.535195	0.233659
596.745534	0.233788
596.955855	0.233956
597.166157	0.233941
597.376441	0.234948
597.586707	0.235241
597.796955	0.235304
598.007185	0.235632
598.217396	0.236039
598.427589	0.236449
598.637764	0.236784
598.847921	0.237401
599.058060	0.237354
599.268180	0.237850
599.478282	0.238170
599.688366	0.237706
599.898431	0.237710
600.108479	0.237601
600.318508	0.237639
600.528519	0.238167
600.738511	0.238352
600.948486	0.238605
601.158442	0.238571
601.368380	0.238590
601.578300	0.239109
601.788202	0.239351
601.998085	0.239620
602.207950	0.239760
602.417797	0.240368
602.627626	0.240387
602.837436	0.240617
603.047228	0.240641
603.257002	0.240865
603.466758	0.240899
603.676496	0.241907
603.886215	0.242212
604.095916	0.242854
604.305599	0.242070
604.515264	0.241849
604.724910	0.242142
604.934538	0.241917
605.144148	0.242554
605.353740	0.242875
605.563314	0.243127
605.772869	0.243804
605.982406	0.243643
606.191925	0.244041
606.401425	0.244754
606.610908	0.244938
606.820372	0.245788
607.029818	0.245607
607.239246	0.246064
607.448655	0.245709
607.658047	0.245285
607.867420	0.245584
608.076775	0.245487
608.286111	0.245378
608.495430	0.244344
608.704730	0.244342
608.914012	0.244512
609.123275	0.244847
609.332521	0.245068
609.541748	0.244540
609.750957	0.244434
609.960148	0.244255
610.169321	0.244581
610.378475	0.245710
610.587611	0.245939
610.796729	0.245889
611.005829	0.244977
611.214910	0.244994
611.423974	0.245684
611.633019	0.246145
611.842045	0.246526
612.051054	0.246755
612.260044	0.247054
612.469017	0.247051
612.677970	0.247291
612.886906	0.248121
613.095824	0.247743
613.304723	0.248056
613.513604	0.247681
613.722467	0.247818
613.931311	0.247722
614.140138	0.247096
614.348946	0.247065
614.557736	0.246690
614.766507	0.247030
614.975261	0.247666
615.183996	0.247532
615.392713	0.248068
615.601412	0.248906
615.810092	0.248969
616.018754	0.249656
616.227399	0.249869
616.436024	0.250419
616.644632	0.250491
616.853222	0.250906
617.061793	0.251106
617.270346	0.251303
617.478880	0.250889
617.687397	0.251436
617.895895	0.252284
618.104375	0.252518
618.312837	0.253044
618.521281	0.253523
618.729706	0.253926
618.938113	0.253994
619.146502	0.254680
619.354873	0.255198
619.563226	0.255043
619.771560	0.254562
619.979876	0.254746
620.188174	0.254538
620.396453	0.254430
620.604715	0.254349
620.812958	0.254994
621.021183	0.254710
621.229390	0.255210
621.437578	0.255495
621.645748	0.256327
621.853900	0.256777
622.062034	0.257291
622.270150	0.257407
622.478247	0.257579
622.686326	0.257144
622.894387	0.257369
623.102430	0.257244
623.310454	0.257210
623.518461	0.256650
623.726449	0.257133
623.934418	0.257484
624.142370	0.258219
624.350303	0.257919
624.558218	0.258684
624.766115	0.258646
624.973994	0.258534
625.181855	0.258748
625.389697	0.259205
625.597521	0.258939
625.805327	0.259175
626.013114	0.259485
626.220883	0.260065
626.428634	0.260223
626.636367	0.260366
626.844082	0.260678
627.051778	0.260853
627.259457	0.260618
627.467117	0.260379
627.674758	0.260247
627.882382	0.260010
628.089987	0.259973
628.297574	0.259724
628.505143	0.260104
628.712694	0.260333
628.920226	0.260531
629.127740	0.261470
629.335236	0.261650
629.542714	0.261598
629.750174	0.260705
629.957615	0.261192
630.165038	0.261972
630.372443	0.261967
630.579829	0.261921
630.787198	0.262152
630.994548	0.262022
631.201880	0.262927
631.409194	0.263946
631.616489	0.265601
631.823766	0.265780
632.031025	0.266025
632.238266	0.266513
632.445489	0.266641
632.652693	0.266782
632.859879	0.267039
633.067047	0.266621
633.274197	0.266246
633.481329	0.265856
633.688442	0.266176
633.895537	0.265902
634.102614	0.265699
634.309672	0.266032
634.516713	0.266102
634.723735	0.265882
634.930739	0.266263
635.137724	0.266446
635.344692	0.266795
635.551641	0.267082
635.758572	0.267338
635.965485	0.267526
636.172379	0.268148
636.379256	0.268852
636.586114	0.269829
636.792954	0.270333
636.999775	0.270738
637.206579	0.270611
637.413364	0.270665
637.620131	0.271560
637.826880	0.272698
638.033610	0.272560
638.240323	0.272613
638.447017	0.272528
638.653692	0.272702
638.860350	0.272580
639.066990	0.273212
639.273611	0.273581
639.480214	0.272847
639.686798	0.272425
639.893365	0.272671
640.099913	0.272830
640.306443	0.272770
640.512955	0.272953
640.719449	0.273391
640.925924	0.273864
641.132381	0.273980
641.338820	0.274334
641.545241	0.275084
641.751644	0.275595
641.958028	0.275488
642.164394	0.275782
642.370742	0.275781
642.577071	0.276126
642.783383	0.275718
642.989676	0.275600
643.195951	0.276271
643.402207	0.276579
643.608446	0.276590
643.814666	0.277235
644.020868	0.277568
644.227052	0.277842
644.433218	0.277848
644.639365	0.277786
644.845494	0.278059
645.051605	0.277728
645.257698	0.277251
645.463772	0.277518
645.669828	0.277522
645.875866	0.277644
646.081886	0.277831
646.287888	0.277968
646.493871	0.278804
646.699836	0.279106
646.905783	0.279858
647.111712	0.280235
647.317622	0.280146
647.523514	0.280202
647.729388	0.280329
647.935244	0.280502
648.141082	0.280944
648.346901	0.280760
648.552702	0.281098
648.758485	0.281276
648.964250	0.281491
649.169996	0.281752
649.375724	0.282153
649.581434	0.282646
649.787126	0.283182
649.992800	0.283537
650.198455	0.283551
650.404092	0.283499
650.609711	0.283963
650.815311	0.283944
651.020894	0.284207
651.226458	0.284797
651.432004	0.285154
651.637532	0.285506
651.843041	0.285380
652.048532	0.285954
652.254006	0.286017
652.459460	0.285903
652.664897	0.286549
652.870315	0.287007
653.075716	0.287328
653.281097	0.287292
653.486461	0.287462
653.691807	0.287239
653.897134	0.287537
654.102443	0.288753
654.307734	0.289330
654.513006	0.289743
654.718261	0.290298
654.923497	0.290058
655.128715	0.290149
655.333915	0.290194
655.539096	0.290864
655.744259	0.291108
655.949404	0.290637
656.154531	0.290453
656.359640	0.290353
656.564730	0.289991
656.769802	0.290121
656.974856	0.290473
657.179892	0.290800
657.384909	0.291573
657.589908	0.291674
657.794889	0.292208
657.999852	0.292582
658.204797	0.292914
658.409723	0.293023
658.614631	0.293303
658.819521	0.293572
659.024393	0.293689
659.229246	0.293476
659.434081	0.293965
659.638898	0.293611
659.843697	0.293807
660.048478	0.294272
660.253240	0.294942
660.457984	0.295182
660.662710	0.295567
660.867417	0.295942
661.072107	0.295996
661.276778	0.296167
661.481431	0.296882
661.686066	0.297347
661.890682	0.297933
662.095281	0.298171
662.299861	0.298853
662.504422	0.299067
662.708966	0.299550
662.913491	0.300327
663.117999	0.300995
663.322488	0.301505
663.526958	0.301657
663.731411	0.301247
663.935845	0.301599
664.140261	0.301889
664.344659	0.302331
664.549038	0.302405
664.753400	0.302386
664.957743	0.302508
665.162068	0.302448
665.366375	0.302620
665.570663	0.303137
665.774933	0.303570
665.979185	0.303909
666.183419	0.304214
666.387635	0.304563
666.591832	0.304470
666.796011	0.304681
667.000172	0.305022
667.204315	0.305508
667.408439	0.305653
667.612545	0.305799
667.816634	0.305906
668.020703	0.305760
668.224755	0.305924
668.428788	0.306416
668.632803	0.306876
668.836800	0.306860
669.040779	0.306973
669.244739	0.306983
669.448681	0.306702
669.652605	0.306754
669.856511	0.307527
670.060399	0.307444
670.264268	0.308100
670.468119	0.307911
670.671952	0.308069
670.875767	0.308653
671.079563	0.309306
671.283341	0.310093
671.487101	0.310284
671.690843	0.310028
671.894567	0.310571
672.098272	0.310521
672.301959	0.310813
672.505628	0.311442
672.709278	0.311272
672.912911	0.311698
673.116525	0.311868
673.320121	0.312534
673.523699	0.313441
673.727258	0.313544
673.930799	0.314223
674.134322	0.314487
674.337827	0.314813
674.541314	0.315484
674.744782	0.315291
674.948232	0.315324
675.151664	0.315214
675.355078	0.315010
675.558474	0.315370
675.761851	0.315488
675.965210	0.315348
676.168551	0.315617
676.371873	0.315437
676.575178	0.315717
676.778464	0.316346
676.981732	0.316697
677.184981	0.317316
677.388213	0.317695
677.591426	0.317878
677.794621	0.318550
677.997798	0.318802
678.200956	0.319564
678.404097	0.320199
678.607219	0.320173
678.810323	0.320421
679.013408	0.320430
679.216476	0.320568
679.419525	0.320833
679.622556	0.321001
679.825569	0.321207
680.028563	0.321080
680.231540	0.320838
680.434498	0.321204
680.637438	0.321721
680.840359	0.321878
681.043263	0.321899
681.246148	0.322309
681.449015	0.322396
681.651864	0.322818
681.854694	0.322902
682.057506	0.323391
682.260301	0.323683
682.463076	0.323596
682.665834	0.323650
682.868573	0.324384
683.071295	0.324272
683.273998	0.324698
683.476682	0.324868
683.679349	0.325265
683.881997	0.325258
684.084627	0.325542
684.287239	0.325824
684.489833	0.325928
684.692408	0.325866
684.894965	0.325968
685.097504	0.326381
685.300025	0.326418
685.502527	0.326566
685.705012	0.327412
685.907478	0.327097
686.109925	0.327284
686.312355	0.327934
686.514766	0.328051
686.717159	0.328625
686.919534	0.328844
687.121891	0.329234
687.324230	0.329099
687.526550	0.328559
687.728852	0.329362
687.931136	0.329529
688.133401	0.329677
688.335649	0.330182
688.537878	0.329930
688.740089	0.329974
688.942281	0.329735
689.144456	0.330453
689.346612	0.330720
689.548750	0.330883
689.750870	0.331184
689.952971	0.331107
690.155055	0.331166
690.357120	0.331848
690.559167	0.332405
690.761195	0.332634
690.963206	0.332461
691.165198	0.332745
691.367172	0.332827
691.569128	0.332937
691.771065	0.333621
691.972984	0.333716
692.174885	0.333956
692.376768	0.333591
692.578633	0.334003
692.780479	0.334607
692.982308	0.334791
693.184118	0.335155
693.385909	0.335349
693.587683	0.335032
