sample name	sample
index	993
start time	 04-14-2021  04:19:52 PM


Wavelength (nm)	Absorbance
494.344910	-0.514321
494.563924	-0.514321
494.782919	-0.514321
495.001897	-0.260270
495.220856	-0.382784
495.439797	-0.337150
495.658719	-0.198619
495.877624	-0.155391
496.096510	-0.005863
496.315378	0.033848
496.534227	0.122596
496.753059	0.083972
496.971872	0.243931
497.190667	0.075821
497.409444	0.065363
497.628203	0.059368
497.846943	0.059836
498.065665	0.060163
498.284369	0.059264
498.503055	0.058522
498.721723	0.058532
498.940372	0.058816
499.159003	0.058497
499.377616	0.059182
499.596210	0.059465
499.814787	0.059365
500.033345	0.057747
500.251885	0.057509
500.470406	0.057517
500.688910	0.056768
500.907395	0.055034
501.125862	0.055466
501.344311	0.054894
501.562742	0.057270
501.781154	0.057445
501.999548	0.057668
502.217924	0.057333
502.436282	0.057672
502.654621	0.058706
502.872942	0.059903
503.091245	0.059633
503.309530	0.060026
503.527797	0.057986
503.746045	0.057473
503.964275	0.057117
504.182487	0.057676
504.400681	0.059374
504.618856	0.059846
504.837013	0.059082
505.055152	0.058863
505.273273	0.058990
505.491376	0.058229
505.709460	0.058520
505.927526	0.060100
506.145574	0.060698
506.363604	0.059643
506.581615	0.058890
506.799608	0.060020
507.017583	0.060303
507.235540	0.059999
507.453478	0.060884
507.671399	0.061268
507.889301	0.060763
508.107185	0.060336
508.325050	0.060214
508.542898	0.060681
508.760727	0.060651
508.978538	0.060598
509.196330	0.060440
509.414105	0.060279
509.631861	0.059929
509.849599	0.060175
510.067319	0.060381
510.285021	0.061006
510.502704	0.060939
510.720369	0.060177
510.938016	0.061176
511.155645	0.061432
511.373255	0.061557
511.590848	0.062516
511.808422	0.062687
512.025977	0.063797
512.243515	0.063369
512.461034	0.062812
512.678536	0.063727
512.896018	0.063411
513.113483	0.063349
513.330930	0.063732
513.548358	0.063465
513.765768	0.063688
513.983160	0.062816
514.200533	0.063339
514.417889	0.064587
514.635226	0.064511
514.852545	0.064063
515.069845	0.063889
515.287128	0.063445
515.504392	0.063194
515.721638	0.062646
515.938866	0.062418
516.156075	0.061834
516.373267	0.061915
516.590440	0.061658
516.807594	0.061315
517.024731	0.062577
517.241850	0.063442
517.458950	0.063765
517.676032	0.064751
517.893095	0.065494
518.110141	0.065542
518.327168	0.065635
518.544177	0.065666
518.761168	0.065925
518.978141	0.065899
519.195095	0.065923
519.412031	0.065107
519.628949	0.064593
519.845849	0.064640
520.062731	0.065287
520.279594	0.065318
520.496439	0.065313
520.713266	0.065263
520.930074	0.064907
521.146865	0.064519
521.363637	0.065276
521.580391	0.065720
521.797127	0.065771
522.013844	0.065190
522.230543	0.065252
522.447224	0.065931
522.663887	0.066746
522.880532	0.067409
523.097158	0.067398
523.313766	0.068213
523.530356	0.067612
523.746928	0.067688
523.963481	0.068477
524.180017	0.068706
524.396534	0.068332
524.613032	0.068443
524.829513	0.067395
525.045975	0.068231
525.262420	0.068075
525.478845	0.068782
525.695253	0.069098
525.911643	0.069242
526.128014	0.069200
526.344367	0.069574
526.560702	0.069316
526.777018	0.069440
526.993316	0.068919
527.209597	0.069025
527.425858	0.069476
527.642102	0.069257
527.858328	0.069096
528.074535	0.069372
528.290724	0.069132
528.506894	0.069952
528.723047	0.070260
528.939181	0.070702
529.155297	0.070548
529.371395	0.070118
529.587475	0.070721
529.803536	0.070701
530.019579	0.070332
530.235604	0.070937
530.451611	0.070506
530.667600	0.071148
530.883570	0.071470
531.099522	0.072104
531.315456	0.072822
531.531372	0.073292
531.747269	0.073572
531.963148	0.074312
532.179009	0.074317
532.394852	0.074880
532.610676	0.074627
532.826482	0.075133
533.042271	0.074921
533.258040	0.074599
533.473792	0.074494
533.689525	0.075541
533.905240	0.076007
534.120937	0.076393
534.336616	0.076192
534.552277	0.076430
534.767919	0.075748
534.983543	0.076151
535.199149	0.076532
535.414736	0.076798
535.630306	0.075872
535.845857	0.075704
536.061390	0.076103
536.276904	0.076448
536.492401	0.076760
536.707879	0.077489
536.923339	0.077424
537.138781	0.077345
537.354204	0.077291
537.569610	0.078017
537.784997	0.077769
538.000366	0.077132
538.215716	0.077151
538.431049	0.077184
538.646363	0.076828
538.861659	0.077007
539.076937	0.077551
539.292196	0.077562
539.507438	0.077538
539.722661	0.077994
539.937866	0.078598
540.153052	0.078634
540.368221	0.079157
540.583371	0.079484
540.798503	0.080049
541.013617	0.080062
541.228712	0.080078
541.443789	0.080088
541.658848	0.080011
541.873889	0.080277
542.088912	0.080446
542.303916	0.080567
542.518902	0.081147
542.733870	0.080944
542.948820	0.080563
543.163752	0.080668
543.378665	0.081102
543.593560	0.081349
543.808437	0.081121
544.023295	0.081603
544.238136	0.081783
544.452958	0.081294
544.667762	0.081556
544.882548	0.081994
545.097315	0.081892
545.312064	0.081623
545.526795	0.081806
545.741508	0.081937
545.956203	0.082161
546.170879	0.081725
546.385537	0.082162
546.600177	0.081948
546.814799	0.081739
547.029402	0.082284
547.243988	0.082959
547.458555	0.083214
547.673103	0.083354
547.887634	0.083711
548.102146	0.084407
548.316640	0.084465
548.531116	0.084874
548.745574	0.085510
548.960013	0.085434
549.174435	0.085314
549.388838	0.085133
549.603222	0.085275
549.817589	0.084927
550.031937	0.084459
550.246267	0.084711
550.460579	0.085012
550.674873	0.084766
550.889148	0.085125
551.103405	0.084705
551.317644	0.085141
551.531865	0.085172
551.746068	0.085415
551.960252	0.085956
552.174418	0.085967
552.388566	0.086088
552.602696	0.086613
552.816807	0.086823
553.030900	0.087113
553.244975	0.087595
553.459032	0.087754
553.673070	0.087520
553.887091	0.087735
554.101093	0.087638
554.315077	0.087213
554.529042	0.087138
554.742990	0.087116
554.956919	0.087535
555.170830	0.087043
555.384722	0.086767
555.598597	0.087039
555.812453	0.087034
556.026291	0.087291
556.240111	0.087779
556.453913	0.087903
556.667696	0.087915
556.881461	0.087735
557.095208	0.087716
557.308937	0.088363
557.522647	0.088297
557.736339	0.088329
557.950013	0.088410
558.163669	0.088250
558.377307	0.088196
558.590926	0.088001
558.804527	0.088239
559.018110	0.088540
559.231675	0.088718
559.445221	0.089150
559.658749	0.089323
559.872259	0.089694
560.085751	0.089754
560.299225	0.090075
560.512680	0.090600
560.726117	0.090454
560.939536	0.090565
561.152937	0.090439
561.366319	0.090383
561.579683	0.090295
561.793029	0.090042
562.006357	0.090449
562.219667	0.090555
562.432958	0.090406
562.646231	0.091017
562.859486	0.091225
563.072723	0.091509
563.285941	0.091581
563.499141	0.091803
563.712323	0.092274
563.925487	0.092370
564.138632	0.092143
564.351760	0.092266
564.564869	0.092216
564.777960	0.092344
564.991032	0.092101
565.204087	0.092395
565.417123	0.092499
565.630141	0.092249
565.843140	0.091995
566.056122	0.092125
566.269085	0.092239
566.482030	0.092106
566.694957	0.092137
566.907866	0.092242
567.120756	0.092309
567.333628	0.092425
567.546482	0.092465
567.759318	0.092701
567.972135	0.092965
568.184935	0.093296
568.397716	0.093714
568.610478	0.093437
568.823223	0.093730
569.035949	0.093739
569.248657	0.093763
569.461347	0.093923
569.674019	0.094078
569.886672	0.094325
570.099308	0.093985
570.311925	0.093930
570.524523	0.094104
570.737104	0.094410
570.949666	0.094303
571.162210	0.094111
571.374736	0.094626
571.587244	0.094571
571.799733	0.094470
572.012205	0.094397
572.224658	0.094428
572.437092	0.094621
572.649509	0.094558
572.861907	0.094803
573.074287	0.095073
573.286649	0.094647
573.498993	0.094673
573.711318	0.094901
573.923625	0.095150
574.135914	0.095015
574.348185	0.094901
574.560438	0.095081
574.772672	0.094885
574.984888	0.094971
575.197086	0.095490
575.409266	0.095803
575.621427	0.096142
575.833570	0.096422
576.045695	0.096498
576.257802	0.096946
576.469890	0.096862
576.681961	0.097320
576.894013	0.097897
577.106046	0.097726
577.318062	0.097454
577.530059	0.096971
577.742039	0.097096
577.954000	0.097568
578.165942	0.097417
578.377867	0.097268
578.589773	0.097063
578.801661	0.096391
579.013531	0.096175
579.225382	0.096447
579.437216	0.096963
579.649031	0.097207
579.860828	0.097205
580.072606	0.097386
580.284367	0.097587
580.496109	0.097892
580.707833	0.097998
580.919539	0.098330
581.131227	0.098474
581.342896	0.098512
581.554547	0.098461
581.766180	0.098261
581.977795	0.098349
582.189391	0.098526
582.400969	0.098620
582.612529	0.099067
582.824071	0.099209
583.035595	0.099533
583.247100	0.099504
583.458587	0.099638
583.670056	0.100056
583.881506	0.100191
584.092939	0.100337
584.304353	0.100247
584.515749	0.100065
584.727127	0.100293
584.938486	0.100341
585.149828	0.100375
585.361151	0.100149
585.572456	0.100410
585.783742	0.100457
585.995011	0.100553
586.206261	0.100952
586.417493	0.101229
586.628706	0.101328
586.839902	0.101456
587.051079	0.101596
587.262238	0.101694
587.473379	0.101449
587.684502	0.101617
587.895606	0.101659
588.106692	0.101621
588.317760	0.101937
588.528810	0.102002
588.739841	0.101881
588.950855	0.102091
589.161850	0.102660
589.372827	0.102942
589.583785	0.102847
589.794726	0.103072
590.005648	0.102878
590.216552	0.102707
590.427437	0.102585
590.638305	0.102898
590.849154	0.102719
591.059985	0.102775
591.270798	0.103119
591.481592	0.103457
591.692369	0.103608
591.903127	0.103914
592.113867	0.104012
592.324588	0.104250
592.535292	0.103886
592.745977	0.104165
592.956644	0.103851
593.167293	0.103665
593.377923	0.103435
593.588536	0.103415
593.799130	0.103609
594.009706	0.103885
594.220263	0.104020
594.430803	0.104492
594.641324	0.104601
594.851827	0.104746
595.062312	0.104597
595.272778	0.104807
595.483227	0.104993
595.693657	0.104911
595.904069	0.104975
596.114462	0.104828
596.324838	0.104910
596.535195	0.104962
596.745534	0.105020
596.955855	0.105147
597.166157	0.105513
597.376441	0.105388
597.586707	0.105895
597.796955	0.105603
598.007185	0.105326
598.217396	0.105061
598.427589	0.105172
598.637764	0.105804
598.847921	0.105992
599.058060	0.106008
599.268180	0.106326
599.478282	0.105736
599.688366	0.106047
599.898431	0.106455
600.108479	0.106819
600.318508	0.106847
600.528519	0.106361
600.738511	0.106429
600.948486	0.106475
601.158442	0.106619
601.368380	0.107071
601.578300	0.106957
601.788202	0.107028
601.998085	0.107160
602.207950	0.107420
602.417797	0.107923
602.627626	0.108082
602.837436	0.107990
603.047228	0.108029
603.257002	0.108022
603.466758	0.108242
603.676496	0.108563
603.886215	0.108896
604.095916	0.108675
604.305599	0.108650
604.515264	0.108753
604.724910	0.108984
604.934538	0.108735
605.144148	0.108817
605.353740	0.108946
605.563314	0.108903
605.772869	0.108785
605.982406	0.108821
606.191925	0.108684
606.401425	0.108687
606.610908	0.108899
606.820372	0.109218
607.029818	0.109160
607.239246	0.109359
607.448655	0.109428
607.658047	0.109673
607.867420	0.110042
608.076775	0.110587
608.286111	0.110706
608.495430	0.110488
608.704730	0.110397
608.914012	0.110495
609.123275	0.110508
609.332521	0.110708
609.541748	0.110640
609.750957	0.110374
609.960148	0.110231
610.169321	0.110404
610.378475	0.110370
610.587611	0.110900
610.796729	0.111341
611.005829	0.111622
611.214910	0.111864
611.423974	0.111820
611.633019	0.112273
611.842045	0.112347
612.051054	0.112514
612.260044	0.112915
612.469017	0.112532
612.677970	0.112349
612.886906	0.112035
613.095824	0.111956
613.304723	0.112062
613.513604	0.111922
613.722467	0.111721
613.931311	0.111597
614.140138	0.111592
614.348946	0.111735
614.557736	0.111711
614.766507	0.112003
614.975261	0.112018
615.183996	0.111842
615.392713	0.111959
615.601412	0.112085
615.810092	0.112152
616.018754	0.111899
616.227399	0.112025
616.436024	0.112185
616.644632	0.112128
616.853222	0.112305
617.061793	0.112490
617.270346	0.112612
617.478880	0.112932
617.687397	0.112823
617.895895	0.113260
618.104375	0.113470
618.312837	0.113488
618.521281	0.113844
618.729706	0.114047
618.938113	0.114334
619.146502	0.114466
619.354873	0.114459
619.563226	0.114636
619.771560	0.114448
619.979876	0.114589
620.188174	0.114940
620.396453	0.114701
620.604715	0.114800
620.812958	0.114678
621.021183	0.114698
621.229390	0.114698
621.437578	0.114908
621.645748	0.115060
621.853900	0.115050
622.062034	0.115067
622.270150	0.115108
622.478247	0.115118
622.686326	0.115386
622.894387	0.115372
623.102430	0.115611
623.310454	0.115547
623.518461	0.115867
623.726449	0.115772
623.934418	0.115889
624.142370	0.116179
624.350303	0.116282
624.558218	0.116396
624.766115	0.116514
624.973994	0.116484
625.181855	0.116777
625.389697	0.116764
625.597521	0.117096
625.805327	0.117167
626.013114	0.117157
626.220883	0.117451
626.428634	0.117399
626.636367	0.117720
626.844082	0.117641
627.051778	0.117557
627.259457	0.117535
627.467117	0.117437
627.674758	0.117474
627.882382	0.117536
628.089987	0.117243
628.297574	0.117323
628.505143	0.117218
628.712694	0.117456
628.920226	0.117305
629.127740	0.117632
629.335236	0.117612
629.542714	0.117677
629.750174	0.117647
629.957615	0.117806
630.165038	0.117948
630.372443	0.118038
630.579829	0.118056
630.787198	0.118335
630.994548	0.118271
631.201880	0.118457
631.409194	0.118604
631.616489	0.118830
631.823766	0.118970
632.031025	0.119114
632.238266	0.119287
632.445489	0.119349
632.652693	0.119643
632.859879	0.119666
633.067047	0.119672
633.274197	0.119668
633.481329	0.119823
633.688442	0.119991
633.895537	0.119791
634.102614	0.119715
634.309672	0.119634
634.516713	0.119647
634.723735	0.119753
634.930739	0.119936
635.137724	0.120003
635.344692	0.119964
635.551641	0.119846
635.758572	0.120163
635.965485	0.120119
636.172379	0.120408
636.379256	0.120454
636.586114	0.120383
636.792954	0.120250
636.999775	0.120223
637.206579	0.120235
637.413364	0.120048
637.620131	0.119859
637.826880	0.120092
638.033610	0.120169
638.240323	0.119895
638.447017	0.120127
638.653692	0.120387
638.860350	0.120578
639.066990	0.120705
639.273611	0.120865
639.480214	0.121118
639.686798	0.121050
639.893365	0.121293
640.099913	0.121565
640.306443	0.121678
640.512955	0.121640
640.719449	0.121900
640.925924	0.122253
641.132381	0.122661
641.338820	0.122673
641.545241	0.122804
641.751644	0.122540
641.958028	0.122701
642.164394	0.122636
642.370742	0.122761
642.577071	0.122583
642.783383	0.122346
642.989676	0.122269
643.195951	0.122252
643.402207	0.122266
643.608446	0.122463
643.814666	0.122670
644.020868	0.122940
644.227052	0.123064
644.433218	0.123126
644.639365	0.123296
644.845494	0.123647
645.051605	0.123982
645.257698	0.124352
645.463772	0.124645
645.669828	0.124691
645.875866	0.124490
646.081886	0.124556
646.287888	0.124733
646.493871	0.124799
646.699836	0.124595
646.905783	0.124753
647.111712	0.124896
647.317622	0.124862
647.523514	0.125050
647.729388	0.125386
647.935244	0.125466
648.141082	0.125521
648.346901	0.125708
648.552702	0.125773
648.758485	0.125948
648.964250	0.125916
649.169996	0.125985
649.375724	0.125931
649.581434	0.125743
649.787126	0.125972
649.992800	0.125974
650.198455	0.126077
650.404092	0.126124
650.609711	0.126067
650.815311	0.126197
651.020894	0.126251
651.226458	0.126158
651.432004	0.126656
651.637532	0.126603
651.843041	0.126637
652.048532	0.126621
652.254006	0.126801
652.459460	0.126689
652.664897	0.126795
652.870315	0.126981
653.075716	0.127351
653.281097	0.127511
653.486461	0.127724
653.691807	0.128069
653.897134	0.128425
654.102443	0.128586
654.307734	0.128880
654.513006	0.129034
654.718261	0.129211
654.923497	0.129214
655.128715	0.129315
655.333915	0.129313
655.539096	0.129405
655.744259	0.129287
655.949404	0.129297
656.154531	0.129230
656.359640	0.129193
656.564730	0.129115
656.769802	0.129106
656.974856	0.128852
657.179892	0.129010
657.384909	0.129011
657.589908	0.129275
657.794889	0.129333
657.999852	0.129521
658.204797	0.129654
658.409723	0.129802
658.614631	0.130027
658.819521	0.130091
659.024393	0.130088
659.229246	0.130252
659.434081	0.130176
659.638898	0.130504
659.843697	0.130659
660.048478	0.130742
660.253240	0.130781
660.457984	0.130774
660.662710	0.131032
660.867417	0.131228
661.072107	0.131328
661.276778	0.131594
661.481431	0.131532
661.686066	0.131599
661.890682	0.131631
662.095281	0.131931
662.299861	0.132111
662.504422	0.132320
662.708966	0.132553
662.913491	0.132740
663.117999	0.132681
663.322488	0.132920
663.526958	0.133028
663.731411	0.133163
663.935845	0.133164
664.140261	0.133201
664.344659	0.133217
664.549038	0.133307
664.753400	0.133226
664.957743	0.133413
665.162068	0.133465
665.366375	0.133499
665.570663	0.133622
665.774933	0.133581
665.979185	0.133891
666.183419	0.134094
666.387635	0.134181
666.591832	0.134372
666.796011	0.134414
667.000172	0.134579
667.204315	0.134845
667.408439	0.135138
667.612545	0.135508
667.816634	0.135568
668.020703	0.135609
668.224755	0.135568
668.428788	0.135748
668.632803	0.136053
668.836800	0.136191
669.040779	0.136367
669.244739	0.136283
669.448681	0.136337
669.652605	0.136567
669.856511	0.136589
670.060399	0.136679
670.264268	0.136761
670.468119	0.136489
670.671952	0.136466
670.875767	0.136391
671.079563	0.136627
671.283341	0.136603
671.487101	0.136599
671.690843	0.136775
671.894567	0.136873
672.098272	0.137030
672.301959	0.137430
672.505628	0.137569
672.709278	0.137737
672.912911	0.137759
673.116525	0.138107
673.320121	0.138316
673.523699	0.138474
673.727258	0.138520
673.930799	0.138441
674.134322	0.138612
674.337827	0.138790
674.541314	0.138943
674.744782	0.139145
674.948232	0.139163
675.151664	0.139148
675.355078	0.139241
675.558474	0.139629
675.761851	0.139785
675.965210	0.139857
676.168551	0.139817
676.371873	0.139957
676.575178	0.139801
676.778464	0.139846
676.981732	0.139925
677.184981	0.139959
677.388213	0.140034
677.591426	0.140182
677.794621	0.140217
677.997798	0.140394
678.200956	0.140422
678.404097	0.140598
678.607219	0.140522
678.810323	0.140600
679.013408	0.140959
679.216476	0.141010
679.419525	0.141096
679.622556	0.141246
679.825569	0.141448
680.028563	0.141578
680.231540	0.141937
680.434498	0.142080
680.637438	0.142283
680.840359	0.142070
681.043263	0.142191
681.246148	0.142369
681.449015	0.142533
681.651864	0.142615
681.854694	0.142858
682.057506	0.142982
682.260301	0.143448
682.463076	0.143757
682.665834	0.143945
682.868573	0.144329
683.071295	0.144336
683.273998	0.144481
683.476682	0.144369
683.679349	0.144434
683.881997	0.144278
684.084627	0.144206
684.287239	0.143952
684.489833	0.144049
684.692408	0.143946
684.894965	0.144311
685.097504	0.144424
685.300025	0.144645
685.502527	0.144780
685.705012	0.145105
685.907478	0.145124
686.109925	0.145266
686.312355	0.145515
686.514766	0.145445
686.717159	0.145265
686.919534	0.145188
687.121891	0.145321
687.324230	0.145460
687.526550	0.145401
687.728852	0.145712
687.931136	0.145857
688.133401	0.145935
688.335649	0.146116
688.537878	0.146349
688.740089	0.146505
688.942281	0.146654
689.144456	0.146618
689.346612	0.146861
689.548750	0.146687
689.750870	0.146812
689.952971	0.146800
690.155055	0.146859
690.357120	0.146920
690.559167	0.146967
690.761195	0.146939
690.963206	0.147163
691.165198	0.147247
691.367172	0.147489
691.569128	0.147644
691.771065	0.147816
691.972984	0.147924
692.174885	0.148102
692.376768	0.148237
692.578633	0.148304
692.780479	0.148309
692.982308	0.148433
693.184118	0.148435
693.385909	0.148562
