sample name	sample
index	72
start time	 02-11-2021  03:45:35 PM
880	0.448353
Peak Time (s)	92.035
Peak Height 	0.4484
calc peak height	90,93
Baseline Time (s)	10.037
Baseline Value 	-0.005292
subtract baseline	10,4
Abs	0.301267
Peak Time (s)	90.537
Peak Height 	0.3013
calc peak height	90,93
Baseline Time (s)	10.037
Baseline Value 	0.006269
subtract baseline	10,3
PK_550	0.152155
Peak Time (s)	92.035
Peak Height 	0.1522
calc peak height	90,93
Baseline Time (s)	11.036
Baseline Value 	-8.5516E-5
subtract baseline	10,2
PK_880	0.299771
Peak Time (s)	91.535
Peak Height 	0.2998
calc peak height	90,93
Baseline Time (s)	11.536
Baseline Value 	0.003276
subtract baseline	10,1


Time (s)	A880-A510	A880-A775	A880-A975	A880	I510	I775	I975	I880	
0.034500	-0.003631	-0.000203	-0.003474	0.001619	4515.131653	19583.150597	3301.388106	10770.098698
0.538000	-0.006241	0.000041	0.005833	0.005543	4491.535461	19442.719412	3306.129123	10699.572651
1.035000	-0.004334	-0.001557	-0.003718	0.002609	4508.988700	19493.602865	3300.310404	10752.260405
1.536000	-0.002420	-0.000657	-0.000115	0.000876	4522.263813	19594.285101	3304.995751	10783.542633
2.036000	-0.000708	-0.000127	0.000719	0.001458	4526.396929	19592.275284	3305.218738	10773.022865
2.536000	-0.004978	-0.000091	-0.012021	0.003873	4502.088217	19501.302725	3292.051754	10729.522548
3.036000	-0.003074	-0.000546	0.000452	0.001339	4518.182230	19580.758728	3305.087328	10775.164877
3.537000	0.000380	-0.000446	-0.003051	-0.000085	4536.067546	19639.274767	3303.253872	10800.930619
4.036500	-0.002422	0.000651	0.005572	0.001081	4521.503713	19636.586155	3309.869589	10779.818921
4.537000	-0.000962	-0.001086	-0.000003	0.002041	4523.334296	19533.230982	3304.066052	10762.495878
5.037500	0.000142	0.000094	-0.002576	0.001746	4528.459781	19589.696170	3302.063695	10767.819460
5.535000	-0.000009	0.001303	0.000958	0.000994	4530.663200	19665.055360	3305.840086	10781.397460
6.035500	0.001792	-0.000342	0.004320	0.000510	4539.081066	19620.384940	3309.260565	10790.152370
6.535500	0.005123	0.000668	-0.005839	0.001477	4547.840345	19622.061264	3299.447357	10772.675826
7.036000	-0.000562	-0.000139	0.004507	0.000501	4530.445951	19628.555971	3309.436301	10790.322025
7.536500	0.001428	-0.000991	-0.012771	-0.000327	4540.829582	19627.595026	3295.008442	10805.313788
8.074500	0.000326	0.001486	0.003923	0.001701	4529.300318	19644.884774	3307.845146	10768.634793
8.536000	-0.003674	-0.001135	0.002595	-0.000189	4521.569426	19616.796011	3308.345378	10802.824828
9.037000	-0.001274	-0.000466	0.001866	-0.000325	4530.861229	19647.704344	3307.816520	10805.280006
9.537500	-0.003909	-0.001672	0.004699	-0.000668	4522.460804	19614.535869	3310.653900	10811.501675
10.037500	0.002626	0.000515	0.000000	0.000000	4544.055312	19672.994888	3305.872018	10799.393408
10.535000	0.002938	0.000690	-0.001752	0.000661	4542.763775	19654.301828	3303.741108	10787.429592
11.035500	0.000346	0.000000	-0.002113	0.000323	4534.440921	19640.744327	3303.720968	10793.549253
11.535500	0.000000	0.001341	-0.000507	0.000475	4532.606435	19686.544351	3305.003480	10790.793175
12.036000	0.000657	-0.000323	-0.006502	-0.000125	4537.234376	19645.507026	3300.265700	10801.651894
12.536000	-0.002306	0.000316	-0.008453	-0.000087	4526.202012	19668.657876	3298.533823	10800.965393
13.037000	-0.001211	0.000706	-0.002672	0.001538	4524.259914	19621.147342	3302.162037	10771.569942
13.537000	-0.002529	0.000445	-0.000931	0.000680	4522.576074	19644.107651	3304.447423	10787.073197
14.037000	-0.002452	-0.000600	0.000629	0.001957	4518.197299	19555.021147	3304.698142	10764.008603
14.540000	-0.002346	0.000119	0.005234	0.002885	4515.204481	19547.046352	3307.958224	10747.290002
15.035500	0.001876	0.000009	0.003961	0.001644	4535.207888	19590.324080	3307.929218	10769.650919
15.536500	0.002327	0.001548	-0.001846	0.001385	4537.827870	19659.450663	3303.021555	10774.333689
16.035000	-0.000162	0.000655	0.002485	0.000999	4530.083689	19639.923935	3307.190145	10781.309146
16.536000	0.001271	0.000398	-0.010497	0.001837	4532.270260	19597.881556	3295.103342	10766.175071
17.036000	0.001202	0.000345	-0.009545	0.000051	4538.597456	19664.452627	3297.467532	10798.464970
17.536500	0.002440	0.001683	0.006867	0.001491	4537.853316	19660.560565	3310.662541	10772.417613
18.036500	-0.001929	0.001040	-0.000694	0.001536	4521.642502	19634.097936	3303.902642	10771.611362
18.536500	-0.003222	0.000206	-0.006398	0.001525	4516.966140	19602.482224	3298.919996	10771.809443
19.043000	0.000617	0.001072	-0.007787	0.002363	4527.937237	19603.564843	3296.987664	10756.689055
19.538000	0.000721	0.000718	-0.007379	0.002362	4528.320993	19590.014758	3297.341993	10756.704728
20.034500	0.001551	0.001051	-0.002706	0.002470	4530.974869	19598.645953	3301.315602	10754.758178
20.535500	-0.001555	0.000342	-0.004045	0.001555	4522.942487	19606.530001	3300.944370	10771.263842
21.035500	-0.000736	0.001244	0.006779	0.002946	4520.849644	19587.792244	3309.281756	10746.187846
21.538500	-0.002299	-0.000695	-0.001654	0.001190	4521.555246	19580.761346	3303.361390	10777.849932
22.036500	0.000116	0.001954	-0.010342	0.002653	4525.038740	19626.273691	3294.534737	10751.459386
22.539500	0.000150	0.000399	0.001106	0.001647	4528.850058	19605.180559	3305.392976	10769.595478
23.036000	-0.001067	0.000163	-0.010181	0.001950	4523.283455	19584.546456	3295.278027	10764.140116
23.537000	-0.003067	-0.000435	-0.006960	0.000795	4520.193796	19605.891269	3299.065676	10784.999978
24.035000	0.001061	0.000871	0.008786	0.002272	4529.898357	19599.331414	3311.684196	10758.325471
24.537500	-0.002933	0.000653	-0.002009	0.001584	4517.803663	19617.343738	3302.703376	10770.738182
25.047000	-0.000660	0.000161	-0.004343	0.001180	4527.590390	19613.969629	3301.011469	10778.032372
25.550000	0.002442	-0.000550	0.010632	0.001582	4537.522526	19571.293956	3313.970253	10770.769076
26.050000	-0.001301	0.000219	0.003634	0.001243	4525.012207	19613.776616	3307.995715	10776.900407
26.545000	0.000329	-0.000285	0.007894	0.001448	4530.235817	19586.584252	3311.622811	10773.188579
27.064000	0.001431	0.001083	-0.005716	0.001159	4535.358930	19650.256084	3299.832257	10778.421105
27.599500	0.003188	0.000823	-0.004306	-0.000655	4548.568329	19710.131343	3302.651752	10811.267375
28.054500	0.000916	0.000593	-0.000763	0.000363	4536.394037	19662.007291	3304.876064	10792.820432
28.540000	-0.004395	0.001032	0.012440	0.001223	4513.796835	19645.825247	3315.934895	10777.261285
29.034500	-0.001757	0.000855	0.006136	0.000392	4526.458739	19670.987910	3310.991927	10792.284125
29.557500	-0.002708	0.000480	-0.004758	0.000316	4523.254946	19659.471665	3301.404787	10793.666177
30.035500	0.000909	-0.000488	-0.008455	-0.000116	4538.135685	19638.861092	3298.558163	10801.499684
30.535000	-0.002758	0.000702	0.013673	0.001656	4518.180006	19616.486157	3316.662779	10769.446910
31.035500	0.001501	0.000083	-0.009038	0.002639	4530.167732	19555.061119	3295.669469	10751.712848
31.536500	0.001568	0.002057	-0.001033	0.004034	4525.299962	19577.260857	3301.411173	10726.629872
32.036500	0.000320	0.000046	-0.002738	-0.000087	4535.855930	19658.264845	3303.531410	10800.973574
32.537000	0.000498	0.000034	-0.004001	0.001231	4531.656952	19607.133447	3301.265940	10777.110854
33.039500	0.000105	0.002031	0.007935	0.000967	4531.183768	19694.173715	3312.093143	10781.896953
33.537500	0.002503	0.001288	0.011055	0.001033	4539.776985	19662.991765	3314.850359	10780.694057
34.035000	-0.000563	0.000369	-0.007844	0.002216	4524.148745	19582.194175	3297.065350	10759.329744
34.535000	-0.000128	0.000332	0.002917	0.002103	4526.160065	19585.134083	3306.593963	10761.381303
35.042000	0.001667	0.000803	0.001046	0.003132	4528.968046	19563.752282	3304.029163	10742.835903
35.547000	-0.000334	0.000509	-0.000620	0.002838	4522.715505	19563.762573	3302.822082	10748.131898
36.044500	-0.000040	0.001913	-0.008934	0.003605	4520.985616	19588.152653	3294.927004	10734.332049
36.569000	-0.001737	0.000312	-0.011835	0.002399	4519.191941	19573.013384	3293.471080	10756.034441
37.036500	0.000236	0.001119	0.000526	0.003282	4523.173472	19570.081295	3303.438920	10740.133189
37.537000	0.002955	0.001814	0.017033	0.003969	4530.624217	19570.404644	3317.616887	10727.787798
38.040500	0.000774	-0.000535	-0.003812	0.002222	4529.030201	19547.378910	3300.565322	10759.230447
38.534500	0.000825	0.001022	-0.001072	0.003404	4524.884832	19561.726682	3301.929135	10737.952042
39.035000	0.000714	0.001009	-0.011539	0.003300	4524.860326	19565.226493	3292.953497	10739.823659
39.535000	0.001868	0.001476	0.008200	0.003113	4529.777405	19590.264735	3310.403784	10743.181827
40.035500	-0.001730	0.000291	0.005042	0.002910	4517.355923	19552.655206	3307.764155	10746.830369
40.536000	0.000430	0.001968	0.016614	0.003797	4522.000910	19582.929569	3317.391266	10730.888180
41.036500	0.001210	0.001839	0.003395	0.005227	4519.624660	19523.250215	3304.252460	10705.227478
41.536500	0.000042	0.000946	-0.000589	0.003676	4521.026576	19548.415807	3302.113959	10733.059788
42.037000	-0.001061	0.000589	-0.007883	0.002512	4521.247778	19579.304219	3296.775866	10754.003756
42.537500	0.001389	0.000304	-0.014373	0.002617	4529.839067	19564.383744	3291.117407	10752.113701
43.037500	-0.002300	-0.000512	-0.003215	0.002563	4516.543055	19535.193026	3300.788551	10753.072881
43.537500	-0.001737	0.001010	-0.001178	0.003090	4516.672999	19573.264552	3302.110878	10743.587316
44.035000	0.003465	0.001179	0.013914	-0.001695	4553.472513	19764.171282	3319.945772	10830.175395
44.538000	-0.003334	0.000659	0.004076	0.000787	4519.245599	19648.219021	3308.795054	10785.138020
45.035500	0.001207	0.001063	-0.004564	0.004153	4523.541614	19534.656743	3298.229448	10724.490930
45.536000	-0.000167	-0.001061	-0.002337	0.000184	4533.064451	19605.309447	3303.646364	10796.064386
46.036000	0.001930	0.002970	-0.005855	0.002458	4532.409740	19672.858181	3298.580627	10754.969855
46.536500	0.001926	0.002119	-0.004104	0.001957	4534.242645	19659.407413	3300.541964	10764.015882
47.037000	-0.002814	-0.000300	0.000335	0.003221	4512.279402	19518.162502	3303.324190	10741.228212
47.573000	0.000413	-0.000215	-0.001960	0.002088	4528.197916	19564.754297	3302.304499	10761.646192
48.037000	-0.002108	-0.000070	0.000118	0.001390	4521.524811	19597.088081	3304.747356	10774.250186
48.534500	0.000840	0.000889	-0.014501	0.000981	4533.836606	19649.632276	3292.403827	10781.638801
49.035500	0.000743	-0.000127	0.000222	0.002491	4527.930271	19552.685931	3303.868008	10754.377809
49.535500	0.000472	-0.000021	0.003908	0.000567	4534.004891	19630.554581	3308.841703	10789.123673
50.063500	-0.001550	0.001240	0.003557	-0.001457	4534.011166	19757.279875	3310.337821	10825.845652
50.542500	0.002693	0.000362	0.001114	0.001178	4539.943985	19621.788600	3305.814989	10778.071447
51.036500	-0.017731	-0.019777	0.014294	0.223202	3853.276386	12490.379470	3159.015100	7636.452033
51.536000	-0.026758	-0.012057	0.004853	0.027957	4345.011337	18181.803048	3285.946408	10308.693752
52.040000	0.008010	-0.007526	0.007774	-0.143251	5200.794729	25785.691438	3465.813191	13874.886883
52.540000	0.005270	-0.008331	0.005633	-0.121565	5076.869882	24632.569947	3436.742904	13341.729531
53.034500	-0.007074	-0.011378	0.004764	-0.085952	4852.923455	22784.706818	3395.211259	12521.909785
53.535000	-0.003936	-0.009256	0.008631	-0.081157	4845.620392	22662.938792	3394.199674	12416.580813
54.054500	-0.000015	-0.008835	0.009416	-0.104607	4969.925090	23777.534416	3421.341623	12942.970590
54.535500	0.005097	-0.006907	0.017290	-0.060152	4793.660685	21833.475296	3380.945468	11968.608553
55.036000	0.005902	-0.003974	0.021298	-0.038852	4707.981389	21051.028915	3363.003504	11535.959361
55.587500	0.006622	-0.004695	0.018997	-0.015633	4618.457968	20079.536701	3337.794867	11087.875232
56.040500	0.012350	-0.007119	0.022586	-0.012659	4629.167250	19867.757665	3338.384732	11032.179358
56.537000	0.019658	-0.004081	0.025163	-0.001089	4612.622138	19538.383185	3329.836753	10819.156201
57.037000	0.023827	-0.003719	0.031633	0.014218	4570.138725	18976.803339	3321.606952	10545.887082
57.537500	0.027616	-0.003927	0.028697	0.028306	4531.813380	18457.402122	3306.218152	10302.769913
58.043000	0.029696	-0.004109	0.052877	0.042107	4489.289155	17965.640069	3315.528581	10072.119842
58.535000	0.037870	-0.002092	0.041711	0.053575	4477.543383	17642.128211	3295.508227	9885.963170
59.035500	0.041194	-0.002843	0.051571	0.073225	4420.627761	16967.323425	3287.165952	9578.192714
59.535500	0.058721	0.003496	0.058474	0.095245	4405.336389	16469.789626	3274.649700	9249.456483
60.036500	0.068354	0.007016	0.086841	0.121139	4351.293473	15790.250229	3276.667911	8883.614353
60.536000	0.090492	0.017988	0.090980	0.152027	4323.039250	15214.129928	3255.439270	8474.801866
61.037000	0.115587	0.028240	0.126141	0.183881	4301.601614	14618.408247	3257.993329	8082.573581
61.539500	0.128354	0.035853	0.148642	0.212070	4253.915788	14077.845416	3253.611822	7758.676119
62.037500	0.147726	0.046892	0.157663	0.245509	4211.875668	13517.802660	3235.442740	7400.748172
62.534500	0.162733	0.054219	0.161767	0.251875	4237.538566	13541.238991	3233.810634	7335.679625
63.035000	0.171851	0.063273	0.173633	0.269222	4213.088991	13340.690590	3229.891644	7163.125050
63.537500	0.181449	0.069340	0.187216	0.280992	4206.710212	13204.944669	3231.181971	7049.907313
64.035500	0.189658	0.074640	0.177678	0.292259	4197.783735	13064.816929	3216.685962	6944.361609
64.536000	0.202512	0.084354	0.213138	0.306268	4194.429791	12965.155568	3231.643059	6816.896451
65.036000	0.213263	0.092774	0.207297	0.321901	4180.349913	12799.985046	3216.670866	6679.431592
65.536000	0.214551	0.093044	0.220687	0.322804	4181.456119	12785.609899	3225.286995	6671.637671
66.039000	0.222610	0.098889	0.233374	0.335632	4167.841571	12628.532459	3225.188721	6562.703928
66.536500	0.229236	0.103176	0.224582	0.339001	4177.122356	12649.032197	3216.796337	6534.617285
67.037500	0.236092	0.108107	0.234801	0.345273	4178.796265	12619.114489	3219.494647	6482.921560
67.535000	0.242351	0.113966	0.241387	0.353844	4172.189910	12558.833521	3218.134450	6413.468097
68.035000	0.248051	0.116392	0.241393	0.362850	4162.806850	12414.144078	3212.046008	6341.947913
68.535500	0.255247	0.121160	0.260443	0.365300	4176.300644	12464.873556	3223.374717	6322.745585
69.036000	0.257061	0.123056	0.248681	0.367836	4174.237989	12450.830438	3213.591254	6302.985259
69.535000	0.257845	0.124176	0.252138	0.372047	4164.495976	12383.368002	3213.084567	6270.429058
70.036000	0.256477	0.129124	0.255563	0.380194	4137.846836	12314.032000	3209.928990	6208.325494
70.536500	0.262770	0.129330	0.257633	0.378657	4159.733595	12351.752657	3212.336163	6219.950604
71.040000	0.264667	0.132836	0.262223	0.387407	4140.556494	12238.726881	3209.561373	6154.301139
71.537500	0.267169	0.133119	0.260868	0.385522	4152.796302	12285.281104	3209.913067	6168.332218
72.035000	0.271223	0.136779	0.266596	0.394632	4138.700960	12168.722301	3207.674864	6101.088207
72.535000	0.277495	0.140687	0.271272	0.395828	4152.855790	12226.546343	3209.978651	6092.367322
73.035500	0.275809	0.141500	0.280738	0.401814	4131.524234	12116.549795	3212.300927	6049.056602
73.535500	0.276827	0.139980	0.289808	0.398255	4144.204073	12159.751497	3220.888136	6074.734389
74.035500	0.283531	0.144355	0.277406	0.403627	4147.921812	12138.605447	3208.874354	6036.062042
74.536000	0.280766	0.143965	0.264994	0.404294	4138.372937	12116.246058	3200.342228	6031.293601
75.036500	0.280568	0.145977	0.290116	0.410713	4120.172939	12023.562512	3212.622274	5985.773337
75.537000	0.283588	0.147219	0.291723	0.410252	4129.711290	12059.260223	3214.012819	5989.015428
76.037000	0.289105	0.146336	0.280719	0.410511	4144.265686	12035.302678	3206.518804	5987.195762
76.537000	0.286608	0.148510	0.281602	0.412917	4130.689923	12030.456684	3205.520440	5970.299502
77.039000	0.285224	0.147379	0.302255	0.414555	4122.395529	11972.649506	3218.241812	5958.846965
77.535000	0.284477	0.148128	0.280495	0.415999	4116.421750	11958.214521	3202.791851	5948.791854
78.035500	0.286057	0.149652	0.294427	0.417812	4115.786259	11952.186774	3210.758160	5936.206449
78.535500	0.290928	0.149770	0.285570	0.421101	4120.097344	11886.621764	3202.774568	5913.520964
79.036000	0.283911	0.145661	0.304359	0.418936	4106.928855	11846.654405	3216.689422	5928.436984
79.536500	0.290513	0.150023	0.283559	0.422553	4115.011633	11861.948015	3200.538844	5903.554320
80.036500	0.289504	0.149339	0.295331	0.423821	4108.840666	11821.920286	3207.375533	5894.884691
80.558000	0.289558	0.150136	0.288895	0.425805	4103.635683	11797.665229	3201.882137	5881.365976
81.037500	0.290824	0.148819	0.284374	0.426066	4106.342031	11765.536122	3198.809222	5879.588904
81.537500	0.292826	0.150873	0.293768	0.425484	4113.331153	11819.267728	3205.257551	5883.544564
82.035000	0.292637	0.150536	0.282814	0.431898	4095.550928	11682.272377	3194.125682	5840.231981
82.535500	0.293524	0.151130	0.292245	0.428547	4106.932066	11762.071834	3202.274784	5862.777079
83.036000	0.293434	0.149384	0.294288	0.427400	4109.787233	11749.895287	3204.346185	5870.536440
83.536000	0.290993	0.148823	0.309393	0.429410	4097.807561	11697.902592	3213.011752	5856.956088
84.036500	0.288512	0.148728	0.293546	0.432905	4081.914887	11625.765459	3200.303687	5833.483843
84.536500	0.293494	0.149577	0.299098	0.430056	4102.786302	11700.075886	3205.754323	5852.605136
85.039500	0.294199	0.154092	0.309333	0.433136	4096.416910	11729.069619	3210.480089	5831.942782
85.537000	0.290904	0.150523	0.293040	0.432663	4088.894375	11666.620116	3200.134561	5835.106152
86.037500	0.288633	0.153336	0.289792	0.441411	4059.980252	11548.135616	3192.537453	5777.148241
86.534500	0.294573	0.147732	0.299867	0.432529	4099.043266	11613.388923	3204.640111	5836.003849
87.034000	0.287810	0.151835	0.301175	0.440563	4060.043446	11535.195039	3200.285578	5782.716045
87.535000	0.296237	0.152616	0.305671	0.437743	4089.565342	11606.790414	3205.025544	5801.308791
88.038500	0.294033	0.152452	0.302662	0.444030	4067.206584	11478.949286	3199.016131	5760.021806
88.535500	0.299761	0.153688	0.294993	0.439907	4093.187030	11585.014458	3196.758097	5787.031413
89.036000	0.296328	0.152255	0.271971	0.444262	4072.597837	11470.516797	3179.927954	5758.507547
89.539000	0.292897	0.150016	0.293445	0.438701	4078.191269	11536.035169	3196.540894	5794.974261
90.037000	0.293281	0.150435	0.292613	0.445285	4061.986482	11414.847171	3191.880645	5751.854314
90.537000	0.295333	0.151799	0.301267	0.440189	4080.693757	11541.900812	3200.585200	5785.174866
91.040500	0.296774	0.151858	0.294610	0.442139	4079.350737	11504.509345	3195.104130	5772.378716
91.534500	0.299771	0.152153	0.300953	0.442725	4085.722747	11498.783339	3198.758355	5768.546145
92.035000	0.297138	0.152155	0.283673	0.448353	4064.035846	11388.563749	3184.501119	5731.979323
92.535500	0.297639	0.149495	0.290913	0.442262	4081.306274	11455.586984	3192.706045	5771.569188
93.036000	0.296390	0.151570	0.305127	0.444606	4071.862095	11450.322499	3200.227120	5756.271172
93.536000	0.299356	0.152003	0.309187	0.445219	4078.038152	11446.794031	3202.449917	5752.280677
94.036000	0.299808	0.151162	0.313319	0.445237	4079.181513	11429.992702	3205.126520	5752.167243
94.539500	0.302327	0.151953	0.306876	0.446924	4081.375001	11412.479399	3199.861981	5741.219217
95.036500	0.300790	0.150706	0.310650	0.445835	4080.193596	11409.402326	3202.998916	5748.281338
95.534000	0.298107	0.152742	0.310670	0.448128	4067.145367	11404.378791	3201.528343	5733.433689
96.045500	0.303796	0.150848	0.298407	0.447906	4082.661597	11371.842840	3193.864446	5734.863783
96.537500	0.295000	0.150930	0.308731	0.446835	4062.423500	11394.259706	3201.111357	5741.793697
