sample name	sample
index	1157
start time	 04-22-2021  03:51:23 PM


Wavelength (nm)	Absorbance
494.344910	0.824413
494.563924	0.824413
494.782919	0.824413
495.001897	0.136605
495.220856	0.405227
495.439797	0.368831
495.658719	0.390580
495.877624	0.244874
496.096510	0.249798
496.315378	0.338033
496.534227	0.084047
496.753059	-0.050697
496.971872	0.087522
497.190667	0.160777
497.409444	0.158980
497.628203	0.160238
497.846943	0.158932
498.065665	0.160205
498.284369	0.159698
498.503055	0.161239
498.721723	0.161096
498.940372	0.160511
499.159003	0.160515
499.377616	0.162773
499.596210	0.162144
499.814787	0.162332
500.033345	0.161538
500.251885	0.161296
500.470406	0.159174
500.688910	0.159287
500.907395	0.159957
501.125862	0.161092
501.344311	0.159943
501.562742	0.160192
501.781154	0.161464
501.999548	0.162757
502.217924	0.163244
502.436282	0.163828
502.654621	0.164742
502.872942	0.164329
503.091245	0.162514
503.309530	0.162431
503.527797	0.162364
503.746045	0.162200
503.964275	0.160725
504.182487	0.161321
504.400681	0.163073
504.618856	0.162815
504.837013	0.163363
505.055152	0.164561
505.273273	0.164990
505.491376	0.165626
505.709460	0.164797
505.927526	0.165521
506.145574	0.165137
506.363604	0.164831
506.581615	0.164715
506.799608	0.164591
507.017583	0.165297
507.235540	0.165427
507.453478	0.166051
507.671399	0.166063
507.889301	0.168007
508.107185	0.167492
508.325050	0.167850
508.542898	0.168692
508.760727	0.168991
508.978538	0.168645
509.196330	0.168546
509.414105	0.168430
509.631861	0.169410
509.849599	0.167845
510.067319	0.168831
510.285021	0.169137
510.502704	0.169166
510.720369	0.169086
510.938016	0.169135
511.155645	0.169347
511.373255	0.169248
511.590848	0.169674
511.808422	0.170107
512.025977	0.170757
512.243515	0.170517
512.461034	0.171441
512.678536	0.171698
512.896018	0.171216
513.113483	0.170853
513.330930	0.170754
513.548358	0.170322
513.765768	0.170800
513.983160	0.170878
514.200533	0.170838
514.417889	0.170176
514.635226	0.170996
514.852545	0.172012
515.069845	0.173778
515.287128	0.173960
515.504392	0.174190
515.721638	0.174259
515.938866	0.173764
516.156075	0.174744
516.373267	0.175653
516.590440	0.175991
516.807594	0.176612
517.024731	0.176449
517.241850	0.177294
517.458950	0.178076
517.676032	0.178881
517.893095	0.179779
518.110141	0.179519
518.327168	0.179078
518.544177	0.179854
518.761168	0.179637
518.978141	0.179342
519.195095	0.179265
519.412031	0.179016
519.628949	0.178384
519.845849	0.177768
520.062731	0.178055
520.279594	0.179170
520.496439	0.179435
520.713266	0.180182
520.930074	0.180268
521.146865	0.180728
521.363637	0.182033
521.580391	0.182350
521.797127	0.183298
522.013844	0.183289
522.230543	0.182207
522.447224	0.181643
522.663887	0.181781
522.880532	0.182131
523.097158	0.182494
523.313766	0.182019
523.530356	0.183143
523.746928	0.183309
523.963481	0.183801
524.180017	0.184689
524.396534	0.185584
524.613032	0.185841
524.829513	0.185370
525.045975	0.185538
525.262420	0.186501
525.478845	0.186973
525.695253	0.187377
525.911643	0.187382
526.128014	0.187966
526.344367	0.187147
526.560702	0.187356
526.777018	0.188979
526.993316	0.190105
527.209597	0.190129
527.425858	0.189867
527.642102	0.190616
527.858328	0.192040
528.074535	0.192393
528.290724	0.194086
528.506894	0.194998
528.723047	0.195874
528.939181	0.195219
529.155297	0.195628
529.371395	0.195237
529.587475	0.195835
529.803536	0.195736
530.019579	0.196091
530.235604	0.196785
530.451611	0.196554
530.667600	0.196163
530.883570	0.196418
531.099522	0.195934
531.315456	0.197698
531.531372	0.197442
531.747269	0.197703
531.963148	0.198588
532.179009	0.197808
532.394852	0.197622
532.610676	0.197911
532.826482	0.198779
533.042271	0.199760
533.258040	0.199073
533.473792	0.199202
533.689525	0.199641
533.905240	0.199074
534.120937	0.199636
534.336616	0.200646
534.552277	0.201450
534.767919	0.201607
534.983543	0.201579
535.199149	0.202246
535.414736	0.203456
535.630306	0.203427
535.845857	0.203750
536.061390	0.204240
536.276904	0.204581
536.492401	0.204176
536.707879	0.204561
536.923339	0.205343
537.138781	0.205312
537.354204	0.205021
537.569610	0.206300
537.784997	0.207413
538.000366	0.207624
538.215716	0.207976
538.431049	0.208322
538.646363	0.208514
538.861659	0.209531
539.076937	0.210449
539.292196	0.210737
539.507438	0.210785
539.722661	0.210602
539.937866	0.210980
540.153052	0.210965
540.368221	0.211766
540.583371	0.212328
540.798503	0.211660
541.013617	0.211908
541.228712	0.212237
541.443789	0.212260
541.658848	0.212782
541.873889	0.213448
542.088912	0.214120
542.303916	0.214384
542.518902	0.214662
542.733870	0.215516
542.948820	0.215986
543.163752	0.216118
543.378665	0.216111
543.593560	0.216852
543.808437	0.216884
544.023295	0.217265
544.238136	0.217851
544.452958	0.218670
544.667762	0.218949
544.882548	0.219047
545.097315	0.219818
545.312064	0.220146
545.526795	0.220114
545.741508	0.220360
545.956203	0.220212
546.170879	0.220668
546.385537	0.220590
546.600177	0.220652
546.814799	0.221317
547.029402	0.221682
547.243988	0.222883
547.458555	0.222762
547.673103	0.223148
547.887634	0.223792
548.102146	0.223538
548.316640	0.224050
548.531116	0.224527
548.745574	0.224544
548.960013	0.224782
549.174435	0.224488
549.388838	0.224827
549.603222	0.224824
549.817589	0.225197
550.031937	0.225802
550.246267	0.225488
550.460579	0.225340
550.674873	0.225575
550.889148	0.225044
551.103405	0.225226
551.317644	0.225705
551.531865	0.226110
551.746068	0.226150
551.960252	0.226179
552.174418	0.227021
552.388566	0.227430
552.602696	0.228104
552.816807	0.228541
553.030900	0.228420
553.244975	0.229010
553.459032	0.229399
553.673070	0.229771
553.887091	0.229958
554.101093	0.229667
554.315077	0.229927
554.529042	0.229235
554.742990	0.230061
554.956919	0.230376
555.170830	0.230390
555.384722	0.230114
555.598597	0.229710
555.812453	0.229801
556.026291	0.230233
556.240111	0.230819
556.453913	0.231089
556.667696	0.231270
556.881461	0.231549
557.095208	0.231285
557.308937	0.231842
557.522647	0.232636
557.736339	0.232293
557.950013	0.232337
558.163669	0.232119
558.377307	0.232368
558.590926	0.232244
558.804527	0.232210
559.018110	0.232563
559.231675	0.232186
559.445221	0.232445
559.658749	0.232991
559.872259	0.233074
560.085751	0.232915
560.299225	0.233172
560.512680	0.233250
560.726117	0.233600
560.939536	0.233575
561.152937	0.234201
561.366319	0.234153
561.579683	0.234103
561.793029	0.233976
562.006357	0.234530
562.219667	0.234395
562.432958	0.234683
562.646231	0.234632
562.859486	0.235370
563.072723	0.235404
563.285941	0.235642
563.499141	0.236208
563.712323	0.236920
563.925487	0.236904
564.138632	0.237227
564.351760	0.237737
564.564869	0.238289
564.777960	0.237860
564.991032	0.238617
565.204087	0.238757
565.417123	0.239019
565.630141	0.238862
565.843140	0.238876
566.056122	0.239390
566.269085	0.238847
566.482030	0.239164
566.694957	0.239287
566.907866	0.239156
567.120756	0.239083
567.333628	0.239193
567.546482	0.239206
567.759318	0.239681
567.972135	0.239531
568.184935	0.239891
568.397716	0.239531
568.610478	0.240009
568.823223	0.239959
569.035949	0.240331
569.248657	0.240249
569.461347	0.240738
569.674019	0.240852
569.886672	0.241333
570.099308	0.241899
570.311925	0.242017
570.524523	0.242224
570.737104	0.242164
570.949666	0.242177
571.162210	0.242393
571.374736	0.242330
571.587244	0.242917
571.799733	0.243021
572.012205	0.242993
572.224658	0.243305
572.437092	0.243109
572.649509	0.243113
572.861907	0.243409
573.074287	0.243371
573.286649	0.243622
573.498993	0.243122
573.711318	0.243226
573.923625	0.243029
574.135914	0.243281
574.348185	0.243775
574.560438	0.244618
574.772672	0.244659
574.984888	0.244973
575.197086	0.245238
575.409266	0.245594
575.621427	0.245805
575.833570	0.245735
576.045695	0.245955
576.257802	0.246054
576.469890	0.245744
576.681961	0.245931
576.894013	0.246435
577.106046	0.246485
577.318062	0.246782
577.530059	0.246534
577.742039	0.247163
577.954000	0.247131
578.165942	0.247022
578.377867	0.246933
578.589773	0.246977
578.801661	0.246620
579.013531	0.246521
579.225382	0.246331
579.437216	0.246433
579.649031	0.246388
579.860828	0.246221
580.072606	0.246531
580.284367	0.246816
580.496109	0.246672
580.707833	0.247089
580.919539	0.247494
581.131227	0.247974
581.342896	0.248692
581.554547	0.249113
581.766180	0.249585
581.977795	0.249891
582.189391	0.249815
582.400969	0.250437
582.612529	0.250458
582.824071	0.250500
583.035595	0.250687
583.247100	0.250689
583.458587	0.250915
583.670056	0.251226
583.881506	0.251451
584.092939	0.251988
584.304353	0.251762
584.515749	0.251923
584.727127	0.251920
584.938486	0.252108
585.149828	0.252167
585.361151	0.252140
585.572456	0.252096
585.783742	0.252032
585.995011	0.252738
586.206261	0.253278
586.417493	0.253474
586.628706	0.253740
586.839902	0.253838
587.051079	0.254101
587.262238	0.254585
587.473379	0.254815
587.684502	0.254707
587.895606	0.254321
588.106692	0.254540
588.317760	0.255091
588.528810	0.255344
588.739841	0.255840
588.950855	0.256014
589.161850	0.255960
589.372827	0.256494
589.583785	0.257168
589.794726	0.257838
590.005648	0.257965
590.216552	0.257491
590.427437	0.257683
590.638305	0.257384
590.849154	0.257348
591.059985	0.257219
591.270798	0.257360
591.481592	0.257240
591.692369	0.257287
591.903127	0.257736
592.113867	0.258254
592.324588	0.258436
592.535292	0.259082
592.745977	0.259383
592.956644	0.259952
593.167293	0.259799
593.377923	0.259890
593.588536	0.260169
593.799130	0.260232
594.009706	0.260523
594.220263	0.260695
594.430803	0.260766
594.641324	0.261000
594.851827	0.261080
595.062312	0.261157
595.272778	0.261781
595.483227	0.261621
595.693657	0.261521
595.904069	0.261476
596.114462	0.261638
596.324838	0.261569
596.535195	0.261676
596.745534	0.261624
596.955855	0.262241
597.166157	0.262111
597.376441	0.262315
597.586707	0.262245
597.796955	0.262235
598.007185	0.262569
598.217396	0.262369
598.427589	0.262590
598.637764	0.262825
598.847921	0.262769
599.058060	0.262984
599.268180	0.263087
599.478282	0.263745
599.688366	0.264448
599.898431	0.264855
600.108479	0.265352
600.318508	0.265349
600.528519	0.265737
600.738511	0.265498
600.948486	0.265584
601.158442	0.265750
601.368380	0.265658
601.578300	0.265475
601.788202	0.265341
601.998085	0.265407
602.207950	0.265557
602.417797	0.265415
602.627626	0.265781
602.837436	0.266128
603.047228	0.266283
603.257002	0.266977
603.466758	0.267205
603.676496	0.267259
603.886215	0.267335
604.095916	0.267597
604.305599	0.267826
604.515264	0.268102
604.724910	0.268132
604.934538	0.268466
605.144148	0.268061
605.353740	0.268160
605.563314	0.268070
605.772869	0.268419
605.982406	0.268267
606.191925	0.268727
606.401425	0.268771
606.610908	0.269053
606.820372	0.269000
607.029818	0.269077
607.239246	0.269197
607.448655	0.270000
607.658047	0.270109
607.867420	0.270466
608.076775	0.270406
608.286111	0.270812
608.495430	0.270751
608.704730	0.271078
608.914012	0.271186
609.123275	0.271564
609.332521	0.271291
609.541748	0.271608
609.750957	0.271868
609.960148	0.271647
610.169321	0.271374
610.378475	0.271212
610.587611	0.270974
610.796729	0.271336
611.005829	0.271080
611.214910	0.271199
611.423974	0.271185
611.633019	0.271021
611.842045	0.271609
612.051054	0.272117
612.260044	0.273144
612.469017	0.273495
612.677970	0.273606
612.886906	0.273744
613.095824	0.274076
613.304723	0.273871
613.513604	0.274261
613.722467	0.274499
613.931311	0.274561
614.140138	0.274226
614.348946	0.274478
614.557736	0.274660
614.766507	0.274866
614.975261	0.275012
615.183996	0.275012
615.392713	0.275323
615.601412	0.275163
615.810092	0.275227
616.018754	0.275165
616.227399	0.275173
616.436024	0.275360
616.644632	0.275995
616.853222	0.275929
617.061793	0.276588
617.270346	0.276643
617.478880	0.276554
617.687397	0.276758
617.895895	0.277064
618.104375	0.277149
618.312837	0.277275
618.521281	0.277014
618.729706	0.277525
618.938113	0.277607
619.146502	0.277808
619.354873	0.278236
619.563226	0.278225
619.771560	0.278381
619.979876	0.278724
620.188174	0.278689
620.396453	0.279047
620.604715	0.279336
620.812958	0.279440
621.021183	0.279692
621.229390	0.279927
621.437578	0.280148
621.645748	0.280394
621.853900	0.280391
622.062034	0.280633
622.270150	0.280557
622.478247	0.280508
622.686326	0.280468
622.894387	0.280348
623.102430	0.280163
623.310454	0.280796
623.518461	0.280776
623.726449	0.280936
623.934418	0.281168
624.142370	0.281308
624.350303	0.281478
624.558218	0.281766
624.766115	0.282115
624.973994	0.282727
625.181855	0.282653
625.389697	0.282678
625.597521	0.282972
625.805327	0.283178
626.013114	0.283419
626.220883	0.283413
626.428634	0.283442
626.636367	0.283583
626.844082	0.283860
627.051778	0.283794
627.259457	0.284221
627.467117	0.284404
627.674758	0.284776
627.882382	0.285211
628.089987	0.285461
628.297574	0.286064
628.505143	0.286468
628.712694	0.286428
628.920226	0.286755
629.127740	0.286975
629.335236	0.287051
629.542714	0.286898
629.750174	0.286973
629.957615	0.287323
630.165038	0.287440
630.372443	0.287179
630.579829	0.287484
630.787198	0.287951
630.994548	0.288283
631.201880	0.288334
631.409194	0.288532
631.616489	0.288397
631.823766	0.288015
632.031025	0.288153
632.238266	0.288738
632.445489	0.288628
632.652693	0.288484
632.859879	0.288486
633.067047	0.288664
633.274197	0.288935
633.481329	0.289103
633.688442	0.289401
633.895537	0.289384
634.102614	0.289314
634.309672	0.289378
634.516713	0.289401
634.723735	0.289397
634.930739	0.289798
635.137724	0.289754
635.344692	0.289702
635.551641	0.290296
635.758572	0.290811
635.965485	0.290665
636.172379	0.290876
636.379256	0.291253
636.586114	0.291489
636.792954	0.291505
636.999775	0.291961
637.206579	0.292358
637.413364	0.292360
637.620131	0.292286
637.826880	0.292862
638.033610	0.293029
638.240323	0.293207
638.447017	0.293579
638.653692	0.293901
638.860350	0.293809
639.066990	0.294063
639.273611	0.294314
639.480214	0.294422
639.686798	0.294514
639.893365	0.294999
640.099913	0.295052
640.306443	0.295112
640.512955	0.295315
640.719449	0.295709
640.925924	0.296146
641.132381	0.296253
641.338820	0.296759
641.545241	0.296949
641.751644	0.296957
641.958028	0.296907
642.164394	0.297042
642.370742	0.297160
642.577071	0.297321
642.783383	0.297274
642.989676	0.297277
643.195951	0.297211
643.402207	0.297019
643.608446	0.297182
643.814666	0.297700
644.020868	0.297726
644.227052	0.297687
644.433218	0.298086
644.639365	0.298027
644.845494	0.298351
645.051605	0.298450
645.257698	0.298975
645.463772	0.299277
645.669828	0.299287
645.875866	0.299835
646.081886	0.300147
646.287888	0.300096
646.493871	0.300620
646.699836	0.300891
646.905783	0.300999
647.111712	0.301552
647.317622	0.301673
647.523514	0.302300
647.729388	0.302192
647.935244	0.302480
648.141082	0.302732
648.346901	0.303068
648.552702	0.303306
648.758485	0.303807
648.964250	0.303632
649.169996	0.303747
649.375724	0.303861
649.581434	0.304286
649.787126	0.304247
649.992800	0.304513
650.198455	0.304505
650.404092	0.304636
650.609711	0.304549
650.815311	0.304800
651.020894	0.305040
651.226458	0.305124
651.432004	0.304988
651.637532	0.305359
651.843041	0.305423
652.048532	0.305725
652.254006	0.305745
652.459460	0.306052
652.664897	0.305914
652.870315	0.306045
653.075716	0.306170
653.281097	0.306463
653.486461	0.306570
653.691807	0.306497
653.897134	0.306454
654.102443	0.306484
654.307734	0.306389
654.513006	0.306761
654.718261	0.307144
654.923497	0.307298
655.128715	0.307838
655.333915	0.308129
655.539096	0.308672
655.744259	0.309335
655.949404	0.309806
656.154531	0.310329
656.359640	0.310625
656.564730	0.310746
656.769802	0.310864
656.974856	0.310721
657.179892	0.310985
657.384909	0.311114
657.589908	0.310978
657.794889	0.311056
657.999852	0.311119
658.204797	0.311389
658.409723	0.311786
658.614631	0.312123
658.819521	0.312479
659.024393	0.312661
659.229246	0.312823
659.434081	0.313030
659.638898	0.313712
659.843697	0.314086
660.048478	0.314291
660.253240	0.314612
660.457984	0.314984
660.662710	0.315310
660.867417	0.315542
661.072107	0.315947
661.276778	0.316573
661.481431	0.316392
661.686066	0.316521
661.890682	0.317048
662.095281	0.317044
662.299861	0.317147
662.504422	0.317109
662.708966	0.317583
662.913491	0.317819
663.117999	0.317734
663.322488	0.318079
663.526958	0.318251
663.731411	0.318217
663.935845	0.318351
664.140261	0.318544
664.344659	0.319199
664.549038	0.318922
664.753400	0.319093
664.957743	0.319235
665.162068	0.319542
665.366375	0.319929
665.570663	0.320122
665.774933	0.320454
665.979185	0.320715
666.183419	0.320975
666.387635	0.321594
666.591832	0.321725
666.796011	0.322053
667.000172	0.322497
667.204315	0.322646
667.408439	0.322849
667.612545	0.323098
667.816634	0.323349
668.020703	0.323309
668.224755	0.323517
668.428788	0.323802
668.632803	0.324045
668.836800	0.323856
669.040779	0.324223
669.244739	0.324755
669.448681	0.325326
669.652605	0.325501
669.856511	0.325632
670.060399	0.325876
670.264268	0.326220
670.468119	0.326531
670.671952	0.326856
670.875767	0.326900
671.079563	0.327005
671.283341	0.326855
671.487101	0.327140
671.690843	0.327698
671.894567	0.327912
672.098272	0.328211
672.301959	0.328661
672.505628	0.328837
672.709278	0.329251
672.912911	0.329675
673.116525	0.330088
673.320121	0.330264
673.523699	0.330302
673.727258	0.330545
673.930799	0.330741
674.134322	0.330667
674.337827	0.331087
674.541314	0.331394
674.744782	0.331271
674.948232	0.331414
675.151664	0.331439
675.355078	0.331804
675.558474	0.332088
675.761851	0.332218
675.965210	0.332618
676.168551	0.333119
676.371873	0.333392
676.575178	0.333872
676.778464	0.334370
676.981732	0.334884
677.184981	0.335119
677.388213	0.335430
677.591426	0.335848
677.794621	0.335834
677.997798	0.335895
678.200956	0.336134
678.404097	0.336464
678.607219	0.336542
678.810323	0.336936
679.013408	0.336986
679.216476	0.336957
679.419525	0.337044
679.622556	0.337376
679.825569	0.337490
680.028563	0.337678
680.231540	0.337740
680.434498	0.337581
680.637438	0.337859
680.840359	0.338266
681.043263	0.338588
681.246148	0.338668
681.449015	0.339092
681.651864	0.339231
681.854694	0.339330
682.057506	0.339346
682.260301	0.340017
682.463076	0.339899
682.665834	0.340023
682.868573	0.340195
683.071295	0.340319
683.273998	0.340456
683.476682	0.340519
683.679349	0.340894
683.881997	0.341506
684.084627	0.341597
684.287239	0.341804
684.489833	0.342113
684.692408	0.342340
684.894965	0.342867
685.097504	0.342947
685.300025	0.343465
685.502527	0.343786
685.705012	0.343828
685.907478	0.343914
686.109925	0.344193
686.312355	0.344350
686.514766	0.344658
686.717159	0.344918
686.919534	0.345187
687.121891	0.345331
687.324230	0.345319
687.526550	0.345311
687.728852	0.345642
687.931136	0.345967
688.133401	0.346219
688.335649	0.346405
688.537878	0.346225
688.740089	0.346601
688.942281	0.347015
689.144456	0.347346
689.346612	0.347815
689.548750	0.347934
689.750870	0.348168
689.952971	0.348343
690.155055	0.348380
690.357120	0.348827
690.559167	0.348732
690.761195	0.348607
690.963206	0.348631
691.165198	0.348750
691.367172	0.349060
691.569128	0.349211
691.771065	0.349326
691.972984	0.349695
692.174885	0.349815
692.376768	0.350177
692.578633	0.350160
692.780479	0.350245
692.982308	0.350305
693.184118	0.350600
693.385909	0.350648
