sample name	sample
index	1436
start time	 05-10-2021  12:48:29 PM


Wavelength (nm)	Absorbance
494.344910	-0.058334
494.563924	-0.058334
494.782919	-0.058334
495.001897	0.006929
495.220856	-0.020107
495.439797	-0.010749
495.658719	-0.009192
495.877624	0.001383
496.096510	0.000406
496.315378	-0.002812
496.534227	0.001823
496.753059	0.003221
496.971872	0.007158
497.190667	0.075453
497.409444	0.112636
497.628203	0.130401
497.846943	0.137069
498.065665	0.139600
498.284369	0.144822
498.503055	0.149097
498.721723	0.152481
498.940372	0.152870
499.159003	0.154018
499.377616	0.152863
499.596210	0.152993
499.814787	0.154771
500.033345	0.156905
500.251885	0.157171
500.470406	0.156985
500.688910	0.155146
500.907395	0.154785
501.125862	0.155628
501.344311	0.157603
501.562742	0.158489
501.781154	0.157317
501.999548	0.157618
502.217924	0.156906
502.436282	0.156247
502.654621	0.158215
502.872942	0.159030
503.091245	0.157747
503.309530	0.157148
503.527797	0.156391
503.746045	0.156786
503.964275	0.156774
504.182487	0.158144
504.400681	0.158950
504.618856	0.158556
504.837013	0.159595
505.055152	0.159731
505.273273	0.160252
505.491376	0.160670
505.709460	0.160762
505.927526	0.160940
506.145574	0.160865
506.363604	0.161590
506.581615	0.161655
506.799608	0.160732
507.017583	0.162433
507.235540	0.162187
507.453478	0.161530
507.671399	0.161452
507.889301	0.162333
508.107185	0.162178
508.325050	0.162061
508.542898	0.162675
508.760727	0.163500
508.978538	0.162897
509.196330	0.163228
509.414105	0.163913
509.631861	0.164533
509.849599	0.164001
510.067319	0.164639
510.285021	0.164280
510.502704	0.164635
510.720369	0.164435
510.938016	0.164377
511.155645	0.164645
511.373255	0.165398
511.590848	0.165074
511.808422	0.165109
512.025977	0.164543
512.243515	0.164725
512.461034	0.164891
512.678536	0.165215
512.896018	0.166002
513.113483	0.166923
513.330930	0.167056
513.548358	0.167915
513.765768	0.168264
513.983160	0.168973
514.200533	0.169569
514.417889	0.169309
514.635226	0.169263
514.852545	0.169050
515.069845	0.169467
515.287128	0.169451
515.504392	0.169680
515.721638	0.170192
515.938866	0.170061
516.156075	0.169409
516.373267	0.168769
516.590440	0.169261
516.807594	0.170214
517.024731	0.170107
517.241850	0.170213
517.458950	0.170213
517.676032	0.169528
517.893095	0.169518
518.110141	0.170246
518.327168	0.171210
518.544177	0.172362
518.761168	0.172593
518.978141	0.172196
519.195095	0.172371
519.412031	0.172531
519.628949	0.173122
519.845849	0.173011
520.062731	0.173195
520.279594	0.172704
520.496439	0.171545
520.713266	0.171820
520.930074	0.171521
521.146865	0.171274
521.363637	0.171799
521.580391	0.172341
521.797127	0.172367
522.013844	0.172713
522.230543	0.173867
522.447224	0.174481
522.663887	0.173618
522.880532	0.174355
523.097158	0.175036
523.313766	0.175533
523.530356	0.176034
523.746928	0.176801
523.963481	0.177517
524.180017	0.177133
524.396534	0.177570
524.613032	0.178007
524.829513	0.177827
525.045975	0.178126
525.262420	0.177792
525.478845	0.177386
525.695253	0.177474
525.911643	0.177206
526.128014	0.178131
526.344367	0.177877
526.560702	0.177737
526.777018	0.178373
526.993316	0.178429
527.209597	0.178846
527.425858	0.178938
527.642102	0.179649
527.858328	0.180734
528.074535	0.180849
528.290724	0.181158
528.506894	0.182576
528.723047	0.183684
528.939181	0.184275
529.155297	0.184277
529.371395	0.185791
529.587475	0.185910
529.803536	0.184897
530.019579	0.184838
530.235604	0.185322
530.451611	0.185476
530.667600	0.185584
530.883570	0.185536
531.099522	0.185559
531.315456	0.185323
531.531372	0.185874
531.747269	0.186787
531.963148	0.187559
532.179009	0.187437
532.394852	0.187419
532.610676	0.187159
532.826482	0.188018
533.042271	0.188803
533.258040	0.188726
533.473792	0.188133
533.689525	0.188701
533.905240	0.189051
534.120937	0.190233
534.336616	0.189995
534.552277	0.190449
534.767919	0.191062
534.983543	0.190943
535.199149	0.191471
535.414736	0.192321
535.630306	0.192580
535.845857	0.192471
536.061390	0.192194
536.276904	0.193199
536.492401	0.193324
536.707879	0.192497
536.923339	0.192438
537.138781	0.192164
537.354204	0.192407
537.569610	0.192089
537.784997	0.192269
538.000366	0.192486
538.215716	0.191984
538.431049	0.192142
538.646363	0.193177
538.861659	0.193978
539.076937	0.194223
539.292196	0.194467
539.507438	0.194747
539.722661	0.195451
539.937866	0.196131
540.153052	0.196886
540.368221	0.197097
540.583371	0.197050
540.798503	0.197077
541.013617	0.197273
541.228712	0.196969
541.443789	0.197051
541.658848	0.197298
541.873889	0.196676
542.088912	0.196585
542.303916	0.197224
542.518902	0.197479
542.733870	0.198115
542.948820	0.198799
543.163752	0.199418
543.378665	0.200235
543.593560	0.200482
543.808437	0.200894
544.023295	0.201088
544.238136	0.200938
544.452958	0.201302
544.667762	0.200885
544.882548	0.200946
545.097315	0.201429
545.312064	0.201441
545.526795	0.201136
545.741508	0.201372
545.956203	0.201832
546.170879	0.201959
546.385537	0.201714
546.600177	0.202463
546.814799	0.203073
547.029402	0.203475
547.243988	0.203782
547.458555	0.204300
547.673103	0.204469
547.887634	0.204705
548.102146	0.205254
548.316640	0.205850
548.531116	0.205838
548.745574	0.205912
548.960013	0.206315
549.174435	0.206788
549.388838	0.207582
549.603222	0.208165
549.817589	0.208772
550.031937	0.209216
550.246267	0.209070
550.460579	0.209545
550.674873	0.209250
550.889148	0.209225
551.103405	0.209462
551.317644	0.209574
551.531865	0.209553
551.746068	0.209184
551.960252	0.208895
552.174418	0.209480
552.388566	0.209376
552.602696	0.209692
552.816807	0.209230
553.030900	0.209286
553.244975	0.209159
553.459032	0.209304
553.673070	0.209331
553.887091	0.209785
554.101093	0.209626
554.315077	0.210233
554.529042	0.210423
554.742990	0.211093
554.956919	0.211122
555.170830	0.211328
555.384722	0.211749
555.598597	0.212552
555.812453	0.212251
556.026291	0.212362
556.240111	0.212152
556.453913	0.212477
556.667696	0.212476
556.881461	0.212357
557.095208	0.212284
557.308937	0.212473
557.522647	0.211927
557.736339	0.212730
557.950013	0.212898
558.163669	0.213242
558.377307	0.212573
558.590926	0.212465
558.804527	0.212835
559.018110	0.212672
559.231675	0.212152
559.445221	0.212815
559.658749	0.212338
559.872259	0.212678
560.085751	0.212524
560.299225	0.213292
560.512680	0.213701
560.726117	0.213808
560.939536	0.214247
561.152937	0.215072
561.366319	0.214989
561.579683	0.215352
561.793029	0.215108
562.006357	0.215277
562.219667	0.215439
562.432958	0.215484
562.646231	0.215299
562.859486	0.215485
563.072723	0.215155
563.285941	0.215373
563.499141	0.215796
563.712323	0.216436
563.925487	0.216729
564.138632	0.216975
564.351760	0.217448
564.564869	0.217632
564.777960	0.217681
564.991032	0.218103
565.204087	0.218158
565.417123	0.218189
565.630141	0.218309
565.843140	0.218424
566.056122	0.218778
566.269085	0.218306
566.482030	0.218616
566.694957	0.218785
566.907866	0.218885
567.120756	0.218788
567.333628	0.219017
567.546482	0.218912
567.759318	0.218957
567.972135	0.218771
568.184935	0.219270
568.397716	0.219676
568.610478	0.219762
568.823223	0.219746
569.035949	0.220037
569.248657	0.219744
569.461347	0.219850
569.674019	0.219657
569.886672	0.219647
570.099308	0.219355
570.311925	0.219259
570.524523	0.219144
570.737104	0.219499
570.949666	0.219985
571.162210	0.220290
571.374736	0.220465
571.587244	0.221105
571.799733	0.221211
572.012205	0.221919
572.224658	0.221690
572.437092	0.222115
572.649509	0.221797
572.861907	0.221460
573.074287	0.221932
573.286649	0.222300
573.498993	0.222297
573.711318	0.222639
573.923625	0.222552
574.135914	0.222577
574.348185	0.222557
574.560438	0.222986
574.772672	0.223180
574.984888	0.223000
575.197086	0.222806
575.409266	0.223100
575.621427	0.223256
575.833570	0.223466
576.045695	0.224165
576.257802	0.224189
576.469890	0.224571
576.681961	0.225153
576.894013	0.224990
577.106046	0.225177
577.318062	0.225193
577.530059	0.225545
577.742039	0.225682
577.954000	0.225623
578.165942	0.225719
578.377867	0.225910
578.589773	0.225957
578.801661	0.226439
579.013531	0.226592
579.225382	0.226681
579.437216	0.226556
579.649031	0.226967
579.860828	0.227040
580.072606	0.227268
580.284367	0.227118
580.496109	0.227064
580.707833	0.226770
580.919539	0.227157
581.131227	0.227306
581.342896	0.227721
581.554547	0.227860
581.766180	0.228255
581.977795	0.228366
582.189391	0.228613
582.400969	0.228896
582.612529	0.229569
582.824071	0.229642
583.035595	0.229874
583.247100	0.229889
583.458587	0.229902
583.670056	0.230179
583.881506	0.230604
584.092939	0.230992
584.304353	0.230907
584.515749	0.230895
584.727127	0.231251
584.938486	0.231691
585.149828	0.231841
585.361151	0.231940
585.572456	0.231953
585.783742	0.232379
585.995011	0.232612
586.206261	0.233044
586.417493	0.233213
586.628706	0.233089
586.839902	0.233217
587.051079	0.233574
587.262238	0.233561
587.473379	0.233707
587.684502	0.233759
587.895606	0.233652
588.106692	0.233874
588.317760	0.234480
588.528810	0.234873
588.739841	0.234850
588.950855	0.234747
589.161850	0.235407
589.372827	0.235958
589.583785	0.235885
589.794726	0.236082
590.005648	0.236051
590.216552	0.235928
590.427437	0.235914
590.638305	0.236008
590.849154	0.236438
591.059985	0.236226
591.270798	0.236312
591.481592	0.236448
591.692369	0.236866
591.903127	0.237111
592.113867	0.237396
592.324588	0.237433
592.535292	0.237620
592.745977	0.237236
592.956644	0.236911
593.167293	0.237018
593.377923	0.237294
593.588536	0.236988
593.799130	0.237046
594.009706	0.237375
594.220263	0.237609
594.430803	0.237797
594.641324	0.238114
594.851827	0.238621
595.062312	0.238674
595.272778	0.238887
595.483227	0.239227
595.693657	0.239334
595.904069	0.239228
596.114462	0.239304
596.324838	0.239254
596.535195	0.239663
596.745534	0.239981
596.955855	0.240149
597.166157	0.240478
597.376441	0.240539
597.586707	0.240639
597.796955	0.240993
598.007185	0.241189
598.217396	0.241585
598.427589	0.241569
598.637764	0.241424
598.847921	0.241108
599.058060	0.240959
599.268180	0.241203
599.478282	0.241414
599.688366	0.241036
599.898431	0.240898
600.108479	0.240933
600.318508	0.241209
600.528519	0.241813
600.738511	0.242428
600.948486	0.242389
601.158442	0.242378
601.368380	0.242524
601.578300	0.243158
601.788202	0.243274
601.998085	0.243235
602.207950	0.243145
602.417797	0.242769
602.627626	0.242679
602.837436	0.242777
603.047228	0.242885
603.257002	0.242948
603.466758	0.242973
603.676496	0.243414
603.886215	0.243602
604.095916	0.243793
604.305599	0.244113
604.515264	0.244478
604.724910	0.244591
604.934538	0.244746
605.144148	0.244959
605.353740	0.244776
605.563314	0.245048
605.772869	0.245280
605.982406	0.245579
606.191925	0.245798
606.401425	0.245743
606.610908	0.246250
606.820372	0.246521
607.029818	0.246694
607.239246	0.246895
607.448655	0.246639
607.658047	0.246661
607.867420	0.246805
608.076775	0.246865
608.286111	0.247066
608.495430	0.247213
608.704730	0.247380
608.914012	0.247450
609.123275	0.247754
609.332521	0.248305
609.541748	0.248693
609.750957	0.248609
609.960148	0.248825
610.169321	0.248953
610.378475	0.249032
610.587611	0.249100
610.796729	0.249074
611.005829	0.249079
611.214910	0.249041
611.423974	0.249172
611.633019	0.249618
611.842045	0.249329
612.051054	0.249284
612.260044	0.249470
612.469017	0.249494
612.677970	0.249731
612.886906	0.249832
613.095824	0.249953
613.304723	0.250070
613.513604	0.249906
613.722467	0.250636
613.931311	0.250863
614.140138	0.250847
614.348946	0.251329
614.557736	0.251385
614.766507	0.251480
614.975261	0.251504
615.183996	0.251533
615.392713	0.251756
615.601412	0.251645
615.810092	0.251561
616.018754	0.251679
616.227399	0.251533
616.436024	0.251874
616.644632	0.252131
616.853222	0.252455
617.061793	0.252563
617.270346	0.252390
617.478880	0.252438
617.687397	0.253006
617.895895	0.253157
618.104375	0.253328
618.312837	0.253677
618.521281	0.253701
618.729706	0.253674
618.938113	0.253763
619.146502	0.254215
619.354873	0.254498
619.563226	0.254356
619.771560	0.254266
619.979876	0.254417
620.188174	0.254078
620.396453	0.254178
620.604715	0.254153
620.812958	0.254255
621.021183	0.254197
621.229390	0.254230
621.437578	0.254600
621.645748	0.254883
621.853900	0.254991
622.062034	0.255075
622.270150	0.255320
622.478247	0.255531
622.686326	0.255780
622.894387	0.256015
623.102430	0.256050
623.310454	0.255833
623.518461	0.255735
623.726449	0.255695
623.934418	0.256111
624.142370	0.256115
624.350303	0.256245
624.558218	0.256127
624.766115	0.256046
624.973994	0.256520
625.181855	0.256800
625.389697	0.256826
625.597521	0.257014
625.805327	0.256790
626.013114	0.257019
626.220883	0.257061
626.428634	0.257412
626.636367	0.257745
626.844082	0.257449
627.051778	0.257597
627.259457	0.257975
627.467117	0.258278
627.674758	0.258654
627.882382	0.258621
628.089987	0.258804
628.297574	0.258779
628.505143	0.258672
628.712694	0.258995
628.920226	0.258761
629.127740	0.258925
629.335236	0.258637
629.542714	0.258520
629.750174	0.258499
629.957615	0.258629
630.165038	0.258577
630.372443	0.258861
630.579829	0.258897
630.787198	0.259080
630.994548	0.259078
631.201880	0.259320
631.409194	0.259800
631.616489	0.259908
631.823766	0.259974
632.031025	0.260368
632.238266	0.260589
632.445489	0.260589
632.652693	0.260900
632.859879	0.261213
633.067047	0.261364
633.274197	0.261465
633.481329	0.261771
633.688442	0.262013
633.895537	0.262010
634.102614	0.262061
634.309672	0.262407
634.516713	0.262611
634.723735	0.262795
634.930739	0.262927
635.137724	0.262912
635.344692	0.263383
635.551641	0.263568
635.758572	0.263721
635.965485	0.263852
636.172379	0.264016
636.379256	0.264287
636.586114	0.264114
636.792954	0.264360
636.999775	0.264380
637.206579	0.264395
637.413364	0.264430
637.620131	0.264827
637.826880	0.265015
638.033610	0.265073
638.240323	0.265156
638.447017	0.265470
638.653692	0.265710
638.860350	0.265882
639.066990	0.265980
639.273611	0.266209
639.480214	0.266231
639.686798	0.266492
639.893365	0.266611
640.099913	0.266824
640.306443	0.267061
640.512955	0.267373
640.719449	0.267655
640.925924	0.267882
641.132381	0.268182
641.338820	0.268304
641.545241	0.268353
641.751644	0.268460
641.958028	0.268458
642.164394	0.268619
642.370742	0.268639
642.577071	0.268743
642.783383	0.268847
642.989676	0.268900
643.195951	0.269252
643.402207	0.269250
643.608446	0.269438
643.814666	0.269569
644.020868	0.269851
644.227052	0.269986
644.433218	0.270346
644.639365	0.270204
644.845494	0.270095
645.051605	0.269998
645.257698	0.270482
645.463772	0.270816
645.669828	0.271126
645.875866	0.270778
646.081886	0.270987
646.287888	0.271094
646.493871	0.271359
646.699836	0.271870
646.905783	0.272096
647.111712	0.272008
647.317622	0.271844
647.523514	0.271862
647.729388	0.272357
647.935244	0.272118
648.141082	0.272010
648.346901	0.272187
648.552702	0.272195
648.758485	0.272201
648.964250	0.272400
649.169996	0.272810
649.375724	0.272864
649.581434	0.272868
649.787126	0.273206
649.992800	0.273440
650.198455	0.273513
650.404092	0.273630
650.609711	0.273942
650.815311	0.273987
651.020894	0.274132
651.226458	0.274123
651.432004	0.274092
651.637532	0.274159
651.843041	0.274177
652.048532	0.274541
652.254006	0.274302
652.459460	0.274285
652.664897	0.274587
652.870315	0.274441
653.075716	0.274886
653.281097	0.275326
653.486461	0.275718
653.691807	0.276031
653.897134	0.276018
654.102443	0.276915
654.307734	0.277268
654.513006	0.277350
654.718261	0.277725
654.923497	0.277739
655.128715	0.277977
655.333915	0.278050
655.539096	0.278354
655.744259	0.278393
655.949404	0.278273
656.154531	0.278451
656.359640	0.278634
656.564730	0.278716
656.769802	0.279056
656.974856	0.279132
657.179892	0.279344
657.384909	0.279465
657.589908	0.279857
657.794889	0.279977
657.999852	0.279768
658.204797	0.280011
658.409723	0.280172
658.614631	0.280378
658.819521	0.280483
659.024393	0.280535
659.229246	0.280475
659.434081	0.280561
659.638898	0.280725
659.843697	0.281231
660.048478	0.281413
660.253240	0.281391
660.457984	0.281301
660.662710	0.281536
660.867417	0.281508
661.072107	0.281614
661.276778	0.281808
661.481431	0.281942
661.686066	0.282095
661.890682	0.282017
662.095281	0.282353
662.299861	0.282633
662.504422	0.282933
662.708966	0.283571
662.913491	0.283973
663.117999	0.284147
663.322488	0.284379
663.526958	0.284735
663.731411	0.284960
663.935845	0.285196
664.140261	0.285481
664.344659	0.285289
664.549038	0.285330
664.753400	0.285254
664.957743	0.285516
665.162068	0.285784
665.366375	0.285763
665.570663	0.285860
665.774933	0.286002
665.979185	0.285939
666.183419	0.286425
666.387635	0.286478
666.591832	0.286762
666.796011	0.286787
667.000172	0.286890
667.204315	0.286670
667.408439	0.286716
667.612545	0.286862
667.816634	0.287181
668.020703	0.287327
668.224755	0.287279
668.428788	0.287489
668.632803	0.287755
668.836800	0.287944
669.040779	0.288463
669.244739	0.288742
669.448681	0.288902
669.652605	0.288642
669.856511	0.288680
670.060399	0.288895
670.264268	0.289082
670.468119	0.289243
670.671952	0.289500
670.875767	0.289748
671.079563	0.290241
671.283341	0.290508
671.487101	0.291075
671.690843	0.291368
671.894567	0.291778
672.098272	0.291939
672.301959	0.292044
672.505628	0.291915
672.709278	0.291900
672.912911	0.291709
673.116525	0.291784
673.320121	0.292059
673.523699	0.292365
673.727258	0.292598
673.930799	0.292690
674.134322	0.292879
674.337827	0.293426
674.541314	0.293724
674.744782	0.294153
674.948232	0.294552
675.151664	0.294585
675.355078	0.294590
675.558474	0.294585
675.761851	0.294933
675.965210	0.295092
676.168551	0.294852
676.371873	0.294826
676.575178	0.295030
676.778464	0.294925
676.981732	0.294933
677.184981	0.294905
677.388213	0.295043
677.591426	0.294874
677.794621	0.294841
677.997798	0.295059
678.200956	0.295169
678.404097	0.295354
678.607219	0.295554
678.810323	0.295968
679.013408	0.296409
679.216476	0.296524
679.419525	0.296881
679.622556	0.297170
679.825569	0.297798
680.028563	0.298062
680.231540	0.298167
680.434498	0.298334
680.637438	0.298268
680.840359	0.298232
681.043263	0.298551
681.246148	0.298627
681.449015	0.298800
681.651864	0.298378
681.854694	0.298613
682.057506	0.298490
682.260301	0.298453
682.463076	0.298786
682.665834	0.298946
682.868573	0.299110
683.071295	0.299552
683.273998	0.299620
683.476682	0.299902
683.679349	0.299862
683.881997	0.300184
684.084627	0.300600
684.287239	0.300627
684.489833	0.300810
684.692408	0.300851
684.894965	0.300660
685.097504	0.300755
685.300025	0.301015
685.502527	0.301141
685.705012	0.301357
685.907478	0.301144
686.109925	0.301436
686.312355	0.301291
686.514766	0.301406
686.717159	0.301792
686.919534	0.302162
687.121891	0.302327
687.324230	0.302460
687.526550	0.302508
687.728852	0.302682
687.931136	0.302502
688.133401	0.302694
688.335649	0.302643
688.537878	0.302614
688.740089	0.302549
688.942281	0.302440
689.144456	0.302481
689.346612	0.302556
689.548750	0.303088
689.750870	0.303566
689.952971	0.303865
690.155055	0.304399
690.357120	0.304571
690.559167	0.304842
690.761195	0.305071
690.963206	0.305351
691.165198	0.305337
691.367172	0.305386
691.569128	0.305455
691.771065	0.305699
691.972984	0.305640
692.174885	0.305874
692.376768	0.306070
692.578633	0.306396
692.780479	0.306571
692.982308	0.306829
693.184118	0.307007
693.385909	0.307264
