sample name	sample
index	1027
start time	 04-19-2021  12:26:28 PM
880	0.241745
Peak Time (s)	101.038
Peak Height 	0.2417
calc peak height	100,103
Baseline Time (s)	11.035
Baseline Value 	-0.005321
subtract baseline	10,4
Abs	0.166090
Peak Time (s)	102.535
Peak Height 	0.1661
calc peak height	100,103
Baseline Time (s)	10.537
Baseline Value 	0.001437
subtract baseline	10,3
PK_550	0.098744
Peak Time (s)	102.035
Peak Height 	0.09874
calc peak height	100,103
Baseline Time (s)	9.537
Baseline Value 	5.9218E-4
subtract baseline	10,2
PK_880	0.155862
Peak Time (s)	102.535
Peak Height 	0.1559
calc peak height	100,103
Baseline Time (s)	10.037
Baseline Value 	0.001191
subtract baseline	10,1


Time (s)	A880-A510	A880-A775	A880-A975	A880	I510	I775	I975	I880	
0.037000	-0.001208	-0.001117	-0.002447	0.002324	6568.600972	45965.734593	3970.614629	24332.586650
0.537000	-0.001746	-0.000265	-0.002228	0.004354	6546.270328	45848.747009	3965.566623	24232.052256
1.034500	-0.000509	-0.001417	0.000116	0.003527	6564.197988	45816.490075	3974.415137	24272.916940
1.535000	-0.003619	-0.000241	-0.001795	0.006263	6513.638615	45662.448911	3961.471226	24137.976778
2.035500	-0.001000	-0.000868	0.004795	0.001154	6580.624272	46106.892839	3994.327974	24390.728804
2.535500	-0.001598	-0.000588	-0.000685	0.000860	6577.961799	46164.078076	3979.652254	24405.332857
3.036000	-0.000964	-0.001545	0.001164	-0.001974	6608.402890	46351.876917	3992.895720	24546.942376
3.536000	-0.001674	0.000372	0.000129	0.005234	6539.278291	45824.675168	3969.682159	24188.633609
4.036000	0.000424	-0.001204	-0.001590	-0.001135	6613.238544	46302.066378	3982.722623	24504.933276
4.539000	0.000686	-0.000214	0.001578	-0.000102	6606.441720	46297.630946	3988.756514	24453.284386
5.037000	0.000092	-0.001197	0.001801	-0.001079	6609.812957	46297.162998	3992.163704	24502.128531
5.537500	-0.000388	-0.000282	-0.000187	-0.000101	6596.984399	46290.746882	3983.763505	24453.236077
6.037500	0.001185	-0.000822	-0.002046	-0.000949	6618.310322	46321.683140	3980.914402	24495.626271
6.537500	-0.000175	-0.000278	0.004171	0.000104	6597.063057	46270.655911	3995.539187	24443.029207
7.035000	0.002291	0.000457	0.000798	0.000665	6613.820625	46288.032232	3984.380343	24415.037256
7.536000	0.000687	0.000156	0.000859	-0.000076	6606.224076	46332.165215	3986.646570	24451.996726
8.036000	0.000872	-0.000452	0.001709	-0.000231	6609.214918	46286.835886	3989.494468	24459.751207
8.536000	0.000289	-0.000133	-0.001862	0.000169	6600.559298	46278.687945	3978.285068	24439.777615
9.039000	-0.002127	-0.000575	-0.001464	0.004844	6538.729808	45769.540489	3966.329675	24207.847882
9.536500	0.002509	0.000000	0.000812	-0.000022	6621.811800	46311.066095	3986.360460	24449.285918
10.037500	0.000000	0.000085	0.000964	-0.000626	6605.015891	46380.174459	3988.502645	24479.473482
10.537000	-0.001240	-0.000592	0.000000	-0.000857	6596.143417	46335.429771	3986.426733	24491.003870
11.035000	-0.001853	0.000184	-0.001068	0.000000	6583.261251	46327.364357	3980.994051	24448.211409
11.535000	0.000551	0.000181	0.002422	0.000143	6603.093803	46312.695782	3990.457062	24441.078632
12.036000	0.000705	-0.000796	-0.000809	-0.000830	6613.028509	46312.340812	3984.067414	24489.688776
12.536000	-0.000885	-0.000206	0.005082	-0.000072	6592.378691	46295.538036	3998.641934	24451.828065
13.036000	-0.000512	-0.000538	0.004296	-0.000644	6600.666168	46319.504315	3998.026972	24480.345730
13.540500	-0.001039	-0.000223	-0.006915	0.003249	6562.007019	45962.603082	3955.650476	24286.715285
14.036500	-0.001689	-0.000997	-0.001714	0.001511	6571.491713	46058.498668	3974.936112	24372.953827
14.540000	-0.002223	-0.001026	0.001461	0.001270	6568.933145	46079.618626	3984.545269	24384.953234
15.034500	-0.001559	0.000245	0.001150	0.004645	6545.372577	45870.552793	3974.180720	24217.703108
15.537500	0.001458	-0.000047	0.003440	-0.000181	6613.944344	46322.362960	3994.271926	24457.264112
16.035000	0.001829	0.000118	-0.000262	-0.000803	6622.712664	46401.258437	3985.533029	24488.313667
16.535500	0.000142	-0.000756	-0.001150	-0.000961	6609.215362	46329.499217	3983.474468	24496.229988
17.035500	-0.002145	-0.000484	0.002663	0.001945	6563.730485	46066.318262	3986.034913	24351.388393
17.536000	-0.001573	-0.000579	0.004032	0.001000	6576.960339	46151.035014	3992.594134	24398.363808
18.039000	-0.000257	0.000404	0.003480	0.001037	6588.151600	46245.561456	3990.920336	24396.534695
18.536000	0.001458	0.000325	0.003122	0.001379	6600.204348	46203.433474	3988.933678	24379.502202
19.037000	-0.002119	-0.000441	-0.000177	0.003153	6553.460246	45950.520653	3974.644958	24291.481228
19.536500	-0.000912	-0.000653	0.003952	0.000573	6586.478383	46186.309968	3993.581981	24419.636889
20.037500	-0.002350	0.000253	-0.000268	0.001187	6568.550428	46215.445206	3979.905675	24389.048891
20.535000	0.000348	-0.000010	0.001895	0.001153	6592.440946	46192.583042	3986.103132	24390.777563
21.035000	-0.002777	-0.000504	0.001187	0.002765	6551.117446	45982.807835	3979.560883	24310.706301
21.535500	0.000174	-0.000349	0.001819	0.000988	6592.365351	46175.237794	3986.352576	24398.968487
22.035000	0.000517	0.000904	-0.001248	0.002100	6585.623864	46189.286937	3974.592456	24343.680837
22.539000	-0.000761	0.000737	-0.000385	0.001784	6577.208419	46204.158943	3977.898584	24359.380548
23.036500	0.000610	0.000420	-0.000279	0.003323	6575.734268	46019.101467	3973.880271	24283.030495
23.536500	0.000943	0.000399	0.002832	0.001724	6592.645250	46176.365219	3987.136956	24362.349143
24.036500	-0.000171	-0.000431	0.000301	0.000762	6591.312803	46189.545374	3982.703464	24410.211242
24.537500	0.000308	0.000414	0.004277	0.001363	6590.246420	46213.976397	3992.260549	24380.321446
25.034500	0.000219	-0.000790	0.004761	0.000790	6594.495201	46151.044902	3995.268707	24408.850185
25.535000	-0.001552	-0.000988	0.000252	0.000029	6585.636167	46207.164238	3984.636777	24446.771479
26.035000	0.000327	-0.000680	0.004688	0.000516	6597.851863	46189.292357	3995.838964	24422.499603
26.535500	-0.000826	-0.000555	-0.000098	0.000403	6588.722713	46213.139672	3982.594897	24428.130815
27.038500	0.001166	-0.000855	0.000759	-0.002700	6633.638355	46494.028775	3993.807154	24583.344421
27.535500	-0.000005	-0.000048	0.000897	-0.001349	6611.343977	46439.396046	3990.362025	24515.646522
28.036500	-0.002550	0.000678	0.002232	-0.000330	6580.049504	46410.027951	3991.259413	24464.699171
28.537000	-0.001122	-0.000560	-0.000182	-0.000840	6597.027483	46336.954813	3985.863912	24490.159026
29.036500	-0.002613	-0.000006	-0.001062	0.004287	6539.342275	45881.060064	3968.999650	24235.363139
29.536500	0.000364	0.000132	-0.000236	0.003303	6573.763612	45992.507075	3974.055025	24284.017383
30.035000	0.001608	0.000026	0.004997	-0.000481	6617.912040	46359.730916	3999.567123	24472.235153
30.535500	-0.001741	-0.000477	-0.003339	0.001923	6567.442492	46069.159512	3969.242933	24352.462365
31.036000	-0.002931	-0.000328	-0.001495	0.004086	6538.332218	45869.064061	3968.354341	24245.296940
31.543500	-0.001326	-0.000082	0.003251	0.001738	6572.680678	46127.072708	3988.285355	24361.687037
32.036500	-0.001225	-0.000008	0.002733	0.000281	6586.296807	46279.941238	3990.947155	24434.199371
32.536500	0.001346	0.000103	0.002975	0.000773	6604.547845	46241.879765	3990.238430	24409.693403
33.037000	-0.002634	-0.000305	0.000004	0.004481	6537.478737	45832.171688	3971.431698	24225.761765
33.536500	-0.000613	0.000661	0.006398	0.002625	6571.160429	46112.744969	3994.702356	24317.649780
34.037500	-0.001425	0.000131	-0.002943	0.000168	6585.529494	46305.146674	3975.255117	24439.808174
34.534500	-0.000763	0.000397	-0.002136	0.000234	6590.758094	46325.258666	3977.334937	24436.559949
35.035000	0.000027	0.000074	0.000558	0.001207	6589.154444	46195.591157	3982.175966	24388.074398
35.535500	-0.002081	-0.000520	-0.002884	0.000342	6578.274950	46222.691071	3974.934528	24431.158822
36.038000	-0.000214	-0.000530	0.002970	0.000926	6589.500501	46163.293665	3989.786965	24402.041283
36.536000	-0.001552	0.000126	-0.000316	0.001193	6575.466030	46202.187469	3979.754280	24388.779069
37.036500	-0.000756	0.000879	0.001937	0.001795	6577.148289	46217.280522	3984.405286	24358.821137
37.536500	-0.000940	-0.000131	0.004878	0.001176	6580.958718	46178.205571	3994.499578	24389.625716
38.036500	0.000151	-0.000030	0.002841	0.001176	6590.514313	46188.322202	3988.713841	24389.607065
38.537000	-0.001039	-0.000535	0.001680	-0.000187	6592.027002	46274.039194	3989.287783	24457.536316
39.034500	0.001183	0.000113	0.000109	0.000456	6605.902130	46274.616950	3983.027203	24425.474125
39.534000	-0.001435	0.000161	0.002796	0.000600	6581.665802	46264.964953	3990.220700	24418.303717
40.035000	-0.000105	0.000213	0.001717	0.000716	6592.297859	46258.595308	3986.833271	24412.507657
40.538500	-0.001688	-0.000759	-0.001678	-0.000608	6590.029171	46293.774040	3980.989162	24478.577022
41.036000	-0.001162	-0.000498	-0.000165	0.000893	6581.486697	46169.827318	3981.021541	24403.687085
41.535500	-0.000329	-0.001175	-0.000860	-0.000860	6604.186372	46277.405795	3984.006856	24491.184111
42.036000	0.000137	-0.000455	0.002499	0.000144	6599.444248	46248.883343	3990.669463	24441.007129
42.536000	0.000776	0.000401	0.001147	0.001123	6596.458989	46236.693814	3984.072303	24392.247004
43.037000	-0.003619	-0.000322	0.004539	0.002062	6549.903678	46070.804763	3991.018610	24345.574711
43.537500	0.001563	0.000157	0.004929	-0.004185	6650.357682	46745.875384	4010.003332	24658.017924
44.034500	0.001509	0.000009	-0.000604	-0.001424	6625.373606	46452.698204	3986.323347	24519.386655
44.538000	-0.001542	-0.000255	-0.001892	-0.001377	6598.060416	46421.446857	3982.553945	24517.042474
45.037500	-0.002290	0.000306	-0.003298	0.003879	6545.674462	45952.552259	3963.911828	24255.509670
45.535500	0.000519	0.000692	0.004527	-0.000797	6611.098714	46458.356167	3999.128567	24488.038369
46.036000	0.001715	-0.000486	0.004876	-0.001599	6628.750575	46420.573895	4002.420202	24528.160003
46.536000	0.002352	0.000134	0.002235	-0.000855	6627.801735	46408.088411	3992.761607	24490.936941
47.036500	-0.001794	-0.000066	-0.001170	0.003442	6553.774039	45959.081132	3971.057006	24277.165380
47.536500	-0.001117	-0.000346	0.000708	-0.000107	6590.643812	46284.953969	3986.308320	24453.562121
48.037000	-0.000051	0.000254	0.003045	-0.001065	6608.438019	46441.225960	3995.661800	24501.428910
48.537500	0.000155	0.000123	0.003035	-0.000920	6608.969852	46413.433518	3995.218890	24494.157884
49.034500	-0.001426	-0.000435	0.003812	0.003808	6553.785502	45886.024840	3984.017305	24259.031152
49.538000	0.002505	-0.000413	0.004672	-0.001672	6636.399794	46435.235805	4002.045441	24531.802313
50.035500	0.003879	-0.001675	0.006925	0.023903	6427.510839	43821.283920	3937.006707	23287.769551
50.538500	0.082092	-0.022489	0.178632	0.752476	3597.868732	10117.425485	3085.176532	6610.229033
51.035500	-0.006337	-0.011130	-0.032223	0.099963	5770.801117	36492.202136	3662.324105	19992.864820
51.536000	-0.024020	-0.069421	-0.064067	-0.221081	8791.227143	64487.062973	4517.917812	38830.782790
52.036500	-0.003068	-0.132845	-0.033342	-0.291823	10203.732719	65535.000000	4981.060034	45208.569909
52.537000	-0.010996	-0.124010	-0.030175	-0.282988	9922.745815	65535.000000	4952.238125	44354.163788
53.037500	-0.016614	-0.110222	-0.041362	-0.269200	9610.707230	65535.000000	4829.619434	43054.934425
53.534500	-0.014441	-0.079327	-0.028541	-0.237844	9166.970466	65468.497209	4743.076846	40249.554284
54.037500	-0.017358	-0.082921	-0.026676	-0.241899	9183.724131	65535.000000	4770.319392	40601.036734
54.535500	-0.013040	-0.082903	-0.027989	-0.241881	9247.406141	65535.000000	4764.160614	40599.462855
55.035500	-0.010929	-0.070087	-0.026277	-0.226966	9059.590435	65232.624836	4704.091375	39322.605507
55.535500	-0.005623	-0.048589	-0.019686	-0.196623	8707.960907	63974.226739	4600.527501	36856.569082
56.036000	-0.004793	-0.022156	-0.016678	-0.146406	8071.037194	60714.980528	4410.753885	33135.452116
56.536500	0.002757	-0.010350	-0.007163	-0.107633	7704.174991	57229.076647	4303.088004	30542.736897
57.037000	0.007261	-0.004835	-0.002174	-0.083924	7491.269179	54996.577649	4237.905380	29067.618673
57.537000	0.012234	-0.001031	0.002114	-0.060315	7293.478499	52670.304981	4173.515484	27676.652750
58.037500	0.014579	0.003879	0.010091	-0.028454	6997.096909	49670.614394	4097.779889	25915.485960
58.539500	0.020879	0.008040	0.017573	-0.004467	6828.897198	47579.680306	4047.821468	24672.235018
59.035000	0.027808	0.014409	0.027007	0.020268	6666.354656	45726.112375	4003.175662	23460.170412
59.535500	0.028930	0.014824	0.032188	0.038209	6518.819734	44028.926867	3967.129753	22623.207956
60.035500	0.038442	0.020855	0.037558	0.059839	6416.014332	42574.885141	3922.701083	21659.058197
60.536000	0.047530	0.026243	0.048643	0.080631	6319.397537	41189.273148	3896.957804	20776.430284
61.036000	0.052329	0.029019	0.053524	0.089507	6286.347482	40654.089958	3886.531423	20412.348444
61.536500	0.058797	0.033429	0.063467	0.117916	6113.734164	38619.794057	3839.558851	19295.767629
62.036500	0.065661	0.038595	0.067592	0.127731	6091.171745	38238.616837	3825.482463	18926.680186
62.537000	0.076432	0.043160	0.081553	0.137981	6095.144382	37777.907406	3834.643149	18550.030843
63.037500	0.082828	0.047875	0.090149	0.153606	6025.494177	36910.581747	3817.359646	17992.693061
63.534500	0.085485	0.050917	0.093418	0.156587	6023.071334	36915.329432	3818.062295	17888.610117
64.035500	0.091230	0.054296	0.099717	0.164443	6007.362658	36565.626511	3814.270497	17617.764234
64.536000	0.099489	0.059499	0.104157	0.175340	5987.836339	36126.053700	3798.682585	17250.062280
65.035500	0.097425	0.060202	0.105296	0.182519	5920.335895	35633.005833	3784.310327	17012.805359
65.539000	0.102897	0.064385	0.115860	0.184200	5947.844298	35822.617798	3805.517622	16957.822512
66.036500	0.105372	0.065441	0.115397	0.184294	5965.241063	35895.789905	3804.173055	16954.734228
66.537500	0.110317	0.067671	0.116627	0.187171	5980.443303	35846.603505	3800.216281	16861.159045
67.043000	0.113754	0.067560	0.123008	0.185739	6016.496453	35947.181534	3819.131649	16907.661111
67.540000	0.115259	0.068577	0.115620	0.187175	6017.006842	35915.196276	3797.792272	16861.017818
68.037000	0.115948	0.069074	0.119432	0.188323	6013.587925	35865.584628	3804.188083	16823.831035
68.535000	0.118647	0.072381	0.127522	0.192244	6004.512482	35818.932517	3814.277934	16697.603876
69.035500	0.117810	0.072468	0.128370	0.197236	5961.552130	35448.232869	3804.248709	16538.524069
69.535500	0.119826	0.072850	0.124152	0.193912	6000.886544	35727.962448	3802.098796	16644.260424
70.036000	0.122224	0.073896	0.128500	0.195134	6009.605654	35714.567400	3809.638427	16605.278095
70.536000	0.121965	0.074643	0.127248	0.196091	6000.585202	35698.743513	3804.304912	16574.856773
71.036000	0.124072	0.076209	0.133298	0.199098	5993.927611	35589.763610	3811.661217	16479.669247
71.537000	0.126405	0.078178	0.132567	0.202122	5988.820407	35510.238942	3802.590163	16384.584350
72.040000	0.128506	0.078171	0.132567	0.202848	5998.982836	35455.109005	3800.844239	16361.852541
72.537500	0.128560	0.079905	0.136399	0.204705	5985.666468	35445.866086	3805.599371	16303.920018
73.035000	0.130677	0.081159	0.139410	0.207100	5983.610829	35360.221440	3807.083387	16229.515765
73.535000	0.132151	0.080891	0.139557	0.208194	5986.412141	35258.381347	3804.799808	16195.688357
74.035500	0.130657	0.083273	0.140168	0.211356	5952.254052	35200.137532	3798.670036	16098.363716
74.538000	0.134457	0.083674	0.144395	0.213363	5965.366017	35080.612199	3804.002209	16036.941902
75.036000	0.133130	0.082429	0.141482	0.217436	5926.030219	34687.856130	3787.314130	15913.172937
75.536500	0.136264	0.083978	0.142382	0.215325	5964.226461	34957.659160	3794.473372	15977.185413
76.036500	0.136901	0.085078	0.146988	0.215906	5964.642381	34996.086646	3804.124375	15959.550884
76.539500	0.139157	0.084810	0.147727	0.215581	5983.602035	35000.283161	3806.688864	15969.392966
77.037000	0.138066	0.085286	0.142360	0.220604	5938.850527	34665.060892	3781.899401	15817.708273
77.537500	0.137904	0.085443	0.150952	0.216634	5966.656517	34969.236288	3811.945364	15937.461149
78.037000	0.139992	0.087072	0.149148	0.217837	5973.147552	35000.752427	3804.673511	15901.049418
78.535000	0.140849	0.086882	0.150306	0.217542	5981.626438	35008.549718	3808.182659	15909.982072
79.035500	0.135496	0.086869	0.148698	0.222595	5905.887579	34635.198665	3792.200826	15758.096891
79.535500	0.139187	0.088753	0.153185	0.219837	5952.609200	34977.147582	3809.596046	15840.767750
80.036500	0.137897	0.089351	0.147417	0.220085	5941.401288	35003.002974	3795.129044	15833.305799
80.536000	0.138050	0.088183	0.148564	0.219769	5944.814621	34939.977344	3798.630600	15842.813414
81.039000	0.134486	0.089043	0.147422	0.226241	5872.570571	34527.501371	3780.546192	15649.559488
81.536500	0.137139	0.089182	0.148172	0.222154	5920.899498	34837.621476	3791.995725	15771.257677
82.037000	0.138459	0.088873	0.153589	0.223783	5918.674289	34695.001671	3801.054454	15722.627346
82.535000	0.138805	0.088744	0.152850	0.225356	5909.825680	34570.390930	3795.518764	15675.837563
83.035000	0.139602	0.088903	0.157341	0.232679	5863.181779	34050.846012	3788.774030	15460.184066
83.538000	0.144506	0.089728	0.152534	0.228941	5925.101143	34380.773089	3786.241316	15569.814750
84.035500	0.144031	0.090713	0.156795	0.230153	5912.917809	34364.229171	3793.485593	15534.168333
84.536000	0.145750	0.090364	0.160299	0.230081	5925.850472	34344.139208	3802.043953	15536.269614
85.036000	0.141680	0.089515	0.152799	0.235161	5860.321277	33916.600009	3772.239533	15387.920893
85.539000	0.145633	0.091522	0.156835	0.231540	5914.469877	34322.247491	3790.279012	15493.487265
86.037000	0.146579	0.091199	0.159872	0.232167	5916.773941	34253.475971	3796.022077	15475.156490
86.537000	0.145693	0.090936	0.158663	0.232701	5906.534286	34195.760474	3791.863265	15459.525755
87.034500	0.146937	0.090692	0.158585	0.239407	5867.494742	33697.593987	3775.842667	15265.232448
87.535000	0.148594	0.092076	0.160429	0.235389	5908.062836	34084.103093	3789.671642	15381.285678
88.038000	0.150111	0.093549	0.158356	0.236393	5911.762837	34117.878531	3782.389494	15352.185620
88.535500	0.149704	0.093082	0.156870	0.236630	5907.121802	34067.148961	3778.334137	15345.322482
89.036000	0.148272	0.092558	0.158500	0.240441	5869.629434	33756.833774	3773.223317	15235.543109
89.536000	0.147232	0.093643	0.160750	0.237327	5884.407897	34057.404274	3785.837929	15325.178388
90.036000	0.148356	0.094662	0.157659	0.238137	5886.652474	34072.492877	3776.648616	15301.802881
90.536000	0.149667	0.093903	0.157461	0.237930	5897.521049	34032.763631	3776.670633	15307.774340
91.037500	0.148128	0.094840	0.155517	0.242777	5852.055095	33753.007538	3760.868288	15168.727148
91.537500	0.149230	0.095257	0.158694	0.238959	5887.025755	34056.162444	3777.149296	15278.138365
92.034500	0.152073	0.094847	0.162217	0.238632	5909.767032	34050.172691	3786.222829	15287.548187
92.535000	0.151690	0.095036	0.161117	0.238864	5905.340825	34047.057715	3783.073880	15280.862044
93.035000	0.148582	0.095892	0.156564	0.244066	5846.152909	33736.074298	3760.308703	15131.994851
93.536000	0.152831	0.096231	0.159637	0.239675	5907.720139	34074.702537	3777.682286	15257.539121
94.035500	0.150671	0.094973	0.159182	0.238385	5901.461175	34076.992159	3779.644001	15294.651216
94.539000	0.151200	0.095141	0.162547	0.238800	5902.280170	34059.213973	3786.604578	15282.697535
95.036500	0.149031	0.095961	0.156320	0.245444	5839.610143	33642.994272	3756.572661	15092.860136
95.537000	0.150728	0.095635	0.163322	0.238898	5898.187618	34087.721100	3788.209934	15279.877056
96.037000	0.153606	0.096940	0.166996	0.238857	5919.205183	34184.859285	3797.058828	15281.068909
96.537500	0.152824	0.096613	0.165035	0.238329	5917.366348	34199.288063	3793.637591	15296.265613
97.037500	0.150284	0.096837	0.161897	0.244606	5854.364544	33764.992518	3771.430124	15116.659295
