sample name	sample
index	422
start time	 03-08-2021  11:38:27 AM


Wavelength (nm)	Absorbance
494.344910	0.149091
494.563924	0.149091
494.782919	0.149091
495.001897	0.220173
495.220856	-0.033001
495.439797	-0.058141
495.658719	-0.002329
495.877624	-0.016526
496.096510	-0.005589
496.315378	-0.024247
496.534227	0.020784
496.753059	0.056297
496.971872	0.017333
497.190667	0.163053
497.409444	0.169661
497.628203	0.159363
497.846943	0.161230
498.065665	0.158665
498.284369	0.160313
498.503055	0.159498
498.721723	0.159302
498.940372	0.160593
499.159003	0.159997
499.377616	0.159180
499.596210	0.159650
499.814787	0.159598
500.033345	0.160327
500.251885	0.160643
500.470406	0.161154
500.688910	0.160292
500.907395	0.160649
501.125862	0.160335
501.344311	0.160185
501.562742	0.161095
501.781154	0.161098
501.999548	0.162167
502.217924	0.161604
502.436282	0.162368
502.654621	0.162515
502.872942	0.162294
503.091245	0.162480
503.309530	0.161261
503.527797	0.161141
503.746045	0.161298
503.964275	0.160385
504.182487	0.159792
504.400681	0.159247
504.618856	0.159778
504.837013	0.159470
505.055152	0.158725
505.273273	0.161416
505.491376	0.161105
505.709460	0.160625
505.927526	0.160582
506.145574	0.161784
506.363604	0.162070
506.581615	0.161699
506.799608	0.162378
507.017583	0.164427
507.235540	0.163257
507.453478	0.164682
507.671399	0.165554
507.889301	0.165726
508.107185	0.164959
508.325050	0.165822
508.542898	0.166708
508.760727	0.166557
508.978538	0.165190
509.196330	0.165864
509.414105	0.164704
509.631861	0.164823
509.849599	0.165378
510.067319	0.166432
510.285021	0.166102
510.502704	0.166363
510.720369	0.166995
510.938016	0.167370
511.155645	0.168128
511.373255	0.169093
511.590848	0.168832
511.808422	0.169082
512.025977	0.169157
512.243515	0.168858
512.461034	0.169221
512.678536	0.169054
512.896018	0.169491
513.113483	0.168553
513.330930	0.168519
513.548358	0.168908
513.765768	0.168957
513.983160	0.168629
514.200533	0.169548
514.417889	0.170073
514.635226	0.170347
514.852545	0.169847
515.069845	0.170143
515.287128	0.170558
515.504392	0.171134
515.721638	0.170817
515.938866	0.171467
516.156075	0.171317
516.373267	0.171782
516.590440	0.173020
516.807594	0.173747
517.024731	0.174349
517.241850	0.174626
517.458950	0.174584
517.676032	0.175808
517.893095	0.175810
518.110141	0.176119
518.327168	0.175091
518.544177	0.174921
518.761168	0.175360
518.978141	0.174822
519.195095	0.175260
519.412031	0.175406
519.628949	0.175433
519.845849	0.176406
520.062731	0.176577
520.279594	0.178025
520.496439	0.178068
520.713266	0.178785
520.930074	0.179287
521.146865	0.179506
521.363637	0.179865
521.580391	0.179776
521.797127	0.179998
522.013844	0.180523
522.230543	0.180399
522.447224	0.180737
522.663887	0.180593
522.880532	0.180833
523.097158	0.180898
523.313766	0.181669
523.530356	0.182362
523.746928	0.182396
523.963481	0.182243
524.180017	0.182447
524.396534	0.182772
524.613032	0.182783
524.829513	0.183941
525.045975	0.183899
525.262420	0.183338
525.478845	0.183470
525.695253	0.183409
525.911643	0.183729
526.128014	0.184119
526.344367	0.183917
526.560702	0.184225
526.777018	0.184389
526.993316	0.185547
527.209597	0.186071
527.425858	0.186295
527.642102	0.186368
527.858328	0.187046
528.074535	0.186889
528.290724	0.187729
528.506894	0.188481
528.723047	0.188272
528.939181	0.188193
529.155297	0.188721
529.371395	0.189802
529.587475	0.190600
529.803536	0.191092
530.019579	0.191581
530.235604	0.191686
530.451611	0.191547
530.667600	0.192165
530.883570	0.192567
531.099522	0.193016
531.315456	0.193391
531.531372	0.193231
531.747269	0.193230
531.963148	0.194033
532.179009	0.194341
532.394852	0.194912
532.610676	0.195001
532.826482	0.195454
533.042271	0.195329
533.258040	0.194977
533.473792	0.195352
533.689525	0.196120
533.905240	0.196377
534.120937	0.196429
534.336616	0.196648
534.552277	0.197007
534.767919	0.197509
534.983543	0.198487
535.199149	0.198905
535.414736	0.199855
535.630306	0.199333
535.845857	0.199412
536.061390	0.199795
536.276904	0.200498
536.492401	0.200757
536.707879	0.201190
536.923339	0.201176
537.138781	0.201829
537.354204	0.201923
537.569610	0.203071
537.784997	0.203434
538.000366	0.204295
538.215716	0.204510
538.431049	0.205395
538.646363	0.205169
538.861659	0.205929
539.076937	0.206226
539.292196	0.206959
539.507438	0.207203
539.722661	0.207639
539.937866	0.207358
540.153052	0.207442
540.368221	0.207588
540.583371	0.208153
540.798503	0.207885
541.013617	0.207954
541.228712	0.208147
541.443789	0.208862
541.658848	0.209252
541.873889	0.209610
542.088912	0.210460
542.303916	0.210471
542.518902	0.210563
542.733870	0.210677
542.948820	0.210896
543.163752	0.210990
543.378665	0.210872
543.593560	0.210992
543.808437	0.211689
544.023295	0.211698
544.238136	0.212211
544.452958	0.212618
544.667762	0.213542
544.882548	0.213741
545.097315	0.214640
545.312064	0.214985
545.526795	0.215104
545.741508	0.215047
545.956203	0.215196
546.170879	0.215647
546.385537	0.215910
546.600177	0.215785
546.814799	0.215991
547.029402	0.215947
547.243988	0.216005
547.458555	0.216448
547.673103	0.217051
547.887634	0.217310
548.102146	0.217142
548.316640	0.217426
548.531116	0.217629
548.745574	0.218111
548.960013	0.217738
549.174435	0.218271
549.388838	0.218143
549.603222	0.218557
549.817589	0.218737
550.031937	0.219389
550.246267	0.219845
550.460579	0.219854
550.674873	0.219937
550.889148	0.220414
551.103405	0.220981
551.317644	0.221659
551.531865	0.221348
551.746068	0.221554
551.960252	0.221527
552.174418	0.221332
552.388566	0.222096
552.602696	0.222655
552.816807	0.222876
553.030900	0.222554
553.244975	0.222918
553.459032	0.223323
553.673070	0.223200
553.887091	0.223551
554.101093	0.223856
554.315077	0.223883
554.529042	0.223934
554.742990	0.224149
554.956919	0.224779
555.170830	0.225142
555.384722	0.225587
555.598597	0.226608
555.812453	0.226789
556.026291	0.227595
556.240111	0.227913
556.453913	0.228449
556.667696	0.228694
556.881461	0.228617
557.095208	0.228492
557.308937	0.228681
557.522647	0.228593
557.736339	0.228495
557.950013	0.228254
558.163669	0.228362
558.377307	0.228038
558.590926	0.228167
558.804527	0.228357
559.018110	0.228834
559.231675	0.229080
559.445221	0.229323
559.658749	0.229348
559.872259	0.229289
560.085751	0.230228
560.299225	0.230851
560.512680	0.231330
560.726117	0.231690
560.939536	0.231909
561.152937	0.232251
561.366319	0.232697
561.579683	0.233274
561.793029	0.233896
562.006357	0.233580
562.219667	0.233962
562.432958	0.233964
562.646231	0.234334
562.859486	0.234290
563.072723	0.234392
563.285941	0.234296
563.499141	0.234314
563.712323	0.234635
563.925487	0.234926
564.138632	0.234971
564.351760	0.235353
564.564869	0.235452
564.777960	0.235726
564.991032	0.235629
565.204087	0.235966
565.417123	0.236433
565.630141	0.236205
565.843140	0.236232
566.056122	0.236303
566.269085	0.236653
566.482030	0.236812
566.694957	0.236964
566.907866	0.237307
567.120756	0.237455
567.333628	0.237785
567.546482	0.238150
567.759318	0.238490
567.972135	0.238591
568.184935	0.238871
568.397716	0.238908
568.610478	0.239017
568.823223	0.239386
569.035949	0.239290
569.248657	0.239492
569.461347	0.239868
569.674019	0.240338
569.886672	0.240434
570.099308	0.240550
570.311925	0.240940
570.524523	0.241024
570.737104	0.241015
570.949666	0.241781
571.162210	0.242124
571.374736	0.242243
571.587244	0.242262
571.799733	0.243034
572.012205	0.242897
572.224658	0.242921
572.437092	0.243669
572.649509	0.243970
572.861907	0.243948
573.074287	0.243943
573.286649	0.244313
573.498993	0.244756
573.711318	0.244639
573.923625	0.244883
574.135914	0.244923
574.348185	0.244722
574.560438	0.245065
574.772672	0.245112
574.984888	0.245336
575.197086	0.245098
575.409266	0.244984
575.621427	0.245167
575.833570	0.245236
576.045695	0.245650
576.257802	0.245950
576.469890	0.246021
576.681961	0.246120
576.894013	0.246493
577.106046	0.246779
577.318062	0.247238
577.530059	0.247388
577.742039	0.248027
577.954000	0.248136
578.165942	0.248374
578.377867	0.248469
578.589773	0.248907
578.801661	0.248933
579.013531	0.249077
579.225382	0.249197
579.437216	0.249311
579.649031	0.249419
579.860828	0.249828
580.072606	0.250290
580.284367	0.250992
580.496109	0.251409
580.707833	0.251981
580.919539	0.252718
581.131227	0.252814
581.342896	0.253253
581.554547	0.253554
581.766180	0.253853
581.977795	0.253846
582.189391	0.254203
582.400969	0.254406
582.612529	0.254395
582.824071	0.254569
583.035595	0.254993
583.247100	0.255344
583.458587	0.255205
583.670056	0.255288
583.881506	0.255718
584.092939	0.255592
584.304353	0.255819
584.515749	0.256159
584.727127	0.256180
584.938486	0.256015
585.149828	0.256376
585.361151	0.256864
585.572456	0.257533
585.783742	0.257691
585.995011	0.257813
586.206261	0.258135
586.417493	0.258299
586.628706	0.258492
586.839902	0.259018
587.051079	0.258562
587.262238	0.258672
587.473379	0.258868
587.684502	0.258992
587.895606	0.258915
588.106692	0.258953
588.317760	0.259186
588.528810	0.259229
588.739841	0.258989
588.950855	0.259767
589.161850	0.260384
589.372827	0.260358
589.583785	0.260685
589.794726	0.261302
590.005648	0.261794
590.216552	0.262107
590.427437	0.262397
590.638305	0.262778
590.849154	0.262803
591.059985	0.262420
591.270798	0.262766
591.481592	0.262427
591.692369	0.262245
591.903127	0.262127
592.113867	0.262348
592.324588	0.263069
592.535292	0.263340
592.745977	0.263298
592.956644	0.263802
593.167293	0.263491
593.377923	0.264098
593.588536	0.264450
593.799130	0.264550
594.009706	0.264638
594.220263	0.264525
594.430803	0.264511
594.641324	0.264894
594.851827	0.265177
595.062312	0.265727
595.272778	0.265845
595.483227	0.266108
595.693657	0.266503
595.904069	0.266507
596.114462	0.266671
596.324838	0.267008
596.535195	0.267408
596.745534	0.267549
596.955855	0.267744
597.166157	0.267931
597.376441	0.268415
597.586707	0.268708
597.796955	0.269133
598.007185	0.269357
598.217396	0.269274
598.427589	0.269581
598.637764	0.269632
598.847921	0.269702
599.058060	0.269985
599.268180	0.269697
599.478282	0.269759
599.688366	0.269650
599.898431	0.269886
600.108479	0.270376
600.318508	0.270317
600.528519	0.270508
600.738511	0.270753
600.948486	0.270904
601.158442	0.271333
601.368380	0.271484
601.578300	0.271823
601.788202	0.271981
601.998085	0.272095
602.207950	0.271990
602.417797	0.272274
602.627626	0.272507
602.837436	0.272785
603.047228	0.272942
603.257002	0.273413
603.466758	0.273644
603.676496	0.273743
603.886215	0.274085
604.095916	0.274463
604.305599	0.274576
604.515264	0.274573
604.724910	0.274776
604.934538	0.275196
605.144148	0.275215
605.353740	0.275340
605.563314	0.275524
605.772869	0.275947
605.982406	0.276403
606.191925	0.276534
606.401425	0.276638
606.610908	0.277008
606.820372	0.276983
607.029818	0.277087
607.239246	0.277249
607.448655	0.277679
607.658047	0.277786
607.867420	0.277982
608.076775	0.277982
608.286111	0.278665
608.495430	0.278500
608.704730	0.278704
608.914012	0.279292
609.123275	0.279639
609.332521	0.279785
609.541748	0.279896
609.750957	0.280008
609.960148	0.280456
610.169321	0.280454
610.378475	0.280811
610.587611	0.281058
610.796729	0.280720
611.005829	0.280348
611.214910	0.280578
611.423974	0.280809
611.633019	0.281222
611.842045	0.281340
612.051054	0.281274
612.260044	0.281454
612.469017	0.281689
612.677970	0.282026
612.886906	0.282710
613.095824	0.282658
613.304723	0.282883
613.513604	0.282718
613.722467	0.282995
613.931311	0.283479
614.140138	0.283474
614.348946	0.283416
614.557736	0.283465
614.766507	0.283680
614.975261	0.283799
615.183996	0.283748
615.392713	0.283873
615.601412	0.283987
615.810092	0.283978
616.018754	0.284395
616.227399	0.284921
616.436024	0.285326
616.644632	0.285396
616.853222	0.285594
617.061793	0.285989
617.270346	0.286275
617.478880	0.286517
617.687397	0.286871
617.895895	0.286980
618.104375	0.287155
618.312837	0.287172
618.521281	0.287101
618.729706	0.287391
618.938113	0.287687
619.146502	0.287773
619.354873	0.287916
619.563226	0.287846
619.771560	0.287784
619.979876	0.287756
620.188174	0.288071
620.396453	0.288676
620.604715	0.288777
620.812958	0.288428
621.021183	0.288422
621.229390	0.288403
621.437578	0.288404
621.645748	0.288855
621.853900	0.288940
622.062034	0.288866
622.270150	0.288843
622.478247	0.289037
622.686326	0.289389
622.894387	0.289596
623.102430	0.290160
623.310454	0.290421
623.518461	0.290376
623.726449	0.290389
623.934418	0.290798
624.142370	0.291049
624.350303	0.290845
624.558218	0.291264
624.766115	0.291866
624.973994	0.291778
625.181855	0.292092
625.389697	0.292268
625.597521	0.292607
625.805327	0.292530
626.013114	0.292465
626.220883	0.292931
626.428634	0.292736
626.636367	0.292772
626.844082	0.292706
627.051778	0.293022
627.259457	0.293134
627.467117	0.293272
627.674758	0.293220
627.882382	0.293703
628.089987	0.294401
628.297574	0.294785
628.505143	0.294923
628.712694	0.295478
628.920226	0.295543
629.127740	0.296154
629.335236	0.296358
629.542714	0.297083
629.750174	0.297102
629.957615	0.296827
630.165038	0.296811
630.372443	0.297040
630.579829	0.297060
630.787198	0.297085
630.994548	0.297173
631.201880	0.297371
631.409194	0.297055
631.616489	0.297252
631.823766	0.297549
632.031025	0.297901
632.238266	0.297823
632.445489	0.298046
632.652693	0.298246
632.859879	0.298146
633.067047	0.298268
633.274197	0.298762
633.481329	0.298847
633.688442	0.299062
633.895537	0.299387
634.102614	0.299598
634.309672	0.299819
634.516713	0.300167
634.723735	0.300512
634.930739	0.300590
635.137724	0.300665
635.344692	0.300863
635.551641	0.300703
635.758572	0.300896
635.965485	0.301351
636.172379	0.301384
636.379256	0.301346
636.586114	0.301428
636.792954	0.301918
636.999775	0.302225
637.206579	0.302352
637.413364	0.303000
637.620131	0.303006
637.826880	0.302884
638.033610	0.303100
638.240323	0.303208
638.447017	0.303337
638.653692	0.303353
638.860350	0.303616
639.066990	0.303865
639.273611	0.303653
639.480214	0.303841
639.686798	0.304077
639.893365	0.304303
640.099913	0.304561
640.306443	0.304690
640.512955	0.305011
640.719449	0.304991
640.925924	0.305159
641.132381	0.305528
641.338820	0.305849
641.545241	0.306138
641.751644	0.306648
641.958028	0.307046
642.164394	0.307235
642.370742	0.307312
642.577071	0.307621
642.783383	0.307795
642.989676	0.308026
643.195951	0.308085
643.402207	0.308298
643.608446	0.308321
643.814666	0.308535
644.020868	0.308924
644.227052	0.309259
644.433218	0.309219
644.639365	0.309473
644.845494	0.309500
645.051605	0.309664
645.257698	0.309936
645.463772	0.310086
645.669828	0.310157
645.875866	0.310349
646.081886	0.310595
646.287888	0.311038
646.493871	0.311176
646.699836	0.311368
646.905783	0.311646
647.111712	0.311722
647.317622	0.311845
647.523514	0.311876
647.729388	0.312064
647.935244	0.312432
648.141082	0.312548
648.346901	0.312895
648.552702	0.313159
648.758485	0.313358
648.964250	0.313605
649.169996	0.313775
649.375724	0.314253
649.581434	0.314461
649.787126	0.314301
649.992800	0.314717
650.198455	0.314941
650.404092	0.315323
650.609711	0.315551
650.815311	0.315539
651.020894	0.315964
651.226458	0.316027
651.432004	0.316185
651.637532	0.316371
651.843041	0.316572
652.048532	0.316738
652.254006	0.316698
652.459460	0.316935
652.664897	0.317098
652.870315	0.317161
653.075716	0.317642
653.281097	0.318019
653.486461	0.318428
653.691807	0.318452
653.897134	0.318643
654.102443	0.319053
654.307734	0.319253
654.513006	0.319655
654.718261	0.319917
654.923497	0.320040
655.128715	0.320149
655.333915	0.320146
655.539096	0.320412
655.744259	0.320607
655.949404	0.320612
656.154531	0.320839
656.359640	0.321044
656.564730	0.321284
656.769802	0.321254
656.974856	0.321256
657.179892	0.321635
657.384909	0.321715
657.589908	0.322035
657.794889	0.322345
657.999852	0.322615
658.204797	0.322836
658.409723	0.323266
658.614631	0.323682
658.819521	0.324039
659.024393	0.324085
659.229246	0.324509
659.434081	0.324474
659.638898	0.324835
659.843697	0.324940
660.048478	0.325352
660.253240	0.325392
660.457984	0.325580
660.662710	0.325695
660.867417	0.325988
661.072107	0.325981
661.276778	0.326322
661.481431	0.326249
661.686066	0.326431
661.890682	0.326410
662.095281	0.326410
662.299861	0.326664
662.504422	0.326991
662.708966	0.327305
662.913491	0.327691
663.117999	0.327790
663.322488	0.328158
663.526958	0.328242
663.731411	0.328602
663.935845	0.329154
664.140261	0.329341
664.344659	0.329846
664.549038	0.330007
664.753400	0.330125
664.957743	0.330658
665.162068	0.330922
665.366375	0.331264
665.570663	0.331406
665.774933	0.331407
665.979185	0.331961
666.183419	0.332111
666.387635	0.332655
666.591832	0.333011
666.796011	0.333232
667.000172	0.333464
667.204315	0.334146
667.408439	0.334541
667.612545	0.334684
667.816634	0.334819
668.020703	0.335109
668.224755	0.335161
668.428788	0.335604
668.632803	0.335832
668.836800	0.336297
669.040779	0.336288
669.244739	0.336565
669.448681	0.337100
669.652605	0.337370
669.856511	0.337436
670.060399	0.337793
670.264268	0.337886
670.468119	0.337888
670.671952	0.337904
670.875767	0.338026
671.079563	0.338179
671.283341	0.338314
671.487101	0.338491
671.690843	0.338592
671.894567	0.338645
672.098272	0.339000
672.301959	0.339578
672.505628	0.339635
672.709278	0.340005
672.912911	0.340299
673.116525	0.340184
673.320121	0.340344
673.523699	0.340400
673.727258	0.340686
673.930799	0.340664
674.134322	0.340858
674.337827	0.341152
674.541314	0.341205
674.744782	0.341228
674.948232	0.341737
675.151664	0.341802
675.355078	0.342250
675.558474	0.342401
675.761851	0.342863
675.965210	0.342738
676.168551	0.342992
676.371873	0.343317
676.575178	0.343637
676.778464	0.343819
676.981732	0.344196
677.184981	0.344415
677.388213	0.344626
677.591426	0.344751
677.794621	0.345365
677.997798	0.345727
678.200956	0.345819
678.404097	0.346163
678.607219	0.346557
678.810323	0.346659
679.013408	0.346896
679.216476	0.347134
679.419525	0.347434
679.622556	0.347522
679.825569	0.347727
680.028563	0.348020
680.231540	0.348122
680.434498	0.348232
680.637438	0.348569
680.840359	0.348802
681.043263	0.349088
681.246148	0.349213
681.449015	0.349202
681.651864	0.349398
681.854694	0.349653
682.057506	0.349812
682.260301	0.350258
682.463076	0.350351
682.665834	0.350715
682.868573	0.351158
683.071295	0.351393
683.273998	0.351907
683.476682	0.352164
683.679349	0.352215
683.881997	0.352707
684.084627	0.352810
684.287239	0.353081
684.489833	0.353354
684.692408	0.353351
684.894965	0.353469
685.097504	0.353751
685.300025	0.354151
685.502527	0.354557
685.705012	0.354710
685.907478	0.354998
686.109925	0.355277
686.312355	0.355395
686.514766	0.355707
686.717159	0.356281
686.919534	0.356417
687.121891	0.356483
687.324230	0.356639
687.526550	0.356889
687.728852	0.356689
687.931136	0.356824
688.133401	0.357008
688.335649	0.357082
688.537878	0.356792
688.740089	0.357025
688.942281	0.357240
689.144456	0.357478
689.346612	0.357666
689.548750	0.358373
689.750870	0.358755
689.952971	0.358869
690.155055	0.359137
690.357120	0.359552
690.559167	0.359512
690.761195	0.359709
690.963206	0.359875
691.165198	0.359944
691.367172	0.359679
691.569128	0.359603
691.771065	0.359740
691.972984	0.359529
692.174885	0.359479
692.376768	0.359901
692.578633	0.360086
692.780479	0.360134
692.982308	0.360294
693.184118	0.360677
693.385909	0.360835
