sample name	sample
index	170
start time	 02-18-2021  10:24:01 AM


Wavelength (nm)	Absorbance
494.344910	0.005866
494.563924	0.005866
494.782919	0.005866
495.001897	-0.140839
495.220856	-0.026610
495.439797	-0.032544
495.658719	-0.031739
495.877624	-0.030245
496.096510	-0.012616
496.315378	-0.024779
496.534227	-0.036748
496.753059	-0.020618
496.971872	-0.010701
497.190667	0.102935
497.409444	0.140344
497.628203	0.147137
497.846943	0.152250
498.065665	0.156084
498.284369	0.158986
498.503055	0.160758
498.721723	0.161909
498.940372	0.162235
499.159003	0.162153
499.377616	0.160937
499.596210	0.161081
499.814787	0.160729
500.033345	0.159863
500.251885	0.159735
500.470406	0.160250
500.688910	0.161091
500.907395	0.160863
501.125862	0.160656
501.344311	0.161378
501.562742	0.162769
501.781154	0.163188
501.999548	0.163168
502.217924	0.164189
502.436282	0.163886
502.654621	0.162721
502.872942	0.163279
503.091245	0.164682
503.309530	0.164422
503.527797	0.163529
503.746045	0.163717
503.964275	0.164848
504.182487	0.164127
504.400681	0.164839
504.618856	0.166178
504.837013	0.165971
505.055152	0.164423
505.273273	0.165044
505.491376	0.165913
505.709460	0.165918
505.927526	0.164887
506.145574	0.164967
506.363604	0.165194
506.581615	0.164803
506.799608	0.164700
507.017583	0.166317
507.235540	0.166756
507.453478	0.167144
507.671399	0.167449
507.889301	0.168936
508.107185	0.169620
508.325050	0.169204
508.542898	0.168982
508.760727	0.170288
508.978538	0.170589
509.196330	0.169944
509.414105	0.169489
509.631861	0.169289
509.849599	0.168670
510.067319	0.167682
510.285021	0.168109
510.502704	0.168421
510.720369	0.168202
510.938016	0.168414
511.155645	0.168838
511.373255	0.168728
511.590848	0.168967
511.808422	0.169639
512.025977	0.170600
512.243515	0.170449
512.461034	0.171045
512.678536	0.170004
512.896018	0.168957
513.113483	0.169765
513.330930	0.170192
513.548358	0.171377
513.765768	0.171441
513.983160	0.172223
514.200533	0.172481
514.417889	0.173382
514.635226	0.174682
514.852545	0.175417
515.069845	0.175024
515.287128	0.175892
515.504392	0.175409
515.721638	0.175233
515.938866	0.174863
516.156075	0.175354
516.373267	0.174982
516.590440	0.175236
516.807594	0.174499
517.024731	0.174094
517.241850	0.173684
517.458950	0.173636
517.676032	0.174231
517.893095	0.174313
518.110141	0.174895
518.327168	0.174581
518.544177	0.174907
518.761168	0.175900
518.978141	0.176199
519.195095	0.176063
519.412031	0.176547
519.628949	0.176227
519.845849	0.176073
520.062731	0.176221
520.279594	0.176594
520.496439	0.176420
520.713266	0.177142
520.930074	0.177378
521.146865	0.177521
521.363637	0.177507
521.580391	0.178118
521.797127	0.179189
522.013844	0.178703
522.230543	0.178300
522.447224	0.178171
522.663887	0.178484
522.880532	0.179217
523.097158	0.179809
523.313766	0.179947
523.530356	0.179812
523.746928	0.179169
523.963481	0.179161
524.180017	0.180049
524.396534	0.181198
524.613032	0.180890
524.829513	0.181061
525.045975	0.181553
525.262420	0.181780
525.478845	0.182374
525.695253	0.182838
525.911643	0.183478
526.128014	0.183491
526.344367	0.183069
526.560702	0.183189
526.777018	0.182702
526.993316	0.182605
527.209597	0.182201
527.425858	0.182438
527.642102	0.183406
527.858328	0.184242
528.074535	0.184404
528.290724	0.184948
528.506894	0.184418
528.723047	0.185473
528.939181	0.185867
529.155297	0.186726
529.371395	0.186943
529.587475	0.187035
529.803536	0.187043
530.019579	0.187559
530.235604	0.187487
530.451611	0.188805
530.667600	0.189110
530.883570	0.189432
531.099522	0.189826
531.315456	0.190430
531.531372	0.190079
531.747269	0.189854
531.963148	0.191069
532.179009	0.191669
532.394852	0.191811
532.610676	0.192028
532.826482	0.192169
533.042271	0.192800
533.258040	0.191927
533.473792	0.192324
533.689525	0.192743
533.905240	0.191840
534.120937	0.192273
534.336616	0.193041
534.552277	0.193827
534.767919	0.194266
534.983543	0.194574
535.199149	0.196293
535.414736	0.196612
535.630306	0.196799
535.845857	0.197299
536.061390	0.197857
536.276904	0.197388
536.492401	0.197260
536.707879	0.197701
536.923339	0.197826
537.138781	0.197973
537.354204	0.198655
537.569610	0.199379
537.784997	0.200007
538.000366	0.199894
538.215716	0.200445
538.431049	0.200928
538.646363	0.200664
538.861659	0.200590
539.076937	0.200281
539.292196	0.200346
539.507438	0.200536
539.722661	0.200827
539.937866	0.201443
540.153052	0.201862
540.368221	0.201981
540.583371	0.202764
540.798503	0.203414
541.013617	0.203615
541.228712	0.203999
541.443789	0.203801
541.658848	0.203923
541.873889	0.203684
542.088912	0.203982
542.303916	0.203763
542.518902	0.203669
542.733870	0.204138
542.948820	0.204639
543.163752	0.204683
543.378665	0.205349
543.593560	0.204984
543.808437	0.205219
544.023295	0.205224
544.238136	0.205666
544.452958	0.206256
544.667762	0.206288
544.882548	0.206191
545.097315	0.206535
545.312064	0.206706
545.526795	0.207397
545.741508	0.207929
545.956203	0.208709
546.170879	0.209131
546.385537	0.209428
546.600177	0.209694
546.814799	0.210258
547.029402	0.210406
547.243988	0.210481
547.458555	0.210888
547.673103	0.210655
547.887634	0.210164
548.102146	0.210356
548.316640	0.210448
548.531116	0.210505
548.745574	0.210221
548.960013	0.210178
549.174435	0.210553
549.388838	0.210809
549.603222	0.211618
549.817589	0.212351
550.031937	0.212097
550.246267	0.212561
550.460579	0.213198
550.674873	0.214116
550.889148	0.214655
551.103405	0.214603
551.317644	0.214710
551.531865	0.214527
551.746068	0.213869
551.960252	0.214743
552.174418	0.214945
552.388566	0.214991
552.602696	0.214612
552.816807	0.214827
553.030900	0.215257
553.244975	0.215192
553.459032	0.215393
553.673070	0.215881
553.887091	0.215546
554.101093	0.215820
554.315077	0.215752
554.529042	0.216395
554.742990	0.216505
554.956919	0.216849
555.170830	0.217424
555.384722	0.217202
555.598597	0.217559
555.812453	0.217965
556.026291	0.218059
556.240111	0.218420
556.453913	0.218197
556.667696	0.217799
556.881461	0.217692
557.095208	0.218108
557.308937	0.218963
557.522647	0.219362
557.736339	0.219605
557.950013	0.219496
558.163669	0.219348
558.377307	0.220020
558.590926	0.220752
558.804527	0.221190
559.018110	0.220794
559.231675	0.221031
559.445221	0.221121
559.658749	0.221286
559.872259	0.221573
560.085751	0.222072
560.299225	0.221935
560.512680	0.222046
560.726117	0.222493
560.939536	0.222541
561.152937	0.222696
561.366319	0.222756
561.579683	0.223162
561.793029	0.223489
562.006357	0.223679
562.219667	0.224020
562.432958	0.224306
562.646231	0.224012
562.859486	0.224780
563.072723	0.224884
563.285941	0.225010
563.499141	0.224978
563.712323	0.225110
563.925487	0.225225
564.138632	0.225358
564.351760	0.225893
564.564869	0.226319
564.777960	0.226725
564.991032	0.227214
565.204087	0.227779
565.417123	0.227625
565.630141	0.228117
565.843140	0.228371
566.056122	0.228330
566.269085	0.227931
566.482030	0.227639
566.694957	0.227012
566.907866	0.226581
567.120756	0.226803
567.333628	0.227043
567.546482	0.226924
567.759318	0.227183
567.972135	0.227935
568.184935	0.228304
568.397716	0.228833
568.610478	0.229225
568.823223	0.229595
569.035949	0.229670
569.248657	0.230255
569.461347	0.230169
569.674019	0.230100
569.886672	0.229634
570.099308	0.229828
570.311925	0.230343
570.524523	0.230545
570.737104	0.230586
570.949666	0.230604
571.162210	0.230520
571.374736	0.230729
571.587244	0.231125
571.799733	0.231676
572.012205	0.232095
572.224658	0.232038
572.437092	0.232458
572.649509	0.232685
572.861907	0.232561
573.074287	0.232863
573.286649	0.233272
573.498993	0.233334
573.711318	0.233701
573.923625	0.233121
574.135914	0.233095
574.348185	0.233121
574.560438	0.233178
574.772672	0.233638
574.984888	0.233749
575.197086	0.233762
575.409266	0.233892
575.621427	0.233806
575.833570	0.234768
576.045695	0.235313
576.257802	0.235307
576.469890	0.236205
576.681961	0.236263
576.894013	0.236519
577.106046	0.236767
577.318062	0.236990
577.530059	0.237554
577.742039	0.237181
577.954000	0.236950
578.165942	0.237489
578.377867	0.236971
578.589773	0.237234
578.801661	0.237593
579.013531	0.237838
579.225382	0.237847
579.437216	0.237635
579.649031	0.238003
579.860828	0.238548
580.072606	0.238498
580.284367	0.238949
580.496109	0.239074
580.707833	0.239192
580.919539	0.239298
581.131227	0.239452
581.342896	0.239799
581.554547	0.240336
581.766180	0.240081
581.977795	0.240162
582.189391	0.240617
582.400969	0.240850
582.612529	0.240882
582.824071	0.240813
583.035595	0.241300
583.247100	0.241299
583.458587	0.241283
583.670056	0.241671
583.881506	0.241763
584.092939	0.241631
584.304353	0.241933
584.515749	0.242056
584.727127	0.242177
584.938486	0.242221
585.149828	0.242174
585.361151	0.241813
585.572456	0.241820
585.783742	0.241679
585.995011	0.241814
586.206261	0.242003
586.417493	0.241992
586.628706	0.242333
586.839902	0.242323
587.051079	0.242675
587.262238	0.243264
587.473379	0.243537
587.684502	0.243917
587.895606	0.244154
588.106692	0.244094
588.317760	0.244316
588.528810	0.244564
588.739841	0.244762
588.950855	0.244606
589.161850	0.244323
589.372827	0.244101
589.583785	0.244549
589.794726	0.244615
590.005648	0.244487
590.216552	0.244701
590.427437	0.244737
590.638305	0.245132
590.849154	0.245373
591.059985	0.246247
591.270798	0.246768
591.481592	0.246899
591.692369	0.247124
591.903127	0.247543
592.113867	0.248048
592.324588	0.248203
592.535292	0.248512
592.745977	0.249216
592.956644	0.249171
593.167293	0.249437
593.377923	0.249603
593.588536	0.249810
593.799130	0.250165
594.009706	0.250210
594.220263	0.250606
594.430803	0.250752
594.641324	0.250547
594.851827	0.250683
595.062312	0.250679
595.272778	0.250793
595.483227	0.251045
595.693657	0.251151
595.904069	0.251124
596.114462	0.251258
596.324838	0.251242
596.535195	0.251686
596.745534	0.252039
596.955855	0.252341
597.166157	0.252664
597.376441	0.252521
597.586707	0.252775
597.796955	0.253146
598.007185	0.252890
598.217396	0.252999
598.427589	0.253037
598.637764	0.253208
598.847921	0.253182
599.058060	0.253166
599.268180	0.253211
599.478282	0.253423
599.688366	0.253375
599.898431	0.253768
600.108479	0.253948
600.318508	0.254111
600.528519	0.254194
600.738511	0.254630
600.948486	0.254688
601.158442	0.255320
601.368380	0.255417
601.578300	0.255857
601.788202	0.256148
601.998085	0.256278
602.207950	0.256656
602.417797	0.256625
602.627626	0.256828
602.837436	0.256965
603.047228	0.256816
603.257002	0.257148
603.466758	0.256957
603.676496	0.257108
603.886215	0.257341
604.095916	0.257295
604.305599	0.257371
604.515264	0.257422
604.724910	0.258042
604.934538	0.258186
605.144148	0.258385
605.353740	0.258790
605.563314	0.258717
605.772869	0.258925
605.982406	0.259100
606.191925	0.259202
606.401425	0.259578
606.610908	0.259406
606.820372	0.259337
607.029818	0.259120
607.239246	0.259489
607.448655	0.259963
607.658047	0.259771
607.867420	0.259911
608.076775	0.260195
608.286111	0.260367
608.495430	0.260488
608.704730	0.260835
608.914012	0.261268
609.123275	0.260792
609.332521	0.260836
609.541748	0.261341
609.750957	0.261565
609.960148	0.261865
610.169321	0.261690
610.378475	0.261664
610.587611	0.261937
610.796729	0.261832
611.005829	0.262366
611.214910	0.262401
611.423974	0.262567
611.633019	0.262471
611.842045	0.262710
612.051054	0.263009
612.260044	0.263502
612.469017	0.263577
612.677970	0.263753
612.886906	0.263801
613.095824	0.263954
613.304723	0.263598
613.513604	0.263781
613.722467	0.263847
613.931311	0.263813
614.140138	0.264049
614.348946	0.264474
614.557736	0.264487
614.766507	0.264758
614.975261	0.265185
615.183996	0.265816
615.392713	0.265865
615.601412	0.265795
615.810092	0.266009
616.018754	0.266015
616.227399	0.265995
616.436024	0.266196
616.644632	0.266369
616.853222	0.266261
617.061793	0.266321
617.270346	0.266460
617.478880	0.266529
617.687397	0.266568
617.895895	0.266838
618.104375	0.267044
618.312837	0.267379
618.521281	0.267577
618.729706	0.267767
618.938113	0.267948
619.146502	0.268153
619.354873	0.268577
619.563226	0.268623
619.771560	0.268483
619.979876	0.268672
620.188174	0.268703
620.396453	0.268814
620.604715	0.268885
620.812958	0.269076
621.021183	0.269259
621.229390	0.269439
621.437578	0.269727
621.645748	0.270043
621.853900	0.270168
622.062034	0.270340
622.270150	0.270256
622.478247	0.270419
622.686326	0.270397
622.894387	0.270484
623.102430	0.270535
623.310454	0.270786
623.518461	0.270852
623.726449	0.270771
623.934418	0.270917
624.142370	0.271017
624.350303	0.271048
624.558218	0.271314
624.766115	0.271378
624.973994	0.271661
625.181855	0.271589
625.389697	0.271954
625.597521	0.272159
625.805327	0.272454
626.013114	0.272717
626.220883	0.273133
626.428634	0.273153
626.636367	0.273541
626.844082	0.273335
627.051778	0.273694
627.259457	0.273715
627.467117	0.273827
627.674758	0.273731
627.882382	0.273881
628.089987	0.273921
628.297574	0.274371
628.505143	0.274607
628.712694	0.275339
628.920226	0.275648
629.127740	0.275829
629.335236	0.275950
629.542714	0.276253
629.750174	0.276548
629.957615	0.276974
630.165038	0.277018
630.372443	0.276740
630.579829	0.276532
630.787198	0.276466
630.994548	0.276405
631.201880	0.276999
631.409194	0.276765
631.616489	0.276974
631.823766	0.276985
632.031025	0.277067
632.238266	0.277353
632.445489	0.277402
632.652693	0.277507
632.859879	0.277814
633.067047	0.277616
633.274197	0.278169
633.481329	0.277904
633.688442	0.278000
633.895537	0.278303
634.102614	0.278449
634.309672	0.278528
634.516713	0.278771
634.723735	0.278534
634.930739	0.278618
635.137724	0.278376
635.344692	0.278924
635.551641	0.279047
635.758572	0.278958
635.965485	0.279291
636.172379	0.279587
636.379256	0.279793
636.586114	0.280218
636.792954	0.280409
636.999775	0.280692
637.206579	0.280658
637.413364	0.280805
637.620131	0.280998
637.826880	0.280968
638.033610	0.281054
638.240323	0.280860
638.447017	0.281236
638.653692	0.281289
638.860350	0.281467
639.066990	0.281459
639.273611	0.281418
639.480214	0.281701
639.686798	0.282013
639.893365	0.282307
640.099913	0.282491
640.306443	0.282479
640.512955	0.282703
640.719449	0.283057
640.925924	0.283189
641.132381	0.283618
641.338820	0.283650
641.545241	0.283855
641.751644	0.283992
641.958028	0.284529
642.164394	0.284619
642.370742	0.284801
642.577071	0.284749
642.783383	0.285072
642.989676	0.285116
643.195951	0.285104
643.402207	0.285465
643.608446	0.285483
643.814666	0.285516
644.020868	0.285544
644.227052	0.285656
644.433218	0.285752
644.639365	0.285725
644.845494	0.285990
645.051605	0.286372
645.257698	0.286342
645.463772	0.286513
645.669828	0.286740
645.875866	0.287160
646.081886	0.287444
646.287888	0.288000
646.493871	0.288535
646.699836	0.288654
646.905783	0.288799
647.111712	0.289044
647.317622	0.289284
647.523514	0.289550
647.729388	0.289697
647.935244	0.289763
648.141082	0.289889
648.346901	0.289829
648.552702	0.289771
648.758485	0.289930
648.964250	0.290007
649.169996	0.290362
649.375724	0.290446
649.581434	0.290369
649.787126	0.290692
649.992800	0.290912
650.198455	0.291137
650.404092	0.291703
650.609711	0.291970
650.815311	0.292303
651.020894	0.292291
651.226458	0.292486
651.432004	0.292927
651.637532	0.293040
651.843041	0.293195
652.048532	0.293378
652.254006	0.293299
652.459460	0.293288
652.664897	0.293192
652.870315	0.293349
653.075716	0.293397
653.281097	0.293716
653.486461	0.293835
653.691807	0.293750
653.897134	0.293902
654.102443	0.294163
654.307734	0.294385
654.513006	0.294641
654.718261	0.295072
654.923497	0.295213
655.128715	0.295306
655.333915	0.295498
655.539096	0.295803
655.744259	0.296134
655.949404	0.296467
656.154531	0.296754
656.359640	0.296960
656.564730	0.297208
656.769802	0.297369
656.974856	0.297443
657.179892	0.297997
657.384909	0.298319
657.589908	0.298483
657.794889	0.298501
657.999852	0.298689
658.204797	0.298936
658.409723	0.298766
658.614631	0.298926
658.819521	0.299197
659.024393	0.299042
659.229246	0.299068
659.434081	0.299255
659.638898	0.299423
659.843697	0.299423
660.048478	0.299614
660.253240	0.299979
660.457984	0.300194
660.662710	0.300327
660.867417	0.300568
661.072107	0.301059
661.276778	0.301188
661.481431	0.301484
661.686066	0.301767
661.890682	0.301728
662.095281	0.301546
662.299861	0.301994
662.504422	0.302405
662.708966	0.302514
662.913491	0.302586
663.117999	0.302601
663.322488	0.302824
663.526958	0.303166
663.731411	0.303538
663.935845	0.303700
664.140261	0.303665
664.344659	0.303813
664.549038	0.304094
664.753400	0.304211
664.957743	0.304546
665.162068	0.304832
665.366375	0.304687
665.570663	0.304784
665.774933	0.305388
665.979185	0.305677
666.183419	0.305575
666.387635	0.305662
666.591832	0.305765
666.796011	0.306059
667.000172	0.306316
667.204315	0.306710
667.408439	0.306917
667.612545	0.306968
667.816634	0.307223
668.020703	0.307495
668.224755	0.307768
668.428788	0.307996
668.632803	0.308137
668.836800	0.307932
669.040779	0.307983
669.244739	0.308294
669.448681	0.308617
669.652605	0.308593
669.856511	0.308889
670.060399	0.308887
670.264268	0.309098
670.468119	0.309346
670.671952	0.309670
670.875767	0.310044
671.079563	0.310385
671.283341	0.310498
671.487101	0.310838
671.690843	0.311024
671.894567	0.311292
672.098272	0.311546
672.301959	0.311518
672.505628	0.311742
672.709278	0.312062
672.912911	0.312081
673.116525	0.312389
673.320121	0.312595
673.523699	0.312631
673.727258	0.312854
673.930799	0.313045
674.134322	0.313323
674.337827	0.313640
674.541314	0.313852
674.744782	0.314128
674.948232	0.314366
675.151664	0.314633
675.355078	0.314850
675.558474	0.315294
675.761851	0.315605
675.965210	0.316130
676.168551	0.316082
676.371873	0.316249
676.575178	0.316256
676.778464	0.316291
676.981732	0.316572
677.184981	0.316992
677.388213	0.317219
677.591426	0.317335
677.794621	0.317436
677.997798	0.317783
678.200956	0.318095
678.404097	0.318278
678.607219	0.318740
678.810323	0.318903
679.013408	0.318825
679.216476	0.318915
679.419525	0.319200
679.622556	0.319158
679.825569	0.319571
680.028563	0.319803
680.231540	0.320275
680.434498	0.320169
680.637438	0.320076
680.840359	0.320434
681.043263	0.320511
681.246148	0.320567
681.449015	0.320674
681.651864	0.320770
681.854694	0.320669
682.057506	0.320616
682.260301	0.320686
682.463076	0.321106
682.665834	0.321475
682.868573	0.321702
683.071295	0.321679
683.273998	0.322025
683.476682	0.321944
683.679349	0.322524
683.881997	0.322767
684.084627	0.323063
684.287239	0.323300
684.489833	0.323179
684.692408	0.323234
684.894965	0.323449
685.097504	0.323804
685.300025	0.324181
685.502527	0.324022
685.705012	0.324344
685.907478	0.324671
686.109925	0.324762
686.312355	0.325020
686.514766	0.325201
686.717159	0.325335
686.919534	0.325572
687.121891	0.325714
687.324230	0.325887
687.526550	0.326001
687.728852	0.325950
687.931136	0.326203
688.133401	0.326572
688.335649	0.326826
688.537878	0.327156
688.740089	0.326999
688.942281	0.327360
689.144456	0.327422
689.346612	0.327509
689.548750	0.327818
689.750870	0.328017
689.952971	0.328031
690.155055	0.328332
690.357120	0.328580
690.559167	0.328716
690.761195	0.328806
690.963206	0.329010
691.165198	0.329060
691.367172	0.329346
691.569128	0.329503
691.771065	0.329759
691.972984	0.329820
692.174885	0.330122
692.376768	0.330508
692.578633	0.330487
692.780479	0.330517
692.982308	0.330869
693.184118	0.330978
693.385909	0.331150
