sample name	sample
index	1094
start time	 04-22-2021  11:54:05 AM


Wavelength (nm)	Absorbance
494.344910	-0.123039
494.563924	-0.123039
494.782919	-0.123039
495.001897	-0.378187
495.220856	-0.097915
495.439797	-0.088335
495.658719	-0.111794
495.877624	-0.056056
496.096510	0.022331
496.315378	0.036249
496.534227	0.062823
496.753059	0.132492
496.971872	0.126019
497.190667	0.147514
497.409444	0.152077
497.628203	0.153849
497.846943	0.149377
498.065665	0.147205
498.284369	0.147049
498.503055	0.147675
498.721723	0.148392
498.940372	0.149229
499.159003	0.149088
499.377616	0.150145
499.596210	0.148913
499.814787	0.148422
500.033345	0.150636
500.251885	0.150884
500.470406	0.150867
500.688910	0.149418
500.907395	0.148446
501.125862	0.147599
501.344311	0.146957
501.562742	0.147536
501.781154	0.149423
501.999548	0.147483
502.217924	0.147780
502.436282	0.148144
502.654621	0.148875
502.872942	0.149856
503.091245	0.150673
503.309530	0.149715
503.527797	0.150039
503.746045	0.148880
503.964275	0.150157
504.182487	0.150157
504.400681	0.150626
504.618856	0.151027
504.837013	0.151803
505.055152	0.152897
505.273273	0.153520
505.491376	0.154710
505.709460	0.155927
505.927526	0.155556
506.145574	0.155667
506.363604	0.155676
506.581615	0.157089
506.799608	0.156252
507.017583	0.155631
507.235540	0.154863
507.453478	0.154458
507.671399	0.153984
507.889301	0.154529
508.107185	0.155465
508.325050	0.156019
508.542898	0.154710
508.760727	0.155441
508.978538	0.156645
509.196330	0.158498
509.414105	0.159154
509.631861	0.160125
509.849599	0.159835
510.067319	0.159496
510.285021	0.159664
510.502704	0.160142
510.720369	0.159443
510.938016	0.158536
511.155645	0.158109
511.373255	0.157676
511.590848	0.157525
511.808422	0.159204
512.025977	0.159220
512.243515	0.159617
512.461034	0.158328
512.678536	0.158711
512.896018	0.158737
513.113483	0.158686
513.330930	0.159810
513.548358	0.160391
513.765768	0.158932
513.983160	0.160168
514.200533	0.159262
514.417889	0.161100
514.635226	0.162206
514.852545	0.162722
515.069845	0.163466
515.287128	0.163063
515.504392	0.162902
515.721638	0.163989
515.938866	0.163811
516.156075	0.164800
516.373267	0.163911
516.590440	0.164460
516.807594	0.165270
517.024731	0.166177
517.241850	0.166605
517.458950	0.166136
517.676032	0.166199
517.893095	0.166191
518.110141	0.165929
518.327168	0.166889
518.544177	0.166279
518.761168	0.165906
518.978141	0.165285
519.195095	0.165379
519.412031	0.165913
519.628949	0.166038
519.845849	0.166467
520.062731	0.167379
520.279594	0.167684
520.496439	0.168046
520.713266	0.168160
520.930074	0.168486
521.146865	0.168577
521.363637	0.169159
521.580391	0.169116
521.797127	0.169177
522.013844	0.169672
522.230543	0.170187
522.447224	0.170185
522.663887	0.170955
522.880532	0.170859
523.097158	0.171277
523.313766	0.171863
523.530356	0.172290
523.746928	0.172009
523.963481	0.172156
524.180017	0.172327
524.396534	0.173212
524.613032	0.172997
524.829513	0.173238
525.045975	0.174392
525.262420	0.174644
525.478845	0.175246
525.695253	0.176375
525.911643	0.176407
526.128014	0.176917
526.344367	0.177316
526.560702	0.177933
526.777018	0.179094
526.993316	0.179207
527.209597	0.179403
527.425858	0.179564
527.642102	0.179063
527.858328	0.179708
528.074535	0.179817
528.290724	0.179715
528.506894	0.179897
528.723047	0.180382
528.939181	0.181233
529.155297	0.181834
529.371395	0.182209
529.587475	0.182682
529.803536	0.182852
530.019579	0.183250
530.235604	0.183546
530.451611	0.184754
530.667600	0.184379
530.883570	0.184434
531.099522	0.184290
531.315456	0.184802
531.531372	0.185180
531.747269	0.185569
531.963148	0.185792
532.179009	0.186449
532.394852	0.186266
532.610676	0.187027
532.826482	0.187371
533.042271	0.188041
533.258040	0.188820
533.473792	0.189904
533.689525	0.189826
533.905240	0.190290
534.120937	0.190691
534.336616	0.191182
534.552277	0.190769
534.767919	0.190712
534.983543	0.190879
535.199149	0.191400
535.414736	0.191743
535.630306	0.192204
535.845857	0.192216
536.061390	0.192785
536.276904	0.192883
536.492401	0.193621
536.707879	0.194209
536.923339	0.194739
537.138781	0.194270
537.354204	0.194402
537.569610	0.195232
537.784997	0.195347
538.000366	0.195851
538.215716	0.197088
538.431049	0.197581
538.646363	0.197477
538.861659	0.197392
539.076937	0.198295
539.292196	0.198260
539.507438	0.198397
539.722661	0.199391
539.937866	0.199272
540.153052	0.198456
540.368221	0.198717
540.583371	0.198629
540.798503	0.199186
541.013617	0.199313
541.228712	0.199786
541.443789	0.199829
541.658848	0.200213
541.873889	0.200169
542.088912	0.200505
542.303916	0.201115
542.518902	0.202203
542.733870	0.202814
542.948820	0.202797
543.163752	0.202896
543.378665	0.203306
543.593560	0.203273
543.808437	0.204059
544.023295	0.204540
544.238136	0.204978
544.452958	0.204434
544.667762	0.204383
544.882548	0.204619
545.097315	0.204989
545.312064	0.205177
545.526795	0.205158
545.741508	0.205027
545.956203	0.205276
546.170879	0.205281
546.385537	0.206049
546.600177	0.206788
546.814799	0.207110
547.029402	0.207745
547.243988	0.208068
547.458555	0.208721
547.673103	0.209493
547.887634	0.209555
548.102146	0.209859
548.316640	0.210777
548.531116	0.210692
548.745574	0.211461
548.960013	0.211505
549.174435	0.211785
549.388838	0.211968
549.603222	0.212184
549.817589	0.212790
550.031937	0.213199
550.246267	0.212303
550.460579	0.212758
550.674873	0.212575
550.889148	0.212795
551.103405	0.212936
551.317644	0.213334
551.531865	0.212968
551.746068	0.212990
551.960252	0.213007
552.174418	0.213863
552.388566	0.213709
552.602696	0.213544
552.816807	0.213680
553.030900	0.214172
553.244975	0.214214
553.459032	0.214527
553.673070	0.215533
553.887091	0.215632
554.101093	0.216250
554.315077	0.216271
554.529042	0.217055
554.742990	0.217409
554.956919	0.217571
555.170830	0.217514
555.384722	0.218231
555.598597	0.218076
555.812453	0.218698
556.026291	0.218804
556.240111	0.219350
556.453913	0.219513
556.667696	0.219427
556.881461	0.219447
557.095208	0.219530
557.308937	0.218989
557.522647	0.218715
557.736339	0.218858
557.950013	0.218694
558.163669	0.218397
558.377307	0.218230
558.590926	0.218514
558.804527	0.218525
559.018110	0.218914
559.231675	0.219269
559.445221	0.219790
559.658749	0.219633
559.872259	0.219773
560.085751	0.220430
560.299225	0.221032
560.512680	0.221342
560.726117	0.221623
560.939536	0.221762
561.152937	0.222363
561.366319	0.221946
561.579683	0.221822
561.793029	0.222050
562.006357	0.221980
562.219667	0.222134
562.432958	0.222488
562.646231	0.222627
562.859486	0.222759
563.072723	0.222704
563.285941	0.223033
563.499141	0.222671
563.712323	0.222589
563.925487	0.222986
564.138632	0.222921
564.351760	0.222810
564.564869	0.222755
564.777960	0.223074
564.991032	0.223093
565.204087	0.223243
565.417123	0.224029
565.630141	0.224555
565.843140	0.224538
566.056122	0.224806
566.269085	0.224780
566.482030	0.225013
566.694957	0.225206
566.907866	0.225297
567.120756	0.225992
567.333628	0.226734
567.546482	0.226639
567.759318	0.226893
567.972135	0.226911
568.184935	0.227246
568.397716	0.227380
568.610478	0.227664
568.823223	0.227795
569.035949	0.227696
569.248657	0.227444
569.461347	0.227754
569.674019	0.228184
569.886672	0.228295
570.099308	0.228249
570.311925	0.228880
570.524523	0.228889
570.737104	0.228962
570.949666	0.229183
571.162210	0.229473
571.374736	0.229616
571.587244	0.229385
571.799733	0.229551
572.012205	0.229650
572.224658	0.229289
572.437092	0.229099
572.649509	0.229658
572.861907	0.229709
573.074287	0.229633
573.286649	0.229663
573.498993	0.229841
573.711318	0.230196
573.923625	0.230576
574.135914	0.231102
574.348185	0.231471
574.560438	0.231481
574.772672	0.231594
574.984888	0.232089
575.197086	0.232239
575.409266	0.232350
575.621427	0.232329
575.833570	0.232069
576.045695	0.231545
576.257802	0.231892
576.469890	0.231659
576.681961	0.231586
576.894013	0.231434
577.106046	0.231358
577.318062	0.231533
577.530059	0.231229
577.742039	0.231437
577.954000	0.232332
578.165942	0.232301
578.377867	0.232697
578.589773	0.232828
578.801661	0.232979
579.013531	0.233239
579.225382	0.233421
579.437216	0.233714
579.649031	0.234058
579.860828	0.234215
580.072606	0.234541
580.284367	0.234576
580.496109	0.234739
580.707833	0.234646
580.919539	0.234971
581.131227	0.234815
581.342896	0.235115
581.554547	0.235313
581.766180	0.235137
581.977795	0.235296
582.189391	0.236079
582.400969	0.236111
582.612529	0.236202
582.824071	0.236219
583.035595	0.236515
583.247100	0.236757
583.458587	0.237080
583.670056	0.236850
583.881506	0.237112
584.092939	0.236999
584.304353	0.236964
584.515749	0.237195
584.727127	0.237386
584.938486	0.237340
585.149828	0.237316
585.361151	0.237239
585.572456	0.237781
585.783742	0.237563
585.995011	0.237721
586.206261	0.238372
586.417493	0.238882
586.628706	0.238906
586.839902	0.239177
587.051079	0.239543
587.262238	0.239665
587.473379	0.239766
587.684502	0.240167
587.895606	0.239949
588.106692	0.239822
588.317760	0.239669
588.528810	0.239799
588.739841	0.240350
588.950855	0.240496
589.161850	0.240986
589.372827	0.241470
589.583785	0.241738
589.794726	0.242155
590.005648	0.242492
590.216552	0.242966
590.427437	0.243201
590.638305	0.242657
590.849154	0.242614
591.059985	0.242525
591.270798	0.242274
591.481592	0.242090
591.692369	0.241924
591.903127	0.242094
592.113867	0.242101
592.324588	0.242105
592.535292	0.242839
592.745977	0.242894
592.956644	0.242964
593.167293	0.242727
593.377923	0.242830
593.588536	0.243410
593.799130	0.243577
594.009706	0.243549
594.220263	0.243779
594.430803	0.243943
594.641324	0.244397
594.851827	0.244616
595.062312	0.245267
595.272778	0.245366
595.483227	0.244777
595.693657	0.244359
595.904069	0.244307
596.114462	0.244220
596.324838	0.243934
596.535195	0.243598
596.745534	0.243728
596.955855	0.243697
597.166157	0.243885
597.376441	0.244614
597.586707	0.245395
597.796955	0.245706
598.007185	0.245971
598.217396	0.246184
598.427589	0.246970
598.637764	0.247004
598.847921	0.247255
599.058060	0.247489
599.268180	0.247413
599.478282	0.247107
599.688366	0.247385
599.898431	0.247497
600.108479	0.248153
600.318508	0.248132
600.528519	0.248461
600.738511	0.248569
600.948486	0.248437
601.158442	0.248630
601.368380	0.249008
601.578300	0.249162
601.788202	0.249464
601.998085	0.249159
602.207950	0.249167
602.417797	0.249206
602.627626	0.249560
602.837436	0.250084
603.047228	0.250115
603.257002	0.250212
603.466758	0.250320
603.676496	0.250279
603.886215	0.250717
604.095916	0.251068
604.305599	0.251333
604.515264	0.251568
604.724910	0.251865
604.934538	0.252245
605.144148	0.252599
605.353740	0.252967
605.563314	0.253361
605.772869	0.253133
605.982406	0.253289
606.191925	0.253238
606.401425	0.252936
606.610908	0.252802
606.820372	0.252722
607.029818	0.252787
607.239246	0.252988
607.448655	0.253177
607.658047	0.253442
607.867420	0.253680
608.076775	0.254160
608.286111	0.254756
608.495430	0.254928
608.704730	0.255531
608.914012	0.255624
609.123275	0.255365
609.332521	0.255350
609.541748	0.255460
609.750957	0.255344
609.960148	0.255290
610.169321	0.255239
610.378475	0.255546
610.587611	0.255311
610.796729	0.255444
611.005829	0.255887
611.214910	0.256033
611.423974	0.255848
611.633019	0.256208
611.842045	0.256121
612.051054	0.256241
612.260044	0.256224
612.469017	0.256732
612.677970	0.256942
612.886906	0.256781
613.095824	0.257278
613.304723	0.257689
613.513604	0.257550
613.722467	0.257799
613.931311	0.258120
614.140138	0.258200
614.348946	0.257915
614.557736	0.257797
614.766507	0.258119
614.975261	0.257566
615.183996	0.257759
615.392713	0.257920
615.601412	0.257996
615.810092	0.258120
616.018754	0.258050
616.227399	0.258528
616.436024	0.258696
616.644632	0.258965
616.853222	0.259791
617.061793	0.260446
617.270346	0.260405
617.478880	0.260843
617.687397	0.261069
617.895895	0.261520
618.104375	0.261517
618.312837	0.261909
618.521281	0.261962
618.729706	0.261601
618.938113	0.261153
619.146502	0.261652
619.354873	0.261572
619.563226	0.261423
619.771560	0.261427
619.979876	0.261283
620.188174	0.261275
620.396453	0.261436
620.604715	0.261648
620.812958	0.262152
621.021183	0.262221
621.229390	0.262877
621.437578	0.263026
621.645748	0.263134
621.853900	0.263442
622.062034	0.263493
622.270150	0.263395
622.478247	0.263543
622.686326	0.263512
622.894387	0.263509
623.102430	0.263348
623.310454	0.263474
623.518461	0.263599
623.726449	0.263783
623.934418	0.264353
624.142370	0.264611
624.350303	0.265067
624.558218	0.264913
624.766115	0.265137
624.973994	0.265153
625.181855	0.265429
625.389697	0.265516
625.597521	0.265765
625.805327	0.265445
626.013114	0.265511
626.220883	0.265536
626.428634	0.265923
626.636367	0.266113
626.844082	0.266072
627.051778	0.266033
627.259457	0.266280
627.467117	0.266365
627.674758	0.266597
627.882382	0.266822
628.089987	0.266807
628.297574	0.267060
628.505143	0.267170
628.712694	0.267492
628.920226	0.267639
629.127740	0.267922
629.335236	0.267934
629.542714	0.268285
629.750174	0.268156
629.957615	0.268440
630.165038	0.268784
630.372443	0.268960
630.579829	0.269026
630.787198	0.269162
630.994548	0.269345
631.201880	0.269559
631.409194	0.269724
631.616489	0.270020
631.823766	0.270002
632.031025	0.269875
632.238266	0.269849
632.445489	0.270238
632.652693	0.270360
632.859879	0.270248
633.067047	0.270258
633.274197	0.270553
633.481329	0.270888
633.688442	0.271278
633.895537	0.271860
634.102614	0.272114
634.309672	0.271839
634.516713	0.272192
634.723735	0.272371
634.930739	0.272717
635.137724	0.272882
635.344692	0.273115
635.551641	0.273176
635.758572	0.272965
635.965485	0.273109
636.172379	0.273573
636.379256	0.273683
636.586114	0.273818
636.792954	0.273907
636.999775	0.273927
637.206579	0.273977
637.413364	0.274138
637.620131	0.274407
637.826880	0.274283
638.033610	0.274403
638.240323	0.274536
638.447017	0.274558
638.653692	0.274846
638.860350	0.274937
639.066990	0.274997
639.273611	0.275137
639.480214	0.274972
639.686798	0.275592
639.893365	0.275884
640.099913	0.276181
640.306443	0.276568
640.512955	0.276804
640.719449	0.276790
640.925924	0.276984
641.132381	0.276993
641.338820	0.277447
641.545241	0.277358
641.751644	0.277584
641.958028	0.277737
642.164394	0.278053
642.370742	0.278029
642.577071	0.278210
642.783383	0.278211
642.989676	0.278453
643.195951	0.278514
643.402207	0.278761
643.608446	0.278541
643.814666	0.278332
644.020868	0.278381
644.227052	0.278560
644.433218	0.278815
644.639365	0.279262
644.845494	0.279592
645.051605	0.279751
645.257698	0.280010
645.463772	0.280530
645.669828	0.280991
645.875866	0.280905
646.081886	0.281367
646.287888	0.281678
646.493871	0.281855
646.699836	0.281997
646.905783	0.282198
647.111712	0.282469
647.317622	0.282552
647.523514	0.282987
647.729388	0.283538
647.935244	0.283484
648.141082	0.283996
648.346901	0.283987
648.552702	0.284132
648.758485	0.284321
648.964250	0.284491
649.169996	0.284645
649.375724	0.284607
649.581434	0.284851
649.787126	0.285206
649.992800	0.285038
650.198455	0.285540
650.404092	0.285612
650.609711	0.285942
650.815311	0.285997
651.020894	0.286412
651.226458	0.286542
651.432004	0.286803
651.637532	0.286526
651.843041	0.286843
652.048532	0.287196
652.254006	0.287448
652.459460	0.287860
652.664897	0.287979
652.870315	0.287921
653.075716	0.288368
653.281097	0.288864
653.486461	0.289713
653.691807	0.289683
653.897134	0.289595
654.102443	0.289802
654.307734	0.289823
654.513006	0.290293
654.718261	0.290485
654.923497	0.290722
655.128715	0.290349
655.333915	0.290661
655.539096	0.291095
655.744259	0.291423
655.949404	0.291820
656.154531	0.292081
656.359640	0.291888
656.564730	0.292390
656.769802	0.292505
656.974856	0.292977
657.179892	0.292968
657.384909	0.293041
657.589908	0.293109
657.794889	0.293542
657.999852	0.293503
658.204797	0.294027
658.409723	0.294061
658.614631	0.294322
658.819521	0.294771
659.024393	0.294892
659.229246	0.295002
659.434081	0.295363
659.638898	0.295309
659.843697	0.295691
660.048478	0.295882
660.253240	0.296158
660.457984	0.296448
660.662710	0.296551
660.867417	0.296984
661.072107	0.297331
661.276778	0.297498
661.481431	0.297839
661.686066	0.297983
661.890682	0.298378
662.095281	0.298709
662.299861	0.298708
662.504422	0.298531
662.708966	0.298395
662.913491	0.298648
663.117999	0.299012
663.322488	0.298873
663.526958	0.299345
663.731411	0.299436
663.935845	0.299279
664.140261	0.299358
664.344659	0.299961
664.549038	0.300176
664.753400	0.300401
664.957743	0.300508
665.162068	0.300797
665.366375	0.300763
665.570663	0.301163
665.774933	0.301463
665.979185	0.301763
666.183419	0.301505
666.387635	0.301674
666.591832	0.301880
666.796011	0.302098
667.000172	0.302259
667.204315	0.302629
667.408439	0.302717
667.612545	0.303001
667.816634	0.303317
668.020703	0.303908
668.224755	0.304259
668.428788	0.304436
668.632803	0.304647
668.836800	0.304906
669.040779	0.305062
669.244739	0.305062
669.448681	0.305318
669.652605	0.305552
669.856511	0.305714
670.060399	0.305980
670.264268	0.306351
670.468119	0.306508
670.671952	0.307191
670.875767	0.307308
671.079563	0.307802
671.283341	0.308249
671.487101	0.308449
671.690843	0.309017
671.894567	0.309105
672.098272	0.309192
672.301959	0.309557
672.505628	0.309638
672.709278	0.310062
672.912911	0.310125
673.116525	0.310312
673.320121	0.310759
673.523699	0.310944
673.727258	0.311414
673.930799	0.311702
674.134322	0.312030
674.337827	0.312202
674.541314	0.312363
674.744782	0.312718
674.948232	0.312761
675.151664	0.312805
675.355078	0.312785
675.558474	0.312792
675.761851	0.313187
675.965210	0.313330
676.168551	0.313597
676.371873	0.313766
676.575178	0.313962
676.778464	0.314195
676.981732	0.314477
677.184981	0.314667
677.388213	0.315223
677.591426	0.315509
677.794621	0.315709
677.997798	0.315882
678.200956	0.316084
678.404097	0.316374
678.607219	0.316807
678.810323	0.316934
679.013408	0.317204
679.216476	0.317228
679.419525	0.317046
679.622556	0.317152
679.825569	0.317449
680.028563	0.317705
680.231540	0.317728
680.434498	0.317748
680.637438	0.317962
680.840359	0.318297
681.043263	0.318435
681.246148	0.318803
681.449015	0.319120
681.651864	0.319241
681.854694	0.319513
682.057506	0.319765
682.260301	0.320274
682.463076	0.320579
682.665834	0.320628
682.868573	0.320769
683.071295	0.321139
683.273998	0.321294
683.476682	0.321470
683.679349	0.321544
683.881997	0.321924
684.084627	0.322020
684.287239	0.322312
684.489833	0.322477
684.692408	0.322757
684.894965	0.322860
685.097504	0.323189
685.300025	0.323478
685.502527	0.323682
685.705012	0.323778
685.907478	0.323622
686.109925	0.323698
686.312355	0.324119
686.514766	0.324264
686.717159	0.324356
686.919534	0.324380
687.121891	0.324378
687.324230	0.324711
687.526550	0.325023
687.728852	0.325400
687.931136	0.325440
688.133401	0.325648
688.335649	0.325731
688.537878	0.325771
688.740089	0.325861
688.942281	0.326271
689.144456	0.326343
689.346612	0.326287
689.548750	0.326491
689.750870	0.326707
689.952971	0.326245
690.155055	0.326772
690.357120	0.327157
690.559167	0.327367
690.761195	0.327205
690.963206	0.327128
691.165198	0.327304
691.367172	0.327238
691.569128	0.327445
691.771065	0.327983
691.972984	0.327785
692.174885	0.327994
692.376768	0.328237
692.578633	0.328414
692.780479	0.328755
692.982308	0.328887
693.184118	0.329082
693.385909	0.329267
