sample name	sample
index	775
start time	 03-31-2021  01:24:36 PM


Wavelength (nm)	Absorbance
494.344910	0.312107
494.563924	0.312107
494.782919	0.312107
495.001897	0.006359
495.220856	0.074534
495.439797	0.053346
495.658719	0.031633
495.877624	0.005069
496.096510	0.030738
496.315378	0.058175
496.534227	0.042656
496.753059	0.068133
496.971872	0.062001
497.190667	0.119431
497.409444	0.134287
497.628203	0.138014
497.846943	0.142818
498.065665	0.144523
498.284369	0.145454
498.503055	0.146080
498.721723	0.146584
498.940372	0.147930
499.159003	0.148738
499.377616	0.149318
499.596210	0.149474
499.814787	0.150114
500.033345	0.149687
500.251885	0.150781
500.470406	0.151510
500.688910	0.150625
500.907395	0.149571
501.125862	0.149163
501.344311	0.149865
501.562742	0.150080
501.781154	0.149743
501.999548	0.149206
502.217924	0.148019
502.436282	0.147758
502.654621	0.148636
502.872942	0.148895
503.091245	0.149223
503.309530	0.149695
503.527797	0.149847
503.746045	0.149067
503.964275	0.149518
504.182487	0.149261
504.400681	0.148446
504.618856	0.148095
504.837013	0.148442
505.055152	0.149311
505.273273	0.149337
505.491376	0.149600
505.709460	0.149943
505.927526	0.151020
506.145574	0.152263
506.363604	0.154128
506.581615	0.153562
506.799608	0.153681
507.017583	0.153536
507.235540	0.152597
507.453478	0.152078
507.671399	0.153200
507.889301	0.152825
508.107185	0.152548
508.325050	0.152830
508.542898	0.153648
508.760727	0.153740
508.978538	0.153901
509.196330	0.153736
509.414105	0.154010
509.631861	0.153187
509.849599	0.153645
510.067319	0.153298
510.285021	0.152722
510.502704	0.153678
510.720369	0.153600
510.938016	0.154182
511.155645	0.154306
511.373255	0.155185
511.590848	0.155283
511.808422	0.155468
512.025977	0.155908
512.243515	0.157223
512.461034	0.156290
512.678536	0.156430
512.896018	0.156242
513.113483	0.157882
513.330930	0.157831
513.548358	0.158273
513.765768	0.158357
513.983160	0.158721
514.200533	0.158809
514.417889	0.159780
514.635226	0.160541
514.852545	0.161035
515.069845	0.160388
515.287128	0.160058
515.504392	0.159865
515.721638	0.159885
515.938866	0.159971
516.156075	0.159316
516.373267	0.159774
516.590440	0.159923
516.807594	0.160216
517.024731	0.159925
517.241850	0.160532
517.458950	0.161198
517.676032	0.161555
517.893095	0.161916
518.110141	0.161385
518.327168	0.162274
518.544177	0.162200
518.761168	0.161853
518.978141	0.161606
519.195095	0.161990
519.412031	0.162140
519.628949	0.162549
519.845849	0.162975
520.062731	0.163948
520.279594	0.163046
520.496439	0.163551
520.713266	0.164911
520.930074	0.166113
521.146865	0.166285
521.363637	0.166647
521.580391	0.166958
521.797127	0.166690
522.013844	0.166472
522.230543	0.167154
522.447224	0.167365
522.663887	0.166189
522.880532	0.165713
523.097158	0.165718
523.313766	0.166393
523.530356	0.166277
523.746928	0.166423
523.963481	0.166251
524.180017	0.165950
524.396534	0.166190
524.613032	0.167172
524.829513	0.168559
525.045975	0.169607
525.262420	0.169883
525.478845	0.170106
525.695253	0.171043
525.911643	0.172562
526.128014	0.172916
526.344367	0.172911
526.560702	0.172534
526.777018	0.172616
526.993316	0.172804
527.209597	0.172844
527.425858	0.173273
527.642102	0.172992
527.858328	0.172902
528.074535	0.173412
528.290724	0.174151
528.506894	0.174638
528.723047	0.174479
528.939181	0.174579
529.155297	0.175341
529.371395	0.175409
529.587475	0.175931
529.803536	0.176026
530.019579	0.176888
530.235604	0.177103
530.451611	0.177308
530.667600	0.178112
530.883570	0.178569
531.099522	0.178565
531.315456	0.179534
531.531372	0.179763
531.747269	0.180615
531.963148	0.180850
532.179009	0.181579
532.394852	0.182104
532.610676	0.182875
532.826482	0.182468
533.042271	0.182258
533.258040	0.181901
533.473792	0.182156
533.689525	0.181951
533.905240	0.181792
534.120937	0.181443
534.336616	0.181493
534.552277	0.181200
534.767919	0.182078
534.983543	0.182553
535.199149	0.183089
535.414736	0.183577
535.630306	0.183743
535.845857	0.183811
536.061390	0.183820
536.276904	0.184976
536.492401	0.185041
536.707879	0.185006
536.923339	0.185427
537.138781	0.185412
537.354204	0.185547
537.569610	0.186120
537.784997	0.186232
538.000366	0.186509
538.215716	0.186145
538.431049	0.186592
538.646363	0.186853
538.861659	0.187519
539.076937	0.187695
539.292196	0.187930
539.507438	0.187843
539.722661	0.188161
539.937866	0.188975
540.153052	0.189365
540.368221	0.189815
540.583371	0.190669
540.798503	0.190552
541.013617	0.191140
541.228712	0.191202
541.443789	0.191634
541.658848	0.191824
541.873889	0.192522
542.088912	0.192799
542.303916	0.192685
542.518902	0.192294
542.733870	0.192451
542.948820	0.192740
543.163752	0.193925
543.378665	0.194062
543.593560	0.194685
543.808437	0.194924
544.023295	0.195413
544.238136	0.195879
544.452958	0.196370
544.667762	0.196740
544.882548	0.196929
545.097315	0.196559
545.312064	0.196831
545.526795	0.197350
545.741508	0.196985
545.956203	0.197059
546.170879	0.197438
546.385537	0.197914
546.600177	0.198485
546.814799	0.198502
547.029402	0.198652
547.243988	0.198646
547.458555	0.198662
547.673103	0.199565
547.887634	0.199687
548.102146	0.199826
548.316640	0.199912
548.531116	0.199474
548.745574	0.199773
548.960013	0.200074
549.174435	0.201527
549.388838	0.202034
549.603222	0.202170
549.817589	0.202694
550.031937	0.203061
550.246267	0.203024
550.460579	0.203745
550.674873	0.203860
550.889148	0.204155
551.103405	0.203242
551.317644	0.202780
551.531865	0.202667
551.746068	0.202441
551.960252	0.202887
552.174418	0.203305
552.388566	0.202856
552.602696	0.202677
552.816807	0.202780
553.030900	0.203740
553.244975	0.204263
553.459032	0.204418
553.673070	0.204731
553.887091	0.204211
554.101093	0.204578
554.315077	0.204954
554.529042	0.205568
554.742990	0.205636
554.956919	0.205330
555.170830	0.205175
555.384722	0.205727
555.598597	0.205965
555.812453	0.206546
556.026291	0.207075
556.240111	0.207267
556.453913	0.207724
556.667696	0.208358
556.881461	0.208851
557.095208	0.209480
557.308937	0.209185
557.522647	0.208955
557.736339	0.209250
557.950013	0.208888
558.163669	0.209516
558.377307	0.209405
558.590926	0.209391
558.804527	0.209771
559.018110	0.209791
559.231675	0.210420
559.445221	0.211033
559.658749	0.210741
559.872259	0.210840
560.085751	0.210759
560.299225	0.211315
560.512680	0.211711
560.726117	0.211438
560.939536	0.211747
561.152937	0.211605
561.366319	0.211665
561.579683	0.211976
561.793029	0.212363
562.006357	0.212214
562.219667	0.212190
562.432958	0.211911
562.646231	0.212018
562.859486	0.212126
563.072723	0.212289
563.285941	0.212465
563.499141	0.212603
563.712323	0.212827
563.925487	0.213435
564.138632	0.213326
564.351760	0.213568
564.564869	0.213990
564.777960	0.214220
564.991032	0.214409
565.204087	0.214301
565.417123	0.214458
565.630141	0.214434
565.843140	0.214535
566.056122	0.215362
566.269085	0.215776
566.482030	0.216017
566.694957	0.216093
566.907866	0.216517
567.120756	0.217220
567.333628	0.217430
567.546482	0.217352
567.759318	0.218052
567.972135	0.217535
568.184935	0.217547
568.397716	0.217584
568.610478	0.218032
568.823223	0.217459
569.035949	0.217317
569.248657	0.217448
569.461347	0.218042
569.674019	0.217497
569.886672	0.217922
570.099308	0.218283
570.311925	0.218145
570.524523	0.218136
570.737104	0.218820
570.949666	0.219138
571.162210	0.219485
571.374736	0.219788
571.587244	0.220048
571.799733	0.220410
572.012205	0.220101
572.224658	0.220654
572.437092	0.221065
572.649509	0.221434
572.861907	0.221838
573.074287	0.221896
573.286649	0.221717
573.498993	0.222449
573.711318	0.222213
573.923625	0.222398
574.135914	0.222211
574.348185	0.221802
574.560438	0.221583
574.772672	0.221360
574.984888	0.221207
575.197086	0.221086
575.409266	0.220448
575.621427	0.221202
575.833570	0.221906
576.045695	0.221826
576.257802	0.222022
576.469890	0.222150
576.681961	0.222217
576.894013	0.222382
577.106046	0.222582
577.318062	0.222982
577.530059	0.222846
577.742039	0.222591
577.954000	0.223289
578.165942	0.223570
578.377867	0.223881
578.589773	0.224185
578.801661	0.224592
579.013531	0.225439
579.225382	0.225489
579.437216	0.225920
579.649031	0.226118
579.860828	0.226113
580.072606	0.226241
580.284367	0.226738
580.496109	0.226908
580.707833	0.227154
580.919539	0.226716
581.131227	0.226812
581.342896	0.226727
581.554547	0.226929
581.766180	0.227077
581.977795	0.227542
582.189391	0.227256
582.400969	0.227670
582.612529	0.227696
582.824071	0.227869
583.035595	0.228293
583.247100	0.228575
583.458587	0.228745
583.670056	0.228664
583.881506	0.228488
584.092939	0.229107
584.304353	0.228690
584.515749	0.228935
584.727127	0.229363
584.938486	0.229452
585.149828	0.229564
585.361151	0.229586
585.572456	0.230254
585.783742	0.230169
585.995011	0.230000
586.206261	0.230567
586.417493	0.230830
586.628706	0.230529
586.839902	0.230888
587.051079	0.230869
587.262238	0.231234
587.473379	0.231108
587.684502	0.231820
587.895606	0.231866
588.106692	0.232077
588.317760	0.232444
588.528810	0.232965
588.739841	0.232960
588.950855	0.233103
589.161850	0.232889
589.372827	0.233234
589.583785	0.232988
589.794726	0.233230
590.005648	0.233226
590.216552	0.233190
590.427437	0.233223
590.638305	0.233385
590.849154	0.233278
591.059985	0.233811
591.270798	0.233994
591.481592	0.234168
591.692369	0.234601
591.903127	0.234741
592.113867	0.234858
592.324588	0.234554
592.535292	0.234336
592.745977	0.234722
592.956644	0.234340
593.167293	0.234395
593.377923	0.234714
593.588536	0.234496
593.799130	0.234560
594.009706	0.234874
594.220263	0.235471
594.430803	0.235909
594.641324	0.235770
594.851827	0.236885
595.062312	0.236496
595.272778	0.236510
595.483227	0.236764
595.693657	0.236917
595.904069	0.236572
596.114462	0.236883
596.324838	0.237159
596.535195	0.237541
596.745534	0.237256
596.955855	0.237502
597.166157	0.237391
597.376441	0.237753
597.586707	0.237882
597.796955	0.238245
598.007185	0.238030
598.217396	0.237919
598.427589	0.237901
598.637764	0.237858
598.847921	0.238167
599.058060	0.238779
599.268180	0.238643
599.478282	0.238495
599.688366	0.238779
599.898431	0.239137
600.108479	0.239370
600.318508	0.239741
600.528519	0.240059
600.738511	0.240217
600.948486	0.240263
601.158442	0.240235
601.368380	0.240641
601.578300	0.240411
601.788202	0.240834
601.998085	0.240986
602.207950	0.241120
602.417797	0.241138
602.627626	0.241383
602.837436	0.241606
603.047228	0.241768
603.257002	0.241948
603.466758	0.242299
603.676496	0.241825
603.886215	0.241939
604.095916	0.242032
604.305599	0.242226
604.515264	0.242342
604.724910	0.242338
604.934538	0.242257
605.144148	0.242308
605.353740	0.242565
605.563314	0.242894
605.772869	0.242670
605.982406	0.242735
606.191925	0.242987
606.401425	0.243135
606.610908	0.243448
606.820372	0.243761
607.029818	0.243793
607.239246	0.243997
607.448655	0.244210
607.658047	0.244950
607.867420	0.245298
608.076775	0.245137
608.286111	0.244992
608.495430	0.244895
608.704730	0.245190
608.914012	0.245700
609.123275	0.245797
609.332521	0.246044
609.541748	0.245884
609.750957	0.245652
609.960148	0.245929
610.169321	0.246335
610.378475	0.246304
610.587611	0.246172
610.796729	0.246217
611.005829	0.246348
611.214910	0.246239
611.423974	0.246489
611.633019	0.246663
611.842045	0.246809
612.051054	0.246707
612.260044	0.246850
612.469017	0.247085
612.677970	0.247171
612.886906	0.247131
613.095824	0.247325
613.304723	0.247396
613.513604	0.247627
613.722467	0.247716
613.931311	0.247612
614.140138	0.248041
614.348946	0.248122
614.557736	0.248058
614.766507	0.248056
614.975261	0.248476
615.183996	0.248400
615.392713	0.248408
615.601412	0.248635
615.810092	0.249217
616.018754	0.248933
616.227399	0.249048
616.436024	0.249408
616.644632	0.249503
616.853222	0.249442
617.061793	0.249597
617.270346	0.249664
617.478880	0.249445
617.687397	0.249525
617.895895	0.249812
618.104375	0.250181
618.312837	0.250092
618.521281	0.250378
618.729706	0.250376
618.938113	0.251029
619.146502	0.251020
619.354873	0.251461
619.563226	0.251414
619.771560	0.251473
619.979876	0.251682
620.188174	0.251667
620.396453	0.251926
620.604715	0.252240
620.812958	0.252109
621.021183	0.252544
621.229390	0.252727
621.437578	0.252888
621.645748	0.253273
621.853900	0.253342
622.062034	0.253702
622.270150	0.253799
622.478247	0.253816
622.686326	0.254156
622.894387	0.254167
623.102430	0.254112
623.310454	0.254126
623.518461	0.254405
623.726449	0.254320
623.934418	0.254357
624.142370	0.254237
624.350303	0.254293
624.558218	0.254123
624.766115	0.254587
624.973994	0.254934
625.181855	0.255429
625.389697	0.255084
625.597521	0.255379
625.805327	0.255524
626.013114	0.255781
626.220883	0.255891
626.428634	0.256111
626.636367	0.255963
626.844082	0.255884
627.051778	0.255844
627.259457	0.256143
627.467117	0.256089
627.674758	0.256437
627.882382	0.256756
628.089987	0.257118
628.297574	0.257278
628.505143	0.257519
628.712694	0.257645
628.920226	0.257670
629.127740	0.258031
629.335236	0.258017
629.542714	0.257926
629.750174	0.257813
629.957615	0.258000
630.165038	0.257837
630.372443	0.257923
630.579829	0.258214
630.787198	0.258691
630.994548	0.258818
631.201880	0.259421
631.409194	0.259907
631.616489	0.260368
631.823766	0.260454
632.031025	0.260756
632.238266	0.260953
632.445489	0.260878
632.652693	0.261051
632.859879	0.261029
633.067047	0.261277
633.274197	0.261177
633.481329	0.261205
633.688442	0.261257
633.895537	0.261467
634.102614	0.261517
634.309672	0.261656
634.516713	0.261636
634.723735	0.261855
634.930739	0.261851
635.137724	0.261984
635.344692	0.262140
635.551641	0.261962
635.758572	0.262202
635.965485	0.262158
636.172379	0.262319
636.379256	0.262439
636.586114	0.262643
636.792954	0.262724
636.999775	0.263093
637.206579	0.263338
637.413364	0.264088
637.620131	0.264231
637.826880	0.264757
638.033610	0.265165
638.240323	0.265233
638.447017	0.265265
638.653692	0.265524
638.860350	0.265490
639.066990	0.265385
639.273611	0.265365
639.480214	0.265293
639.686798	0.265196
639.893365	0.265324
640.099913	0.265465
640.306443	0.265912
640.512955	0.265916
640.719449	0.266011
640.925924	0.266210
641.132381	0.266566
641.338820	0.267000
641.545241	0.267186
641.751644	0.267383
641.958028	0.267857
642.164394	0.267927
642.370742	0.268182
642.577071	0.268562
642.783383	0.268960
642.989676	0.268872
643.195951	0.268777
643.402207	0.269505
643.608446	0.269655
643.814666	0.269675
644.020868	0.269481
644.227052	0.269375
644.433218	0.269652
644.639365	0.269431
644.845494	0.269559
645.051605	0.269717
645.257698	0.269611
645.463772	0.269733
645.669828	0.269749
645.875866	0.270290
646.081886	0.270692
646.287888	0.270841
646.493871	0.271127
646.699836	0.271433
646.905783	0.271822
647.111712	0.271760
647.317622	0.272021
647.523514	0.271855
647.729388	0.271680
647.935244	0.271770
648.141082	0.271859
648.346901	0.271962
648.552702	0.271914
648.758485	0.271852
648.964250	0.272132
649.169996	0.271951
649.375724	0.272398
649.581434	0.272981
649.787126	0.272831
649.992800	0.272950
650.198455	0.273455
650.404092	0.273674
650.609711	0.274004
650.815311	0.273984
651.020894	0.274231
651.226458	0.274648
651.432004	0.274568
651.637532	0.275067
651.843041	0.275359
652.048532	0.275188
652.254006	0.275395
652.459460	0.275603
652.664897	0.275942
652.870315	0.276171
653.075716	0.276358
653.281097	0.276629
653.486461	0.276830
653.691807	0.276807
653.897134	0.277291
654.102443	0.277510
654.307734	0.277510
654.513006	0.277661
654.718261	0.277935
654.923497	0.277963
655.128715	0.277999
655.333915	0.278074
655.539096	0.278428
655.744259	0.278196
655.949404	0.278382
656.154531	0.278629
656.359640	0.278859
656.564730	0.278953
656.769802	0.279299
656.974856	0.279636
657.179892	0.279872
657.384909	0.280018
657.589908	0.280553
657.794889	0.280691
657.999852	0.280976
658.204797	0.281165
658.409723	0.281572
658.614631	0.281787
658.819521	0.282068
659.024393	0.282673
659.229246	0.282732
659.434081	0.282823
659.638898	0.283014
659.843697	0.282969
660.048478	0.283205
660.253240	0.283170
660.457984	0.283342
660.662710	0.283426
660.867417	0.283123
661.072107	0.283104
661.276778	0.283080
661.481431	0.283273
661.686066	0.283715
661.890682	0.283819
662.095281	0.284127
662.299861	0.284285
662.504422	0.284569
662.708966	0.284791
662.913491	0.285115
663.117999	0.285354
663.322488	0.285783
663.526958	0.285895
663.731411	0.286262
663.935845	0.286249
664.140261	0.286490
664.344659	0.286766
664.549038	0.287063
664.753400	0.287403
664.957743	0.287868
665.162068	0.287795
665.366375	0.288015
665.570663	0.288070
665.774933	0.288291
665.979185	0.288140
666.183419	0.288049
666.387635	0.288183
666.591832	0.288301
666.796011	0.288344
667.000172	0.288718
667.204315	0.288925
667.408439	0.289204
667.612545	0.289572
667.816634	0.289958
668.020703	0.290099
668.224755	0.290438
668.428788	0.290564
668.632803	0.291216
668.836800	0.291635
669.040779	0.291599
669.244739	0.291720
669.448681	0.292003
669.652605	0.292394
669.856511	0.292627
670.060399	0.292450
670.264268	0.292666
670.468119	0.292419
670.671952	0.292340
670.875767	0.292710
671.079563	0.292740
671.283341	0.292690
671.487101	0.292888
671.690843	0.293220
671.894567	0.293390
672.098272	0.293591
672.301959	0.294040
672.505628	0.294415
672.709278	0.294941
672.912911	0.295376
673.116525	0.295455
673.320121	0.295535
673.523699	0.295614
673.727258	0.296126
673.930799	0.296571
674.134322	0.296675
674.337827	0.296671
674.541314	0.296544
674.744782	0.296678
674.948232	0.297137
675.151664	0.297511
675.355078	0.297878
675.558474	0.298240
675.761851	0.298211
675.965210	0.298473
676.168551	0.298508
676.371873	0.298981
676.575178	0.299146
676.778464	0.299429
676.981732	0.299472
677.184981	0.299561
677.388213	0.299629
677.591426	0.299818
677.794621	0.299915
677.997798	0.300266
678.200956	0.300314
678.404097	0.300617
678.607219	0.300828
678.810323	0.301069
679.013408	0.300945
679.216476	0.301438
679.419525	0.301693
679.622556	0.301698
679.825569	0.301828
680.028563	0.301939
680.231540	0.302299
680.434498	0.302327
680.637438	0.302301
680.840359	0.302752
681.043263	0.302545
681.246148	0.302796
681.449015	0.303075
681.651864	0.303232
681.854694	0.303640
682.057506	0.303523
682.260301	0.304142
682.463076	0.304768
682.665834	0.305245
682.868573	0.305481
683.071295	0.305614
683.273998	0.306113
683.476682	0.306431
683.679349	0.306531
683.881997	0.307078
684.084627	0.306926
684.287239	0.306769
684.489833	0.306870
684.692408	0.307211
684.894965	0.307496
685.097504	0.307573
685.300025	0.307727
685.502527	0.307821
685.705012	0.307866
685.907478	0.307925
686.109925	0.308018
686.312355	0.308096
686.514766	0.308052
686.717159	0.308131
686.919534	0.308115
687.121891	0.308260
687.324230	0.308548
687.526550	0.308366
687.728852	0.308626
687.931136	0.308869
688.133401	0.309080
688.335649	0.309336
688.537878	0.309689
688.740089	0.309916
688.942281	0.310378
689.144456	0.310460
689.346612	0.310948
689.548750	0.311342
689.750870	0.311372
689.952971	0.311490
690.155055	0.311687
690.357120	0.311841
690.559167	0.311994
690.761195	0.311955
690.963206	0.312084
691.165198	0.311978
691.367172	0.312393
691.569128	0.312693
691.771065	0.313039
691.972984	0.313405
692.174885	0.313778
692.376768	0.313928
692.578633	0.314220
692.780479	0.314311
692.982308	0.314807
693.184118	0.314724
693.385909	0.315096
