sample name	sample
index	1359
start time	 05-03-2021  01:49:30 PM


Wavelength (nm)	Absorbance
494.344910	-0.218832
494.563924	-0.218832
494.782919	-0.218832
495.001897	-0.292909
495.220856	-0.006243
495.439797	0.024680
495.658719	0.064094
495.877624	0.087951
496.096510	0.122571
496.315378	0.138163
496.534227	0.116399
496.753059	0.082616
496.971872	0.028631
497.190667	0.088822
497.409444	0.102810
497.628203	0.104350
497.846943	0.106633
498.065665	0.110051
498.284369	0.110985
498.503055	0.111702
498.721723	0.111872
498.940372	0.113033
499.159003	0.113938
499.377616	0.113593
499.596210	0.115230
499.814787	0.114597
500.033345	0.114183
500.251885	0.113513
500.470406	0.115373
500.688910	0.115297
500.907395	0.114541
501.125862	0.113883
501.344311	0.114966
501.562742	0.113859
501.781154	0.114073
501.999548	0.113148
502.217924	0.112995
502.436282	0.111027
502.654621	0.111557
502.872942	0.112899
503.091245	0.112987
503.309530	0.111355
503.527797	0.112054
503.746045	0.112896
503.964275	0.112843
504.182487	0.113046
504.400681	0.113441
504.618856	0.112940
504.837013	0.112827
505.055152	0.112197
505.273273	0.113481
505.491376	0.113261
505.709460	0.112941
505.927526	0.113737
506.145574	0.112663
506.363604	0.111856
506.581615	0.112639
506.799608	0.111956
507.017583	0.112096
507.235540	0.111056
507.453478	0.109686
507.671399	0.110310
507.889301	0.110048
508.107185	0.111115
508.325050	0.111472
508.542898	0.110541
508.760727	0.111183
508.978538	0.110856
509.196330	0.111043
509.414105	0.112374
509.631861	0.111457
509.849599	0.112587
510.067319	0.112550
510.285021	0.113275
510.502704	0.113530
510.720369	0.113974
510.938016	0.115297
511.155645	0.116682
511.373255	0.116556
511.590848	0.117720
511.808422	0.116854
512.025977	0.117750
512.243515	0.117702
512.461034	0.118378
512.678536	0.118171
512.896018	0.116849
513.113483	0.116943
513.330930	0.117146
513.548358	0.117166
513.765768	0.117832
513.983160	0.117021
514.200533	0.117482
514.417889	0.117720
514.635226	0.118178
514.852545	0.119343
515.069845	0.118593
515.287128	0.118498
515.504392	0.118962
515.721638	0.119861
515.938866	0.120311
516.156075	0.120255
516.373267	0.120435
516.590440	0.120346
516.807594	0.120680
517.024731	0.121428
517.241850	0.122921
517.458950	0.122535
517.676032	0.122013
517.893095	0.121916
518.110141	0.122337
518.327168	0.122279
518.544177	0.122519
518.761168	0.123085
518.978141	0.123191
519.195095	0.122429
519.412031	0.122877
519.628949	0.122098
519.845849	0.122503
520.062731	0.122236
520.279594	0.122182
520.496439	0.122329
520.713266	0.122219
520.930074	0.122415
521.146865	0.122522
521.363637	0.121777
521.580391	0.122549
521.797127	0.122378
522.013844	0.122652
522.230543	0.122999
522.447224	0.122741
522.663887	0.122645
522.880532	0.123037
523.097158	0.122659
523.313766	0.123160
523.530356	0.123784
523.746928	0.124559
523.963481	0.124520
524.180017	0.124583
524.396534	0.125127
524.613032	0.125269
524.829513	0.125219
525.045975	0.125356
525.262420	0.126142
525.478845	0.126456
525.695253	0.126713
525.911643	0.127162
526.128014	0.128227
526.344367	0.128374
526.560702	0.128141
526.777018	0.128436
526.993316	0.129587
527.209597	0.129985
527.425858	0.130106
527.642102	0.130730
527.858328	0.131214
528.074535	0.130850
528.290724	0.131301
528.506894	0.132164
528.723047	0.132173
528.939181	0.132380
529.155297	0.132805
529.371395	0.132615
529.587475	0.132910
529.803536	0.133279
530.019579	0.133915
530.235604	0.134880
530.451611	0.135364
530.667600	0.136652
530.883570	0.137221
531.099522	0.137253
531.315456	0.138369
531.531372	0.137906
531.747269	0.138199
531.963148	0.138960
532.179009	0.138365
532.394852	0.139479
532.610676	0.139241
532.826482	0.139290
533.042271	0.139290
533.258040	0.139798
533.473792	0.140550
533.689525	0.141557
533.905240	0.141343
534.120937	0.141633
534.336616	0.141299
534.552277	0.142260
534.767919	0.143173
534.983543	0.143742
535.199149	0.143684
535.414736	0.144354
535.630306	0.143980
535.845857	0.143959
536.061390	0.144429
536.276904	0.144624
536.492401	0.144173
536.707879	0.144986
536.923339	0.145400
537.138781	0.145623
537.354204	0.145760
537.569610	0.146933
537.784997	0.147781
538.000366	0.148287
538.215716	0.148648
538.431049	0.149023
538.646363	0.148486
538.861659	0.149060
539.076937	0.149651
539.292196	0.150056
539.507438	0.149920
539.722661	0.150072
539.937866	0.150308
540.153052	0.150790
540.368221	0.151368
540.583371	0.151988
540.798503	0.152218
541.013617	0.152365
541.228712	0.152770
541.443789	0.153057
541.658848	0.153201
541.873889	0.153435
542.088912	0.153736
542.303916	0.153366
542.518902	0.153141
542.733870	0.153028
542.948820	0.153266
543.163752	0.153453
543.378665	0.153416
543.593560	0.153496
543.808437	0.153880
544.023295	0.153736
544.238136	0.154741
544.452958	0.155039
544.667762	0.155604
544.882548	0.155779
545.097315	0.155641
545.312064	0.156180
545.526795	0.156725
545.741508	0.156926
545.956203	0.157390
546.170879	0.156992
546.385537	0.157407
546.600177	0.157058
546.814799	0.157740
547.029402	0.158185
547.243988	0.158116
547.458555	0.158465
547.673103	0.158749
547.887634	0.159367
548.102146	0.160023
548.316640	0.159976
548.531116	0.160512
548.745574	0.160645
548.960013	0.161036
549.174435	0.161187
549.388838	0.161066
549.603222	0.161206
549.817589	0.161088
550.031937	0.160743
550.246267	0.161242
550.460579	0.161976
550.674873	0.161897
550.889148	0.162136
551.103405	0.162485
551.317644	0.163097
551.531865	0.163488
551.746068	0.164192
551.960252	0.165091
552.174418	0.165525
552.388566	0.165666
552.602696	0.166253
552.816807	0.166764
553.030900	0.166868
553.244975	0.166841
553.459032	0.166712
553.673070	0.166462
553.887091	0.166858
554.101093	0.166647
554.315077	0.166855
554.529042	0.166458
554.742990	0.166232
554.956919	0.166562
555.170830	0.166647
555.384722	0.167209
555.598597	0.167451
555.812453	0.167378
556.026291	0.168169
556.240111	0.168016
556.453913	0.168553
556.667696	0.169126
556.881461	0.169664
557.095208	0.170044
557.308937	0.170321
557.522647	0.170543
557.736339	0.170995
557.950013	0.170790
558.163669	0.170460
558.377307	0.170603
558.590926	0.170687
558.804527	0.170583
559.018110	0.170643
559.231675	0.170782
559.445221	0.170820
559.658749	0.170399
559.872259	0.170715
560.085751	0.171056
560.299225	0.170838
560.512680	0.170620
560.726117	0.170697
560.939536	0.170812
561.152937	0.170795
561.366319	0.170845
561.579683	0.170912
561.793029	0.171223
562.006357	0.171635
562.219667	0.171849
562.432958	0.171915
562.646231	0.172267
562.859486	0.172604
563.072723	0.172568
563.285941	0.172543
563.499141	0.172642
563.712323	0.172067
563.925487	0.171893
564.138632	0.172089
564.351760	0.172345
564.564869	0.171901
564.777960	0.171538
564.991032	0.171575
565.204087	0.171825
565.417123	0.172327
565.630141	0.173038
565.843140	0.173233
566.056122	0.173177
566.269085	0.173173
566.482030	0.173573
566.694957	0.174098
566.907866	0.174682
567.120756	0.174730
567.333628	0.174681
567.546482	0.174689
567.759318	0.174869
567.972135	0.174815
568.184935	0.175017
568.397716	0.175142
568.610478	0.175196
568.823223	0.174999
569.035949	0.175106
569.248657	0.175341
569.461347	0.175197
569.674019	0.175531
569.886672	0.176114
570.099308	0.176436
570.311925	0.175958
570.524523	0.175731
570.737104	0.175686
570.949666	0.176056
571.162210	0.175970
571.374736	0.176247
571.587244	0.176552
571.799733	0.176677
572.012205	0.176729
572.224658	0.177811
572.437092	0.178076
572.649509	0.178442
572.861907	0.178326
573.074287	0.178311
573.286649	0.178175
573.498993	0.178011
573.711318	0.178102
573.923625	0.178167
574.135914	0.177944
574.348185	0.178306
574.560438	0.178313
574.772672	0.178699
574.984888	0.179271
575.197086	0.179474
575.409266	0.179812
575.621427	0.179977
575.833570	0.180155
576.045695	0.180420
576.257802	0.180572
576.469890	0.180696
576.681961	0.180436
576.894013	0.180289
577.106046	0.180323
577.318062	0.180038
577.530059	0.179751
577.742039	0.179468
577.954000	0.179529
578.165942	0.179482
578.377867	0.179565
578.589773	0.179982
578.801661	0.179941
579.013531	0.179742
579.225382	0.180132
579.437216	0.180827
579.649031	0.181306
579.860828	0.181471
580.072606	0.181517
580.284367	0.181710
580.496109	0.181997
580.707833	0.182184
580.919539	0.182811
581.131227	0.182991
581.342896	0.182865
581.554547	0.183005
581.766180	0.182896
581.977795	0.183045
582.189391	0.183194
582.400969	0.182875
582.612529	0.183210
582.824071	0.183201
583.035595	0.182899
583.247100	0.182572
583.458587	0.182449
583.670056	0.182256
583.881506	0.182213
584.092939	0.182221
584.304353	0.182653
584.515749	0.182428
584.727127	0.182451
584.938486	0.182830
585.149828	0.183149
585.361151	0.183167
585.572456	0.183172
585.783742	0.183299
585.995011	0.183434
586.206261	0.183074
586.417493	0.183494
586.628706	0.183579
586.839902	0.183352
587.051079	0.183720
587.262238	0.183968
587.473379	0.184432
587.684502	0.184601
587.895606	0.184501
588.106692	0.184477
588.317760	0.184501
588.528810	0.184683
588.739841	0.185424
588.950855	0.185849
589.161850	0.185982
589.372827	0.186259
589.583785	0.186437
589.794726	0.187072
590.005648	0.187648
590.216552	0.187585
590.427437	0.187839
590.638305	0.187903
590.849154	0.187600
591.059985	0.187906
591.270798	0.187977
591.481592	0.188038
591.692369	0.187857
591.903127	0.188062
592.113867	0.188413
592.324588	0.188669
592.535292	0.188496
592.745977	0.188539
592.956644	0.188481
593.167293	0.188777
593.377923	0.189239
593.588536	0.189572
593.799130	0.189833
594.009706	0.190131
594.220263	0.190024
594.430803	0.190527
594.641324	0.190943
594.851827	0.191432
595.062312	0.191456
595.272778	0.191222
595.483227	0.191291
595.693657	0.191130
595.904069	0.191257
596.114462	0.191556
596.324838	0.191639
596.535195	0.191750
596.745534	0.191454
596.955855	0.191823
597.166157	0.191951
597.376441	0.192601
597.586707	0.193249
597.796955	0.193329
598.007185	0.193363
598.217396	0.193578
598.427589	0.193608
598.637764	0.194292
598.847921	0.194229
599.058060	0.194568
599.268180	0.194109
599.478282	0.194046
599.688366	0.194208
599.898431	0.194625
600.108479	0.194538
600.318508	0.194785
600.528519	0.194564
600.738511	0.194512
600.948486	0.194683
601.158442	0.194891
601.368380	0.194795
601.578300	0.194838
601.788202	0.194808
601.998085	0.195184
602.207950	0.195389
602.417797	0.195498
602.627626	0.196097
602.837436	0.196182
603.047228	0.196366
603.257002	0.196691
603.466758	0.197235
603.676496	0.197538
603.886215	0.197280
604.095916	0.197546
604.305599	0.197843
604.515264	0.198014
604.724910	0.198533
604.934538	0.198638
605.144148	0.199106
605.353740	0.199089
605.563314	0.199220
605.772869	0.200146
605.982406	0.199933
606.191925	0.199988
606.401425	0.199692
606.610908	0.199661
606.820372	0.199569
607.029818	0.199275
607.239246	0.199038
607.448655	0.199081
607.658047	0.198888
607.867420	0.198962
608.076775	0.199138
608.286111	0.199445
608.495430	0.199360
608.704730	0.199594
608.914012	0.199744
609.123275	0.199907
609.332521	0.199986
609.541748	0.199951
609.750957	0.200529
609.960148	0.200592
610.169321	0.200460
610.378475	0.200967
610.587611	0.201206
610.796729	0.201082
611.005829	0.201061
611.214910	0.201122
611.423974	0.201069
611.633019	0.200682
611.842045	0.201298
612.051054	0.201711
612.260044	0.201992
612.469017	0.202008
612.677970	0.202580
612.886906	0.202738
613.095824	0.202958
613.304723	0.203332
613.513604	0.203640
613.722467	0.203262
613.931311	0.203144
614.140138	0.202957
614.348946	0.203232
614.557736	0.203195
614.766507	0.203570
614.975261	0.203580
615.183996	0.203657
615.392713	0.203757
615.601412	0.203882
615.810092	0.204239
616.018754	0.204198
616.227399	0.204044
616.436024	0.203973
616.644632	0.204106
616.853222	0.204344
617.061793	0.204121
617.270346	0.204404
617.478880	0.204660
617.687397	0.204900
617.895895	0.205090
618.104375	0.205347
618.312837	0.205897
618.521281	0.206020
618.729706	0.206243
618.938113	0.206595
619.146502	0.206698
619.354873	0.206902
619.563226	0.207053
619.771560	0.207377
619.979876	0.207764
620.188174	0.207489
620.396453	0.207801
620.604715	0.207952
620.812958	0.208581
621.021183	0.209030
621.229390	0.208986
621.437578	0.209134
621.645748	0.209224
621.853900	0.209423
622.062034	0.210092
622.270150	0.210537
622.478247	0.210749
622.686326	0.210560
622.894387	0.210522
623.102430	0.210861
623.310454	0.211070
623.518461	0.211378
623.726449	0.211620
623.934418	0.211685
624.142370	0.211715
624.350303	0.211920
624.558218	0.212231
624.766115	0.212348
624.973994	0.212459
625.181855	0.212652
625.389697	0.212724
625.597521	0.212513
625.805327	0.212191
626.013114	0.211919
626.220883	0.211974
626.428634	0.211938
626.636367	0.212187
626.844082	0.212365
627.051778	0.212470
627.259457	0.212402
627.467117	0.212857
627.674758	0.213181
627.882382	0.213603
628.089987	0.213762
628.297574	0.213831
628.505143	0.213804
628.712694	0.213840
628.920226	0.213785
629.127740	0.213905
629.335236	0.213954
629.542714	0.214182
629.750174	0.214475
629.957615	0.214520
630.165038	0.214904
630.372443	0.215234
630.579829	0.215542
630.787198	0.215863
630.994548	0.216236
631.201880	0.216563
631.409194	0.216876
631.616489	0.217000
631.823766	0.217494
632.031025	0.217472
632.238266	0.217640
632.445489	0.217756
632.652693	0.217784
632.859879	0.218012
633.067047	0.217910
633.274197	0.217763
633.481329	0.217795
633.688442	0.217724
633.895537	0.218055
634.102614	0.218158
634.309672	0.218055
634.516713	0.218304
634.723735	0.218132
634.930739	0.218298
635.137724	0.218728
635.344692	0.218772
635.551641	0.218784
635.758572	0.218750
635.965485	0.219039
636.172379	0.219251
636.379256	0.219387
636.586114	0.219645
636.792954	0.219972
636.999775	0.220062
637.206579	0.220348
637.413364	0.220426
637.620131	0.220505
637.826880	0.220365
638.033610	0.220562
638.240323	0.220562
638.447017	0.220541
638.653692	0.220501
638.860350	0.220616
639.066990	0.220645
639.273611	0.220819
639.480214	0.220756
639.686798	0.220934
639.893365	0.221161
640.099913	0.221405
640.306443	0.221653
640.512955	0.221635
640.719449	0.221703
640.925924	0.221845
641.132381	0.221926
641.338820	0.222320
641.545241	0.222327
641.751644	0.222366
641.958028	0.222705
642.164394	0.223187
642.370742	0.223522
642.577071	0.223727
642.783383	0.223871
642.989676	0.224236
643.195951	0.224381
643.402207	0.224778
643.608446	0.224998
643.814666	0.224885
644.020868	0.224744
644.227052	0.224867
644.433218	0.224878
644.639365	0.225219
644.845494	0.225365
645.051605	0.225587
645.257698	0.225829
645.463772	0.226174
645.669828	0.226283
645.875866	0.226589
646.081886	0.226952
646.287888	0.227187
646.493871	0.227169
646.699836	0.227200
646.905783	0.227401
647.111712	0.227505
647.317622	0.227613
647.523514	0.228229
647.729388	0.228706
647.935244	0.228896
648.141082	0.229186
648.346901	0.229318
648.552702	0.229645
648.758485	0.229781
648.964250	0.230040
649.169996	0.230273
649.375724	0.229990
649.581434	0.229867
649.787126	0.229903
649.992800	0.230176
650.198455	0.230517
650.404092	0.230691
650.609711	0.231052
650.815311	0.231058
651.020894	0.231013
651.226458	0.231325
651.432004	0.231404
651.637532	0.231395
651.843041	0.231612
652.048532	0.231780
652.254006	0.231858
652.459460	0.232019
652.664897	0.232486
652.870315	0.232589
653.075716	0.232639
653.281097	0.232804
653.486461	0.232885
653.691807	0.233189
653.897134	0.233338
654.102443	0.233701
654.307734	0.233753
654.513006	0.233645
654.718261	0.233961
654.923497	0.234286
655.128715	0.234503
655.333915	0.234922
655.539096	0.234939
655.744259	0.235194
655.949404	0.235162
656.154531	0.235228
656.359640	0.235290
656.564730	0.235492
656.769802	0.235681
656.974856	0.235819
657.179892	0.235888
657.384909	0.235644
657.589908	0.235628
657.794889	0.235807
657.999852	0.235943
658.204797	0.236179
658.409723	0.236250
658.614631	0.236302
658.819521	0.236241
659.024393	0.236343
659.229246	0.236780
659.434081	0.236990
659.638898	0.237094
659.843697	0.237040
660.048478	0.236918
660.253240	0.236735
660.457984	0.236804
660.662710	0.236899
660.867417	0.237027
661.072107	0.237049
661.276778	0.237226
661.481431	0.237295
661.686066	0.237287
661.890682	0.237531
662.095281	0.237930
662.299861	0.238113
662.504422	0.238457
662.708966	0.238783
662.913491	0.239054
663.117999	0.238966
663.322488	0.239225
663.526958	0.239679
663.731411	0.239978
663.935845	0.240203
664.140261	0.240431
664.344659	0.240659
664.549038	0.240764
664.753400	0.240939
664.957743	0.241274
665.162068	0.241369
665.366375	0.241797
665.570663	0.242026
665.774933	0.242224
665.979185	0.242350
666.183419	0.242381
666.387635	0.242812
666.591832	0.242694
666.796011	0.242873
667.000172	0.243272
667.204315	0.243489
667.408439	0.243379
667.612545	0.243678
667.816634	0.243743
668.020703	0.244035
668.224755	0.244145
668.428788	0.244550
668.632803	0.244732
668.836800	0.244940
669.040779	0.245042
669.244739	0.245518
669.448681	0.245522
669.652605	0.245783
669.856511	0.245917
670.060399	0.246135
670.264268	0.246569
670.468119	0.246910
670.671952	0.247046
670.875767	0.247151
671.079563	0.247549
671.283341	0.247820
671.487101	0.248167
671.690843	0.248786
671.894567	0.248773
672.098272	0.248692
672.301959	0.248716
672.505628	0.248784
672.709278	0.249193
672.912911	0.249267
673.116525	0.249505
673.320121	0.249664
673.523699	0.249604
673.727258	0.249918
673.930799	0.250422
674.134322	0.250738
674.337827	0.251129
674.541314	0.251115
674.744782	0.251370
674.948232	0.251554
675.151664	0.251779
675.355078	0.252106
675.558474	0.252393
675.761851	0.252594
675.965210	0.253074
676.168551	0.253145
676.371873	0.253569
676.575178	0.253695
676.778464	0.253968
676.981732	0.254173
677.184981	0.254225
677.388213	0.254610
677.591426	0.254644
677.794621	0.254513
677.997798	0.254933
678.200956	0.254883
678.404097	0.255085
678.607219	0.255201
678.810323	0.255305
679.013408	0.255529
679.216476	0.255556
679.419525	0.255598
679.622556	0.255649
679.825569	0.255874
680.028563	0.256206
680.231540	0.256433
680.434498	0.256503
680.637438	0.256876
680.840359	0.257086
681.043263	0.257131
681.246148	0.257574
681.449015	0.257814
681.651864	0.257901
681.854694	0.258060
682.057506	0.258300
682.260301	0.258677
682.463076	0.258958
682.665834	0.259031
682.868573	0.259323
683.071295	0.259337
683.273998	0.259578
683.476682	0.259853
683.679349	0.260090
683.881997	0.260045
684.084627	0.260376
684.287239	0.260419
684.489833	0.260665
684.692408	0.260988
684.894965	0.261354
685.097504	0.261374
685.300025	0.261570
685.502527	0.261554
685.705012	0.261717
685.907478	0.261692
686.109925	0.261884
686.312355	0.262003
686.514766	0.261820
686.717159	0.261682
686.919534	0.262039
687.121891	0.261819
687.324230	0.262014
687.526550	0.262199
687.728852	0.262136
687.931136	0.262139
688.133401	0.262402
688.335649	0.262603
688.537878	0.262852
688.740089	0.262854
688.942281	0.263093
689.144456	0.263338
689.346612	0.263527
689.548750	0.264049
689.750870	0.264320
689.952971	0.264568
690.155055	0.264882
690.357120	0.264987
690.559167	0.265316
690.761195	0.265640
690.963206	0.265962
691.165198	0.266102
691.367172	0.266120
691.569128	0.266222
691.771065	0.266261
691.972984	0.266464
692.174885	0.266849
692.376768	0.267252
692.578633	0.267455
692.780479	0.267438
692.982308	0.267783
693.184118	0.267932
693.385909	0.268185
