sample name	sample
index	701
start time	 03-22-2021  12:51:09 PM
880	0.295791
Peak Time (s)	91.035
Peak Height 	0.2958
calc peak height	90,93
Baseline Time (s)	9.537
Baseline Value 	-0.00261
subtract baseline	10,4
Abs	0.185075
Peak Time (s)	92.535
Peak Height 	0.1851
calc peak height	90,93
Baseline Time (s)	11.536
Baseline Value 	0.00446
subtract baseline	10,3
PK_550	0.089860
Peak Time (s)	91.035
Peak Height 	0.08986
calc peak height	90,93
Baseline Time (s)	9.037
Baseline Value 	7.3559E-4
subtract baseline	10,2
PK_880	0.176771
Peak Time (s)	92.035
Peak Height 	0.1768
calc peak height	90,93
Baseline Time (s)	9.537
Baseline Value 	0.004255
subtract baseline	10,1


Time (s)	A880-A510	A880-A775	A880-A975	A880	I510	I775	I975	I880	
0.040000	-0.007218	-0.001332	-0.004612	0.004316	7287.998459	45209.594358	3965.792467	23996.196764
0.534500	-0.002917	-0.000145	-0.005876	0.003878	7336.440383	45368.151814	3963.663296	24017.500495
1.035000	-0.003448	-0.000733	-0.004890	0.002356	7346.654988	45459.697278	3970.141216	24091.783615
1.537500	-0.004096	-0.000309	-0.001433	0.003997	7323.118728	45340.517576	3974.852332	24011.694214
2.035500	-0.002389	-0.000103	-0.002689	0.000185	7380.050160	45734.981372	3981.521704	24198.137916
2.536000	-0.002916	0.000057	0.005759	0.000219	7374.226238	45747.371183	4003.748244	24196.450060
3.036000	-0.000601	0.000270	0.000332	-0.002154	7423.094063	46003.300158	3995.632192	24313.329423
3.536500	-0.005481	-0.001105	-0.003865	0.003746	7311.512040	45287.330164	3969.195526	24023.943823
4.042000	-0.002479	-0.000369	-0.001914	-0.000674	7388.047017	45793.557141	3985.805385	24240.384263
4.537000	-0.002369	-0.000178	-0.001028	-0.000999	7392.564382	45844.443377	3988.987694	24256.355002
5.037500	-0.000657	0.000542	-0.003306	-0.000742	7407.734506	45890.294396	3982.332232	24243.697491
5.535000	-0.001899	0.000103	-0.002226	-0.000545	7392.739437	45827.373558	3984.646382	24234.030991
6.035000	-0.001586	-0.000480	-0.004758	-0.000556	7396.111267	45770.876399	3978.051787	24234.569886
6.535500	-0.002052	-0.000004	0.002426	-0.000065	7386.138962	45769.375308	3995.644896	24210.389273
7.035500	-0.000707	0.000031	0.000633	0.000548	7393.767775	45712.424429	3989.290175	24180.311202
7.536000	-0.001824	-0.000402	-0.006406	-0.000230	7390.239073	45746.460025	3972.914441	24218.534838
8.036500	-0.000955	0.000063	0.000481	0.000231	7394.483258	45746.814556	3989.726475	24195.890558
8.539500	0.000135	-0.000068	-0.005233	-0.000386	7412.293869	45794.723403	3976.370535	24226.169538
9.037000	-0.000659	0.000000	-0.000536	-0.000019	7400.174914	45765.246507	3987.704959	24208.145735
9.537500	0.000000	0.000760	0.003253	0.000000	7406.849799	45838.427751	3997.665139	24207.215196
10.037500	-0.001835	-0.000405	0.003337	-0.000304	7390.892005	45753.402848	3998.694832	24222.153296
10.535000	-0.002472	0.000141	-0.001845	0.000131	7379.744075	45764.306272	3983.873501	24200.769699
11.035500	0.000761	-0.000011	0.000447	0.000068	7414.092188	45755.571053	3990.062626	24203.850918
11.536000	0.000074	0.000757	0.000000	0.000949	7397.722526	45744.462221	3986.569108	24160.641450
12.036000	-0.000535	-0.000021	0.000010	-0.000082	7402.125313	45769.392832	3989.308818	24211.254121
12.536000	-0.000534	0.000280	-0.000499	0.000277	7398.393246	45763.713042	3987.025239	24193.623923
13.039500	-0.000948	0.000605	-0.001676	0.000166	7395.228684	45806.718875	3984.223543	24199.066439
13.537000	-0.001470	0.000299	0.005006	0.000724	7383.991374	45721.427789	4000.398307	24171.660912
14.040000	-0.000634	0.000267	0.000236	0.003758	7361.209680	45420.254062	3979.826785	24023.336348
14.535000	-0.001078	0.000319	-0.002209	0.002487	7369.780416	45549.980019	3976.765281	24085.374183
15.035000	0.000482	0.000704	-0.001028	0.000729	7404.271616	45760.866263	3984.447666	24171.419608
15.535500	-0.003984	0.001004	-0.001772	0.007383	7289.690452	45138.497747	3965.205460	23847.492818
16.035500	0.001131	0.000576	0.000306	0.000977	7408.451077	45723.830663	3987.299695	24159.241045
16.536000	-0.001157	-0.000433	-0.003685	0.000161	7393.112174	45704.822476	3978.982226	24199.312293
17.039000	0.001415	0.000503	0.002574	-0.002019	7442.844597	46012.940309	4001.225601	24306.636123
17.539000	-0.002878	0.000545	0.000549	0.003483	7340.910217	45474.435030	3981.363544	24036.750894
18.037000	-0.000825	0.000606	-0.001331	0.002225	7375.105362	45603.905571	3979.736326	24098.140164
18.537000	0.000299	0.001443	-0.002418	0.003289	7375.726624	45581.555172	3974.131282	24046.192238
19.036500	-0.003129	-0.000475	-0.000511	0.002029	7353.306749	45516.996756	3982.394511	24107.751735
19.537000	-0.002493	-0.000044	-0.004995	0.002317	7356.894543	45531.051520	3969.968407	24093.659563
20.038000	-0.000997	0.000131	-0.001551	0.002094	7374.680104	45570.098236	3979.505748	24104.557501
20.535500	-0.000778	0.000072	-0.003266	0.002435	7373.416285	45530.802293	3974.148341	24087.886788
21.035500	-0.001678	0.001504	0.003732	0.003379	7354.355394	45578.823237	3989.997558	24041.843003
21.536000	-0.001122	-0.000111	-0.001507	0.002264	7371.621819	45529.589101	3979.175536	24096.239578
22.039000	-0.002884	0.000198	-0.001700	0.002384	7352.173516	45548.259273	3978.359672	24090.409200
22.536500	0.000527	0.000327	0.000263	0.002790	7383.275149	45520.954755	3982.428250	24070.558331
23.036500	-0.000835	0.000056	0.002856	0.002309	7374.135277	45541.619418	3990.505226	24094.033073
23.540000	-0.001576	-0.000140	-0.001074	0.002671	7362.719849	45486.935840	3979.244580	24076.379291
24.037500	-0.001292	0.000292	-0.003015	0.002625	7366.131009	45533.739289	3974.307620	24078.628031
24.535000	-0.000009	0.001175	0.003024	0.003202	7373.443114	45563.833274	3988.597166	24050.475032
25.035500	-0.001101	0.000538	0.001128	0.003253	7361.601588	45496.279175	3983.480562	24047.942905
25.535500	-0.000401	0.000580	-0.001057	0.003129	7370.134526	45512.572328	3978.092187	24054.001953
26.036000	-0.000434	0.001217	0.003861	0.003701	7363.876007	45518.995897	3989.486877	24026.136312
26.539000	0.000898	0.000302	0.004226	0.003025	7384.699001	45495.505109	3992.232525	24059.103960
27.036500	0.001668	0.001621	0.006078	0.001116	7412.616012	45813.290925	4002.207577	24152.447669
27.536500	0.000843	0.000334	0.003087	0.000643	7408.939628	45732.871524	3995.519717	24175.645846
28.037000	0.001616	0.001054	0.004336	0.002314	7399.570254	45639.189333	3994.403181	24093.823138
28.537500	0.000467	0.000701	0.000772	0.001930	7391.598694	45642.238335	3986.020488	24112.588280
29.037500	-0.000437	0.001166	0.004469	0.002778	7373.404279	45604.635709	3993.529306	24071.153959
29.535000	0.000640	0.001602	0.003020	0.002742	7384.951577	45651.081954	3989.797861	24072.912379
30.035500	0.000887	0.001032	0.003605	0.002409	7390.979903	45627.713994	3992.218478	24089.159348
30.535500	-0.000734	0.000913	0.000784	0.004849	7348.923873	45376.735787	3978.409403	23970.270540
31.039000	-0.002516	0.000395	-0.002276	0.004000	7339.312052	45409.098666	3972.655081	24011.554759
31.537500	-0.001167	0.000558	0.000482	0.006772	7324.696686	45154.505876	3972.618037	23877.030641
32.036500	-0.000551	0.000877	0.002668	0.002564	7374.432073	45597.166838	3989.337823	24081.581404
32.536000	-0.000449	0.000877	0.006086	0.002394	7377.258879	45613.933633	3998.832921	24089.925082
33.037000	0.000809	0.000619	0.001641	0.002341	7390.881382	45593.726171	3987.222165	24092.487469
33.537000	-0.002827	0.000865	-0.000720	0.007761	7297.618038	45088.194414	3966.946582	23829.236585
34.035000	-0.000148	0.001020	0.000494	0.004140	7362.298296	45456.588308	3979.503940	24004.773473
34.535500	-0.001040	0.000821	-0.003553	0.004661	7347.705658	45386.024062	3967.634719	23979.390055
35.035000	-0.001488	0.000376	-0.003287	0.004330	7346.496535	45374.938649	3969.179001	23995.501571
35.538500	0.001792	0.000690	0.001472	0.006211	7360.943023	45222.039943	3976.651533	23904.195735
36.036000	-0.001494	0.000602	0.000580	0.004632	7343.327081	45367.431069	3978.440818	23980.795784
36.536500	0.000088	0.000985	0.004250	0.005161	7354.179499	45353.256975	3986.669861	23955.119051
37.036500	-0.000501	0.001165	0.004714	0.005037	7349.386978	45382.960630	3988.214882	23961.126782
37.537000	-0.000021	0.000780	0.002939	0.004911	7355.639371	45357.606713	3983.883037	23967.261695
38.037500	-0.000510	0.001238	0.005345	0.005129	7348.348166	45381.068570	3989.634898	23956.670094
38.534500	-0.000396	0.000831	-0.001625	0.005044	7350.398122	45349.638894	3971.636439	23960.797249
39.035000	0.000601	0.000992	0.000988	0.004965	7361.511714	45373.137372	3978.640739	23964.648532
39.535500	0.000406	0.001144	-0.000288	0.005372	7355.292870	45348.192351	3974.255256	23944.890253
40.037500	-0.000500	0.001016	0.000121	0.004836	7351.474189	45388.061454	3976.715620	23970.899376
40.536500	-0.000778	0.001204	-0.000065	0.005583	7340.911304	45333.400399	3974.286963	23934.640910
41.036000	0.000619	0.001494	0.003183	0.005797	7353.097553	45340.785022	3982.201424	23924.236171
41.536000	0.000954	0.001088	0.000161	0.005592	7358.674088	45321.257215	3974.850525	23934.202243
42.036500	-0.001079	0.001802	0.000042	0.006137	7332.123863	45337.748581	3973.125034	23907.773103
42.537000	0.001390	0.001152	-0.001153	0.005828	7360.738570	45304.377626	3970.826272	23922.749285
43.037500	-0.001822	0.000647	0.006478	0.005242	7333.682107	45312.322189	3992.325014	23951.173435
43.535000	-0.000542	0.001472	0.000218	0.005393	7345.301739	45378.221497	3975.518609	23943.861793
44.035500	0.004182	0.002041	0.005943	0.001357	7436.443683	45830.927075	4001.207337	24140.640929
44.538000	0.002983	0.001407	0.006020	0.003474	7401.719917	45559.821258	3995.790353	24037.179511
45.036000	0.001534	0.001402	0.004923	0.003791	7383.333648	45528.244419	3992.050558	24021.721952
45.536000	-0.000091	0.001155	0.002882	0.004226	7361.990729	45461.387060	3985.531445	24000.552888
46.036500	0.002252	0.001671	-0.000175	0.004233	7386.217817	45511.363200	3977.515785	24000.247902
46.536500	0.002117	0.001068	-0.002079	0.003568	7391.724686	45517.391973	3974.288306	24032.612344
47.037000	0.002429	0.001161	-0.005080	0.003858	7391.954831	45498.064961	3965.767972	24018.503927
47.537500	0.001354	0.002058	0.000972	0.007399	7344.161936	45239.591497	3972.265292	23846.738876
48.034500	-0.000543	0.000733	-0.000087	0.003718	7362.575033	45469.890723	3979.089812	24025.313968
48.538000	0.001050	0.001466	0.003438	0.003964	7376.529215	45517.606410	3987.681445	24013.341338
49.038000	0.001636	0.001707	0.004263	0.004395	7378.133013	45498.911134	3988.717680	23992.333420
49.535500	0.001736	0.001764	0.004619	0.003756	7385.811630	45567.228897	3991.342057	24023.459017
50.036000	0.002728	0.001945	0.008077	0.003881	7394.823238	45572.752387	4000.169604	24017.343053
50.536500	-0.011532	-0.004457	0.011670	0.005039	7237.071340	44836.411471	4006.664515	23961.046977
51.036000	-0.057567	-0.015350	-0.000916	0.206990	5337.953629	28591.095363	3553.935590	16116.731762
51.536500	-0.062527	-0.023565	-0.029453	-0.094573	7754.142895	53376.210180	4174.097309	29399.148490
52.037000	-0.057369	-0.130629	-0.020007	-0.295377	10716.781389	65535.000000	5001.616081	44995.585413
52.536500	-0.052814	-0.214554	-0.035136	-0.379302	12489.544740	65535.000000	5371.743802	53976.608622
53.035000	-0.051734	-0.130906	-0.001681	-0.295654	10824.319082	65535.000000	5095.990040	45022.502125
53.537500	-0.042645	-0.096185	0.008150	-0.260922	10368.348538	65533.374231	4970.570032	41782.431404
54.035500	-0.030986	-0.075278	0.004763	-0.237315	10164.912399	65145.281948	4842.495798	39723.582355
54.535500	-0.004710	-0.068011	0.009679	-0.230669	10502.126666	65234.399434	4834.552866	39163.854636
55.036000	0.019078	-0.046156	0.024377	-0.203496	10442.872245	64475.722475	4778.221080	36962.358015
55.536500	0.026447	-0.013829	0.035428	-0.148822	9661.530345	61387.647708	4593.497054	32929.219844
56.036500	0.038081	0.007939	0.048616	-0.086974	8920.162945	56232.062752	4408.196521	28938.924452
56.536000	0.055617	0.019597	0.070445	-0.024653	8327.527536	50360.353645	4269.059256	25453.641141
57.037000	0.068609	0.032436	0.083023	0.044196	7669.075919	44618.356376	4096.032090	22142.347433
57.537500	0.082694	0.041871	0.098799	0.092683	7303.730209	41031.256351	4005.286587	20106.125425
58.037500	0.099005	0.051004	0.111513	0.129750	7096.896003	38656.167341	3942.029839	18695.790948
58.535000	0.108074	0.058875	0.122607	0.162643	6871.362675	36654.634096	3888.336339	17541.205306
59.035500	0.127804	0.069799	0.130170	0.213161	6597.637331	33713.870257	3790.107185	15929.802559
59.536000	0.127990	0.073737	0.138626	0.231713	6443.360478	32694.412048	3768.395973	15383.534326
60.036000	0.133704	0.075328	0.137319	0.239085	6429.750574	32300.485561	3750.130941	15172.861009
60.536000	0.135135	0.077738	0.146821	0.253048	6328.546648	31528.853174	3740.885960	14783.516763
61.036500	0.141481	0.080147	0.154604	0.267297	6266.206028	30758.997968	3727.648347	14398.864527
61.537000	0.145393	0.084072	0.153468	0.278096	6212.805274	30321.656129	3703.729900	14115.656710
62.037000	0.150154	0.086568	0.159103	0.287020	6180.936773	29918.856232	3697.253839	13886.876629
62.537000	0.160179	0.089145	0.156795	0.277830	6330.633661	30660.767294	3710.862305	14122.552964
63.035000	0.161131	0.089776	0.166028	0.276800	6346.452914	30767.118698	3731.560572	14149.281407
63.535000	0.160815	0.089368	0.160790	0.276054	6349.890704	30788.761499	3722.439322	14168.657965
64.038500	0.163154	0.092526	0.160418	0.277333	6358.390984	30909.683956	3719.112159	14135.431562
64.536000	0.166163	0.091959	0.164542	0.276465	6389.655022	30929.074451	3729.213664	14157.968542
65.039000	0.165400	0.092147	0.159704	0.276475	6383.405001	30940.641325	3719.402624	14157.724168
65.536500	0.166576	0.093452	0.164063	0.277186	6387.165034	30978.987860	3726.776659	14139.251203
66.036500	0.168887	0.094365	0.167065	0.276406	6412.275792	31088.591058	3734.485484	14159.511344
66.537000	0.169119	0.094517	0.168962	0.275684	6420.058809	31145.409807	3739.864753	14178.295496
67.039500	0.167956	0.094795	0.171716	0.276390	6404.821934	31117.560968	3744.093435	14159.927090
67.535000	0.170454	0.095273	0.170568	0.277652	6414.897059	31066.700386	3739.119741	14127.162909
68.035500	0.170937	0.095272	0.174902	0.277967	6416.261720	31046.170746	3747.428053	14118.987535
68.535000	0.171295	0.095426	0.170087	0.279682	6405.208308	30945.268525	3733.966472	14074.657535
69.035500	0.170584	0.094031	0.165265	0.279613	6399.984995	30859.788163	3724.291799	14076.427120
69.536000	0.171015	0.095037	0.178353	0.281277	6389.984971	30817.434758	3747.723097	14033.567036
70.036500	0.171314	0.094701	0.171467	0.280941	6395.131455	30817.436534	3734.213059	14042.202914
70.536500	0.171040	0.094648	0.169429	0.282167	6382.978260	30735.319935	3727.556460	14010.698301
71.036500	0.173173	0.095193	0.171270	0.283081	6392.854763	30711.733840	3729.443037	13987.273401
71.540000	0.172687	0.095402	0.172411	0.284710	6375.745357	30620.946182	3728.448357	13945.632007
72.034500	0.172515	0.094671	0.170703	0.283747	6382.135896	30635.724987	3726.935559	13970.228726
72.535000	0.175708	0.096948	0.173660	0.285853	6390.925758	30646.664116	3728.665336	13916.515132
73.035000	0.173755	0.095097	0.171496	0.284653	6384.834931	30605.151153	3726.708354	13947.104123
73.535500	0.176063	0.096165	0.175329	0.286363	6389.674192	30564.210746	3731.026308	13903.559378
74.036000	0.173843	0.095472	0.169114	0.286559	6370.162399	30507.649116	3718.045353	13898.569660
74.536000	0.176963	0.096015	0.176536	0.286828	6393.202598	30525.092545	3732.540001	13891.740005
75.035500	0.175578	0.096277	0.172720	0.287788	6374.239733	30480.739230	3722.837683	13867.400056
75.536500	0.176180	0.096108	0.175233	0.289397	6366.129138	30368.099114	3724.666182	13826.728428
76.039500	0.175930	0.095319	0.177168	0.288378	6372.313298	30382.583117	3730.667022	13852.454585
76.537500	0.177608	0.096619	0.182727	0.289275	6378.618458	30408.085040	3740.223057	13829.789645
77.034500	0.176612	0.096394	0.175202	0.290332	6362.080016	30327.034781	3722.712367	13803.149668
77.534500	0.179276	0.095674	0.178634	0.290911	6378.875382	30245.137654	3728.494490	13788.576868
78.035500	0.173664	0.095062	0.181542	0.290107	6340.263418	30257.257913	3736.076501	13808.817883
78.536000	0.175913	0.095190	0.185014	0.290546	6354.752496	30237.696963	3742.320159	13797.769537
79.036000	0.178629	0.094586	0.177582	0.290378	6377.955990	30210.240558	3727.439475	13801.994240
79.536500	0.177195	0.094969	0.177769	0.290722	6363.631738	30212.682672	3727.121072	13793.325817
80.036500	0.179091	0.095905	0.172749	0.292407	6365.329166	30165.631351	3713.610500	13751.018285
80.539500	0.175911	0.094928	0.175107	0.291096	6350.332959	30186.641005	3720.979130	13783.940993
81.037000	0.178749	0.094667	0.175791	0.292624	6360.834677	30074.457466	3719.277756	13745.583828
81.534000	0.177241	0.094642	0.180911	0.292360	6350.851106	30089.393175	3730.179115	13752.189837
82.035000	0.175747	0.094628	0.179190	0.292347	6339.017535	30089.393340	3726.707993	13752.531430
82.535500	0.177028	0.093099	0.179844	0.291911	6352.747995	30021.015975	3728.920789	13763.456237
83.035000	0.177968	0.094352	0.177885	0.292739	6353.644561	30047.580192	3723.270747	13742.713323
83.536000	0.175309	0.093091	0.180008	0.292414	6334.984916	29989.150323	3728.231980	13750.851579
84.036000	0.179112	0.094712	0.175468	0.293420	6357.360670	30027.494421	3717.028880	13725.658452
84.536500	0.177571	0.092782	0.173975	0.292553	6351.948072	29961.187353	3715.772360	13747.353413
85.039500	0.178050	0.093769	0.185756	0.294107	6343.352336	29925.920602	3736.514970	13708.506989
85.537000	0.175444	0.091109	0.175832	0.292436	6335.882074	29864.447571	3719.739446	13750.296560
86.037500	0.175986	0.093396	0.174898	0.293537	6331.432151	29938.212634	3715.649902	13722.744902
86.535000	0.179847	0.092769	0.178705	0.293312	6364.128985	29913.153078	3723.768501	13728.356324
87.035000	0.176178	0.092758	0.177082	0.294577	6324.679943	29833.981587	3717.948129	13696.786645
87.535500	0.178950	0.091765	0.180476	0.294068	6350.861432	29803.921624	3725.823980	13709.467734
88.035500	0.175800	0.091465	0.180829	0.293644	6329.092315	29811.582848	3727.400710	13720.056265
88.536000	0.175322	0.089976	0.179573	0.292479	6334.565092	29791.509932	3727.215128	13749.207525
89.036500	0.177209	0.090731	0.183711	0.295124	6328.530245	29674.768553	3730.252291	13683.136776
89.539500	0.179485	0.090904	0.178133	0.294390	6352.572990	29730.751860	3720.438101	13701.444929
90.037000	0.175510	0.088991	0.177235	0.293341	6329.200322	29677.485382	3720.741631	13727.643473
90.537000	0.175460	0.088854	0.180307	0.293569	6326.985638	29654.967935	3726.493716	13721.937658
91.035000	0.175224	0.089860	0.181862	0.295791	6307.483578	29580.155630	3725.141918	13666.549566
91.535000	0.175526	0.088938	0.180801	0.294179	6322.656074	29622.580667	3726.258025	13706.698092
92.035500	0.176771	0.088948	0.179844	0.295313	6323.537323	29553.475672	3722.025951	13678.425518
92.535500	0.174823	0.088355	0.185075	0.294361	6315.630637	29575.517151	3734.598251	13702.155106
93.036000	0.174801	0.087325	0.181130	0.296076	6301.889109	29407.530537	3723.085097	13659.470000
93.536000	0.177040	0.087231	0.177145	0.295125	6327.182333	29459.875439	3716.972608	13683.123541
94.039000	0.179307	0.087504	0.183913	0.295147	6345.085831	29475.205853	3730.618634	13682.561968
94.537000	0.176567	0.086252	0.186974	0.294640	6327.272108	29429.704714	3737.922730	13695.211743
95.037000	0.174952	0.087332	0.184688	0.298616	6283.072147	29253.428692	3725.144105	13596.528451
95.537500	0.175879	0.086165	0.180940	0.295941	6311.479437	29345.061919	3722.972399	13662.809493
96.035000	0.175589	0.085940	0.183333	0.295694	6311.149438	29346.414895	3728.324383	13668.968862
