sample name	sample
index	1500
start time	 05-18-2021  02:29:02 PM


Wavelength (nm)	Absorbance
494.344910	0.061864
494.563924	0.061864
494.782919	0.061864
495.001897	0.166900
495.220856	0.021565
495.439797	0.058780
495.658719	0.033649
495.877624	0.006328
496.096510	-0.038027
496.315378	-0.043621
496.534227	-0.057727
496.753059	-0.041870
496.971872	-0.002410
497.190667	0.075924
497.409444	0.075772
497.628203	0.076404
497.846943	0.080972
498.065665	0.083162
498.284369	0.081580
498.503055	0.081517
498.721723	0.082257
498.940372	0.083831
499.159003	0.084246
499.377616	0.084504
499.596210	0.086973
499.814787	0.086911
500.033345	0.087796
500.251885	0.088398
500.470406	0.088903
500.688910	0.089381
500.907395	0.087918
501.125862	0.087661
501.344311	0.086741
501.562742	0.085830
501.781154	0.085371
501.999548	0.084053
502.217924	0.084330
502.436282	0.084078
502.654621	0.082860
502.872942	0.083610
503.091245	0.083201
503.309530	0.085166
503.527797	0.085019
503.746045	0.085468
503.964275	0.085907
504.182487	0.086749
504.400681	0.086286
504.618856	0.087145
504.837013	0.085836
505.055152	0.084805
505.273273	0.084246
505.491376	0.083381
505.709460	0.082793
505.927526	0.081829
506.145574	0.081476
506.363604	0.081785
506.581615	0.081434
506.799608	0.082789
507.017583	0.083334
507.235540	0.082529
507.453478	0.083137
507.671399	0.083513
507.889301	0.084522
508.107185	0.083800
508.325050	0.083292
508.542898	0.082666
508.760727	0.081577
508.978538	0.082214
509.196330	0.083252
509.414105	0.083966
509.631861	0.083274
509.849599	0.083431
510.067319	0.083913
510.285021	0.084521
510.502704	0.085276
510.720369	0.085640
510.938016	0.086012
511.155645	0.085856
511.373255	0.085664
511.590848	0.086138
511.808422	0.086244
512.025977	0.087706
512.243515	0.088257
512.461034	0.088271
512.678536	0.088908
512.896018	0.089637
513.113483	0.089292
513.330930	0.089211
513.548358	0.089305
513.765768	0.088953
513.983160	0.087123
514.200533	0.087027
514.417889	0.087256
514.635226	0.086825
514.852545	0.086084
515.069845	0.086987
515.287128	0.086918
515.504392	0.088315
515.721638	0.087830
515.938866	0.088489
516.156075	0.088903
516.373267	0.088511
516.590440	0.088894
516.807594	0.088942
517.024731	0.088707
517.241850	0.088451
517.458950	0.087596
517.676032	0.088041
517.893095	0.088071
518.110141	0.087892
518.327168	0.088170
518.544177	0.088374
518.761168	0.088685
518.978141	0.088508
519.195095	0.089287
519.412031	0.089241
519.628949	0.090187
519.845849	0.090324
520.062731	0.090040
520.279594	0.090637
520.496439	0.091200
520.713266	0.091476
520.930074	0.092287
521.146865	0.092206
521.363637	0.092008
521.580391	0.091640
521.797127	0.091895
522.013844	0.092667
522.230543	0.092243
522.447224	0.091663
522.663887	0.090810
522.880532	0.090201
523.097158	0.090339
523.313766	0.090858
523.530356	0.090811
523.746928	0.090943
523.963481	0.090945
524.180017	0.091157
524.396534	0.091653
524.613032	0.093156
524.829513	0.093275
525.045975	0.093342
525.262420	0.093488
525.478845	0.093235
525.695253	0.093459
525.911643	0.092830
526.128014	0.093262
526.344367	0.093809
526.560702	0.093864
526.777018	0.094587
526.993316	0.094788
527.209597	0.094172
527.425858	0.095066
527.642102	0.095167
527.858328	0.096058
528.074535	0.096373
528.290724	0.095983
528.506894	0.095572
528.723047	0.095438
528.939181	0.095497
529.155297	0.096517
529.371395	0.096602
529.587475	0.097269
529.803536	0.097511
530.019579	0.097638
530.235604	0.097532
530.451611	0.098187
530.667600	0.098168
530.883570	0.099220
531.099522	0.099280
531.315456	0.099274
531.531372	0.099251
531.747269	0.099631
531.963148	0.100189
532.179009	0.100510
532.394852	0.100127
532.610676	0.100584
532.826482	0.099977
533.042271	0.100134
533.258040	0.100113
533.473792	0.100207
533.689525	0.100006
533.905240	0.099965
534.120937	0.100359
534.336616	0.100674
534.552277	0.101508
534.767919	0.101793
534.983543	0.102055
535.199149	0.102603
535.414736	0.102964
535.630306	0.103102
535.845857	0.103073
536.061390	0.102980
536.276904	0.103119
536.492401	0.102857
536.707879	0.102753
536.923339	0.102811
537.138781	0.102511
537.354204	0.102152
537.569610	0.102674
537.784997	0.102879
538.000366	0.103449
538.215716	0.104198
538.431049	0.104364
538.646363	0.105126
538.861659	0.105172
539.076937	0.105840
539.292196	0.106000
539.507438	0.105760
539.722661	0.105808
539.937866	0.105336
540.153052	0.104934
540.368221	0.104646
540.583371	0.104277
540.798503	0.104478
541.013617	0.104488
541.228712	0.104705
541.443789	0.104983
541.658848	0.105281
541.873889	0.105690
542.088912	0.105915
542.303916	0.106106
542.518902	0.106363
542.733870	0.106610
542.948820	0.106359
543.163752	0.106714
543.378665	0.106973
543.593560	0.107117
543.808437	0.107398
544.023295	0.108033
544.238136	0.108130
544.452958	0.108385
544.667762	0.109120
544.882548	0.109610
545.097315	0.109668
545.312064	0.109317
545.526795	0.109610
545.741508	0.109426
545.956203	0.109329
546.170879	0.109507
546.385537	0.109635
546.600177	0.109168
546.814799	0.109276
547.029402	0.109581
547.243988	0.109797
547.458555	0.109763
547.673103	0.110191
547.887634	0.110030
548.102146	0.110394
548.316640	0.110320
548.531116	0.110603
548.745574	0.110991
548.960013	0.111142
549.174435	0.111525
549.388838	0.111667
549.603222	0.111818
549.817589	0.111932
550.031937	0.112302
550.246267	0.112790
550.460579	0.112994
550.674873	0.112856
550.889148	0.112885
551.103405	0.113226
551.317644	0.113081
551.531865	0.113476
551.746068	0.113730
551.960252	0.113391
552.174418	0.112924
552.388566	0.112737
552.602696	0.112966
552.816807	0.112762
553.030900	0.112795
553.244975	0.113332
553.459032	0.112900
553.673070	0.112833
553.887091	0.113027
554.101093	0.113348
554.315077	0.113385
554.529042	0.112984
554.742990	0.113114
554.956919	0.113039
555.170830	0.112537
555.384722	0.112716
555.598597	0.112614
555.812453	0.112660
556.026291	0.112394
556.240111	0.112392
556.453913	0.113207
556.667696	0.113100
556.881461	0.112806
557.095208	0.113385
557.308937	0.113412
557.522647	0.113813
557.736339	0.114069
557.950013	0.114531
558.163669	0.114949
558.377307	0.114543
558.590926	0.114965
558.804527	0.114974
559.018110	0.114906
559.231675	0.115249
559.445221	0.115459
559.658749	0.115662
559.872259	0.115860
560.085751	0.115850
560.299225	0.115960
560.512680	0.116191
560.726117	0.116451
560.939536	0.116479
561.152937	0.116289
561.366319	0.116127
561.579683	0.115705
561.793029	0.115486
562.006357	0.115358
562.219667	0.115429
562.432958	0.115211
562.646231	0.115594
562.859486	0.115646
563.072723	0.115694
563.285941	0.115873
563.499141	0.116151
563.712323	0.116115
563.925487	0.116244
564.138632	0.116381
564.351760	0.116296
564.564869	0.116226
564.777960	0.116403
564.991032	0.116554
565.204087	0.116230
565.417123	0.116187
565.630141	0.116457
565.843140	0.116421
566.056122	0.116379
566.269085	0.116647
566.482030	0.116398
566.694957	0.116259
566.907866	0.116572
567.120756	0.117148
567.333628	0.117161
567.546482	0.117251
567.759318	0.117246
567.972135	0.117338
568.184935	0.117263
568.397716	0.117603
568.610478	0.117853
568.823223	0.117976
569.035949	0.117611
569.248657	0.117352
569.461347	0.117312
569.674019	0.117184
569.886672	0.117120
570.099308	0.117153
570.311925	0.117105
570.524523	0.116927
570.737104	0.116845
570.949666	0.117215
571.162210	0.117721
571.374736	0.117913
571.587244	0.118418
571.799733	0.118488
572.012205	0.118714
572.224658	0.118723
572.437092	0.118680
572.649509	0.118661
572.861907	0.118280
573.074287	0.117822
573.286649	0.117825
573.498993	0.117934
573.711318	0.118300
573.923625	0.118376
574.135914	0.118554
574.348185	0.118662
574.560438	0.118286
574.772672	0.118430
574.984888	0.119312
575.197086	0.119296
575.409266	0.119428
575.621427	0.119201
575.833570	0.119322
576.045695	0.119544
576.257802	0.120179
576.469890	0.120488
576.681961	0.120586
576.894013	0.120193
577.106046	0.120396
577.318062	0.120252
577.530059	0.120623
577.742039	0.120702
577.954000	0.120556
578.165942	0.120512
578.377867	0.120776
578.589773	0.121104
578.801661	0.121172
579.013531	0.121652
579.225382	0.121815
579.437216	0.121661
579.649031	0.121296
579.860828	0.121623
580.072606	0.121789
580.284367	0.121775
580.496109	0.121711
580.707833	0.121908
580.919539	0.121496
581.131227	0.121778
581.342896	0.121976
581.554547	0.122462
581.766180	0.122356
581.977795	0.122434
582.189391	0.122436
582.400969	0.122738
582.612529	0.122947
582.824071	0.123207
583.035595	0.123001
583.247100	0.123106
583.458587	0.123254
583.670056	0.123561
583.881506	0.123454
584.092939	0.123630
584.304353	0.123669
584.515749	0.123847
584.727127	0.124015
584.938486	0.124109
585.149828	0.124143
585.361151	0.123899
585.572456	0.123756
585.783742	0.123705
585.995011	0.123869
586.206261	0.123792
586.417493	0.123501
586.628706	0.123635
586.839902	0.123870
587.051079	0.124041
587.262238	0.124386
587.473379	0.124478
587.684502	0.124601
587.895606	0.124841
588.106692	0.124873
588.317760	0.125347
588.528810	0.125510
588.739841	0.125635
588.950855	0.125672
589.161850	0.125673
589.372827	0.125771
589.583785	0.126129
589.794726	0.125847
590.005648	0.126087
590.216552	0.126109
590.427437	0.126188
590.638305	0.126474
590.849154	0.126914
591.059985	0.127373
591.270798	0.127396
591.481592	0.127019
591.692369	0.127310
591.903127	0.127741
592.113867	0.127606
592.324588	0.127494
592.535292	0.127560
592.745977	0.127536
592.956644	0.127308
593.167293	0.127415
593.377923	0.127980
593.588536	0.128084
593.799130	0.128104
594.009706	0.128374
594.220263	0.128717
594.430803	0.128881
594.641324	0.128928
594.851827	0.129211
595.062312	0.129375
595.272778	0.129555
595.483227	0.129951
595.693657	0.129900
595.904069	0.129913
596.114462	0.129980
596.324838	0.129788
596.535195	0.129905
596.745534	0.130125
596.955855	0.130391
597.166157	0.130449
597.376441	0.130392
597.586707	0.130557
597.796955	0.130751
598.007185	0.130681
598.217396	0.130838
598.427589	0.130947
598.637764	0.130986
598.847921	0.131393
599.058060	0.131465
599.268180	0.131508
599.478282	0.131497
599.688366	0.131410
599.898431	0.131842
600.108479	0.131912
600.318508	0.131791
600.528519	0.131963
600.738511	0.131857
600.948486	0.131660
601.158442	0.131872
601.368380	0.131737
601.578300	0.132159
601.788202	0.132152
601.998085	0.132070
602.207950	0.132343
602.417797	0.132248
602.627626	0.132244
602.837436	0.132544
603.047228	0.132316
603.257002	0.132405
603.466758	0.132673
603.676496	0.132690
603.886215	0.132924
604.095916	0.133042
604.305599	0.133423
604.515264	0.133487
604.724910	0.133461
604.934538	0.133873
605.144148	0.134254
605.353740	0.134065
605.563314	0.133829
605.772869	0.133840
605.982406	0.134115
606.191925	0.134156
606.401425	0.134305
606.610908	0.134507
606.820372	0.134558
607.029818	0.134688
607.239246	0.135039
607.448655	0.135712
607.658047	0.135904
607.867420	0.136060
608.076775	0.136058
608.286111	0.136165
608.495430	0.136489
608.704730	0.136598
608.914012	0.136895
609.123275	0.136749
609.332521	0.136609
609.541748	0.136791
609.750957	0.136752
609.960148	0.136622
610.169321	0.136894
610.378475	0.136763
610.587611	0.136678
610.796729	0.136545
611.005829	0.136712
611.214910	0.136505
611.423974	0.136584
611.633019	0.136485
611.842045	0.136782
612.051054	0.136881
612.260044	0.137047
612.469017	0.137311
612.677970	0.137438
612.886906	0.137484
613.095824	0.137895
613.304723	0.138046
613.513604	0.138492
613.722467	0.138518
613.931311	0.138493
614.140138	0.138459
614.348946	0.138244
614.557736	0.138467
614.766507	0.138465
614.975261	0.138606
615.183996	0.138480
615.392713	0.138410
615.601412	0.138381
615.810092	0.138141
616.018754	0.138474
616.227399	0.138918
616.436024	0.138913
616.644632	0.139232
616.853222	0.139575
617.061793	0.139724
617.270346	0.139866
617.478880	0.140040
617.687397	0.140588
617.895895	0.140642
618.104375	0.140617
618.312837	0.140660
618.521281	0.140845
618.729706	0.140637
618.938113	0.140832
619.146502	0.140610
619.354873	0.140710
619.563226	0.140566
619.771560	0.140646
619.979876	0.140753
620.188174	0.141066
620.396453	0.141135
620.604715	0.141446
620.812958	0.141720
621.021183	0.142305
621.229390	0.142832
621.437578	0.143138
621.645748	0.143523
621.853900	0.143932
622.062034	0.144039
622.270150	0.144261
622.478247	0.144178
622.686326	0.144336
622.894387	0.144457
623.102430	0.144532
623.310454	0.144815
623.518461	0.144677
623.726449	0.144719
623.934418	0.144887
624.142370	0.145047
624.350303	0.145230
624.558218	0.145131
624.766115	0.145079
624.973994	0.144943
625.181855	0.144714
625.389697	0.144753
625.597521	0.144937
625.805327	0.145083
626.013114	0.144968
626.220883	0.145125
626.428634	0.144954
626.636367	0.144990
626.844082	0.145063
627.051778	0.145448
627.259457	0.145518
627.467117	0.145111
627.674758	0.144918
627.882382	0.144982
628.089987	0.145090
628.297574	0.145686
628.505143	0.145758
628.712694	0.145927
628.920226	0.145914
629.127740	0.145916
629.335236	0.146121
629.542714	0.146386
629.750174	0.146470
629.957615	0.146604
630.165038	0.146566
630.372443	0.146970
630.579829	0.147046
630.787198	0.147062
630.994548	0.147339
631.201880	0.147793
631.409194	0.147620
631.616489	0.147735
631.823766	0.147916
632.031025	0.148081
632.238266	0.147993
632.445489	0.147988
632.652693	0.148224
632.859879	0.148497
633.067047	0.148184
633.274197	0.148541
633.481329	0.148599
633.688442	0.148407
633.895537	0.148430
634.102614	0.148374
634.309672	0.148597
634.516713	0.148704
634.723735	0.148599
634.930739	0.149250
635.137724	0.149190
635.344692	0.149394
635.551641	0.149697
635.758572	0.149765
635.965485	0.149874
636.172379	0.149892
636.379256	0.149812
636.586114	0.149913
636.792954	0.149807
636.999775	0.149920
637.206579	0.149974
637.413364	0.149886
637.620131	0.150050
637.826880	0.150064
638.033610	0.150244
638.240323	0.150304
638.447017	0.150354
638.653692	0.150365
638.860350	0.150320
639.066990	0.150408
639.273611	0.150394
639.480214	0.150584
639.686798	0.150883
639.893365	0.150795
640.099913	0.150989
640.306443	0.151307
640.512955	0.151448
640.719449	0.151785
640.925924	0.151927
641.132381	0.152099
641.338820	0.152041
641.545241	0.152145
641.751644	0.152457
641.958028	0.152574
642.164394	0.152602
642.370742	0.152771
642.577071	0.152918
642.783383	0.153100
642.989676	0.153552
643.195951	0.153765
643.402207	0.153885
643.608446	0.153828
643.814666	0.153988
644.020868	0.154135
644.227052	0.154263
644.433218	0.154330
644.639365	0.154351
644.845494	0.153955
645.051605	0.154053
645.257698	0.154320
645.463772	0.154750
645.669828	0.155045
645.875866	0.155118
646.081886	0.155030
646.287888	0.155133
646.493871	0.155301
646.699836	0.155728
646.905783	0.155776
647.111712	0.155647
647.317622	0.155665
647.523514	0.155668
647.729388	0.155865
647.935244	0.156205
648.141082	0.156270
648.346901	0.156346
648.552702	0.156474
648.758485	0.156898
648.964250	0.157070
649.169996	0.157282
649.375724	0.157576
649.581434	0.157707
649.787126	0.157914
649.992800	0.158239
650.198455	0.158204
650.404092	0.158314
650.609711	0.158208
650.815311	0.158475
651.020894	0.158317
651.226458	0.158143
651.432004	0.158088
651.637532	0.158009
651.843041	0.158175
652.048532	0.158582
652.254006	0.158693
652.459460	0.158881
652.664897	0.158872
652.870315	0.159074
653.075716	0.159156
653.281097	0.159355
653.486461	0.159619
653.691807	0.159565
653.897134	0.159593
654.102443	0.159775
654.307734	0.159864
654.513006	0.159912
654.718261	0.160179
654.923497	0.160331
655.128715	0.160283
655.333915	0.160296
655.539096	0.160499
655.744259	0.160540
655.949404	0.160688
656.154531	0.160861
656.359640	0.161244
656.564730	0.161328
656.769802	0.161565
656.974856	0.161826
657.179892	0.161858
657.384909	0.161838
657.589908	0.161916
657.794889	0.161837
657.999852	0.161800
658.204797	0.161866
658.409723	0.161993
658.614631	0.162063
658.819521	0.161967
659.024393	0.162010
659.229246	0.162148
659.434081	0.162281
659.638898	0.162447
659.843697	0.162535
660.048478	0.162491
660.253240	0.162445
660.457984	0.162683
660.662710	0.163167
660.867417	0.163462
661.072107	0.163665
661.276778	0.163951
661.481431	0.164161
661.686066	0.164265
661.890682	0.164683
662.095281	0.164902
662.299861	0.164976
662.504422	0.165090
662.708966	0.165277
662.913491	0.165275
663.117999	0.165465
663.322488	0.165546
663.526958	0.165599
663.731411	0.165597
663.935845	0.165784
664.140261	0.165813
664.344659	0.165783
664.549038	0.165896
664.753400	0.166235
664.957743	0.166351
665.162068	0.166584
665.366375	0.166794
665.570663	0.166959
665.774933	0.167139
665.979185	0.167285
666.183419	0.167476
666.387635	0.167495
666.591832	0.167441
666.796011	0.167622
667.000172	0.167734
667.204315	0.168098
667.408439	0.167961
667.612545	0.168156
667.816634	0.168447
668.020703	0.168535
668.224755	0.169021
668.428788	0.169322
668.632803	0.169362
668.836800	0.169714
669.040779	0.169897
669.244739	0.170264
669.448681	0.170454
669.652605	0.170481
669.856511	0.170934
670.060399	0.170731
670.264268	0.170957
670.468119	0.171332
670.671952	0.171310
670.875767	0.171511
671.079563	0.171871
671.283341	0.171955
671.487101	0.172271
671.690843	0.172228
671.894567	0.172387
672.098272	0.172404
672.301959	0.172330
672.505628	0.172444
672.709278	0.172390
672.912911	0.172419
673.116525	0.172484
673.320121	0.172433
673.523699	0.172408
673.727258	0.172698
673.930799	0.172799
674.134322	0.172729
674.337827	0.172748
674.541314	0.172835
674.744782	0.172888
674.948232	0.173115
675.151664	0.173434
675.355078	0.173585
675.558474	0.173851
675.761851	0.173995
675.965210	0.174280
676.168551	0.174618
676.371873	0.175044
676.575178	0.175321
676.778464	0.175432
676.981732	0.175417
677.184981	0.175764
677.388213	0.175847
677.591426	0.175971
677.794621	0.176269
677.997798	0.176365
678.200956	0.176401
678.404097	0.176389
678.607219	0.176675
678.810323	0.176989
679.013408	0.176908
679.216476	0.176974
679.419525	0.177103
679.622556	0.177016
679.825569	0.177116
680.028563	0.177147
680.231540	0.177227
680.434498	0.176791
680.637438	0.176684
680.840359	0.176858
681.043263	0.176938
681.246148	0.176983
681.449015	0.177250
681.651864	0.177196
681.854694	0.177352
682.057506	0.177274
682.260301	0.177690
682.463076	0.177879
682.665834	0.178125
682.868573	0.178113
683.071295	0.178371
683.273998	0.178162
683.476682	0.178127
683.679349	0.178329
683.881997	0.178514
684.084627	0.178605
684.287239	0.178721
684.489833	0.178675
684.692408	0.178809
684.894965	0.178834
685.097504	0.179015
685.300025	0.179465
685.502527	0.179519
685.705012	0.179564
685.907478	0.179529
686.109925	0.179575
686.312355	0.179754
686.514766	0.179947
686.717159	0.180167
686.919534	0.180397
687.121891	0.180412
687.324230	0.180225
687.526550	0.180609
687.728852	0.180742
687.931136	0.180863
688.133401	0.180899
688.335649	0.181040
688.537878	0.181100
688.740089	0.181195
688.942281	0.181309
689.144456	0.181775
689.346612	0.181826
689.548750	0.182154
689.750870	0.182348
689.952971	0.182345
690.155055	0.182480
690.357120	0.182510
690.559167	0.182600
690.761195	0.182658
690.963206	0.182476
691.165198	0.182259
691.367172	0.182451
691.569128	0.182459
691.771065	0.182622
691.972984	0.182826
692.174885	0.183181
692.376768	0.183350
692.578633	0.183419
692.780479	0.183502
692.982308	0.183652
693.184118	0.183393
693.385909	0.183497
