sample name	sample
index	880
start time	 04-08-2021  02:07:38 PM


Wavelength (nm)	Absorbance
494.344910	0.020861
494.563924	0.020861
494.782919	0.020861
495.001897	-0.025301
495.220856	0.001047
495.439797	-0.002503
495.658719	-0.004744
495.877624	0.000876
496.096510	-0.002561
496.315378	-0.002542
496.534227	-0.004442
496.753059	-0.006553
496.971872	-0.001074
497.190667	0.064667
497.409444	0.105973
497.628203	0.122297
497.846943	0.131172
498.065665	0.140586
498.284369	0.146549
498.503055	0.151361
498.721723	0.155066
498.940372	0.156952
499.159003	0.157692
499.377616	0.158744
499.596210	0.159183
499.814787	0.158911
500.033345	0.158504
500.251885	0.158443
500.470406	0.157877
500.688910	0.157485
500.907395	0.158920
501.125862	0.158915
501.344311	0.158991
501.562742	0.160096
501.781154	0.160566
501.999548	0.160663
502.217924	0.160414
502.436282	0.161076
502.654621	0.161099
502.872942	0.160386
503.091245	0.161459
503.309530	0.162244
503.527797	0.161838
503.746045	0.162195
503.964275	0.162652
504.182487	0.163301
504.400681	0.163054
504.618856	0.163277
504.837013	0.163397
505.055152	0.162797
505.273273	0.163214
505.491376	0.163672
505.709460	0.165196
505.927526	0.166545
506.145574	0.167691
506.363604	0.167530
506.581615	0.167984
506.799608	0.167731
507.017583	0.167509
507.235540	0.167147
507.453478	0.167872
507.671399	0.166579
507.889301	0.165302
508.107185	0.166099
508.325050	0.166810
508.542898	0.166463
508.760727	0.167002
508.978538	0.167605
509.196330	0.167782
509.414105	0.167496
509.631861	0.168716
509.849599	0.169366
510.067319	0.167634
510.285021	0.168991
510.502704	0.170707
510.720369	0.171933
510.938016	0.173257
511.155645	0.173518
511.373255	0.174731
511.590848	0.174963
511.808422	0.175807
512.025977	0.177271
512.243515	0.176772
512.461034	0.177128
512.678536	0.177166
512.896018	0.176925
513.113483	0.178008
513.330930	0.178018
513.548358	0.177193
513.765768	0.178064
513.983160	0.177658
514.200533	0.177478
514.417889	0.177214
514.635226	0.176736
514.852545	0.176911
515.069845	0.176695
515.287128	0.176802
515.504392	0.177450
515.721638	0.176223
515.938866	0.176779
516.156075	0.177638
516.373267	0.178676
516.590440	0.179702
516.807594	0.180286
517.024731	0.180783
517.241850	0.180878
517.458950	0.182452
517.676032	0.183683
517.893095	0.183941
518.110141	0.184520
518.327168	0.184547
518.544177	0.184707
518.761168	0.185105
518.978141	0.185733
519.195095	0.186344
519.412031	0.186148
519.628949	0.186453
519.845849	0.186986
520.062731	0.186990
520.279594	0.186989
520.496439	0.187477
520.713266	0.188079
520.930074	0.188027
521.146865	0.188117
521.363637	0.188408
521.580391	0.188568
521.797127	0.188390
522.013844	0.188613
522.230543	0.188887
522.447224	0.188860
522.663887	0.189260
522.880532	0.189550
523.097158	0.190421
523.313766	0.190141
523.530356	0.190755
523.746928	0.191387
523.963481	0.191572
524.180017	0.192235
524.396534	0.192817
524.613032	0.192598
524.829513	0.192771
525.045975	0.192573
525.262420	0.193497
525.478845	0.193459
525.695253	0.193303
525.911643	0.193174
526.128014	0.193036
526.344367	0.193994
526.560702	0.194177
526.777018	0.194612
526.993316	0.195351
527.209597	0.196059
527.425858	0.196302
527.642102	0.197437
527.858328	0.198665
528.074535	0.199239
528.290724	0.199502
528.506894	0.200223
528.723047	0.200867
528.939181	0.201459
529.155297	0.201099
529.371395	0.201558
529.587475	0.201685
529.803536	0.202050
530.019579	0.202644
530.235604	0.202994
530.451611	0.203828
530.667600	0.203853
530.883570	0.204180
531.099522	0.205246
531.315456	0.206394
531.531372	0.206850
531.747269	0.207041
531.963148	0.206715
532.179009	0.206606
532.394852	0.206219
532.610676	0.206781
532.826482	0.207124
533.042271	0.207294
533.258040	0.207641
533.473792	0.208193
533.689525	0.209015
533.905240	0.210663
534.120937	0.211032
534.336616	0.212441
534.552277	0.213540
534.767919	0.213894
534.983543	0.214630
535.199149	0.214561
535.414736	0.214411
535.630306	0.215068
535.845857	0.214953
536.061390	0.216068
536.276904	0.216544
536.492401	0.216124
536.707879	0.216547
536.923339	0.216742
537.138781	0.217737
537.354204	0.218505
537.569610	0.218667
537.784997	0.219153
538.000366	0.219076
538.215716	0.219282
538.431049	0.219960
538.646363	0.220180
538.861659	0.220555
539.076937	0.220891
539.292196	0.221070
539.507438	0.221547
539.722661	0.221844
539.937866	0.222494
540.153052	0.222692
540.368221	0.223012
540.583371	0.223582
540.798503	0.223740
541.013617	0.224020
541.228712	0.225065
541.443789	0.225137
541.658848	0.225580
541.873889	0.225463
542.088912	0.226061
542.303916	0.226658
542.518902	0.226935
542.733870	0.227508
542.948820	0.227847
543.163752	0.227513
543.378665	0.227775
543.593560	0.227876
543.808437	0.227885
544.023295	0.228353
544.238136	0.228489
544.452958	0.228636
544.667762	0.229214
544.882548	0.229438
545.097315	0.230201
545.312064	0.230826
545.526795	0.231814
545.741508	0.233071
545.956203	0.233053
546.170879	0.232835
546.385537	0.233203
546.600177	0.233278
546.814799	0.233749
547.029402	0.233903
547.243988	0.234037
547.458555	0.233999
547.673103	0.234179
547.887634	0.234600
548.102146	0.235668
548.316640	0.235942
548.531116	0.236072
548.745574	0.236563
548.960013	0.237198
549.174435	0.237517
549.388838	0.237881
549.603222	0.237737
549.817589	0.238014
550.031937	0.237966
550.246267	0.238080
550.460579	0.238288
550.674873	0.238573
550.889148	0.238315
551.103405	0.238669
551.317644	0.238944
551.531865	0.239720
551.746068	0.239461
551.960252	0.240275
552.174418	0.240895
552.388566	0.241421
552.602696	0.241491
552.816807	0.242415
553.030900	0.242696
553.244975	0.242595
553.459032	0.242810
553.673070	0.243473
553.887091	0.243595
554.101093	0.244061
554.315077	0.244553
554.529042	0.244451
554.742990	0.244824
554.956919	0.245394
555.170830	0.245800
555.384722	0.245842
555.598597	0.245925
555.812453	0.245809
556.026291	0.245739
556.240111	0.245563
556.453913	0.246156
556.667696	0.246173
556.881461	0.245650
557.095208	0.246114
557.308937	0.246399
557.522647	0.246483
557.736339	0.247034
557.950013	0.247390
558.163669	0.247837
558.377307	0.247482
558.590926	0.247397
558.804527	0.247909
559.018110	0.248055
559.231675	0.248369
559.445221	0.248701
559.658749	0.249059
559.872259	0.248993
560.085751	0.249151
560.299225	0.249511
560.512680	0.249872
560.726117	0.249983
560.939536	0.250197
561.152937	0.250516
561.366319	0.251224
561.579683	0.251348
561.793029	0.252025
562.006357	0.252171
562.219667	0.252673
562.432958	0.253166
562.646231	0.253467
562.859486	0.253551
563.072723	0.253454
563.285941	0.253173
563.499141	0.253278
563.712323	0.253083
563.925487	0.253239
564.138632	0.253529
564.351760	0.253604
564.564869	0.253891
564.777960	0.254172
564.991032	0.254694
565.204087	0.255371
565.417123	0.255694
565.630141	0.256220
565.843140	0.256562
566.056122	0.256650
566.269085	0.256588
566.482030	0.256782
566.694957	0.257153
566.907866	0.257667
567.120756	0.257470
567.333628	0.257642
567.546482	0.257753
567.759318	0.257999
567.972135	0.258253
568.184935	0.258453
568.397716	0.258599
568.610478	0.258713
568.823223	0.258419
569.035949	0.258716
569.248657	0.258603
569.461347	0.258877
569.674019	0.259281
569.886672	0.259848
570.099308	0.260571
570.311925	0.261093
570.524523	0.261344
570.737104	0.261678
570.949666	0.262128
571.162210	0.262085
571.374736	0.262533
571.587244	0.262875
571.799733	0.262895
572.012205	0.262475
572.224658	0.262867
572.437092	0.262898
572.649509	0.263420
572.861907	0.263056
573.074287	0.263624
573.286649	0.263634
573.498993	0.263099
573.711318	0.263396
573.923625	0.263710
574.135914	0.263718
574.348185	0.263733
574.560438	0.263882
574.772672	0.264474
574.984888	0.264771
575.197086	0.264851
575.409266	0.265206
575.621427	0.265129
575.833570	0.265654
576.045695	0.265691
576.257802	0.266518
576.469890	0.266254
576.681961	0.266051
576.894013	0.266207
577.106046	0.266013
577.318062	0.266377
577.530059	0.266661
577.742039	0.266697
577.954000	0.266949
578.165942	0.266278
578.377867	0.266836
578.589773	0.267213
578.801661	0.267532
579.013531	0.267772
579.225382	0.268410
579.437216	0.268608
579.649031	0.268833
579.860828	0.268913
580.072606	0.269407
580.284367	0.269488
580.496109	0.269934
580.707833	0.270438
580.919539	0.271026
581.131227	0.270840
581.342896	0.270938
581.554547	0.271179
581.766180	0.271366
581.977795	0.271884
582.189391	0.272147
582.400969	0.272280
582.612529	0.271709
582.824071	0.271784
583.035595	0.271951
583.247100	0.272263
583.458587	0.272191
583.670056	0.272462
583.881506	0.272332
584.092939	0.272304
584.304353	0.272700
584.515749	0.273243
584.727127	0.273547
584.938486	0.273694
585.149828	0.273999
585.361151	0.274228
585.572456	0.274394
585.783742	0.274213
585.995011	0.274551
586.206261	0.274737
586.417493	0.274864
586.628706	0.274958
586.839902	0.275578
587.051079	0.275590
587.262238	0.275846
587.473379	0.276177
587.684502	0.276857
587.895606	0.276938
588.106692	0.277068
588.317760	0.276995
588.528810	0.277474
588.739841	0.277137
588.950855	0.277147
589.161850	0.277227
589.372827	0.276880
589.583785	0.277260
589.794726	0.277696
590.005648	0.277819
590.216552	0.278332
590.427437	0.278486
590.638305	0.279136
590.849154	0.279501
591.059985	0.279957
591.270798	0.280472
591.481592	0.280244
591.692369	0.280278
591.903127	0.280363
592.113867	0.280268
592.324588	0.280206
592.535292	0.280249
592.745977	0.280403
592.956644	0.280358
593.167293	0.280642
593.377923	0.280914
593.588536	0.281194
593.799130	0.281228
594.009706	0.281591
594.220263	0.281864
594.430803	0.281995
594.641324	0.281811
594.851827	0.282320
595.062312	0.282643
595.272778	0.282906
595.483227	0.282755
595.693657	0.283175
595.904069	0.283510
596.114462	0.283835
596.324838	0.283730
596.535195	0.283919
596.745534	0.283909
596.955855	0.283646
597.166157	0.283872
597.376441	0.283803
597.586707	0.283968
597.796955	0.284106
598.007185	0.284462
598.217396	0.285290
598.427589	0.285940
598.637764	0.285898
598.847921	0.286195
599.058060	0.286367
599.268180	0.287196
599.478282	0.287336
599.688366	0.287747
599.898431	0.287726
600.108479	0.287541
600.318508	0.287886
600.528519	0.288276
600.738511	0.288670
600.948486	0.289070
601.158442	0.289069
601.368380	0.289359
601.578300	0.289351
601.788202	0.289504
601.998085	0.289930
602.207950	0.289950
602.417797	0.290083
602.627626	0.290536
602.837436	0.290260
603.047228	0.290493
603.257002	0.290339
603.466758	0.290521
603.676496	0.290751
603.886215	0.290624
604.095916	0.290653
604.305599	0.290823
604.515264	0.290657
604.724910	0.291044
604.934538	0.290548
605.144148	0.290768
605.353740	0.290889
605.563314	0.290651
605.772869	0.290845
605.982406	0.291309
606.191925	0.291393
606.401425	0.291467
606.610908	0.291512
606.820372	0.292369
607.029818	0.292513
607.239246	0.292460
607.448655	0.292916
607.658047	0.292841
607.867420	0.292783
608.076775	0.293133
608.286111	0.293713
608.495430	0.294141
608.704730	0.294314
608.914012	0.294860
609.123275	0.295344
609.332521	0.295363
609.541748	0.295771
609.750957	0.295843
609.960148	0.295961
610.169321	0.296089
610.378475	0.296077
610.587611	0.295954
610.796729	0.295793
611.005829	0.295743
611.214910	0.295990
611.423974	0.295907
611.633019	0.296348
611.842045	0.296455
612.051054	0.296405
612.260044	0.296513
612.469017	0.296922
612.677970	0.297027
612.886906	0.297215
613.095824	0.297272
613.304723	0.297601
613.513604	0.297763
613.722467	0.297967
613.931311	0.297841
614.140138	0.298007
614.348946	0.298180
614.557736	0.298455
614.766507	0.298478
614.975261	0.298848
615.183996	0.299093
615.392713	0.299060
615.601412	0.299392
615.810092	0.299534
616.018754	0.299860
616.227399	0.300000
616.436024	0.300297
616.644632	0.300706
616.853222	0.300393
617.061793	0.300635
617.270346	0.300726
617.478880	0.300750
617.687397	0.301322
617.895895	0.301400
618.104375	0.301473
618.312837	0.301537
618.521281	0.301693
618.729706	0.302186
618.938113	0.302341
619.146502	0.302632
619.354873	0.302825
619.563226	0.302838
619.771560	0.303317
619.979876	0.303649
620.188174	0.303871
620.396453	0.303965
620.604715	0.304291
620.812958	0.304632
621.021183	0.304725
621.229390	0.304932
621.437578	0.304971
621.645748	0.304794
621.853900	0.304789
622.062034	0.304735
622.270150	0.304833
622.478247	0.304917
622.686326	0.304967
622.894387	0.305072
623.102430	0.305141
623.310454	0.305121
623.518461	0.305270
623.726449	0.305340
623.934418	0.305735
624.142370	0.305615
624.350303	0.305690
624.558218	0.305533
624.766115	0.305792
624.973994	0.305946
625.181855	0.306585
625.389697	0.306820
625.597521	0.306971
625.805327	0.307142
626.013114	0.307916
626.220883	0.308014
626.428634	0.308238
626.636367	0.308532
626.844082	0.308447
627.051778	0.308526
627.259457	0.308884
627.467117	0.308942
627.674758	0.309303
627.882382	0.309342
628.089987	0.309858
628.297574	0.310281
628.505143	0.310212
628.712694	0.310872
628.920226	0.310886
629.127740	0.310840
629.335236	0.311235
629.542714	0.311020
629.750174	0.311254
629.957615	0.311219
630.165038	0.311530
630.372443	0.311658
630.579829	0.311915
630.787198	0.312316
630.994548	0.312488
631.201880	0.312927
631.409194	0.313102
631.616489	0.313088
631.823766	0.313363
632.031025	0.313464
632.238266	0.313752
632.445489	0.313572
632.652693	0.313636
632.859879	0.313562
633.067047	0.313415
633.274197	0.313922
633.481329	0.314122
633.688442	0.314226
633.895537	0.314158
634.102614	0.314310
634.309672	0.314494
634.516713	0.314662
634.723735	0.315414
634.930739	0.315551
635.137724	0.315331
635.344692	0.315275
635.551641	0.315601
635.758572	0.315917
635.965485	0.316183
636.172379	0.316574
636.379256	0.316695
636.586114	0.316329
636.792954	0.316531
636.999775	0.316603
637.206579	0.316897
637.413364	0.316965
637.620131	0.317188
637.826880	0.317298
638.033610	0.317227
638.240323	0.317442
638.447017	0.317951
638.653692	0.318136
638.860350	0.318856
639.066990	0.319159
639.273611	0.319616
639.480214	0.319732
639.686798	0.320170
639.893365	0.320371
640.099913	0.320334
640.306443	0.320615
640.512955	0.320858
640.719449	0.320960
640.925924	0.321190
641.132381	0.321228
641.338820	0.321691
641.545241	0.321790
641.751644	0.322231
641.958028	0.322717
642.164394	0.322875
642.370742	0.323212
642.577071	0.323178
642.783383	0.323561
642.989676	0.323436
643.195951	0.323436
643.402207	0.323374
643.608446	0.323692
643.814666	0.323918
644.020868	0.323964
644.227052	0.324258
644.433218	0.324545
644.639365	0.324473
644.845494	0.324781
645.051605	0.324680
645.257698	0.325096
645.463772	0.325017
645.669828	0.325146
645.875866	0.325106
646.081886	0.325311
646.287888	0.325508
646.493871	0.325487
646.699836	0.325573
646.905783	0.325529
647.111712	0.325741
647.317622	0.325966
647.523514	0.326191
647.729388	0.326678
647.935244	0.326505
648.141082	0.326847
648.346901	0.327265
648.552702	0.327673
648.758485	0.328504
648.964250	0.328935
649.169996	0.329378
649.375724	0.329380
649.581434	0.329781
649.787126	0.330284
649.992800	0.330403
650.198455	0.330541
650.404092	0.330965
650.609711	0.331255
650.815311	0.331243
651.020894	0.331393
651.226458	0.331584
651.432004	0.331581
651.637532	0.331658
651.843041	0.332009
652.048532	0.332170
652.254006	0.332097
652.459460	0.331754
652.664897	0.331940
652.870315	0.332028
653.075716	0.332364
653.281097	0.332923
653.486461	0.333173
653.691807	0.333128
653.897134	0.333588
654.102443	0.333967
654.307734	0.334337
654.513006	0.334650
654.718261	0.334653
654.923497	0.334887
655.128715	0.334663
655.333915	0.334705
655.539096	0.335094
655.744259	0.335119
655.949404	0.334925
656.154531	0.335383
656.359640	0.335519
656.564730	0.335862
656.769802	0.336097
656.974856	0.336147
657.179892	0.336557
657.384909	0.336726
657.589908	0.337329
657.794889	0.337988
657.999852	0.338343
658.204797	0.338420
658.409723	0.338612
658.614631	0.338885
658.819521	0.339460
659.024393	0.339576
659.229246	0.339801
659.434081	0.339771
659.638898	0.339667
659.843697	0.339707
660.048478	0.340089
660.253240	0.340237
660.457984	0.340655
660.662710	0.340839
660.867417	0.340969
661.072107	0.341109
661.276778	0.341333
661.481431	0.341981
661.686066	0.342160
661.890682	0.342644
662.095281	0.343212
662.299861	0.343158
662.504422	0.343346
662.708966	0.343678
662.913491	0.343918
663.117999	0.344131
663.322488	0.344238
663.526958	0.344600
663.731411	0.344695
663.935845	0.344707
664.140261	0.345072
664.344659	0.345327
664.549038	0.345720
664.753400	0.346211
664.957743	0.346452
665.162068	0.346825
665.366375	0.347135
665.570663	0.347293
665.774933	0.347670
665.979185	0.348227
666.183419	0.348565
666.387635	0.348689
666.591832	0.348790
666.796011	0.349071
667.000172	0.349259
667.204315	0.349338
667.408439	0.349589
667.612545	0.349922
667.816634	0.349761
668.020703	0.350067
668.224755	0.350442
668.428788	0.350694
668.632803	0.350952
668.836800	0.351098
669.040779	0.351181
669.244739	0.351338
669.448681	0.351462
669.652605	0.351848
669.856511	0.352029
670.060399	0.352166
670.264268	0.352468
670.468119	0.352681
670.671952	0.352970
670.875767	0.353085
671.079563	0.353213
671.283341	0.353434
671.487101	0.353642
671.690843	0.353802
671.894567	0.353990
672.098272	0.354104
672.301959	0.354418
672.505628	0.354438
672.709278	0.354867
672.912911	0.355388
673.116525	0.355429
673.320121	0.355643
673.523699	0.356244
673.727258	0.356653
673.930799	0.357017
674.134322	0.357243
674.337827	0.357478
674.541314	0.357809
674.744782	0.357902
674.948232	0.358426
675.151664	0.358919
675.355078	0.359226
675.558474	0.359277
675.761851	0.359427
675.965210	0.359817
676.168551	0.360126
676.371873	0.360561
676.575178	0.360981
676.778464	0.361337
676.981732	0.361228
677.184981	0.361084
677.388213	0.361398
677.591426	0.361574
677.794621	0.361726
677.997798	0.361960
678.200956	0.362125
678.404097	0.362156
678.607219	0.362257
678.810323	0.362713
679.013408	0.362840
679.216476	0.363114
679.419525	0.363481
679.622556	0.363651
679.825569	0.364035
680.028563	0.364166
680.231540	0.364329
680.434498	0.364572
680.637438	0.364753
680.840359	0.365396
681.043263	0.365555
681.246148	0.365699
681.449015	0.365931
681.651864	0.365790
681.854694	0.366144
682.057506	0.366517
682.260301	0.366676
682.463076	0.366874
682.665834	0.366921
682.868573	0.367380
683.071295	0.367656
683.273998	0.367957
683.476682	0.368471
683.679349	0.368545
683.881997	0.369019
684.084627	0.369130
684.287239	0.369141
684.489833	0.369224
684.692408	0.369171
684.894965	0.369282
685.097504	0.369441
685.300025	0.369693
685.502527	0.370138
685.705012	0.370009
685.907478	0.370536
686.109925	0.370955
686.312355	0.371329
686.514766	0.371691
686.717159	0.371981
686.919534	0.372126
687.121891	0.372459
687.324230	0.372554
687.526550	0.373095
687.728852	0.373014
687.931136	0.373411
688.133401	0.373537
688.335649	0.373928
688.537878	0.374028
688.740089	0.374188
688.942281	0.374282
689.144456	0.374661
689.346612	0.374561
689.548750	0.374770
689.750870	0.374868
689.952971	0.374980
690.155055	0.374938
690.357120	0.375462
690.559167	0.375674
690.761195	0.375863
690.963206	0.376012
691.165198	0.376520
691.367172	0.377002
691.569128	0.377124
691.771065	0.377304
691.972984	0.377327
692.174885	0.377530
692.376768	0.377960
692.578633	0.378061
692.780479	0.378163
692.982308	0.378094
693.184118	0.378308
693.385909	0.378573
