sample name	sample
index	46
start time	 02-11-2021  02:10:04 PM


Wavelength (nm)	Absorbance
494.344910	-0.102777
494.563924	-0.102777
494.782919	-0.102777
495.001897	-0.216709
495.220856	-0.168021
495.439797	-0.160911
495.658719	-0.181728
495.877624	-0.156482
496.096510	-0.129947
496.315378	-0.049119
496.534227	-0.099625
496.753059	-0.122076
496.971872	-0.150405
497.190667	0.040321
497.409444	0.082132
497.628203	0.092029
497.846943	0.094991
498.065665	0.101219
498.284369	0.101454
498.503055	0.104975
498.721723	0.104689
498.940372	0.103674
499.159003	0.102857
499.377616	0.101387
499.596210	0.100120
499.814787	0.098531
500.033345	0.096503
500.251885	0.097362
500.470406	0.098301
500.688910	0.100054
500.907395	0.101125
501.125862	0.101684
501.344311	0.101928
501.562742	0.103986
501.781154	0.105632
501.999548	0.103362
502.217924	0.102954
502.436282	0.099738
502.654621	0.099376
502.872942	0.099270
503.091245	0.100677
503.309530	0.099806
503.527797	0.097906
503.746045	0.097797
503.964275	0.099491
504.182487	0.099859
504.400681	0.100394
504.618856	0.100209
504.837013	0.099993
505.055152	0.097936
505.273273	0.099076
505.491376	0.100398
505.709460	0.100066
505.927526	0.099716
506.145574	0.098971
506.363604	0.099460
506.581615	0.099340
506.799608	0.100274
507.017583	0.101901
507.235540	0.101619
507.453478	0.102948
507.671399	0.102656
507.889301	0.103420
508.107185	0.103837
508.325050	0.103988
508.542898	0.103765
508.760727	0.102642
508.978538	0.104055
509.196330	0.102913
509.414105	0.099227
509.631861	0.099858
509.849599	0.100022
510.067319	0.100725
510.285021	0.101568
510.502704	0.100913
510.720369	0.101372
510.938016	0.100236
511.155645	0.101004
511.373255	0.102746
511.590848	0.101517
511.808422	0.101283
512.025977	0.101781
512.243515	0.102700
512.461034	0.102527
512.678536	0.103175
512.896018	0.102626
513.113483	0.102219
513.330930	0.101381
513.548358	0.101866
513.765768	0.102919
513.983160	0.102532
514.200533	0.101465
514.417889	0.102174
514.635226	0.102008
514.852545	0.100896
515.069845	0.101484
515.287128	0.103082
515.504392	0.103693
515.721638	0.102574
515.938866	0.100800
516.156075	0.101346
516.373267	0.101375
516.590440	0.100683
516.807594	0.102538
517.024731	0.102876
517.241850	0.101125
517.458950	0.101174
517.676032	0.101103
517.893095	0.102235
518.110141	0.102268
518.327168	0.102540
518.544177	0.104092
518.761168	0.104075
518.978141	0.103626
519.195095	0.105573
519.412031	0.105517
519.628949	0.106823
519.845849	0.107143
520.062731	0.105864
520.279594	0.105898
520.496439	0.105367
520.713266	0.103211
520.930074	0.103692
521.146865	0.103066
521.363637	0.102920
521.580391	0.101677
521.797127	0.101380
522.013844	0.101507
522.230543	0.101254
522.447224	0.099997
522.663887	0.100477
522.880532	0.099030
523.097158	0.099674
523.313766	0.098083
523.530356	0.098296
523.746928	0.097144
523.963481	0.097723
524.180017	0.098355
524.396534	0.098822
524.613032	0.100859
524.829513	0.101731
525.045975	0.101692
525.262420	0.103337
525.478845	0.103802
525.695253	0.105707
525.911643	0.105600
526.128014	0.105953
526.344367	0.106051
526.560702	0.104924
526.777018	0.105057
526.993316	0.105440
527.209597	0.105114
527.425858	0.105468
527.642102	0.104430
527.858328	0.104723
528.074535	0.104764
528.290724	0.107090
528.506894	0.106221
528.723047	0.106415
528.939181	0.106451
529.155297	0.106742
529.371395	0.106259
529.587475	0.107401
529.803536	0.107209
530.019579	0.107012
530.235604	0.105378
530.451611	0.105990
530.667600	0.106197
530.883570	0.105528
531.099522	0.106126
531.315456	0.106477
531.531372	0.105487
531.747269	0.106785
531.963148	0.106933
532.179009	0.107991
532.394852	0.109150
532.610676	0.109870
532.826482	0.110477
533.042271	0.110397
533.258040	0.110713
533.473792	0.110888
533.689525	0.110306
533.905240	0.110231
534.120937	0.109301
534.336616	0.108854
534.552277	0.108666
534.767919	0.108676
534.983543	0.109290
535.199149	0.108880
535.414736	0.109627
535.630306	0.110157
535.845857	0.110559
536.061390	0.110824
536.276904	0.110905
536.492401	0.111138
536.707879	0.111458
536.923339	0.111717
537.138781	0.112227
537.354204	0.112879
537.569610	0.113786
537.784997	0.113582
538.000366	0.114483
538.215716	0.114719
538.431049	0.114900
538.646363	0.115046
538.861659	0.114337
539.076937	0.114182
539.292196	0.113546
539.507438	0.112176
539.722661	0.112023
539.937866	0.111891
540.153052	0.112271
540.368221	0.111747
540.583371	0.110881
540.798503	0.111001
541.013617	0.111365
541.228712	0.111672
541.443789	0.111441
541.658848	0.112047
541.873889	0.112030
542.088912	0.111883
542.303916	0.112784
542.518902	0.114490
542.733870	0.115393
542.948820	0.115799
543.163752	0.115389
543.378665	0.115811
543.593560	0.115906
543.808437	0.116448
544.023295	0.116893
544.238136	0.116369
544.452958	0.115605
544.667762	0.115030
544.882548	0.114639
545.097315	0.115780
545.312064	0.115766
545.526795	0.115028
545.741508	0.114687
545.956203	0.114538
546.170879	0.114846
546.385537	0.114184
546.600177	0.114469
546.814799	0.114603
547.029402	0.114690
547.243988	0.115603
547.458555	0.116089
547.673103	0.116317
547.887634	0.116864
548.102146	0.117175
548.316640	0.117407
548.531116	0.117366
548.745574	0.117166
548.960013	0.115970
549.174435	0.115183
549.388838	0.114570
549.603222	0.114010
549.817589	0.113627
550.031937	0.113588
550.246267	0.114023
550.460579	0.114059
550.674873	0.114358
550.889148	0.115127
551.103405	0.115656
551.317644	0.116117
551.531865	0.115616
551.746068	0.115524
551.960252	0.115229
552.174418	0.115167
552.388566	0.115443
552.602696	0.115661
552.816807	0.115351
553.030900	0.114810
553.244975	0.114933
553.459032	0.115471
553.673070	0.115041
553.887091	0.114957
554.101093	0.115549
554.315077	0.115580
554.529042	0.115111
554.742990	0.114754
554.956919	0.115795
555.170830	0.116204
555.384722	0.116405
555.598597	0.116434
555.812453	0.116767
556.026291	0.116377
556.240111	0.115963
556.453913	0.116587
556.667696	0.117106
556.881461	0.116331
557.095208	0.116072
557.308937	0.115826
557.522647	0.116859
557.736339	0.116771
557.950013	0.116841
558.163669	0.116854
558.377307	0.116267
558.590926	0.115877
558.804527	0.115955
559.018110	0.116125
559.231675	0.116765
559.445221	0.116410
559.658749	0.116401
559.872259	0.116457
560.085751	0.117090
560.299225	0.117548
560.512680	0.117969
560.726117	0.118695
560.939536	0.119307
561.152937	0.119310
561.366319	0.119547
561.579683	0.119490
561.793029	0.119656
562.006357	0.119548
562.219667	0.119697
562.432958	0.120393
562.646231	0.119698
562.859486	0.119544
563.072723	0.119689
563.285941	0.119186
563.499141	0.119838
563.712323	0.119833
563.925487	0.119652
564.138632	0.120000
564.351760	0.119595
564.564869	0.119654
564.777960	0.119297
564.991032	0.118570
565.204087	0.119478
565.417123	0.119642
565.630141	0.120021
565.843140	0.120183
566.056122	0.119936
566.269085	0.120400
566.482030	0.121133
566.694957	0.121771
566.907866	0.122849
567.120756	0.122187
567.333628	0.122044
567.546482	0.121547
567.759318	0.121919
567.972135	0.121981
568.184935	0.121757
568.397716	0.121657
568.610478	0.121196
568.823223	0.120775
569.035949	0.120890
569.248657	0.120678
569.461347	0.120786
569.674019	0.120572
569.886672	0.120283
570.099308	0.120472
570.311925	0.120405
570.524523	0.120914
570.737104	0.120914
570.949666	0.121101
571.162210	0.121202
571.374736	0.121375
571.587244	0.121366
571.799733	0.122143
572.012205	0.122131
572.224658	0.122178
572.437092	0.122380
572.649509	0.122463
572.861907	0.122235
573.074287	0.122605
573.286649	0.122610
573.498993	0.122146
573.711318	0.121652
573.923625	0.121391
574.135914	0.121249
574.348185	0.120572
574.560438	0.120631
574.772672	0.120939
574.984888	0.120535
575.197086	0.120053
575.409266	0.120358
575.621427	0.120226
575.833570	0.120187
576.045695	0.120374
576.257802	0.119510
576.469890	0.119020
576.681961	0.118573
576.894013	0.118541
577.106046	0.119105
577.318062	0.119226
577.530059	0.119080
577.742039	0.119153
577.954000	0.118978
578.165942	0.120106
578.377867	0.120574
578.589773	0.120577
578.801661	0.120758
579.013531	0.120585
579.225382	0.120438
579.437216	0.120627
579.649031	0.121002
579.860828	0.121113
580.072606	0.121053
580.284367	0.121471
580.496109	0.121874
580.707833	0.121389
580.919539	0.121744
581.131227	0.122006
581.342896	0.122294
581.554547	0.122315
581.766180	0.122502
581.977795	0.122923
582.189391	0.123028
582.400969	0.123044
582.612529	0.123870
582.824071	0.124285
583.035595	0.124661
583.247100	0.124304
583.458587	0.124465
583.670056	0.124581
583.881506	0.124826
584.092939	0.124309
584.304353	0.125078
584.515749	0.124903
584.727127	0.124324
584.938486	0.124290
585.149828	0.124701
585.361151	0.124498
585.572456	0.124292
585.783742	0.123825
585.995011	0.124184
586.206261	0.123440
586.417493	0.123643
586.628706	0.124206
586.839902	0.124545
587.051079	0.124642
587.262238	0.124465
587.473379	0.124674
587.684502	0.124744
587.895606	0.125018
588.106692	0.125278
588.317760	0.124969
588.528810	0.124713
588.739841	0.124429
588.950855	0.124410
589.161850	0.124813
589.372827	0.125536
589.583785	0.125104
589.794726	0.124769
590.005648	0.125052
590.216552	0.126011
590.427437	0.126172
590.638305	0.126600
590.849154	0.126839
591.059985	0.126523
591.270798	0.125941
591.481592	0.126867
591.692369	0.127137
591.903127	0.126849
592.113867	0.126474
592.324588	0.126208
592.535292	0.125633
592.745977	0.125720
592.956644	0.125604
593.167293	0.125389
593.377923	0.124968
593.588536	0.124564
593.799130	0.124924
594.009706	0.124312
594.220263	0.124694
594.430803	0.124432
594.641324	0.124017
594.851827	0.124059
595.062312	0.123818
595.272778	0.124072
595.483227	0.123746
595.693657	0.123611
595.904069	0.124342
596.114462	0.124487
596.324838	0.124913
596.535195	0.125033
596.745534	0.124860
596.955855	0.125742
597.166157	0.125679
597.376441	0.126350
597.586707	0.126220
597.796955	0.125863
598.007185	0.125278
598.217396	0.125132
598.427589	0.125749
598.637764	0.126377
598.847921	0.126262
599.058060	0.126210
599.268180	0.126208
599.478282	0.126117
599.688366	0.126559
599.898431	0.126893
600.108479	0.126777
600.318508	0.126060
600.528519	0.125627
600.738511	0.125151
600.948486	0.125322
601.158442	0.125121
601.368380	0.125118
601.578300	0.124810
601.788202	0.124864
601.998085	0.125044
602.207950	0.125620
602.417797	0.125719
602.627626	0.125620
602.837436	0.125762
603.047228	0.126227
603.257002	0.126336
603.466758	0.126437
603.676496	0.126400
603.886215	0.126088
604.095916	0.125886
604.305599	0.126097
604.515264	0.126431
604.724910	0.126388
604.934538	0.125951
605.144148	0.126237
605.353740	0.125608
605.563314	0.125523
605.772869	0.125872
605.982406	0.126124
606.191925	0.126450
606.401425	0.126121
606.610908	0.125940
606.820372	0.126154
607.029818	0.125786
607.239246	0.126280
607.448655	0.126537
607.658047	0.126905
607.867420	0.126343
608.076775	0.125923
608.286111	0.126463
608.495430	0.126317
608.704730	0.125970
608.914012	0.126543
609.123275	0.126358
609.332521	0.126165
609.541748	0.126043
609.750957	0.126762
609.960148	0.127516
610.169321	0.127622
610.378475	0.128308
610.587611	0.128444
610.796729	0.128153
611.005829	0.128206
611.214910	0.128972
611.423974	0.128730
611.633019	0.128239
611.842045	0.127729
612.051054	0.127319
612.260044	0.126893
612.469017	0.126838
612.677970	0.126760
612.886906	0.127415
613.095824	0.127008
613.304723	0.127186
613.513604	0.127952
613.722467	0.127996
613.931311	0.128477
614.140138	0.128805
614.348946	0.129607
614.557736	0.129939
614.766507	0.129586
614.975261	0.129536
615.183996	0.129790
615.392713	0.129498
615.601412	0.130062
615.810092	0.130038
616.018754	0.130018
616.227399	0.129616
616.436024	0.129490
616.644632	0.129820
616.853222	0.129878
617.061793	0.129820
617.270346	0.130035
617.478880	0.129625
617.687397	0.129489
617.895895	0.128991
618.104375	0.129229
618.312837	0.129197
618.521281	0.128913
618.729706	0.128998
618.938113	0.129288
619.146502	0.129239
619.354873	0.129129
619.563226	0.129267
619.771560	0.129648
619.979876	0.129431
620.188174	0.129911
620.396453	0.130184
620.604715	0.130511
620.812958	0.130282
621.021183	0.130531
621.229390	0.130783
621.437578	0.130840
621.645748	0.130969
621.853900	0.131698
622.062034	0.131729
622.270150	0.132110
622.478247	0.132023
622.686326	0.132127
622.894387	0.132229
623.102430	0.132099
623.310454	0.132569
623.518461	0.132927
623.726449	0.132574
623.934418	0.132706
624.142370	0.132726
624.350303	0.132669
624.558218	0.132761
624.766115	0.132639
624.973994	0.133281
625.181855	0.133207
625.389697	0.133411
625.597521	0.133651
625.805327	0.133739
626.013114	0.133787
626.220883	0.133828
626.428634	0.133920
626.636367	0.133789
626.844082	0.133958
627.051778	0.133796
627.259457	0.133319
627.467117	0.133319
627.674758	0.133269
627.882382	0.132661
628.089987	0.133038
628.297574	0.132990
628.505143	0.132811
628.712694	0.132433
628.920226	0.132888
629.127740	0.133336
629.335236	0.133413
629.542714	0.133436
629.750174	0.134025
629.957615	0.133820
630.165038	0.134035
630.372443	0.134347
630.579829	0.134054
630.787198	0.133876
630.994548	0.133827
631.201880	0.133779
631.409194	0.133618
631.616489	0.133589
631.823766	0.133884
632.031025	0.134557
632.238266	0.134358
632.445489	0.134816
632.652693	0.135025
632.859879	0.135162
633.067047	0.135146
633.274197	0.135478
633.481329	0.135500
633.688442	0.135513
633.895537	0.134880
634.102614	0.135334
634.309672	0.135554
634.516713	0.135502
634.723735	0.135466
634.930739	0.135453
635.137724	0.135474
635.344692	0.135704
635.551641	0.135671
635.758572	0.135941
635.965485	0.135870
636.172379	0.135578
636.379256	0.135625
636.586114	0.135272
636.792954	0.135371
636.999775	0.134970
637.206579	0.134935
637.413364	0.135221
637.620131	0.135269
637.826880	0.135713
638.033610	0.136168
638.240323	0.136155
638.447017	0.136540
638.653692	0.136773
638.860350	0.137154
639.066990	0.137372
639.273611	0.137402
639.480214	0.137711
639.686798	0.137377
639.893365	0.137097
640.099913	0.136864
640.306443	0.136632
640.512955	0.136635
640.719449	0.136642
640.925924	0.136248
641.132381	0.136210
641.338820	0.135661
641.545241	0.136016
641.751644	0.136370
641.958028	0.136745
642.164394	0.137228
642.370742	0.137133
642.577071	0.137674
642.783383	0.138035
642.989676	0.138053
643.195951	0.138438
643.402207	0.138096
643.608446	0.138254
643.814666	0.138335
644.020868	0.138723
644.227052	0.139027
644.433218	0.138481
644.639365	0.138611
644.845494	0.138391
645.051605	0.138654
645.257698	0.138622
645.463772	0.138474
645.669828	0.138092
645.875866	0.137668
646.081886	0.137524
646.287888	0.137356
646.493871	0.137328
646.699836	0.137378
646.905783	0.136815
647.111712	0.136950
647.317622	0.136783
647.523514	0.137067
647.729388	0.136929
647.935244	0.137088
648.141082	0.137897
648.346901	0.137657
648.552702	0.137509
648.758485	0.137992
648.964250	0.138020
649.169996	0.138385
649.375724	0.138339
649.581434	0.138686
649.787126	0.138722
649.992800	0.138373
650.198455	0.138615
650.404092	0.138919
650.609711	0.138693
650.815311	0.139102
651.020894	0.138841
651.226458	0.138954
651.432004	0.138719
651.637532	0.138880
651.843041	0.139163
652.048532	0.139361
652.254006	0.139519
652.459460	0.139852
652.664897	0.139445
652.870315	0.139409
653.075716	0.139712
653.281097	0.139807
653.486461	0.139785
653.691807	0.140059
653.897134	0.140075
654.102443	0.140102
654.307734	0.140250
654.513006	0.140484
654.718261	0.141069
654.923497	0.141061
655.128715	0.141552
655.333915	0.141957
655.539096	0.141714
655.744259	0.141837
655.949404	0.141841
656.154531	0.141609
656.359640	0.142079
656.564730	0.141808
656.769802	0.141923
656.974856	0.141734
657.179892	0.141410
657.384909	0.141364
657.589908	0.141311
657.794889	0.141653
657.999852	0.141863
658.204797	0.141631
658.409723	0.141937
658.614631	0.141947
658.819521	0.141928
659.024393	0.142094
659.229246	0.142574
659.434081	0.142553
659.638898	0.142573
659.843697	0.142837
660.048478	0.143139
660.253240	0.143265
660.457984	0.143501
660.662710	0.144115
660.867417	0.144230
661.072107	0.143975
661.276778	0.144311
661.481431	0.144287
661.686066	0.144197
661.890682	0.144221
662.095281	0.144158
662.299861	0.143887
662.504422	0.143677
662.708966	0.143737
662.913491	0.144008
663.117999	0.144134
663.322488	0.143984
663.526958	0.144166
663.731411	0.144112
663.935845	0.143946
664.140261	0.144179
664.344659	0.144099
664.549038	0.144125
664.753400	0.144518
664.957743	0.144406
665.162068	0.144525
665.366375	0.144808
665.570663	0.144994
665.774933	0.145402
665.979185	0.145572
666.183419	0.145801
666.387635	0.146418
666.591832	0.146344
666.796011	0.146841
667.000172	0.147436
667.204315	0.147347
667.408439	0.147608
667.612545	0.147743
667.816634	0.148158
668.020703	0.148355
668.224755	0.148147
668.428788	0.148097
668.632803	0.147770
668.836800	0.147649
669.040779	0.147893
669.244739	0.147987
669.448681	0.148277
669.652605	0.148340
669.856511	0.148344
670.060399	0.148360
670.264268	0.148845
670.468119	0.149118
670.671952	0.149230
670.875767	0.149158
671.079563	0.149203
671.283341	0.149232
671.487101	0.149317
671.690843	0.149502
671.894567	0.149468
672.098272	0.149058
672.301959	0.149128
672.505628	0.149231
672.709278	0.149172
672.912911	0.149316
673.116525	0.149004
673.320121	0.148964
673.523699	0.149108
673.727258	0.149518
673.930799	0.149796
674.134322	0.149801
674.337827	0.149907
674.541314	0.150105
674.744782	0.149759
674.948232	0.150056
675.151664	0.150202
675.355078	0.150568
675.558474	0.150683
675.761851	0.150339
675.965210	0.150451
676.168551	0.150610
676.371873	0.150849
676.575178	0.151479
676.778464	0.151638
676.981732	0.151470
677.184981	0.151064
677.388213	0.150949
677.591426	0.151591
677.794621	0.151681
677.997798	0.152002
678.200956	0.151822
678.404097	0.151912
678.607219	0.152266
678.810323	0.152648
679.013408	0.152920
679.216476	0.152786
679.419525	0.152917
679.622556	0.153247
679.825569	0.153112
680.028563	0.153478
680.231540	0.153448
680.434498	0.153085
680.637438	0.153267
680.840359	0.153206
681.043263	0.153444
681.246148	0.153591
681.449015	0.153516
681.651864	0.153492
681.854694	0.153350
682.057506	0.153244
682.260301	0.153597
682.463076	0.153577
682.665834	0.153590
682.868573	0.153738
683.071295	0.153465
683.273998	0.153524
683.476682	0.153604
683.679349	0.153851
683.881997	0.154400
684.084627	0.154016
684.287239	0.153815
684.489833	0.154097
684.692408	0.154359
684.894965	0.154634
685.097504	0.155049
685.300025	0.155163
685.502527	0.155480
685.705012	0.155186
685.907478	0.155558
686.109925	0.155820
686.312355	0.156009
686.514766	0.155724
686.717159	0.155703
686.919534	0.155312
687.121891	0.155536
687.324230	0.155230
687.526550	0.155395
687.728852	0.155361
687.931136	0.155609
688.133401	0.155387
688.335649	0.155757
688.537878	0.155612
688.740089	0.156106
688.942281	0.155871
689.144456	0.156451
689.346612	0.156398
689.548750	0.156574
689.750870	0.156268
689.952971	0.156441
690.155055	0.156441
690.357120	0.156823
690.559167	0.156855
690.761195	0.157309
690.963206	0.156980
691.165198	0.156973
691.367172	0.156971
691.569128	0.157167
691.771065	0.157332
691.972984	0.157315
692.174885	0.156807
692.376768	0.156646
692.578633	0.156468
692.780479	0.156736
692.982308	0.156699
693.184118	0.156958
693.385909	0.157083
