sample name	sample
index	458
start time	 03-11-2021  11:33:16 AM
880	0.438026
Peak Time (s)	92.038
Peak Height 	0.438
calc peak height	90,93
Baseline Time (s)	10.037
Baseline Value 	-0.003233
subtract baseline	10,4
Abs	0.295552
Peak Time (s)	92.038
Peak Height 	0.2956
calc peak height	90,93
Baseline Time (s)	11.534
Baseline Value 	0.002657
subtract baseline	10,3
PK_550	0.140881
Peak Time (s)	90.036
Peak Height 	0.1409
calc peak height	90,93
Baseline Time (s)	11.037
Baseline Value 	3.8232E-4
subtract baseline	10,2
PK_880	0.276423
Peak Time (s)	92.038
Peak Height 	0.2764
calc peak height	90,93
Baseline Time (s)	10.537
Baseline Value 	0.001626
subtract baseline	10,1


Time (s)	A880-A510	A880-A775	A880-A975	A880	I510	I775	I975	I880	
0.036500	-0.000665	-0.000281	-0.005213	0.003075	7065.545600	45631.036247	3922.397776	24178.672708
0.537000	-0.007266	-0.001124	-0.006743	0.007176	6961.594268	45146.804332	3907.452024	23977.680875
1.037500	-0.002025	-0.000041	-0.002705	0.004117	7041.984438	45552.093876	3926.319090	24127.400368
1.535000	-0.002409	0.000034	-0.003831	0.001741	7061.519157	45793.782399	3929.676240	24244.459795
2.035000	-0.001309	-0.000494	-0.004253	0.000686	7082.741470	45845.781155	3931.376788	24296.591988
2.535500	-0.002719	-0.000973	-0.004042	0.002668	7049.382860	45602.966123	3926.622707	24198.728756
3.036000	0.001842	0.000872	-0.001987	-0.000837	7129.135562	46132.872396	3941.624128	24372.158856
3.536500	-0.002178	0.000526	-0.005737	0.001335	7067.778466	45882.564250	3925.648975	24264.499628
4.035500	-0.001802	-0.000150	-0.002340	0.000604	7078.685333	45888.044838	3936.762822	24300.683826
4.536500	-0.001191	0.000104	-0.001583	0.000760	7083.176314	45897.804978	3938.388542	24292.963333
5.036500	-0.000734	-0.000800	-0.005812	-0.000154	7096.741009	45898.824700	3929.444301	24338.259975
5.534000	-0.000433	0.000116	-0.005650	0.000306	7095.160779	45943.911120	3928.644515	24315.423005
6.037000	-0.000233	-0.000601	-0.004529	-0.000574	7105.866602	45960.180011	3934.030928	24359.086720
6.535000	-0.000761	0.000308	-0.000054	0.000318	7091.796854	45961.833942	3943.736171	24314.844943
7.035500	-0.000309	0.000361	-0.000762	0.000285	7096.592833	45970.309131	3941.900616	24316.462983
7.535500	-0.001272	0.000487	0.000382	0.000311	7086.812529	45980.316832	3944.942874	24315.192226
8.036000	0.000698	0.000465	-0.006075	0.000359	7105.840762	45973.274765	3927.360127	24312.782133
8.536500	-0.000667	0.000644	-0.002726	0.000445	7091.468683	45982.597281	3936.148841	24308.553490
9.036500	-0.003968	-0.000560	-0.001430	0.004221	7022.022682	45490.939195	3929.465199	24122.333227
9.537000	0.000498	0.000223	0.000567	0.000151	7105.923916	45969.999827	3945.883469	24323.117690
10.037000	0.000011	0.000046	0.001173	0.000000	7102.596652	45967.436259	3947.948484	24330.599041
10.537500	0.000000	-0.000096	0.001176	-0.000288	7105.337685	45981.874412	3948.741660	24344.870254
11.037500	0.000106	0.000000	-0.000791	-0.000077	7104.290472	45970.430879	3942.806404	24334.396899
11.534500	-0.000142	-0.000289	0.000000	-0.000728	7108.302735	46006.433774	3946.732762	24366.721573
12.035500	-0.000193	0.000329	0.001067	-0.000140	7101.951625	46009.417133	3948.038719	24337.530100
12.535500	0.000284	0.000549	-0.000561	0.000296	7102.370312	45987.924241	3942.419181	24315.935124
13.036000	-0.004414	0.000164	-0.003029	0.005755	7002.789998	45411.476674	3921.074313	24047.110930
13.539000	-0.000774	0.000793	0.000263	0.000432	7090.540249	45998.679000	3944.289078	24309.208798
14.037000	-0.003551	0.000558	0.000189	0.003456	7033.539891	45676.096354	3935.887002	24159.888800
14.536500	-0.004068	-0.000008	-0.000060	0.001896	7043.738587	45774.324355	3939.436413	24236.810799
15.037500	-0.003759	-0.000554	-0.000251	0.003936	7026.830866	45519.411623	3933.403193	24136.289227
15.537000	-0.000130	0.000158	-0.000732	0.000325	7097.967376	45946.202757	3941.873487	24314.486441
16.037500	-0.002198	-0.000518	-0.003992	0.001250	7068.415934	45787.632263	3930.561837	24268.689770
16.535000	-0.000492	0.000009	0.000257	0.000125	7096.368025	45951.326414	3945.108625	24324.386668
17.035500	-0.001567	0.000034	-0.001753	0.003769	7049.889692	45593.754570	3929.809905	24144.538955
17.536000	-0.002096	-0.000016	-0.000102	0.000770	7074.145734	45884.851803	3942.376576	24292.433672
18.039000	-0.000478	0.000044	0.001889	0.001405	7083.845403	45827.906802	3946.068138	24261.029951
18.536500	-0.001124	0.000020	0.002922	0.001803	7073.551992	45786.289687	3947.800394	24241.405346
19.036500	-0.001618	-0.000403	-0.001145	0.002772	7059.153035	45648.823350	3934.132127	24193.562470
19.537500	0.000239	0.000393	-0.000291	0.002211	7082.963907	45782.698286	3937.956080	24221.236254
20.037500	-0.001225	-0.000329	-0.004336	0.001019	7080.282708	45829.279810	3930.259357	24280.150098
20.535000	-0.001428	0.000108	-0.001586	0.001855	7070.049427	45789.783402	3935.419752	24238.836642
21.035000	-0.002083	0.000600	-0.004019	0.002743	7054.878957	45750.599648	3926.479195	24194.993977
21.535500	-0.000939	0.000659	0.001926	0.002202	7071.442252	45809.987312	3943.997855	24221.683735
22.035500	-0.002417	0.000432	-0.001609	0.001670	7062.133650	45840.077379	3935.853642	24247.944993
22.536500	-0.002060	0.000148	-0.000884	0.001948	7062.915192	45784.520125	3937.065302	24234.236138
23.036500	-0.002698	-0.000462	-0.000388	0.002355	7052.658443	45684.172023	3937.303024	24214.137289
23.536500	-0.001838	0.000341	-0.000730	0.001571	7068.805224	45840.919487	3938.500862	24252.838423
24.036500	0.000244	0.000307	-0.001108	0.002066	7084.449866	45788.624885	3936.139666	24228.392287
24.537500	-0.002158	0.000312	0.004450	0.002198	7059.491434	45776.088571	3950.896910	24221.886026
25.034000	-0.002840	-0.000200	-0.005972	0.001745	7057.246067	45770.279764	3923.924775	24244.261652
25.535000	-0.002541	-0.000584	-0.002990	0.001454	7063.035354	45760.998978	3932.709788	24258.603193
26.035000	-0.002468	-0.000523	-0.001262	0.001266	7065.604840	45785.584214	3937.886055	24267.912969
26.534500	-0.003035	-0.000128	-0.002714	0.001911	7053.705358	45760.876425	3932.223154	24236.047868
27.035500	-0.002858	0.000142	-0.001760	0.004526	7029.863063	45529.884836	3927.757352	24107.355723
27.536500	-0.000184	0.000330	0.004845	-0.000342	7104.051879	46029.606285	3958.957740	24347.576458
28.036500	0.000174	-0.000771	-0.002482	-0.000463	7108.806306	45932.257673	3939.265256	24353.565301
28.537000	0.000407	0.000720	-0.000686	0.000764	7098.949271	45958.531593	3940.808935	24292.759684
29.036500	-0.002938	0.000165	-0.000660	0.005678	7017.863825	45419.052699	3927.618213	24050.874350
29.537500	-0.001677	0.000334	-0.004335	0.000139	7084.507378	45982.227149	3932.630312	24323.724622
30.037500	-0.002102	0.000269	-0.003069	0.004517	7037.327791	45543.279885	3924.273078	24107.775886
30.535000	-0.003054	0.000668	0.000590	0.004099	7032.117916	45623.661310	3935.234996	24128.312805
31.035500	-0.001956	0.000099	-0.003638	0.004377	7040.130485	45540.374566	3923.127984	24114.675363
31.535500	-0.001670	0.000760	0.003067	0.000938	7076.691060	45945.115560	3950.559417	24284.117039
32.039000	-0.002582	0.000082	-0.005428	0.004196	7035.772956	45556.401097	3918.834680	24123.523667
32.541000	-0.000850	-0.000215	0.005558	0.000042	7093.641222	45937.289338	3959.861205	24328.493155
33.036500	-0.003746	-0.000437	-0.005550	0.005552	7011.245513	45372.534146	3914.905930	24057.062627
33.536500	0.000086	-0.000359	0.004826	-0.001560	7118.841805	46082.227458	3962.266881	24408.112849
34.037500	-0.000886	-0.000173	0.001476	0.003124	7062.889896	45636.767727	3940.270541	24176.242406
34.535000	-0.001574	0.000138	0.002070	0.002396	7063.282495	45739.296338	3943.862021	24212.109673
35.035000	-0.002515	0.000181	0.000891	0.002843	7049.671405	45699.392188	3939.448204	24190.093450
35.535500	-0.001650	-0.000344	0.005730	0.002339	7063.099733	45697.409856	3954.019195	24214.940592
36.036000	-0.002631	0.000108	0.001602	0.003605	7041.067763	45617.048372	3939.306879	24152.557911
36.539000	-0.001534	0.000670	-0.000469	0.003356	7054.256411	45697.058346	3934.382243	24164.837306
37.036000	-0.002893	0.000371	-0.003214	0.003148	7042.976807	45688.093016	3927.553748	24175.057978
37.536500	0.000372	0.000419	-0.006953	0.003072	7075.790739	45700.380544	3917.768029	24178.830120
38.036500	-0.001748	0.000606	-0.001239	0.002870	7056.915178	45738.609432	3933.614010	24188.736938
38.537000	-0.002604	-0.000116	0.001473	0.002497	7052.187036	45704.232707	3941.964392	24207.133733
39.037500	-0.001951	-0.000430	-0.004819	0.002470	7058.853719	45675.977976	3925.070696	24208.477620
39.534500	-0.002261	0.000414	-0.000362	0.002667	7053.875669	45739.791020	3936.528938	24198.738776
40.035500	-0.002222	0.000966	-0.000835	0.003454	7046.552941	45716.642349	3933.129339	24160.026751
40.535000	-0.002423	0.000156	0.002524	0.002889	7050.111536	45692.379876	3943.755106	24187.817252
41.038000	-0.003124	0.000173	0.005100	0.003127	7040.927196	45670.651564	3950.134547	24176.117661
41.536000	-0.002781	0.000228	-0.000812	0.002742	7048.047102	45713.962160	3935.112004	24195.057086
42.036500	-0.001600	0.000250	0.000405	0.003236	7054.782067	45667.458164	3937.067178	24170.737858
42.536500	-0.002275	0.000133	-0.001125	0.002836	7052.085700	45695.419760	3934.015298	24190.440191
43.037000	-0.002054	0.000368	-0.001312	0.003137	7051.304750	45688.845384	3932.696947	24175.595850
43.537000	-0.003057	0.000529	0.004144	0.001452	7057.995099	45871.267037	3952.102184	24258.718101
44.037500	0.000191	0.000511	0.000082	0.004128	7063.605775	45605.318093	3933.784633	24126.872906
44.538000	0.001430	-0.000486	0.005020	0.000426	7112.453441	45872.372032	3957.323447	24309.488939
45.035500	-0.004191	0.000148	-0.000470	0.005369	7008.691689	45447.692431	3928.957599	24065.999100
45.535500	-0.000683	0.000419	0.002262	0.000754	7088.250463	45929.540241	3948.861193	24293.241817
46.036000	-0.004630	0.000589	-0.002375	0.006509	6993.405949	45379.236916	3920.805261	24010.235992
46.536000	0.000311	0.000189	-0.000881	0.000517	7100.435180	45930.239910	3940.947403	24304.971279
47.037000	-0.001367	0.000058	-0.002724	0.005514	7034.774954	45424.642290	3922.532783	24058.916647
47.536500	-0.000827	0.000275	0.005330	0.003706	7057.748748	45623.570690	3949.178700	24147.596894
48.037000	-0.004958	-0.001092	-0.001168	0.005338	7001.570202	45329.377854	3927.167488	24067.549455
48.537500	-0.001287	-0.000464	0.000219	0.000441	7085.377411	45873.114456	3944.144827	24308.749586
49.035000	-0.004396	0.001112	-0.001211	0.006694	6993.882247	45412.371627	3923.421754	24001.231507
49.535000	-0.000134	-0.000625	-0.000748	-0.002358	7124.597544	46135.156214	3949.139780	24447.840755
50.035000	-0.004468	-0.000630	-0.000508	0.005908	7000.793551	45318.814039	3927.408894	24039.638302
50.535500	0.000634	-0.000103	-0.003317	0.000593	7102.886284	45893.766668	3934.150460	24301.190896
51.035500	0.005158	0.001461	-0.003171	0.011752	7037.574240	44953.346485	3904.807059	23755.661657
51.536000	-0.020411	-0.002781	-0.012481	0.156845	5658.946557	32704.586303	3562.976968	17802.877018
52.036500	-0.038289	-0.022283	-0.036564	-0.126928	8077.790045	57707.706904	4218.251300	31640.693591
52.536500	-0.129278	-0.301820	-0.128905	-0.464398	12113.520184	65535.000000	5322.505071	65535.000000
53.037000	-0.126698	-0.292494	-0.115529	-0.455072	11969.887294	65535.000000	5346.494972	64202.083620
53.537500	-0.029255	-0.162939	-0.013245	-0.325517	11315.962627	65535.000000	5189.212139	48363.595488
54.035000	-0.030532	-0.128938	-0.008695	-0.291516	10651.167508	65535.000000	5030.096211	44932.194878
54.535000	-0.022010	-0.097404	-0.009772	-0.259982	10245.720911	65535.000000	4866.038452	41981.077613
55.038000	-0.013906	-0.096632	-0.009935	-0.259210	10372.572368	65535.000000	4861.514191	41911.486321
55.535000	0.002246	-0.076138	-0.000493	-0.238448	10292.550686	65496.331290	4807.506333	40085.494633
56.036000	0.003606	-0.044816	0.001856	-0.194031	9584.890029	63635.901762	4618.689905	36460.311167
56.536000	0.013326	-0.021358	0.009033	-0.146422	9017.619635	60348.114990	4453.665936	32964.953010
57.036500	0.018690	-0.009741	0.014671	-0.099712	8452.527016	55885.367579	4301.039738	29888.549145
57.537000	0.027873	-0.001181	0.026854	-0.049504	7942.557185	51036.177842	4172.041538	26930.636939
58.037500	0.036996	0.006029	0.033419	-0.009819	7592.769110	47564.824980	4068.533041	24823.013444
58.537500	0.055058	0.016131	0.054235	0.033724	7319.361857	44251.450079	4001.932518	22721.635471
59.035000	0.072636	0.025712	0.081265	0.079917	7030.873811	40904.923217	3948.425874	20711.101417
59.538000	0.093853	0.037915	0.098893	0.126612	6789.518810	37999.936558	3871.635866	18884.787712
60.035500	0.114359	0.050769	0.120897	0.182817	6474.298420	34661.376582	3787.629159	16931.720890
60.536000	0.141971	0.065746	0.149442	0.222167	6376.190280	32925.672456	3762.435103	15707.225977
61.036000	0.162191	0.078922	0.174894	0.265043	6194.146370	30938.022368	3723.100193	14493.412301
61.536500	0.182453	0.092575	0.190698	0.299010	6088.556556	29654.776589	3683.746951	13613.386660
62.037000	0.194139	0.100792	0.201765	0.303859	6140.815134	29863.415600	3697.036412	13493.289242
62.536500	0.200872	0.106524	0.206445	0.318475	6080.631489	29316.564534	3675.893341	13139.261612
63.037000	0.213409	0.111614	0.216375	0.327786	6105.130917	29060.651324	3677.196888	12919.863438
63.537500	0.219869	0.117737	0.226408	0.338243	6074.799118	28800.413719	3676.301772	12678.995575
64.035500	0.223851	0.121951	0.231028	0.352830	5995.680524	28188.114850	3655.564051	12352.548511
64.535000	0.230175	0.124996	0.242008	0.354955	6026.783737	28241.829097	3673.965967	12305.912679
65.035000	0.233245	0.126754	0.238513	0.366623	5963.430342	27669.163417	3642.685122	12053.815870
65.535500	0.236132	0.128991	0.240144	0.368758	5968.915125	27674.935126	3641.663846	12008.400501
66.036000	0.237828	0.132026	0.244792	0.380890	5893.560220	27160.541586	3626.641613	11754.620350
66.536000	0.243150	0.134283	0.256831	0.381362	5928.349946	27260.584761	3649.969972	11744.875702
67.037000	0.242055	0.136099	0.249603	0.391550	5847.991842	26794.667223	3615.077282	11537.385727
67.537500	0.249351	0.138009	0.255495	0.391124	5902.768671	26923.800024	3627.574462	11545.970287
68.037500	0.245652	0.138149	0.252980	0.397447	5831.871692	26583.545943	3610.143850	11419.496860
68.535000	0.250652	0.140555	0.261365	0.398954	5856.392465	26632.699989	3623.678159	11389.621079
69.035000	0.251500	0.140869	0.258254	0.407076	5805.545436	26209.087736	3601.683627	11230.403053
69.535500	0.256932	0.142960	0.268630	0.405706	5853.070389	26395.967618	3624.697627	11257.056625
70.036000	0.255678	0.143496	0.266934	0.412742	5795.249604	26046.294489	3607.530438	11121.078982
70.536000	0.257139	0.143268	0.271804	0.409862	5825.384807	26188.281440	3622.748323	11176.462652
71.036500	0.254470	0.143919	0.271253	0.417150	5756.697326	25834.429191	3607.356132	11036.995596
71.536500	0.262490	0.145879	0.273122	0.413117	5840.051509	26153.742319	3618.920618	11113.896270
72.037000	0.261319	0.144246	0.269704	0.418004	5797.861582	25806.563524	3602.692353	11020.803526
72.537000	0.263875	0.147001	0.276467	0.416462	5826.338440	26034.783517	3618.920239	11050.074499
73.034500	0.261544	0.146107	0.271154	0.421992	5771.956434	25694.451580	3597.795966	10945.621448
73.538000	0.264552	0.146056	0.275510	0.417555	5823.432679	25926.252171	3614.884040	11029.316705
74.035000	0.264671	0.146840	0.274119	0.423494	5783.125561	25654.090890	3600.616218	10917.499099
74.538500	0.268893	0.148261	0.282143	0.421566	5825.743216	25830.537476	3620.049479	10953.634203
75.036000	0.265026	0.145567	0.277967	0.425040	5774.936752	25506.558421	3605.071416	10888.634632
75.536500	0.266895	0.148004	0.284427	0.422911	5802.498911	25745.957065	3621.904280	10928.404408
76.039000	0.265569	0.147877	0.282897	0.428073	5757.904621	25468.896304	3608.761188	10832.319515
76.537000	0.268141	0.147926	0.280351	0.424891	5797.419871	25637.777046	3610.001475	10891.416609
77.037000	0.269905	0.147135	0.287403	0.425364	5806.352721	25571.494294	3622.939534	10882.592005
77.537500	0.271586	0.147159	0.279385	0.426032	5813.390560	25537.870359	3605.898263	10870.170779
78.037500	0.268981	0.147723	0.287198	0.430258	5766.279008	25347.419638	3612.894077	10791.973541
78.534500	0.270787	0.146186	0.283724	0.426756	5802.827230	25449.439157	3612.951106	10856.727958
79.035500	0.268527	0.147242	0.282010	0.433539	5740.839189	25153.449531	3596.467544	10731.792643
79.536000	0.272847	0.146313	0.290016	0.428194	5807.133375	25381.315359	3622.510446	10830.064580
80.036000	0.267128	0.146475	0.283878	0.431121	5747.755335	25238.348438	3604.741291	10776.098730
80.536000	0.272070	0.145563	0.285960	0.428619	5798.809187	25320.495323	3613.681245	10822.220816
81.036500	0.270038	0.146162	0.281217	0.433766	5749.566451	25086.482326	3594.512146	10727.657912
81.537000	0.272215	0.146164	0.286816	0.430338	5787.941551	25262.668589	3611.990681	10790.501876
82.034000	0.268841	0.144566	0.285425	0.432213	5751.986724	25084.264683	3605.625081	10756.072553
82.540000	0.272503	0.145375	0.287050	0.429722	5794.172648	25253.776576	3613.653824	10801.847357
83.037500	0.271434	0.143343	0.285061	0.429024	5791.617984	25185.102029	3611.128839	10814.733508
83.535000	0.272002	0.144509	0.284632	0.430290	5786.803625	25179.952242	3607.821127	10791.384473
84.036000	0.272429	0.145479	0.289728	0.433388	5768.456685	25070.827703	3611.720132	10734.554617
84.538500	0.274667	0.144652	0.288651	0.431887	5794.169585	25105.347214	3612.549147	10762.038384
85.036000	0.276045	0.144700	0.287718	0.432529	5799.256333	25074.921184	3609.472995	10750.275805
85.536500	0.272873	0.142110	0.289958	0.430768	5789.511109	25032.555529	3617.312249	10782.590702
86.036500	0.272017	0.143389	0.289112	0.433961	5761.720485	24935.005408	3609.397857	10724.086227
86.537500	0.276389	0.143788	0.296216	0.432893	5799.115865	25009.744983	3625.487498	10743.606418
87.037000	0.271515	0.143152	0.286247	0.437932	5731.320552	24722.146042	3596.168438	10651.920846
87.535000	0.277335	0.143420	0.297411	0.433842	5799.099264	24942.673114	3625.977815	10726.258980
88.035000	0.269960	0.140117	0.292147	0.433214	5752.787931	24807.054122	3616.807214	10737.744337
88.535000	0.277142	0.143184	0.290028	0.435288	5787.787248	24857.316697	3608.596573	10699.905912
89.035500	0.275370	0.142324	0.296304	0.434984	5777.689692	24829.172854	3621.517126	10705.444990
89.536000	0.276351	0.141964	0.294896	0.434883	5785.123787	24816.018005	3618.933614	10707.267848
90.036000	0.275024	0.140881	0.292971	0.437093	5760.868486	24650.184032	3610.818165	10667.120376
90.536500	0.275633	0.139790	0.289681	0.434964	5779.628628	24702.352510	3608.552695	10705.809870
91.037000	0.275747	0.139815	0.289750	0.436025	5773.128749	24650.267748	3606.620811	10686.500302
91.537000	0.275839	0.139931	0.291773	0.436773	5768.632975	24618.595457	3609.103570	10672.920042
92.037500	0.276423	0.139261	0.295552	0.438026	5764.050291	24522.427682	3614.042563	10650.220748
92.535000	0.275373	0.137518	0.293580	0.436382	5768.119621	24517.506413	3613.399645	10680.012454
93.035500	0.275956	0.137619	0.294256	0.437048	5767.545643	24489.343143	3613.419251	10667.930056
93.535000	0.276119	0.138645	0.297301	0.437982	5762.279295	24493.941228	3617.567701	10651.031811
94.036000	0.275973	0.138889	0.290615	0.440310	5745.424096	24390.323150	3599.998777	10609.028936
94.536000	0.273820	0.137649	0.294031	0.438828	5740.866462	24402.334461	3609.500417	10635.737529
95.036500	0.274010	0.136648	0.290034	0.442729	5715.800764	24160.523843	3594.232646	10565.626595
95.537000	0.278758	0.137566	0.298500	0.440180	5765.293112	24331.273794	3615.602388	10611.373391
96.037000	0.277637	0.137400	0.290367	0.442361	5742.794034	24215.521119	3595.574598	10572.209196
