sample name	sample
index	728
start time	 03-25-2021  02:35:34 PM


Wavelength (nm)	Absorbance
494.344910	0.254498
494.563924	0.254498
494.782919	0.254498
495.001897	-0.098641
495.220856	-0.129317
495.439797	-0.135640
495.658719	-0.166260
495.877624	-0.184517
496.096510	-0.158010
496.315378	-0.078988
496.534227	-0.005327
496.753059	0.014721
496.971872	0.100617
497.190667	0.089218
497.409444	0.080302
497.628203	0.077127
497.846943	0.076802
498.065665	0.075177
498.284369	0.075251
498.503055	0.075520
498.721723	0.075711
498.940372	0.075130
499.159003	0.074799
499.377616	0.075406
499.596210	0.075426
499.814787	0.075507
500.033345	0.076311
500.251885	0.074822
500.470406	0.074872
500.688910	0.074896
500.907395	0.074617
501.125862	0.074982
501.344311	0.074792
501.562742	0.075231
501.781154	0.075762
501.999548	0.075429
502.217924	0.076468
502.436282	0.076655
502.654621	0.076723
502.872942	0.077778
503.091245	0.078701
503.309530	0.078679
503.527797	0.078973
503.746045	0.078975
503.964275	0.078989
504.182487	0.079250
504.400681	0.079449
504.618856	0.079678
504.837013	0.078502
505.055152	0.077486
505.273273	0.077066
505.491376	0.077157
505.709460	0.077149
505.927526	0.077513
506.145574	0.077606
506.363604	0.077178
506.581615	0.077473
506.799608	0.077781
507.017583	0.078146
507.235540	0.077740
507.453478	0.078098
507.671399	0.078087
507.889301	0.078114
508.107185	0.078085
508.325050	0.077160
508.542898	0.076203
508.760727	0.075960
508.978538	0.075767
509.196330	0.076137
509.414105	0.075828
509.631861	0.075479
509.849599	0.074626
510.067319	0.074409
510.285021	0.075134
510.502704	0.075953
510.720369	0.076259
510.938016	0.076992
511.155645	0.077400
511.373255	0.077725
511.590848	0.077474
511.808422	0.078617
512.025977	0.078732
512.243515	0.078955
512.461034	0.078059
512.678536	0.077500
512.896018	0.077562
513.113483	0.077838
513.330930	0.077652
513.548358	0.078361
513.765768	0.077799
513.983160	0.077507
514.200533	0.077908
514.417889	0.078599
514.635226	0.079584
514.852545	0.078946
515.069845	0.077976
515.287128	0.077265
515.504392	0.076979
515.721638	0.076791
515.938866	0.077453
516.156075	0.077344
516.373267	0.077926
516.590440	0.077955
516.807594	0.077863
517.024731	0.077834
517.241850	0.078275
517.458950	0.078591
517.676032	0.079253
517.893095	0.078788
518.110141	0.078580
518.327168	0.077570
518.544177	0.077239
518.761168	0.077625
518.978141	0.078736
519.195095	0.079107
519.412031	0.079386
519.628949	0.079533
519.845849	0.079458
520.062731	0.079435
520.279594	0.079539
520.496439	0.079275
520.713266	0.079322
520.930074	0.079795
521.146865	0.079504
521.363637	0.079401
521.580391	0.079626
521.797127	0.080842
522.013844	0.080709
522.230543	0.081157
522.447224	0.081615
522.663887	0.082166
522.880532	0.081285
523.097158	0.081626
523.313766	0.081810
523.530356	0.082044
523.746928	0.081096
523.963481	0.081836
524.180017	0.081864
524.396534	0.081795
524.613032	0.081209
524.829513	0.081515
525.045975	0.081546
525.262420	0.081335
525.478845	0.081012
525.695253	0.081627
525.911643	0.081198
526.128014	0.081868
526.344367	0.082025
526.560702	0.082058
526.777018	0.082268
526.993316	0.081896
527.209597	0.081895
527.425858	0.081656
527.642102	0.081712
527.858328	0.081892
528.074535	0.081218
528.290724	0.081186
528.506894	0.081593
528.723047	0.081801
528.939181	0.082144
529.155297	0.082136
529.371395	0.082474
529.587475	0.082089
529.803536	0.082482
530.019579	0.082785
530.235604	0.082625
530.451611	0.082702
530.667600	0.082448
530.883570	0.082778
531.099522	0.083084
531.315456	0.083968
531.531372	0.084472
531.747269	0.084657
531.963148	0.084878
532.179009	0.085338
532.394852	0.085161
532.610676	0.085510
532.826482	0.085470
533.042271	0.084784
533.258040	0.083861
533.473792	0.084084
533.689525	0.083566
533.905240	0.083556
534.120937	0.083639
534.336616	0.084053
534.552277	0.084285
534.767919	0.084358
534.983543	0.085229
535.199149	0.085602
535.414736	0.085325
535.630306	0.086069
535.845857	0.086741
536.061390	0.086751
536.276904	0.087175
536.492401	0.086682
536.707879	0.086962
536.923339	0.087008
537.138781	0.087090
537.354204	0.087467
537.569610	0.087225
537.784997	0.086917
538.000366	0.086659
538.215716	0.086027
538.431049	0.086407
538.646363	0.086592
538.861659	0.086624
539.076937	0.086646
539.292196	0.086627
539.507438	0.087135
539.722661	0.087118
539.937866	0.087746
540.153052	0.088037
540.368221	0.088213
540.583371	0.088140
540.798503	0.088222
541.013617	0.088568
541.228712	0.088956
541.443789	0.088643
541.658848	0.088128
541.873889	0.087944
542.088912	0.088206
542.303916	0.088302
542.518902	0.088968
542.733870	0.089109
542.948820	0.089531
543.163752	0.088968
543.378665	0.088952
543.593560	0.089451
543.808437	0.089831
544.023295	0.090226
544.238136	0.090522
544.452958	0.090028
544.667762	0.090009
544.882548	0.089206
545.097315	0.089887
545.312064	0.090097
545.526795	0.090506
545.741508	0.090483
545.956203	0.090265
546.170879	0.090429
546.385537	0.090537
546.600177	0.090658
546.814799	0.091173
547.029402	0.091145
547.243988	0.091139
547.458555	0.091002
547.673103	0.091648
547.887634	0.091719
548.102146	0.091016
548.316640	0.091131
548.531116	0.091309
548.745574	0.091095
548.960013	0.090619
549.174435	0.091305
549.388838	0.091739
549.603222	0.091348
549.817589	0.091368
550.031937	0.091656
550.246267	0.091709
550.460579	0.091669
550.674873	0.091920
550.889148	0.092360
551.103405	0.092262
551.317644	0.092096
551.531865	0.092288
551.746068	0.092286
551.960252	0.092601
552.174418	0.092597
552.388566	0.092399
552.602696	0.092390
552.816807	0.092431
553.030900	0.092182
553.244975	0.092093
553.459032	0.091891
553.673070	0.092013
553.887091	0.091962
554.101093	0.092000
554.315077	0.092151
554.529042	0.092150
554.742990	0.092186
554.956919	0.092169
555.170830	0.092204
555.384722	0.092423
555.598597	0.092534
555.812453	0.092638
556.026291	0.092938
556.240111	0.093066
556.453913	0.093302
556.667696	0.093357
556.881461	0.093319
557.095208	0.093804
557.308937	0.093732
557.522647	0.093849
557.736339	0.093743
557.950013	0.093413
558.163669	0.093533
558.377307	0.093527
558.590926	0.093889
558.804527	0.094273
559.018110	0.093935
559.231675	0.094227
559.445221	0.094287
559.658749	0.094824
559.872259	0.095076
560.085751	0.095344
560.299225	0.095315
560.512680	0.094981
560.726117	0.094993
560.939536	0.095132
561.152937	0.095115
561.366319	0.095031
561.579683	0.094997
561.793029	0.095398
562.006357	0.095050
562.219667	0.095324
562.432958	0.095330
562.646231	0.095592
562.859486	0.095880
563.072723	0.095809
563.285941	0.095619
563.499141	0.095585
563.712323	0.095436
563.925487	0.095497
564.138632	0.096030
564.351760	0.095954
564.564869	0.095760
564.777960	0.095464
564.991032	0.095806
565.204087	0.096337
565.417123	0.096361
565.630141	0.096411
565.843140	0.096292
566.056122	0.095766
566.269085	0.096300
566.482030	0.096292
566.694957	0.096662
566.907866	0.096352
567.120756	0.095916
567.333628	0.095947
567.546482	0.096231
567.759318	0.096699
567.972135	0.096645
568.184935	0.096722
568.397716	0.096709
568.610478	0.096529
568.823223	0.096644
569.035949	0.097239
569.248657	0.097265
569.461347	0.096911
569.674019	0.096903
569.886672	0.097080
570.099308	0.096886
570.311925	0.097275
570.524523	0.097143
570.737104	0.097418
570.949666	0.096928
571.162210	0.096751
571.374736	0.096674
571.587244	0.096754
571.799733	0.096537
572.012205	0.096713
572.224658	0.096538
572.437092	0.096754
572.649509	0.096752
572.861907	0.096937
573.074287	0.097073
573.286649	0.097308
573.498993	0.097437
573.711318	0.097893
573.923625	0.098035
574.135914	0.097822
574.348185	0.097749
574.560438	0.097668
574.772672	0.097789
574.984888	0.097847
575.197086	0.097828
575.409266	0.097895
575.621427	0.097626
575.833570	0.097856
576.045695	0.098340
576.257802	0.098634
576.469890	0.098871
576.681961	0.098853
576.894013	0.099348
577.106046	0.099504
577.318062	0.099681
577.530059	0.099781
577.742039	0.099466
577.954000	0.099441
578.165942	0.099504
578.377867	0.099350
578.589773	0.099936
578.801661	0.099873
579.013531	0.099683
579.225382	0.099396
579.437216	0.099162
579.649031	0.099124
579.860828	0.099131
580.072606	0.098792
580.284367	0.098681
580.496109	0.098342
580.707833	0.098096
580.919539	0.098456
581.131227	0.098874
581.342896	0.099093
581.554547	0.099340
581.766180	0.099331
581.977795	0.099563
582.189391	0.100119
582.400969	0.100120
582.612529	0.100247
582.824071	0.100217
583.035595	0.099806
583.247100	0.100102
583.458587	0.100168
583.670056	0.100145
583.881506	0.100301
584.092939	0.099959
584.304353	0.100216
584.515749	0.100375
584.727127	0.100557
584.938486	0.100907
585.149828	0.101144
585.361151	0.101097
585.572456	0.100991
585.783742	0.100926
585.995011	0.100955
586.206261	0.100654
586.417493	0.100476
586.628706	0.100448
586.839902	0.100523
587.051079	0.100410
587.262238	0.100359
587.473379	0.100579
587.684502	0.100589
587.895606	0.101007
588.106692	0.100777
588.317760	0.100676
588.528810	0.100903
588.739841	0.100781
588.950855	0.100668
589.161850	0.101153
589.372827	0.101241
589.583785	0.101369
589.794726	0.101317
590.005648	0.101909
590.216552	0.102333
590.427437	0.101906
590.638305	0.101959
590.849154	0.101975
591.059985	0.101789
591.270798	0.101834
591.481592	0.102131
591.692369	0.101985
591.903127	0.101756
592.113867	0.101757
592.324588	0.102366
592.535292	0.102370
592.745977	0.102307
592.956644	0.102112
593.167293	0.102045
593.377923	0.101861
593.588536	0.102142
593.799130	0.102649
594.009706	0.102833
594.220263	0.102799
594.430803	0.102969
594.641324	0.103270
594.851827	0.103432
595.062312	0.103649
595.272778	0.103498
595.483227	0.103735
595.693657	0.103458
595.904069	0.103343
596.114462	0.103265
596.324838	0.103328
596.535195	0.103474
596.745534	0.103478
596.955855	0.103167
597.166157	0.103538
597.376441	0.103029
597.586707	0.103125
597.796955	0.103193
598.007185	0.103060
598.217396	0.102926
598.427589	0.102869
598.637764	0.103279
598.847921	0.103629
599.058060	0.103546
599.268180	0.103839
599.478282	0.103852
599.688366	0.103854
599.898431	0.104015
600.108479	0.104362
600.318508	0.104520
600.528519	0.104058
600.738511	0.104015
600.948486	0.104115
601.158442	0.104226
601.368380	0.104375
601.578300	0.104414
601.788202	0.104441
601.998085	0.104362
602.207950	0.104158
602.417797	0.104610
602.627626	0.104749
602.837436	0.104633
603.047228	0.104806
603.257002	0.105031
603.466758	0.105158
603.676496	0.105253
603.886215	0.105065
604.095916	0.105240
604.305599	0.105050
604.515264	0.104965
604.724910	0.105229
604.934538	0.104910
605.144148	0.104778
605.353740	0.104747
605.563314	0.104650
605.772869	0.104873
605.982406	0.104970
606.191925	0.104912
606.401425	0.105274
606.610908	0.105344
606.820372	0.105416
607.029818	0.105382
607.239246	0.105381
607.448655	0.105664
607.658047	0.105887
607.867420	0.105831
608.076775	0.106078
608.286111	0.105772
608.495430	0.105816
608.704730	0.105861
608.914012	0.106186
609.123275	0.106380
609.332521	0.106115
609.541748	0.105924
609.750957	0.105942
609.960148	0.106100
610.169321	0.106285
610.378475	0.106084
610.587611	0.106245
610.796729	0.106053
611.005829	0.106098
611.214910	0.106128
611.423974	0.106335
611.633019	0.106416
611.842045	0.106530
612.051054	0.106689
612.260044	0.107002
612.469017	0.106978
612.677970	0.107119
612.886906	0.106980
613.095824	0.107169
613.304723	0.107205
613.513604	0.107526
613.722467	0.107257
613.931311	0.107083
614.140138	0.106807
614.348946	0.106978
614.557736	0.107018
614.766507	0.107170
614.975261	0.107273
615.183996	0.107251
615.392713	0.106798
615.601412	0.106840
615.810092	0.106723
616.018754	0.106792
616.227399	0.106814
616.436024	0.106745
616.644632	0.106987
616.853222	0.106930
617.061793	0.107035
617.270346	0.107456
617.478880	0.107665
617.687397	0.107890
617.895895	0.108357
618.104375	0.108235
618.312837	0.108276
618.521281	0.108052
618.729706	0.108211
618.938113	0.108019
619.146502	0.107711
619.354873	0.107618
619.563226	0.107721
619.771560	0.107527
619.979876	0.107618
620.188174	0.107613
620.396453	0.107715
620.604715	0.107905
620.812958	0.108144
621.021183	0.108457
621.229390	0.108677
621.437578	0.108650
621.645748	0.108894
621.853900	0.109001
622.062034	0.108940
622.270150	0.109083
622.478247	0.109038
622.686326	0.109038
622.894387	0.109063
623.102430	0.109054
623.310454	0.109324
623.518461	0.109457
623.726449	0.109483
623.934418	0.109638
624.142370	0.109543
624.350303	0.109615
624.558218	0.109797
624.766115	0.109873
624.973994	0.110022
625.181855	0.109899
625.389697	0.109379
625.597521	0.109278
625.805327	0.109495
626.013114	0.109654
626.220883	0.109461
626.428634	0.109433
626.636367	0.109325
626.844082	0.109306
627.051778	0.109361
627.259457	0.109731
627.467117	0.109811
627.674758	0.109819
627.882382	0.109927
628.089987	0.110001
628.297574	0.110113
628.505143	0.110382
628.712694	0.110522
628.920226	0.110590
629.127740	0.110580
629.335236	0.110735
629.542714	0.110809
629.750174	0.110800
629.957615	0.110836
630.165038	0.110708
630.372443	0.110551
630.579829	0.110453
630.787198	0.110511
630.994548	0.110394
631.201880	0.110469
631.409194	0.110528
631.616489	0.110406
631.823766	0.110509
632.031025	0.110698
632.238266	0.111027
632.445489	0.111197
632.652693	0.111327
632.859879	0.111463
633.067047	0.111610
633.274197	0.111470
633.481329	0.111777
633.688442	0.111789
633.895537	0.112099
634.102614	0.112126
634.309672	0.112305
634.516713	0.112392
634.723735	0.112615
634.930739	0.112658
635.137724	0.112960
635.344692	0.113029
635.551641	0.113101
635.758572	0.112813
635.965485	0.112654
636.172379	0.112482
636.379256	0.112395
636.586114	0.112394
636.792954	0.112447
636.999775	0.112344
637.206579	0.112219
637.413364	0.112314
637.620131	0.112464
637.826880	0.112650
638.033610	0.112632
638.240323	0.112920
638.447017	0.112800
638.653692	0.112672
638.860350	0.112633
639.066990	0.112758
639.273611	0.112883
639.480214	0.112959
639.686798	0.112880
639.893365	0.112982
640.099913	0.112811
640.306443	0.113061
640.512955	0.113013
640.719449	0.113142
640.925924	0.113033
641.132381	0.112842
641.338820	0.112843
641.545241	0.112880
641.751644	0.112784
641.958028	0.112644
642.164394	0.112630
642.370742	0.112959
642.577071	0.113135
642.783383	0.113175
642.989676	0.113541
643.195951	0.113676
643.402207	0.113831
643.608446	0.113919
643.814666	0.114082
644.020868	0.114170
644.227052	0.114318
644.433218	0.114153
644.639365	0.114270
644.845494	0.114173
645.051605	0.114223
645.257698	0.114432
645.463772	0.114529
645.669828	0.114684
645.875866	0.114741
646.081886	0.114499
646.287888	0.114620
646.493871	0.114883
646.699836	0.114872
646.905783	0.114674
647.111712	0.114595
647.317622	0.114572
647.523514	0.114732
647.729388	0.114813
647.935244	0.114851
648.141082	0.114987
648.346901	0.114780
648.552702	0.114914
648.758485	0.114945
648.964250	0.114895
649.169996	0.115110
649.375724	0.115031
649.581434	0.114966
649.787126	0.115157
649.992800	0.115262
650.198455	0.115359
650.404092	0.115406
650.609711	0.115497
650.815311	0.115620
651.020894	0.115305
651.226458	0.115275
651.432004	0.115345
651.637532	0.115235
651.843041	0.115049
652.048532	0.115079
652.254006	0.114940
652.459460	0.114992
652.664897	0.115117
652.870315	0.115516
653.075716	0.115395
653.281097	0.115286
653.486461	0.115616
653.691807	0.115798
653.897134	0.115813
654.102443	0.115842
654.307734	0.115924
654.513006	0.115850
654.718261	0.115822
654.923497	0.116064
655.128715	0.116223
655.333915	0.116023
655.539096	0.116172
655.744259	0.116338
655.949404	0.116474
656.154531	0.116483
656.359640	0.116693
656.564730	0.116880
656.769802	0.116651
656.974856	0.116703
657.179892	0.116989
657.384909	0.116813
657.589908	0.116623
657.794889	0.116905
657.999852	0.116874
658.204797	0.116882
658.409723	0.116669
658.614631	0.117110
658.819521	0.117384
659.024393	0.117179
659.229246	0.117407
659.434081	0.117754
659.638898	0.117813
659.843697	0.118115
660.048478	0.118028
660.253240	0.118342
660.457984	0.118236
660.662710	0.118222
660.867417	0.118293
661.072107	0.118224
661.276778	0.118008
661.481431	0.117839
661.686066	0.117723
661.890682	0.117722
662.095281	0.117650
662.299861	0.117812
662.504422	0.117716
662.708966	0.117864
662.913491	0.117905
663.117999	0.118216
663.322488	0.118341
663.526958	0.118341
663.731411	0.118324
663.935845	0.118168
664.140261	0.118223
664.344659	0.118282
664.549038	0.118354
664.753400	0.118490
664.957743	0.118474
665.162068	0.118634
665.366375	0.118823
665.570663	0.119079
665.774933	0.119404
665.979185	0.119770
666.183419	0.119866
666.387635	0.119936
666.591832	0.120023
666.796011	0.120223
667.000172	0.120236
667.204315	0.120248
667.408439	0.120524
667.612545	0.120503
667.816634	0.120267
668.020703	0.120545
668.224755	0.120597
668.428788	0.120711
668.632803	0.120777
668.836800	0.120935
669.040779	0.121213
669.244739	0.121134
669.448681	0.121523
669.652605	0.121654
669.856511	0.121725
670.060399	0.121870
670.264268	0.121902
670.468119	0.121761
670.671952	0.121869
670.875767	0.121779
671.079563	0.121907
671.283341	0.121629
671.487101	0.121551
671.690843	0.121484
671.894567	0.121340
672.098272	0.121394
672.301959	0.121574
672.505628	0.121392
672.709278	0.121388
672.912911	0.121295
673.116525	0.121487
673.320121	0.121581
673.523699	0.121331
673.727258	0.121471
673.930799	0.121558
674.134322	0.121567
674.337827	0.121600
674.541314	0.121937
674.744782	0.122103
674.948232	0.122237
675.151664	0.122384
675.355078	0.122645
675.558474	0.122776
675.761851	0.122909
675.965210	0.122863
676.168551	0.123140
676.371873	0.122848
676.575178	0.122776
676.778464	0.122775
676.981732	0.122601
677.184981	0.122948
677.388213	0.122955
677.591426	0.123027
677.794621	0.123356
677.997798	0.123367
678.200956	0.123618
678.404097	0.123731
678.607219	0.123779
678.810323	0.124239
679.013408	0.124225
679.216476	0.124541
679.419525	0.124606
679.622556	0.124776
679.825569	0.124749
680.028563	0.124945
680.231540	0.124976
680.434498	0.125171
680.637438	0.125249
680.840359	0.125239
681.043263	0.125019
681.246148	0.125109
681.449015	0.125066
681.651864	0.125173
681.854694	0.125075
682.057506	0.125356
682.260301	0.125261
682.463076	0.125205
682.665834	0.125353
682.868573	0.125654
683.071295	0.125480
683.273998	0.125584
683.476682	0.125727
683.679349	0.125845
683.881997	0.125835
684.084627	0.126026
684.287239	0.126268
684.489833	0.126419
684.692408	0.126252
684.894965	0.126674
685.097504	0.126650
685.300025	0.126658
685.502527	0.126715
685.705012	0.126691
685.907478	0.126780
686.109925	0.126605
686.312355	0.126556
686.514766	0.126640
686.717159	0.126507
686.919534	0.126448
687.121891	0.126622
687.324230	0.126841
687.526550	0.126950
687.728852	0.126897
687.931136	0.126970
688.133401	0.126944
688.335649	0.127115
688.537878	0.127168
688.740089	0.127333
688.942281	0.127295
689.144456	0.127215
689.346612	0.127179
689.548750	0.127273
689.750870	0.127422
689.952971	0.127401
690.155055	0.127480
690.357120	0.127652
690.559167	0.127714
690.761195	0.127892
690.963206	0.127978
691.165198	0.128212
691.367172	0.128347
691.569128	0.128239
691.771065	0.128483
691.972984	0.128533
692.174885	0.128500
692.376768	0.128536
692.578633	0.128650
692.780479	0.128859
692.982308	0.128888
693.184118	0.128889
693.385909	0.128966
