sample name	sample
index	861
start time	 04-08-2021  12:27:14 PM
880	0.481505
Peak Time (s)	102.536
Peak Height 	0.4815
calc peak height	100,103
Baseline Time (s)	9.537
Baseline Value 	-0.002956
subtract baseline	10,4
Abs	0.363699
Peak Time (s)	102.035
Peak Height 	0.3637
calc peak height	100,103
Baseline Time (s)	10.538
Baseline Value 	0.003694
subtract baseline	10,3
PK_550	0.187298
Peak Time (s)	102.536
Peak Height 	0.1873
calc peak height	100,103
Baseline Time (s)	9.537
Baseline Value 	7.5459E-4
subtract baseline	10,2
PK_880	0.335686
Peak Time (s)	102.035
Peak Height 	0.3357
calc peak height	100,103
Baseline Time (s)	10.538
Baseline Value 	0.001896
subtract baseline	10,1


Time (s)	A880-A510	A880-A775	A880-A975	A880	I510	I775	I975	I880	
0.037000	0.000327	0.000124	-0.000419	0.003042	6871.636596	42412.400301	3895.424195	22668.111327
0.535000	-0.002533	0.000177	-0.006499	0.007264	6804.135856	42033.155517	3866.686443	22474.789358
1.035500	-0.003477	-0.000184	-0.003172	0.003667	6829.302495	42327.304939	3885.927513	22639.409022
1.536000	-0.001872	-0.001030	-0.008718	0.001172	6868.478210	42477.856893	3877.411620	22754.341927
2.036000	-0.000260	-0.000392	-0.004605	0.001909	6876.889011	42468.841978	3886.837742	22720.335897
2.536000	-0.004736	-0.000179	-0.004510	0.006311	6792.333807	42087.232206	3874.823444	22518.261278
3.035500	0.000249	-0.000125	-0.000324	-0.001280	6912.616806	42786.374282	3907.956766	22867.964939
3.536500	-0.002159	-0.000355	0.002826	0.000455	6872.606780	42605.458280	3911.998370	22787.504227
4.036500	-0.000122	0.000350	-0.003233	0.000762	6889.265482	42642.063395	3893.919143	22773.290854
4.537000	0.001274	-0.000550	-0.003908	0.000005	6910.103744	42629.012990	3894.150324	22808.366793
5.034500	-0.001060	-0.000330	-0.001066	0.000141	6886.216981	42636.746670	3901.804840	22802.076004
5.535000	-0.000189	-0.000860	-0.002549	-0.000605	6901.835437	42656.560600	3899.715019	22836.651549
6.035500	0.000152	0.000277	-0.000644	0.000650	6892.994437	42645.707733	3901.557427	22778.486743
6.535500	-0.001713	-0.000396	-0.001804	-0.000297	6884.140986	42670.865744	3900.953585	22822.357805
7.036000	-0.001008	-0.000299	0.001034	-0.000312	6891.090235	42681.241600	3909.071513	22823.059558
7.536500	-0.000881	0.001136	-0.000464	0.000963	6880.023038	42695.916711	3901.181684	22764.037183
8.036500	-0.000516	0.000384	-0.001439	0.000752	6885.569236	42646.168246	3899.014109	22773.773170
8.536500	0.000617	0.000355	0.000484	0.000509	6898.854527	42665.874290	3905.162059	22785.025189
9.037000	0.000248	0.000077	0.000987	0.000634	6894.074703	42628.729284	3906.236680	22779.220108
9.536500	-0.001087	0.000000	-0.003073	0.000000	6887.314639	42679.982283	3896.522416	22808.588186
10.037500	-0.003340	-0.000302	-0.000643	-0.000557	6870.985491	42703.469628	3904.987907	22834.404764
10.538000	0.000000	0.000271	0.000000	0.000319	6894.727834	42675.545496	3904.326589	22793.811681
11.038000	0.001059	-0.000196	0.000845	-0.000170	6909.709168	42677.575784	3908.124084	22816.465372
11.536500	-0.000125	-0.000062	-0.001916	-0.000069	6897.272072	42680.625317	3899.990233	22811.785428
12.036000	-0.000417	0.000583	0.002722	-0.000054	6894.307763	42738.630653	3913.159386	22811.096430
12.536000	0.001027	-0.000554	-0.001347	-0.000827	6915.783344	42705.110210	3903.754523	22846.955730
13.039500	-0.000915	-0.001168	-0.002906	-0.000582	6894.589045	42626.110198	3898.637919	22835.555472
13.537000	0.001955	0.000272	-0.001703	0.001163	6905.476247	42598.144537	3897.106565	22754.784955
14.036500	-0.002943	-0.000610	-0.005524	0.002525	6845.265971	42392.522063	3882.541444	22691.910968
14.537000	-0.002033	-0.000279	0.001731	0.002467	6854.525362	42428.127782	3903.142040	22694.605081
15.034500	-0.001606	-0.000305	-0.005331	0.001163	6871.126503	42545.165134	3886.893722	22754.792173
15.538000	-0.001059	0.000013	-0.001345	0.000738	6880.471074	42613.386217	3899.320721	22774.433169
16.035500	-0.000954	0.000288	-0.002821	0.000923	6879.696300	42621.572739	3894.625098	22765.848638
16.535500	-0.001466	-0.000459	-0.001654	0.002049	6863.960894	42449.862044	3894.740120	22713.851357
17.036000	-0.000393	-0.000080	-0.003578	0.000228	6891.811747	42651.739014	3894.454165	22798.048055
17.536500	-0.001783	-0.000357	-0.000575	0.001507	6866.118314	42508.905852	3899.326504	22738.899887
18.036500	-0.003108	-0.000392	0.003950	0.001532	6853.179525	42503.352443	3912.132706	22737.705957
18.537000	-0.002615	-0.000414	-0.001055	0.001309	6860.039691	42521.787506	3898.524997	22748.031311
19.037000	-0.000380	-0.000110	-0.005929	0.002324	6871.743170	42456.628390	3881.971789	22701.168190
19.537500	-0.000239	-0.000153	-0.005040	0.001895	6877.228299	42491.971441	3885.657946	22720.970057
20.038000	-0.001267	-0.000261	0.002247	0.001765	6868.595654	42494.042379	3906.605726	22726.972977
20.535500	-0.000792	-0.000386	0.000159	0.001733	6873.471231	42485.514162	3900.763648	22728.462482
21.035500	-0.001727	-0.000436	-0.000965	0.001848	6863.383013	42470.379160	3897.254053	22723.120493
21.536000	-0.003012	-0.000377	-0.003259	0.001293	6856.385442	42526.565458	3892.347819	22748.752975
22.036000	-0.000802	0.000534	-0.002485	0.002507	6865.930019	42498.846845	3891.110769	22692.744982
22.536000	-0.000608	-0.000099	-0.001917	0.002059	6872.096885	42481.920435	3893.970613	22713.387332
23.036500	-0.002208	0.000528	-0.005105	0.002452	6852.985548	42503.348085	3883.916893	22695.271213
23.537000	-0.004322	0.000462	0.000234	0.001967	6837.441056	42541.755887	3900.314730	22717.663742
24.037500	-0.002063	0.000614	0.003026	0.002138	6857.390410	42539.991433	3907.763748	22709.777627
24.534500	-0.002293	-0.000667	0.000588	0.001578	6860.544349	42473.921672	3902.419871	22735.596734
25.035000	-0.001343	0.000500	-0.000466	0.002481	6860.989075	42498.111195	3896.875384	22693.940569
25.535500	-0.001961	0.000336	0.001071	0.001806	6861.540670	42544.909737	3903.143400	22725.058162
26.035500	-0.002636	0.000210	-0.001987	0.002290	6850.449017	42489.093900	3893.125072	22702.774163
26.536000	-0.001152	0.000297	-0.003185	0.002201	6865.512764	42505.219034	3890.003613	22706.856347
27.036500	-0.001774	0.000692	0.001068	0.002595	6855.770850	42505.288358	3900.896934	22688.692462
27.539000	-0.000147	0.000708	-0.002585	0.000079	6895.624004	42737.899105	3897.677426	22804.928790
28.036500	-0.000220	-0.000767	-0.002255	0.000115	6894.573926	42598.899211	3898.508764	22803.275678
28.537000	-0.000703	-0.000204	-0.003426	0.001472	6876.826064	42526.007404	3891.376136	22740.484292
29.037500	-0.001825	-0.000293	-0.004714	0.000435	6876.015371	42613.087259	3890.670113	22788.464369
29.537500	-0.001711	0.000191	0.000255	0.001263	6869.151153	42581.430458	3902.367575	22750.140352
30.035500	-0.000596	-0.000102	0.002157	0.001152	6880.945395	42564.788798	3908.097644	22755.294011
30.535500	-0.000201	0.000816	0.000613	0.002526	6871.521968	42522.969937	3899.803378	22691.890033
31.035000	-0.000584	0.000095	-0.000948	0.003867	6854.994693	42334.481187	3891.610846	22630.211657
31.536000	0.000105	0.000398	-0.000410	0.001341	6885.878434	42593.294533	3900.261987	22746.555766
32.036000	-0.002597	0.000014	-0.001834	0.001274	6860.549833	42564.202874	3896.423540	22749.646128
32.536500	-0.000612	0.000371	0.000386	0.001900	6873.590601	42539.556371	3900.933066	22720.744060
33.037000	-0.000040	0.000075	-0.000257	0.001541	6882.550133	42545.281334	3900.126825	22737.293732
33.537000	0.001177	0.000352	-0.001580	-0.000903	6917.972534	42795.614968	3903.309513	22850.460120
34.034500	-0.000897	0.000661	0.002306	0.003716	6853.433583	42399.846829	3901.226767	22637.122171
34.535000	-0.001334	0.000177	-0.000198	0.003250	6853.712692	42398.235654	3895.463046	22658.549715
35.035500	-0.001570	-0.000279	-0.000335	0.002772	6856.030986	42400.157690	3896.423988	22680.530080
35.536000	-0.000792	0.000027	-0.002614	0.002775	6863.460683	42427.952201	3889.994438	22680.405731
36.036000	-0.000033	-0.000364	0.001010	0.002328	6875.038121	42433.070457	3901.488451	22700.993992
36.536500	-0.000067	0.000233	-0.003061	0.003350	6864.897333	42394.221386	3887.126108	22653.941756
37.036500	-0.001843	-0.000095	-0.001327	0.002550	6855.550835	42437.324082	3894.252884	22690.781951
37.537000	-0.000270	0.000439	-0.003655	0.003126	6865.103959	42433.520020	3886.090476	22664.273517
38.040000	-0.000407	-0.000297	-0.002855	0.002434	6870.428461	42429.471475	3890.276417	22696.105922
38.537500	-0.003239	0.000329	-0.002000	0.003137	6836.614798	42422.523671	3890.705866	22663.775024
39.034500	-0.000137	0.000609	-0.000420	0.002976	6867.814259	42462.793247	3895.607453	22671.159935
39.535000	-0.002573	0.000533	-0.001914	0.003458	6839.902634	42411.820164	3890.044410	22649.014788
40.035000	0.000475	-0.000035	-0.001130	0.002735	6876.018928	42425.890364	3894.286847	22682.257253
40.536000	-0.001539	-0.000347	0.001262	0.002493	6859.005226	42419.560893	3901.737362	22693.405042
41.039000	-0.001056	0.000152	-0.001435	0.002894	6859.783014	42428.441774	3892.977963	22674.918360
41.536500	-0.001812	0.000433	-0.001252	0.002736	6854.062059	42468.618295	3893.937321	22682.201422
42.036500	-0.004029	-0.000479	-0.004840	0.002219	6837.826985	42432.503137	3885.312259	22706.029399
42.536500	-0.001632	0.000385	0.001264	0.003168	6851.645887	42424.709709	3899.828389	22662.316022
43.037500	-0.001448	0.000539	-0.002660	0.003106	6854.005388	42444.523822	3888.936428	22665.188238
43.537500	-0.001589	0.000181	0.001641	0.003251	6851.276509	42398.559003	3900.663635	22658.533202
44.035000	0.000715	0.000905	0.004524	-0.000591	6910.464722	42817.881815	3919.875046	22836.013387
44.535500	-0.000175	0.000379	-0.000944	0.001634	6880.358769	42564.748807	3897.921242	22733.037653
45.035500	0.000846	0.000460	-0.002777	0.003541	6871.828449	42397.483049	3887.386518	22645.175687
45.535500	-0.001341	-0.000280	-0.002590	0.001265	6872.692405	42538.093751	3894.315250	22750.074629
46.036000	-0.000144	0.000247	-0.001349	0.001531	6881.652134	42562.030038	3897.067800	22737.787352
46.536500	-0.001085	0.000179	0.000493	0.001431	6873.555966	42564.939586	3902.569837	22742.404461
47.039000	-0.001118	0.000472	-0.003155	0.004250	6846.221234	42333.882830	3884.343863	22612.622343
47.537000	-0.000753	0.000919	-0.001668	0.003412	6857.724213	42451.193121	3890.861703	22651.093027
48.037500	-0.001377	0.000209	-0.000606	0.002520	6860.296665	42467.927800	3896.372071	22692.152126
48.534500	0.001280	0.001350	0.002069	0.002386	6887.127430	42584.763734	3904.331770	22698.322081
49.035500	-0.001518	0.000126	-0.001661	0.003142	6852.992465	42403.480144	3891.643827	22663.524388
49.535500	-0.000030	0.000136	0.002053	-0.000510	6902.454377	42739.438466	3912.547816	22832.216911
50.038500	-0.000523	0.000390	0.000032	0.001695	6876.418593	42560.079072	3900.510674	22730.187542
50.536000	0.003552	0.001132	-0.000075	0.007114	6863.514687	42133.441345	3884.947413	22481.657033
51.036500	-0.043061	-0.015499	0.060875	0.279337	4697.257976	22987.502434	3416.753723	13262.128038
51.536500	-0.053760	-0.017126	0.000091	0.015180	6281.398880	39815.403446	3863.037176	22117.354581
52.037000	-0.044522	-0.027615	-0.028482	-0.174864	8367.745472	58808.182632	4400.529542	32785.231127
52.540000	-0.018818	-0.033695	-0.015171	-0.205056	9146.451531	62010.131892	4582.906884	34952.215520
53.037500	-0.021755	-0.019149	-0.013873	-0.149796	8337.782211	56704.474336	4359.340813	31096.989037
53.535000	-0.026426	-0.017430	-0.013762	-0.133086	8066.874285	54872.989945	4295.976772	30024.587553
54.035000	-0.009301	-0.015101	-0.013630	-0.141766	8395.517716	56211.772085	4329.313853	30576.485584
54.536000	0.008507	-0.008846	-0.011054	-0.140891	8622.041141	56878.527626	4335.824102	30520.349057
55.038500	0.006649	-0.005001	-0.003276	-0.102097	8092.703640	52691.089999	4220.971179	28141.704642
55.536000	0.015072	-0.001278	0.003205	-0.068964	7794.363154	49419.202957	4128.626930	26271.842580
56.036500	0.011303	0.000165	0.006386	-0.041094	7436.307908	46662.385685	4047.990369	24805.728215
56.537000	0.019825	0.002556	0.014937	-0.030464	7413.363661	45836.667418	4041.409269	24270.881443
57.040000	0.023442	0.004990	0.020733	-0.008827	7221.725667	43971.707975	3992.268811	23221.770008
57.537500	0.027388	0.009113	0.031210	0.026565	6905.774032	41106.029490	3918.520185	21614.538387
58.037500	0.031447	0.010861	0.039474	0.049688	6725.078133	39262.591320	3876.509206	20633.037341
58.535500	0.043531	0.014444	0.049360	0.065446	6691.163677	38252.479651	3860.302200	19993.511223
59.036000	0.049729	0.017825	0.057686	0.080183	6613.424913	37335.409208	3842.851535	19416.020472
59.536000	0.056447	0.021588	0.066264	0.097986	6514.754110	36234.300626	3818.191966	18744.042346
60.036000	0.061783	0.025940	0.073879	0.114194	6420.408176	35331.734291	3795.689231	18155.759362
60.536500	0.077605	0.033562	0.087143	0.128855	6430.360471	34807.420630	3792.070019	17642.193162
61.039500	0.084861	0.038596	0.102919	0.147298	6335.453901	33831.902373	3785.197714	17020.303856
61.540000	0.100541	0.044581	0.114263	0.162969	6335.533152	33145.672090	3774.136025	16512.248972
62.037500	0.110267	0.052834	0.123950	0.173408	6329.569453	32992.955154	3772.227431	16183.866456
62.534500	0.121549	0.058329	0.139947	0.195622	6239.299371	31849.740233	3756.552745	15510.752881
63.034500	0.135303	0.066183	0.155078	0.221816	6139.313661	30645.268018	3729.212080	14760.045151
63.535000	0.147089	0.072769	0.165337	0.235890	6121.231798	30167.958968	3719.945529	14375.013837
64.038000	0.150571	0.076999	0.174627	0.242158	6099.347164	30039.450415	3727.279214	14207.506460
64.536000	0.162499	0.084716	0.181904	0.238301	6225.233081	30777.226596	3754.747537	14310.289472
65.036000	0.172761	0.090715	0.194123	0.243895	6263.346267	30803.381184	3771.429074	14161.495043
65.536500	0.178364	0.094517	0.197734	0.237997	6359.013432	31437.658342	3795.822139	14318.417677
66.037000	0.187218	0.100545	0.199868	0.252749	6309.636156	30866.594791	3763.567648	13929.891414
66.537000	0.189586	0.104033	0.213070	0.258489	6281.706250	30721.038063	3782.528633	13782.248265
67.037500	0.194919	0.106253	0.209422	0.264115	6279.286866	30502.271306	3759.013195	13639.419636
67.537500	0.201471	0.108063	0.216547	0.267375	6306.542792	30409.726208	3768.754209	13557.510599
68.039500	0.203359	0.111240	0.221238	0.273658	6270.212263	30212.392759	3764.731454	13401.346718
68.535500	0.208919	0.113299	0.225841	0.278814	6273.530535	30016.995280	3763.337673	13274.860146
69.035500	0.213229	0.115172	0.225539	0.283088	6273.826096	29866.541837	3751.874094	13171.160519
69.536000	0.215477	0.119567	0.226592	0.288135	6250.855415	29825.823594	3741.965160	13049.998369
70.036500	0.219814	0.119501	0.227464	0.294721	6232.511094	29413.809416	3727.946317	12894.006158
70.536500	0.225962	0.124694	0.238603	0.294953	6280.986221	29720.535856	3754.867000	12888.565025
71.037000	0.225544	0.125682	0.241835	0.297433	6257.154004	29627.849839	3756.745470	12830.447748
71.537500	0.233736	0.128898	0.242355	0.300510	6299.312458	29636.522142	3750.363104	12758.822432
72.037500	0.232050	0.127462	0.244049	0.305884	6241.259108	29217.762054	3741.245538	12634.951825
72.538000	0.240419	0.131483	0.250161	0.305687	6311.824654	29476.350618	3756.927282	12639.449176
73.034500	0.241884	0.132862	0.255753	0.307817	6306.299801	29430.136627	3765.629066	12590.753063
73.535500	0.243317	0.133255	0.252382	0.309920	6300.732704	29325.192141	3751.900087	12542.902664
74.036000	0.244841	0.136060	0.257059	0.319010	6238.521731	28942.946383	3740.958533	12338.723213
74.536000	0.250811	0.137769	0.265450	0.317832	6297.270258	29117.833943	3764.829435	12364.946541
75.036500	0.253799	0.139450	0.264650	0.321125	6294.746573	29020.015663	3754.552798	12291.816864
75.539500	0.257519	0.141260	0.266296	0.325463	6289.630131	28867.400663	3747.848413	12196.329524
76.037000	0.256653	0.142838	0.271275	0.335053	6204.193727	28389.432483	3736.458767	11988.604890
76.537000	0.258988	0.142523	0.271510	0.331636	6250.939558	28573.425650	3745.468437	12062.091924
77.037500	0.262510	0.145028	0.273177	0.336932	6236.459719	28407.831089	3736.517673	11948.443311
77.535000	0.265045	0.146571	0.279815	0.341305	6221.518208	28241.039577	3742.097309	11855.644302
78.035500	0.264905	0.147097	0.277814	0.351052	6142.214628	27704.849446	3713.471362	11652.108038
78.535500	0.269975	0.148222	0.283148	0.348760	6201.089295	27902.196756	3731.963736	11699.547593
79.036000	0.273087	0.150482	0.286738	0.353920	6184.611675	27734.619496	3728.131675	11593.086656
79.536000	0.273403	0.151526	0.289400	0.357622	6157.538413	27582.045439	3725.599478	11517.480592
80.039500	0.275785	0.153113	0.292391	0.367156	6101.037279	27131.244812	3709.807514	11325.688646
80.537000	0.278569	0.153559	0.291479	0.365607	6135.162659	27243.639602	3711.334134	11356.570441
81.037000	0.279708	0.154845	0.293877	0.368836	6118.649564	27134.126584	3709.342518	11292.318281
81.537000	0.284900	0.155563	0.295537	0.372479	6130.877414	26970.305430	3704.606236	11220.435355
82.037000	0.279614	0.156295	0.300226	0.381632	6018.634949	26504.595718	3694.020508	11042.418291
82.534500	0.287533	0.158734	0.303584	0.380930	6085.203550	26677.271458	3703.644089	11055.949250
83.035500	0.287384	0.158015	0.303826	0.383788	6061.828510	26480.711434	3697.432277	11001.026504
83.535500	0.289623	0.160302	0.308406	0.387172	6052.981284	26420.842309	3700.268452	10936.493960
84.036000	0.290284	0.161662	0.310287	0.396752	5984.790703	25976.451171	3682.156623	10756.469496
84.537000	0.294985	0.162774	0.310438	0.395357	6031.234895	26111.072908	3685.765162	10782.422850
85.036500	0.295381	0.163570	0.317881	0.398637	6009.179160	25977.662496	3695.553291	10721.495473
85.536500	0.296741	0.163976	0.317844	0.401270	5999.487791	25858.704793	3689.266495	10672.920493
86.037000	0.295981	0.165877	0.318938	0.411020	5920.563520	25444.335990	3669.143891	10495.602952
86.537500	0.300899	0.166826	0.321603	0.408803	5973.934036	25610.552638	3680.442476	10535.565998
87.037500	0.302583	0.167518	0.321605	0.411029	5969.848945	25529.877290	3675.280565	10495.437750
87.535500	0.303314	0.168972	0.328655	0.415125	5944.604240	25391.563351	3682.145502	10422.123318
88.035500	0.299984	0.167644	0.325055	0.422271	5867.233816	24953.479637	3657.397128	10295.855099
88.536000	0.306892	0.171330	0.320178	0.421820	5921.380242	25166.293758	3647.378508	10303.755145
89.036000	0.307311	0.169670	0.329005	0.422295	5920.967385	25056.215800	3666.366535	10295.425940
89.536500	0.307648	0.172284	0.327819	0.425912	5896.722904	25004.690906	3655.403343	10232.315126
90.037000	0.309758	0.172858	0.336456	0.429285	5887.434165	24861.553128	3667.425302	10173.920839
90.534500	0.311148	0.173603	0.336356	0.431441	5881.815930	24789.733905	3662.255508	10136.832177
91.037500	0.311569	0.175186	0.338432	0.435081	5858.308525	24685.424159	3658.686336	10074.640688
91.537000	0.312604	0.174045	0.337495	0.436342	5856.665496	24564.301585	3653.692570	10053.213686
92.035000	0.311536	0.175449	0.335718	0.444567	5789.791304	24223.858337	3631.285630	9914.970339
92.535500	0.314614	0.175948	0.339382	0.441560	5833.417584	24398.191011	3646.173079	9965.211637
93.036000	0.316176	0.178600	0.340385	0.445761	5814.422999	24320.985463	3639.006556	9895.125549
93.535500	0.319152	0.178305	0.342916	0.446633	5829.554090	24263.049561	3642.717277	9880.664288
94.039000	0.317121	0.177675	0.342707	0.453693	5764.696208	23884.944251	3626.564753	9764.635544
94.536500	0.321185	0.179950	0.347103	0.451638	5808.202228	24097.033232	3640.886524	9798.214126
95.037000	0.322209	0.180808	0.339810	0.453836	5799.808522	24031.157087	3619.890132	9762.304867
95.537000	0.321703	0.179299	0.345483	0.454899	5788.626253	23905.333722	3630.030987	9745.006280
96.034500	0.322801	0.181208	0.349724	0.457805	5775.789690	23856.764703	3632.988433	9697.926427
96.535000	0.324471	0.181822	0.344465	0.460062	5771.628906	23776.927673	3616.457241	9661.564875
97.035000	0.324849	0.183376	0.352303	0.463223	5751.997248	23699.181137	3626.711036	9610.972025
