sample name	sample
index	758
start time	 03-31-2021  12:15:53 PM


Wavelength (nm)	Absorbance
494.344910	0.266750
494.563924	0.266750
494.782919	0.266750
495.001897	-0.106455
495.220856	0.075299
495.439797	0.036568
495.658719	0.026126
495.877624	-0.003145
496.096510	0.016380
496.315378	0.031264
496.534227	0.008257
496.753059	0.010601
496.971872	-0.020723
497.190667	0.020722
497.409444	0.035081
497.628203	0.036134
497.846943	0.038199
498.065665	0.037682
498.284369	0.037971
498.503055	0.038145
498.721723	0.037727
498.940372	0.038667
499.159003	0.039541
499.377616	0.039979
499.596210	0.040633
499.814787	0.040068
500.033345	0.041520
500.251885	0.042285
500.470406	0.043040
500.688910	0.044294
500.907395	0.044184
501.125862	0.043317
501.344311	0.042566
501.562742	0.042354
501.781154	0.042161
501.999548	0.041340
502.217924	0.041132
502.436282	0.040666
502.654621	0.040541
502.872942	0.040533
503.091245	0.041553
503.309530	0.041049
503.527797	0.041162
503.746045	0.041695
503.964275	0.042181
504.182487	0.041130
504.400681	0.042415
504.618856	0.042293
504.837013	0.042658
505.055152	0.042456
505.273273	0.042974
505.491376	0.042467
505.709460	0.043427
505.927526	0.044242
506.145574	0.045231
506.363604	0.044981
506.581615	0.045497
506.799608	0.045638
507.017583	0.046388
507.235540	0.045920
507.453478	0.046159
507.671399	0.045145
507.889301	0.043833
508.107185	0.044023
508.325050	0.043972
508.542898	0.043689
508.760727	0.043413
508.978538	0.042099
509.196330	0.043056
509.414105	0.043392
509.631861	0.044197
509.849599	0.043566
510.067319	0.043160
510.285021	0.042668
510.502704	0.042768
510.720369	0.043497
510.938016	0.043856
511.155645	0.044014
511.373255	0.044094
511.590848	0.043298
511.808422	0.044445
512.025977	0.044418
512.243515	0.044371
512.461034	0.044534
512.678536	0.043769
512.896018	0.044269
513.113483	0.044702
513.330930	0.044517
513.548358	0.044292
513.765768	0.043894
513.983160	0.044210
514.200533	0.044430
514.417889	0.043885
514.635226	0.044247
514.852545	0.045000
515.069845	0.044244
515.287128	0.043829
515.504392	0.044762
515.721638	0.045051
515.938866	0.045183
516.156075	0.045075
516.373267	0.045576
516.590440	0.045518
516.807594	0.044988
517.024731	0.045048
517.241850	0.045434
517.458950	0.044888
517.676032	0.045087
517.893095	0.044755
518.110141	0.044755
518.327168	0.044349
518.544177	0.044080
518.761168	0.043763
518.978141	0.044412
519.195095	0.045047
519.412031	0.046161
519.628949	0.046387
519.845849	0.046459
520.062731	0.046866
520.279594	0.047662
520.496439	0.048654
520.713266	0.048822
520.930074	0.048308
521.146865	0.048292
521.363637	0.048189
521.580391	0.047864
521.797127	0.048850
522.013844	0.048201
522.230543	0.048363
522.447224	0.047763
522.663887	0.047891
522.880532	0.047932
523.097158	0.047968
523.313766	0.048135
523.530356	0.048311
523.746928	0.048003
523.963481	0.048913
524.180017	0.048820
524.396534	0.048893
524.613032	0.048979
524.829513	0.049038
525.045975	0.048992
525.262420	0.048917
525.478845	0.049082
525.695253	0.049644
525.911643	0.049559
526.128014	0.049599
526.344367	0.050028
526.560702	0.050102
526.777018	0.050656
526.993316	0.050863
527.209597	0.050651
527.425858	0.050598
527.642102	0.050327
527.858328	0.050804
528.074535	0.050937
528.290724	0.051154
528.506894	0.051011
528.723047	0.051303
528.939181	0.051107
529.155297	0.051123
529.371395	0.051771
529.587475	0.052169
529.803536	0.052234
530.019579	0.052034
530.235604	0.051965
530.451611	0.052390
530.667600	0.051990
530.883570	0.052634
531.099522	0.053200
531.315456	0.052937
531.531372	0.052821
531.747269	0.052394
531.963148	0.052502
532.179009	0.053209
532.394852	0.053697
532.610676	0.054363
532.826482	0.053947
533.042271	0.053599
533.258040	0.054192
533.473792	0.054125
533.689525	0.054501
533.905240	0.054688
534.120937	0.054381
534.336616	0.054175
534.552277	0.054086
534.767919	0.054799
534.983543	0.055400
535.199149	0.055302
535.414736	0.055527
535.630306	0.055760
535.845857	0.055955
536.061390	0.056136
536.276904	0.056370
536.492401	0.056445
536.707879	0.056413
536.923339	0.056587
537.138781	0.056562
537.354204	0.056825
537.569610	0.057271
537.784997	0.057522
538.000366	0.057822
538.215716	0.057745
538.431049	0.058122
538.646363	0.058092
538.861659	0.057704
539.076937	0.058148
539.292196	0.058106
539.507438	0.057906
539.722661	0.058177
539.937866	0.057909
540.153052	0.057994
540.368221	0.057953
540.583371	0.058306
540.798503	0.058700
541.013617	0.058647
541.228712	0.059298
541.443789	0.059513
541.658848	0.059647
541.873889	0.060127
542.088912	0.060692
542.303916	0.060895
542.518902	0.060979
542.733870	0.061445
542.948820	0.061815
543.163752	0.061543
543.378665	0.061537
543.593560	0.061698
543.808437	0.061799
544.023295	0.061806
544.238136	0.062233
544.452958	0.062630
544.667762	0.062584
544.882548	0.062644
545.097315	0.062946
545.312064	0.063073
545.526795	0.063008
545.741508	0.063316
545.956203	0.063495
546.170879	0.063360
546.385537	0.062959
546.600177	0.063236
546.814799	0.063099
547.029402	0.063228
547.243988	0.063251
547.458555	0.063507
547.673103	0.062847
547.887634	0.063047
548.102146	0.063590
548.316640	0.064043
548.531116	0.064097
548.745574	0.064612
548.960013	0.064485
549.174435	0.065190
549.388838	0.065162
549.603222	0.066055
549.817589	0.066379
550.031937	0.066274
550.246267	0.066331
550.460579	0.066332
550.674873	0.066170
550.889148	0.066525
551.103405	0.066653
551.317644	0.067201
551.531865	0.067088
551.746068	0.067138
551.960252	0.067241
552.174418	0.067184
552.388566	0.067479
552.602696	0.067591
552.816807	0.067251
553.030900	0.067120
553.244975	0.067179
553.459032	0.067299
553.673070	0.067511
553.887091	0.067556
554.101093	0.068095
554.315077	0.067846
554.529042	0.068165
554.742990	0.068683
554.956919	0.068995
555.170830	0.068601
555.384722	0.068906
555.598597	0.068809
555.812453	0.069019
556.026291	0.068640
556.240111	0.069020
556.453913	0.068790
556.667696	0.068930
556.881461	0.068829
557.095208	0.069313
557.308937	0.069265
557.522647	0.069443
557.736339	0.069452
557.950013	0.070064
558.163669	0.070114
558.377307	0.070557
558.590926	0.071018
558.804527	0.070825
559.018110	0.070756
559.231675	0.071340
559.445221	0.071264
559.658749	0.071456
559.872259	0.071443
560.085751	0.071991
560.299225	0.072022
560.512680	0.072046
560.726117	0.072817
560.939536	0.072975
561.152937	0.072527
561.366319	0.072569
561.579683	0.072358
561.793029	0.072361
562.006357	0.072242
562.219667	0.072133
562.432958	0.072062
562.646231	0.071998
562.859486	0.071970
563.072723	0.072146
563.285941	0.072679
563.499141	0.072935
563.712323	0.073206
563.925487	0.073391
564.138632	0.073602
564.351760	0.073571
564.564869	0.073597
564.777960	0.074279
564.991032	0.074209
565.204087	0.074240
565.417123	0.074568
565.630141	0.074662
565.843140	0.074399
566.056122	0.074899
566.269085	0.074998
566.482030	0.075082
566.694957	0.074774
566.907866	0.075498
567.120756	0.075443
567.333628	0.074952
567.546482	0.074974
567.759318	0.075142
567.972135	0.074595
568.184935	0.075007
568.397716	0.075094
568.610478	0.075509
568.823223	0.075385
569.035949	0.075318
569.248657	0.075908
569.461347	0.076264
569.674019	0.076353
569.886672	0.076996
570.099308	0.077049
570.311925	0.077150
570.524523	0.077158
570.737104	0.077047
570.949666	0.076994
571.162210	0.077375
571.374736	0.077297
571.587244	0.077776
571.799733	0.077788
572.012205	0.077769
572.224658	0.078090
572.437092	0.077754
572.649509	0.078036
572.861907	0.078325
573.074287	0.078085
573.286649	0.077955
573.498993	0.077815
573.711318	0.078076
573.923625	0.077954
574.135914	0.078232
574.348185	0.078829
574.560438	0.078796
574.772672	0.079022
574.984888	0.079031
575.197086	0.079201
575.409266	0.079489
575.621427	0.079412
575.833570	0.079946
576.045695	0.079703
576.257802	0.079593
576.469890	0.079753
576.681961	0.079929
576.894013	0.080100
577.106046	0.080398
577.318062	0.080432
577.530059	0.080628
577.742039	0.080521
577.954000	0.080499
578.165942	0.080972
578.377867	0.081282
578.589773	0.081404
578.801661	0.081728
579.013531	0.081669
579.225382	0.081605
579.437216	0.081491
579.649031	0.081797
579.860828	0.082103
580.072606	0.081926
580.284367	0.081776
580.496109	0.081966
580.707833	0.081990
580.919539	0.081810
581.131227	0.081864
581.342896	0.081973
581.554547	0.082042
581.766180	0.082185
581.977795	0.082281
582.189391	0.082680
582.400969	0.083129
582.612529	0.083185
582.824071	0.083692
583.035595	0.084068
583.247100	0.084381
583.458587	0.084472
583.670056	0.084450
583.881506	0.084309
584.092939	0.083915
584.304353	0.083745
584.515749	0.083961
584.727127	0.084044
584.938486	0.084018
585.149828	0.084191
585.361151	0.084319
585.572456	0.084515
585.783742	0.084701
585.995011	0.084833
586.206261	0.084861
586.417493	0.084716
586.628706	0.084821
586.839902	0.085178
587.051079	0.085138
587.262238	0.084903
587.473379	0.084871
587.684502	0.085320
587.895606	0.085794
588.106692	0.086023
588.317760	0.086349
588.528810	0.086541
588.739841	0.086547
588.950855	0.086684
589.161850	0.087065
589.372827	0.087326
589.583785	0.087489
589.794726	0.087829
590.005648	0.088010
590.216552	0.088061
590.427437	0.087842
590.638305	0.087698
590.849154	0.087957
591.059985	0.088058
591.270798	0.088228
591.481592	0.088401
591.692369	0.088248
591.903127	0.088039
592.113867	0.088300
592.324588	0.088670
592.535292	0.088785
592.745977	0.088806
592.956644	0.089069
593.167293	0.088768
593.377923	0.088487
593.588536	0.088910
593.799130	0.089284
594.009706	0.089084
594.220263	0.088997
594.430803	0.089400
594.641324	0.089665
594.851827	0.089597
595.062312	0.089844
595.272778	0.090108
595.483227	0.089824
595.693657	0.089880
595.904069	0.090403
596.114462	0.090643
596.324838	0.090572
596.535195	0.090629
596.745534	0.090797
596.955855	0.090974
597.166157	0.091155
597.376441	0.091458
597.586707	0.091382
597.796955	0.091420
598.007185	0.091500
598.217396	0.091558
598.427589	0.091488
598.637764	0.091318
598.847921	0.091386
599.058060	0.091566
599.268180	0.091467
599.478282	0.091612
599.688366	0.091381
599.898431	0.091471
600.108479	0.091736
600.318508	0.091702
600.528519	0.092015
600.738511	0.092511
600.948486	0.092373
601.158442	0.092379
601.368380	0.092774
601.578300	0.093324
601.788202	0.093241
601.998085	0.093460
602.207950	0.093743
602.417797	0.093843
602.627626	0.093669
602.837436	0.093719
603.047228	0.094076
603.257002	0.093791
603.466758	0.093491
603.676496	0.093799
603.886215	0.093830
604.095916	0.093800
604.305599	0.093941
604.515264	0.093961
604.724910	0.094135
604.934538	0.094213
605.144148	0.094389
605.353740	0.094819
605.563314	0.095002
605.772869	0.094938
605.982406	0.095149
606.191925	0.095328
606.401425	0.095544
606.610908	0.095498
606.820372	0.095681
607.029818	0.095874
607.239246	0.095715
607.448655	0.095787
607.658047	0.096023
607.867420	0.095962
608.076775	0.095916
608.286111	0.095995
608.495430	0.096237
608.704730	0.096201
608.914012	0.096184
609.123275	0.096346
609.332521	0.096561
609.541748	0.096631
609.750957	0.096995
609.960148	0.096982
610.169321	0.097198
610.378475	0.097856
610.587611	0.098032
610.796729	0.098108
611.005829	0.098414
611.214910	0.098351
611.423974	0.098398
611.633019	0.098372
611.842045	0.098505
612.051054	0.098402
612.260044	0.098012
612.469017	0.098243
612.677970	0.098268
612.886906	0.098148
613.095824	0.098198
613.304723	0.098124
613.513604	0.098198
613.722467	0.098455
613.931311	0.098602
614.140138	0.098811
614.348946	0.098655
614.557736	0.098883
614.766507	0.099121
614.975261	0.099169
615.183996	0.099344
615.392713	0.099384
615.601412	0.099379
615.810092	0.099360
616.018754	0.099554
616.227399	0.099782
616.436024	0.100123
616.644632	0.099946
616.853222	0.100189
617.061793	0.100472
617.270346	0.100647
617.478880	0.100867
617.687397	0.101303
617.895895	0.101153
618.104375	0.101177
618.312837	0.100974
618.521281	0.101194
618.729706	0.101295
618.938113	0.101294
619.146502	0.101409
619.354873	0.101465
619.563226	0.101058
619.771560	0.101226
619.979876	0.101480
620.188174	0.101522
620.396453	0.101680
620.604715	0.101625
620.812958	0.101808
621.021183	0.101989
621.229390	0.101919
621.437578	0.102436
621.645748	0.102319
621.853900	0.102307
622.062034	0.102507
622.270150	0.102492
622.478247	0.102591
622.686326	0.102445
622.894387	0.102584
623.102430	0.103082
623.310454	0.102894
623.518461	0.103193
623.726449	0.103101
623.934418	0.103214
624.142370	0.103171
624.350303	0.103221
624.558218	0.103645
624.766115	0.103617
624.973994	0.103502
625.181855	0.103877
625.389697	0.103916
625.597521	0.104027
625.805327	0.104217
626.013114	0.104464
626.220883	0.104788
626.428634	0.104853
626.636367	0.104977
626.844082	0.105003
627.051778	0.104925
627.259457	0.105226
627.467117	0.105483
627.674758	0.105387
627.882382	0.105620
628.089987	0.105691
628.297574	0.105640
628.505143	0.105578
628.712694	0.105724
628.920226	0.105931
629.127740	0.106034
629.335236	0.105903
629.542714	0.106134
629.750174	0.106214
629.957615	0.106126
630.165038	0.106092
630.372443	0.106512
630.579829	0.106850
630.787198	0.106774
630.994548	0.106471
631.201880	0.106687
631.409194	0.106946
631.616489	0.107063
631.823766	0.107511
632.031025	0.107682
632.238266	0.107524
632.445489	0.107329
632.652693	0.107518
632.859879	0.107899
633.067047	0.108041
633.274197	0.107868
633.481329	0.107804
633.688442	0.107734
633.895537	0.107894
634.102614	0.108064
634.309672	0.108345
634.516713	0.108477
634.723735	0.108543
634.930739	0.108470
635.137724	0.108776
635.344692	0.108952
635.551641	0.109047
635.758572	0.109229
635.965485	0.109328
636.172379	0.109198
636.379256	0.109168
636.586114	0.109391
636.792954	0.109534
636.999775	0.109567
637.206579	0.109956
637.413364	0.110018
637.620131	0.110067
637.826880	0.110525
638.033610	0.110771
638.240323	0.111036
638.447017	0.111175
638.653692	0.111383
638.860350	0.111518
639.066990	0.111440
639.273611	0.111570
639.480214	0.111675
639.686798	0.111270
639.893365	0.111418
640.099913	0.111412
640.306443	0.111364
640.512955	0.111496
640.719449	0.111523
640.925924	0.111674
641.132381	0.111883
641.338820	0.111890
641.545241	0.112212
641.751644	0.112190
641.958028	0.112337
642.164394	0.112400
642.370742	0.112543
642.577071	0.112508
642.783383	0.112396
642.989676	0.112577
643.195951	0.112762
643.402207	0.112856
643.608446	0.112997
643.814666	0.113299
644.020868	0.113643
644.227052	0.113799
644.433218	0.113957
644.639365	0.114248
644.845494	0.114401
645.051605	0.114685
645.257698	0.114801
645.463772	0.114983
645.669828	0.114847
645.875866	0.114933
646.081886	0.114751
646.287888	0.115021
646.493871	0.115114
646.699836	0.115111
646.905783	0.115161
647.111712	0.115212
647.317622	0.115375
647.523514	0.115524
647.729388	0.115461
647.935244	0.115721
648.141082	0.115772
648.346901	0.115881
648.552702	0.116036
648.758485	0.116187
648.964250	0.116448
649.169996	0.116391
649.375724	0.116631
649.581434	0.116747
649.787126	0.116971
649.992800	0.117075
650.198455	0.117242
650.404092	0.117282
650.609711	0.117256
650.815311	0.117413
651.020894	0.117505
651.226458	0.117592
651.432004	0.117659
651.637532	0.117809
651.843041	0.117931
652.048532	0.117975
652.254006	0.118047
652.459460	0.118329
652.664897	0.118323
652.870315	0.118694
653.075716	0.118580
653.281097	0.118992
653.486461	0.118973
653.691807	0.119116
653.897134	0.119150
654.102443	0.119237
654.307734	0.119061
654.513006	0.119207
654.718261	0.119307
654.923497	0.119531
655.128715	0.119253
655.333915	0.119329
655.539096	0.119348
655.744259	0.119540
655.949404	0.119589
656.154531	0.119657
656.359640	0.119651
656.564730	0.119792
656.769802	0.120048
656.974856	0.120302
657.179892	0.120756
657.384909	0.121143
657.589908	0.121031
657.794889	0.121367
657.999852	0.121633
658.204797	0.121836
658.409723	0.121787
658.614631	0.121836
658.819521	0.122086
659.024393	0.122149
659.229246	0.122097
659.434081	0.122353
659.638898	0.122459
659.843697	0.122611
660.048478	0.122717
660.253240	0.122802
660.457984	0.122950
660.662710	0.123073
660.867417	0.123076
661.072107	0.123100
661.276778	0.123218
661.481431	0.123230
661.686066	0.123291
661.890682	0.123213
662.095281	0.123343
662.299861	0.123621
662.504422	0.123567
662.708966	0.123580
662.913491	0.123983
663.117999	0.124197
663.322488	0.124355
663.526958	0.124719
663.731411	0.125000
663.935845	0.125039
664.140261	0.124917
664.344659	0.125131
664.549038	0.125422
664.753400	0.125222
664.957743	0.125240
665.162068	0.125408
665.366375	0.125341
665.570663	0.125641
665.774933	0.125725
665.979185	0.126068
666.183419	0.126224
666.387635	0.126211
666.591832	0.126380
666.796011	0.126662
667.000172	0.126812
667.204315	0.127026
667.408439	0.127165
667.612545	0.127446
667.816634	0.127707
668.020703	0.127840
668.224755	0.128072
668.428788	0.128206
668.632803	0.128215
668.836800	0.128118
669.040779	0.128245
669.244739	0.128137
669.448681	0.128230
669.652605	0.128046
669.856511	0.128039
670.060399	0.128111
670.264268	0.128342
670.468119	0.128563
670.671952	0.128864
670.875767	0.128998
671.079563	0.129304
671.283341	0.129584
671.487101	0.129924
671.690843	0.130088
671.894567	0.130244
672.098272	0.130416
672.301959	0.130587
672.505628	0.130686
672.709278	0.130780
672.912911	0.130958
673.116525	0.130892
673.320121	0.130940
673.523699	0.131257
673.727258	0.131312
673.930799	0.131546
674.134322	0.131729
674.337827	0.131876
674.541314	0.131931
674.744782	0.131908
674.948232	0.132284
675.151664	0.132339
675.355078	0.132444
675.558474	0.132488
675.761851	0.132410
675.965210	0.132501
676.168551	0.132423
676.371873	0.132510
676.575178	0.132635
676.778464	0.132646
676.981732	0.132743
677.184981	0.132682
677.388213	0.132875
677.591426	0.133070
677.794621	0.133045
677.997798	0.133249
678.200956	0.133251
678.404097	0.133297
678.607219	0.133284
678.810323	0.133348
679.013408	0.133339
679.216476	0.133491
679.419525	0.133577
679.622556	0.133743
679.825569	0.133943
680.028563	0.134245
680.231540	0.134407
680.434498	0.134527
680.637438	0.134841
680.840359	0.135279
681.043263	0.135233
681.246148	0.135369
681.449015	0.135495
681.651864	0.135771
681.854694	0.135775
682.057506	0.135690
682.260301	0.135955
682.463076	0.135997
682.665834	0.136085
682.868573	0.136391
683.071295	0.136361
683.273998	0.136555
683.476682	0.136583
683.679349	0.136895
683.881997	0.137301
684.084627	0.137369
684.287239	0.137528
684.489833	0.137633
684.692408	0.137891
684.894965	0.138215
685.097504	0.138390
685.300025	0.138624
685.502527	0.138601
685.705012	0.138613
685.907478	0.138587
686.109925	0.138565
686.312355	0.138553
686.514766	0.138639
686.717159	0.138792
686.919534	0.138740
687.121891	0.138807
687.324230	0.139034
687.526550	0.139375
687.728852	0.139600
687.931136	0.139729
688.133401	0.140046
688.335649	0.140256
688.537878	0.140298
688.740089	0.140498
688.942281	0.140520
689.144456	0.140635
689.346612	0.140664
689.548750	0.140886
689.750870	0.141185
689.952971	0.141142
690.155055	0.141048
690.357120	0.140980
690.559167	0.140863
690.761195	0.140888
690.963206	0.140871
691.165198	0.140950
691.367172	0.140853
691.569128	0.140668
691.771065	0.140989
691.972984	0.141241
692.174885	0.141560
692.376768	0.141803
692.578633	0.141845
692.780479	0.141996
692.982308	0.141998
693.184118	0.142105
693.385909	0.142351
