sample name	sample
index	501
start time	 03-11-2021  02:47:59 PM


Wavelength (nm)	Absorbance
494.344910	NaN
494.563924	NaN
494.782919	NaN
495.001897	-0.379900
495.220856	0.213997
495.439797	0.089190
495.658719	-0.013963
495.877624	-0.237586
496.096510	-0.293879
496.315378	-0.436543
496.534227	-0.505098
496.753059	-0.362075
496.971872	-0.157073
497.190667	0.014140
497.409444	0.030472
497.628203	0.035217
497.846943	0.039548
498.065665	0.040476
498.284369	0.041469
498.503055	0.041656
498.721723	0.042199
498.940372	0.041657
499.159003	0.044535
499.377616	0.045333
499.596210	0.044819
499.814787	0.043705
500.033345	0.043996
500.251885	0.043188
500.470406	0.043418
500.688910	0.043117
500.907395	0.044195
501.125862	0.042985
501.344311	0.042395
501.562742	0.042992
501.781154	0.043270
501.999548	0.043285
502.217924	0.044273
502.436282	0.044671
502.654621	0.045390
502.872942	0.045068
503.091245	0.044722
503.309530	0.044717
503.527797	0.045031
503.746045	0.044579
503.964275	0.044891
504.182487	0.044980
504.400681	0.044312
504.618856	0.044034
504.837013	0.043649
505.055152	0.043415
505.273273	0.043962
505.491376	0.043351
505.709460	0.044243
505.927526	0.044461
506.145574	0.043402
506.363604	0.043616
506.581615	0.043223
506.799608	0.043086
507.017583	0.042555
507.235540	0.041945
507.453478	0.042407
507.671399	0.042217
507.889301	0.041939
508.107185	0.042179
508.325050	0.042343
508.542898	0.042249
508.760727	0.042587
508.978538	0.043451
509.196330	0.043919
509.414105	0.043803
509.631861	0.043760
509.849599	0.043215
510.067319	0.043932
510.285021	0.044529
510.502704	0.044730
510.720369	0.044672
510.938016	0.043631
511.155645	0.042621
511.373255	0.042516
511.590848	0.041987
511.808422	0.042511
512.025977	0.042578
512.243515	0.041976
512.461034	0.042028
512.678536	0.042231
512.896018	0.043336
513.113483	0.044044
513.330930	0.044231
513.548358	0.044723
513.765768	0.044233
513.983160	0.043537
514.200533	0.043163
514.417889	0.042904
514.635226	0.042481
514.852545	0.041029
515.069845	0.041425
515.287128	0.041476
515.504392	0.041582
515.721638	0.041791
515.938866	0.042927
516.156075	0.043932
516.373267	0.044176
516.590440	0.045306
516.807594	0.046643
517.024731	0.046260
517.241850	0.046106
517.458950	0.046459
517.676032	0.046462
517.893095	0.045402
518.110141	0.045197
518.327168	0.045140
518.544177	0.044593
518.761168	0.045045
518.978141	0.045139
519.195095	0.045088
519.412031	0.045015
519.628949	0.045307
519.845849	0.045383
520.062731	0.046116
520.279594	0.046706
520.496439	0.046491
520.713266	0.046309
520.930074	0.045954
521.146865	0.046611
521.363637	0.046214
521.580391	0.046216
521.797127	0.046893
522.013844	0.045863
522.230543	0.045511
522.447224	0.046140
522.663887	0.045999
522.880532	0.046137
523.097158	0.045906
523.313766	0.046338
523.530356	0.046164
523.746928	0.046199
523.963481	0.046835
524.180017	0.047013
524.396534	0.047209
524.613032	0.047902
524.829513	0.048437
525.045975	0.048281
525.262420	0.048559
525.478845	0.048761
525.695253	0.049110
525.911643	0.048698
526.128014	0.048905
526.344367	0.048412
526.560702	0.048264
526.777018	0.048106
526.993316	0.048370
527.209597	0.048388
527.425858	0.048740
527.642102	0.048784
527.858328	0.049063
528.074535	0.049618
528.290724	0.050342
528.506894	0.050136
528.723047	0.050568
528.939181	0.050542
529.155297	0.050560
529.371395	0.050571
529.587475	0.051185
529.803536	0.051676
530.019579	0.051565
530.235604	0.051621
530.451611	0.051949
530.667600	0.052047
530.883570	0.052186
531.099522	0.052029
531.315456	0.052350
531.531372	0.052293
531.747269	0.052560
531.963148	0.053172
532.179009	0.052971
532.394852	0.052768
532.610676	0.053333
532.826482	0.053886
533.042271	0.053879
533.258040	0.053927
533.473792	0.053230
533.689525	0.052952
533.905240	0.052301
534.120937	0.052283
534.336616	0.052470
534.552277	0.052362
534.767919	0.052088
534.983543	0.052565
535.199149	0.052574
535.414736	0.053047
535.630306	0.053934
535.845857	0.054222
536.061390	0.054850
536.276904	0.055115
536.492401	0.054986
536.707879	0.055317
536.923339	0.055294
537.138781	0.055514
537.354204	0.055902
537.569610	0.055079
537.784997	0.054959
538.000366	0.054094
538.215716	0.054252
538.431049	0.054499
538.646363	0.054311
538.861659	0.054633
539.076937	0.054933
539.292196	0.054487
539.507438	0.054538
539.722661	0.055037
539.937866	0.055718
540.153052	0.055515
540.368221	0.055563
540.583371	0.055808
540.798503	0.055563
541.013617	0.055402
541.228712	0.056001
541.443789	0.056278
541.658848	0.056719
541.873889	0.056720
542.088912	0.056764
542.303916	0.056902
542.518902	0.056838
542.733870	0.057452
542.948820	0.058165
543.163752	0.057942
543.378665	0.058543
543.593560	0.058264
543.808437	0.058231
544.023295	0.058694
544.238136	0.058589
544.452958	0.058949
544.667762	0.058651
544.882548	0.058342
545.097315	0.058836
545.312064	0.058905
545.526795	0.059517
545.741508	0.060132
545.956203	0.060437
546.170879	0.061061
546.385537	0.061185
546.600177	0.061332
546.814799	0.061158
547.029402	0.060895
547.243988	0.060703
547.458555	0.060421
547.673103	0.059989
547.887634	0.059843
548.102146	0.059562
548.316640	0.059669
548.531116	0.059733
548.745574	0.060027
548.960013	0.059874
549.174435	0.059785
549.388838	0.059640
549.603222	0.060176
549.817589	0.060272
550.031937	0.060247
550.246267	0.060151
550.460579	0.060449
550.674873	0.060273
550.889148	0.060626
551.103405	0.061096
551.317644	0.061506
551.531865	0.061083
551.746068	0.061145
551.960252	0.061526
552.174418	0.061817
552.388566	0.062090
552.602696	0.062371
552.816807	0.062566
553.030900	0.062412
553.244975	0.062145
553.459032	0.062788
553.673070	0.062828
553.887091	0.063104
554.101093	0.063407
554.315077	0.063024
554.529042	0.063322
554.742990	0.063052
554.956919	0.063136
555.170830	0.063245
555.384722	0.063330
555.598597	0.063425
555.812453	0.063156
556.026291	0.062954
556.240111	0.063385
556.453913	0.063547
556.667696	0.063877
556.881461	0.063879
557.095208	0.064540
557.308937	0.064438
557.522647	0.064568
557.736339	0.064694
557.950013	0.064825
558.163669	0.064738
558.377307	0.064886
558.590926	0.065216
558.804527	0.065383
559.018110	0.065224
559.231675	0.065198
559.445221	0.065202
559.658749	0.065359
559.872259	0.065765
560.085751	0.066361
560.299225	0.066384
560.512680	0.066357
560.726117	0.066748
560.939536	0.066296
561.152937	0.066699
561.366319	0.067143
561.579683	0.067030
561.793029	0.067026
562.006357	0.066681
562.219667	0.066839
562.432958	0.067048
562.646231	0.067196
562.859486	0.067722
563.072723	0.067551
563.285941	0.067551
563.499141	0.068020
563.712323	0.067948
563.925487	0.068284
564.138632	0.068118
564.351760	0.068109
564.564869	0.068001
564.777960	0.068128
564.991032	0.068321
565.204087	0.068228
565.417123	0.068104
565.630141	0.068175
565.843140	0.067941
566.056122	0.067940
566.269085	0.067950
566.482030	0.067896
566.694957	0.067826
566.907866	0.068089
567.120756	0.068011
567.333628	0.068062
567.546482	0.067843
567.759318	0.067839
567.972135	0.068101
568.184935	0.068162
568.397716	0.068481
568.610478	0.068509
568.823223	0.068284
569.035949	0.068918
569.248657	0.068928
569.461347	0.068974
569.674019	0.069191
569.886672	0.069310
570.099308	0.069190
570.311925	0.069066
570.524523	0.069214
570.737104	0.069591
570.949666	0.069349
571.162210	0.069277
571.374736	0.069516
571.587244	0.069736
571.799733	0.069902
572.012205	0.069933
572.224658	0.069887
572.437092	0.069503
572.649509	0.069494
572.861907	0.069478
573.074287	0.069517
573.286649	0.069669
573.498993	0.069630
573.711318	0.069673
573.923625	0.069834
574.135914	0.069920
574.348185	0.070440
574.560438	0.070818
574.772672	0.070845
574.984888	0.071349
575.197086	0.071308
575.409266	0.071555
575.621427	0.071322
575.833570	0.071632
576.045695	0.071887
576.257802	0.071893
576.469890	0.071690
576.681961	0.071909
576.894013	0.071920
577.106046	0.072064
577.318062	0.072243
577.530059	0.072546
577.742039	0.072750
577.954000	0.072894
578.165942	0.073471
578.377867	0.073152
578.589773	0.073281
578.801661	0.073739
579.013531	0.073660
579.225382	0.073718
579.437216	0.074110
579.649031	0.074379
579.860828	0.074479
580.072606	0.074394
580.284367	0.074745
580.496109	0.074750
580.707833	0.074458
580.919539	0.074930
581.131227	0.074689
581.342896	0.074506
581.554547	0.074366
581.766180	0.074572
581.977795	0.074505
582.189391	0.074766
582.400969	0.075003
582.612529	0.075138
582.824071	0.075137
583.035595	0.075638
583.247100	0.075876
583.458587	0.075998
583.670056	0.076218
583.881506	0.076270
584.092939	0.076192
584.304353	0.076532
584.515749	0.076590
584.727127	0.076636
584.938486	0.076442
585.149828	0.076253
585.361151	0.076286
585.572456	0.076053
585.783742	0.076373
585.995011	0.076555
586.206261	0.076385
586.417493	0.076498
586.628706	0.076679
586.839902	0.077308
587.051079	0.077615
587.262238	0.077514
587.473379	0.077751
587.684502	0.077655
587.895606	0.077739
588.106692	0.077861
588.317760	0.077795
588.528810	0.077668
588.739841	0.077536
588.950855	0.077501
589.161850	0.077961
589.372827	0.077905
589.583785	0.078186
589.794726	0.078488
590.005648	0.078570
590.216552	0.078858
590.427437	0.079326
590.638305	0.079582
590.849154	0.079417
591.059985	0.079667
591.270798	0.079771
591.481592	0.079790
591.692369	0.079708
591.903127	0.079740
592.113867	0.079789
592.324588	0.079912
592.535292	0.079610
592.745977	0.079866
592.956644	0.079593
593.167293	0.079679
593.377923	0.079771
593.588536	0.079715
593.799130	0.079906
594.009706	0.080005
594.220263	0.079854
594.430803	0.079752
594.641324	0.079755
594.851827	0.079675
595.062312	0.079913
595.272778	0.079888
595.483227	0.080384
595.693657	0.080294
595.904069	0.080478
596.114462	0.080673
596.324838	0.080938
596.535195	0.080914
596.745534	0.081474
596.955855	0.081484
597.166157	0.081452
597.376441	0.081105
597.586707	0.081086
597.796955	0.081352
598.007185	0.081384
598.217396	0.081496
598.427589	0.081985
598.637764	0.081702
598.847921	0.081593
599.058060	0.081795
599.268180	0.082227
599.478282	0.081994
599.688366	0.081837
599.898431	0.081828
600.108479	0.081817
600.318508	0.081806
600.528519	0.082203
600.738511	0.082489
600.948486	0.082630
601.158442	0.082424
601.368380	0.083107
601.578300	0.083184
601.788202	0.083295
601.998085	0.083627
602.207950	0.083625
602.417797	0.083712
602.627626	0.083752
602.837436	0.083763
603.047228	0.083936
603.257002	0.084025
603.466758	0.084369
603.676496	0.084556
603.886215	0.084544
604.095916	0.084750
604.305599	0.084543
604.515264	0.084694
604.724910	0.084789
604.934538	0.084954
605.144148	0.085099
605.353740	0.085193
605.563314	0.085416
605.772869	0.085605
605.982406	0.085696
606.191925	0.085986
606.401425	0.086065
606.610908	0.085973
606.820372	0.086010
607.029818	0.086056
607.239246	0.085978
607.448655	0.086022
607.658047	0.086227
607.867420	0.086314
608.076775	0.086273
608.286111	0.086384
608.495430	0.086500
608.704730	0.086762
608.914012	0.086563
609.123275	0.086469
609.332521	0.086572
609.541748	0.086378
609.750957	0.086267
609.960148	0.086693
610.169321	0.086742
610.378475	0.087082
610.587611	0.086980
610.796729	0.087324
611.005829	0.087555
611.214910	0.087398
611.423974	0.087824
611.633019	0.088223
611.842045	0.087902
612.051054	0.087875
612.260044	0.087992
612.469017	0.088001
612.677970	0.088102
612.886906	0.088243
613.095824	0.088461
613.304723	0.087946
613.513604	0.088042
613.722467	0.088362
613.931311	0.088429
614.140138	0.088241
614.348946	0.088381
614.557736	0.088457
614.766507	0.088603
614.975261	0.088866
615.183996	0.089322
615.392713	0.089379
615.601412	0.089595
615.810092	0.089832
616.018754	0.090096
616.227399	0.090361
616.436024	0.090387
616.644632	0.090329
616.853222	0.090328
617.061793	0.090372
617.270346	0.090317
617.478880	0.089953
617.687397	0.089781
617.895895	0.089798
618.104375	0.089947
618.312837	0.090215
618.521281	0.090298
618.729706	0.090309
618.938113	0.090609
619.146502	0.090895
619.354873	0.091250
619.563226	0.091550
619.771560	0.091738
619.979876	0.091682
620.188174	0.091668
620.396453	0.091578
620.604715	0.091718
620.812958	0.091704
621.021183	0.091398
621.229390	0.091500
621.437578	0.091581
621.645748	0.091608
621.853900	0.091751
622.062034	0.091743
622.270150	0.091916
622.478247	0.091938
622.686326	0.091854
622.894387	0.092168
623.102430	0.092094
623.310454	0.092071
623.518461	0.092091
623.726449	0.091820
623.934418	0.091730
624.142370	0.091686
624.350303	0.091906
624.558218	0.091804
624.766115	0.091874
624.973994	0.091831
625.181855	0.092011
625.389697	0.092224
625.597521	0.092525
625.805327	0.092667
626.013114	0.092843
626.220883	0.092808
626.428634	0.093012
626.636367	0.093035
626.844082	0.093194
627.051778	0.093201
627.259457	0.092986
627.467117	0.093219
627.674758	0.093379
627.882382	0.093521
628.089987	0.093367
628.297574	0.093574
628.505143	0.093564
628.712694	0.093631
628.920226	0.093826
629.127740	0.093849
629.335236	0.093812
629.542714	0.093835
629.750174	0.093845
629.957615	0.093925
630.165038	0.093993
630.372443	0.094151
630.579829	0.094255
630.787198	0.094368
630.994548	0.094636
631.201880	0.094660
631.409194	0.094880
631.616489	0.094968
631.823766	0.095205
632.031025	0.095259
632.238266	0.095434
632.445489	0.095443
632.652693	0.095428
632.859879	0.095659
633.067047	0.095751
633.274197	0.095873
633.481329	0.096009
633.688442	0.096201
633.895537	0.096355
634.102614	0.096418
634.309672	0.096592
634.516713	0.096751
634.723735	0.096777
634.930739	0.097037
635.137724	0.096959
635.344692	0.097200
635.551641	0.097254
635.758572	0.097340
635.965485	0.097298
636.172379	0.097612
636.379256	0.097584
636.586114	0.097257
636.792954	0.097214
636.999775	0.097516
637.206579	0.097551
637.413364	0.097726
637.620131	0.097754
637.826880	0.097961
638.033610	0.097812
638.240323	0.097950
638.447017	0.098411
638.653692	0.098544
638.860350	0.098479
639.066990	0.098367
639.273611	0.098280
639.480214	0.098318
639.686798	0.098269
639.893365	0.098382
640.099913	0.098310
640.306443	0.098504
640.512955	0.098507
640.719449	0.098454
640.925924	0.098685
641.132381	0.098906
641.338820	0.099035
641.545241	0.099252
641.751644	0.099342
641.958028	0.099503
642.164394	0.099498
642.370742	0.099389
642.577071	0.099578
642.783383	0.099464
642.989676	0.099454
643.195951	0.099545
643.402207	0.099593
643.608446	0.099871
643.814666	0.099776
644.020868	0.099853
644.227052	0.100089
644.433218	0.100192
644.639365	0.100509
644.845494	0.100576
645.051605	0.100417
645.257698	0.100488
645.463772	0.100425
645.669828	0.100649
645.875866	0.100730
646.081886	0.100938
646.287888	0.100944
646.493871	0.100841
646.699836	0.100921
646.905783	0.101267
647.111712	0.101300
647.317622	0.101412
647.523514	0.101532
647.729388	0.101637
647.935244	0.101754
648.141082	0.101827
648.346901	0.101973
648.552702	0.102040
648.758485	0.102146
648.964250	0.102388
649.169996	0.102455
649.375724	0.102460
649.581434	0.102444
649.787126	0.102434
649.992800	0.102538
650.198455	0.102594
650.404092	0.102745
650.609711	0.102683
650.815311	0.102790
651.020894	0.102926
651.226458	0.102996
651.432004	0.103074
651.637532	0.103025
651.843041	0.103220
652.048532	0.103187
652.254006	0.103277
652.459460	0.103238
652.664897	0.103348
652.870315	0.103304
653.075716	0.103539
653.281097	0.103590
653.486461	0.103902
653.691807	0.103868
653.897134	0.103978
654.102443	0.103927
654.307734	0.104156
654.513006	0.103972
654.718261	0.104094
654.923497	0.103977
655.128715	0.104160
655.333915	0.104108
655.539096	0.104363
655.744259	0.104508
655.949404	0.104615
656.154531	0.104721
656.359640	0.104998
656.564730	0.105065
656.769802	0.105448
656.974856	0.105794
657.179892	0.105790
657.384909	0.105725
657.589908	0.105734
657.794889	0.105984
657.999852	0.106226
658.204797	0.106322
658.409723	0.106483
658.614631	0.106599
658.819521	0.106429
659.024393	0.106765
659.229246	0.106898
659.434081	0.107036
659.638898	0.107258
659.843697	0.107301
660.048478	0.107372
660.253240	0.107534
660.457984	0.107613
660.662710	0.107743
660.867417	0.107837
661.072107	0.107916
661.276778	0.108150
661.481431	0.108056
661.686066	0.108074
661.890682	0.108089
662.095281	0.108001
662.299861	0.107978
662.504422	0.108061
662.708966	0.107945
662.913491	0.108015
663.117999	0.107979
663.322488	0.108053
663.526958	0.108091
663.731411	0.108296
663.935845	0.108527
664.140261	0.108576
664.344659	0.108844
664.549038	0.108977
664.753400	0.109054
664.957743	0.109351
665.162068	0.109310
665.366375	0.109253
665.570663	0.109307
665.774933	0.109282
665.979185	0.109270
666.183419	0.109200
666.387635	0.109237
666.591832	0.109430
666.796011	0.109437
667.000172	0.109753
667.204315	0.110117
667.408439	0.110168
667.612545	0.110200
667.816634	0.110634
668.020703	0.110755
668.224755	0.111074
668.428788	0.111236
668.632803	0.111447
668.836800	0.111441
669.040779	0.111606
669.244739	0.111669
669.448681	0.112015
669.652605	0.112176
669.856511	0.112309
670.060399	0.112323
670.264268	0.112417
670.468119	0.112382
670.671952	0.112456
670.875767	0.112337
671.079563	0.112562
671.283341	0.112586
671.487101	0.112391
671.690843	0.112325
671.894567	0.112515
672.098272	0.112591
672.301959	0.112708
672.505628	0.112879
672.709278	0.113147
672.912911	0.113177
673.116525	0.113246
673.320121	0.113313
673.523699	0.113397
673.727258	0.113388
673.930799	0.113457
674.134322	0.113637
674.337827	0.113815
674.541314	0.113759
674.744782	0.113990
674.948232	0.114241
675.151664	0.114406
675.355078	0.114737
675.558474	0.114831
675.761851	0.114992
675.965210	0.114998
676.168551	0.114892
676.371873	0.115105
676.575178	0.114987
676.778464	0.114910
676.981732	0.114999
677.184981	0.115023
677.388213	0.115126
677.591426	0.115176
677.794621	0.115181
677.997798	0.115344
678.200956	0.115352
678.404097	0.115458
678.607219	0.115503
678.810323	0.115715
679.013408	0.115683
679.216476	0.116008
679.419525	0.116119
679.622556	0.116277
679.825569	0.116574
680.028563	0.116836
680.231540	0.117135
680.434498	0.117411
680.637438	0.117484
680.840359	0.117810
681.043263	0.117631
681.246148	0.117668
681.449015	0.117921
681.651864	0.117808
681.854694	0.117834
682.057506	0.117835
682.260301	0.117836
682.463076	0.117848
682.665834	0.117841
682.868573	0.118011
683.071295	0.118166
683.273998	0.118232
683.476682	0.118391
683.679349	0.118605
683.881997	0.118645
684.084627	0.118797
684.287239	0.119033
684.489833	0.119068
684.692408	0.119256
684.894965	0.119444
685.097504	0.119320
685.300025	0.119524
685.502527	0.119346
685.705012	0.119539
685.907478	0.119709
686.109925	0.119824
686.312355	0.119959
686.514766	0.120198
686.717159	0.120141
686.919534	0.120381
687.121891	0.120413
687.324230	0.120788
687.526550	0.120907
687.728852	0.120859
687.931136	0.120866
688.133401	0.121015
688.335649	0.120776
688.537878	0.120948
688.740089	0.121304
688.942281	0.121372
689.144456	0.121474
689.346612	0.121507
689.548750	0.121614
689.750870	0.121825
689.952971	0.121759
690.155055	0.121832
690.357120	0.121790
690.559167	0.121762
690.761195	0.121771
690.963206	0.121659
691.165198	0.121866
691.367172	0.121921
691.569128	0.121878
691.771065	0.122084
691.972984	0.122384
692.174885	0.122637
692.376768	0.122700
692.578633	0.122848
692.780479	0.123006
692.982308	0.122925
693.184118	0.123251
693.385909	0.123385
