sample name	sample
index	434
start time	 03-08-2021  12:19:42 PM


Wavelength (nm)	Absorbance
494.344910	-0.358106
494.563924	-0.358106
494.782919	-0.358106
495.001897	0.258451
495.220856	-0.084899
495.439797	-0.012619
495.658719	-0.005631
495.877624	0.012272
496.096510	-0.079350
496.315378	0.006176
496.534227	-0.029171
496.753059	0.049741
496.971872	0.017818
497.190667	0.140070
497.409444	0.171299
497.628203	0.177410
497.846943	0.183203
498.065665	0.184070
498.284369	0.182725
498.503055	0.183685
498.721723	0.183134
498.940372	0.184400
499.159003	0.185742
499.377616	0.184970
499.596210	0.184135
499.814787	0.182569
500.033345	0.182737
500.251885	0.182871
500.470406	0.183616
500.688910	0.184091
500.907395	0.183762
501.125862	0.183514
501.344311	0.182194
501.562742	0.183919
501.781154	0.183914
501.999548	0.184668
502.217924	0.184800
502.436282	0.184602
502.654621	0.184538
502.872942	0.184363
503.091245	0.184244
503.309530	0.186594
503.527797	0.186362
503.746045	0.187476
503.964275	0.188141
504.182487	0.188522
504.400681	0.187876
504.618856	0.187698
504.837013	0.188965
505.055152	0.189694
505.273273	0.189651
505.491376	0.188901
505.709460	0.187802
505.927526	0.188118
506.145574	0.189189
506.363604	0.188897
506.581615	0.189704
506.799608	0.189371
507.017583	0.188823
507.235540	0.188352
507.453478	0.189320
507.671399	0.190597
507.889301	0.189762
508.107185	0.188559
508.325050	0.189530
508.542898	0.190341
508.760727	0.189753
508.978538	0.190484
509.196330	0.189879
509.414105	0.189676
509.631861	0.189146
509.849599	0.190065
510.067319	0.190063
510.285021	0.190534
510.502704	0.189650
510.720369	0.191000
510.938016	0.190571
511.155645	0.191174
511.373255	0.191822
511.590848	0.192329
511.808422	0.192749
512.025977	0.193481
512.243515	0.192613
512.461034	0.193972
512.678536	0.193070
512.896018	0.193397
513.113483	0.193609
513.330930	0.193776
513.548358	0.193423
513.765768	0.192844
513.983160	0.192968
514.200533	0.194115
514.417889	0.193847
514.635226	0.195291
514.852545	0.196505
515.069845	0.196558
515.287128	0.196570
515.504392	0.197106
515.721638	0.197708
515.938866	0.198280
516.156075	0.198402
516.373267	0.198675
516.590440	0.198142
516.807594	0.197103
517.024731	0.198153
517.241850	0.198292
517.458950	0.199081
517.676032	0.198414
517.893095	0.198439
518.110141	0.198525
518.327168	0.198883
518.544177	0.199903
518.761168	0.201170
518.978141	0.201080
519.195095	0.201664
519.412031	0.200739
519.628949	0.201860
519.845849	0.202072
520.062731	0.202427
520.279594	0.202130
520.496439	0.201511
520.713266	0.201331
520.930074	0.201692
521.146865	0.202436
521.363637	0.203711
521.580391	0.204117
521.797127	0.204601
522.013844	0.204918
522.230543	0.205496
522.447224	0.205554
522.663887	0.205631
522.880532	0.205558
523.097158	0.205452
523.313766	0.205372
523.530356	0.205403
523.746928	0.205381
523.963481	0.205335
524.180017	0.204533
524.396534	0.205266
524.613032	0.206142
524.829513	0.206885
525.045975	0.206410
525.262420	0.207223
525.478845	0.206954
525.695253	0.207159
525.911643	0.207939
526.128014	0.209399
526.344367	0.209529
526.560702	0.209822
526.777018	0.209586
526.993316	0.210304
527.209597	0.210180
527.425858	0.211113
527.642102	0.212361
527.858328	0.211919
528.074535	0.212185
528.290724	0.213426
528.506894	0.213786
528.723047	0.213867
528.939181	0.214678
529.155297	0.214994
529.371395	0.215158
529.587475	0.214738
529.803536	0.215181
530.019579	0.215441
530.235604	0.214947
530.451611	0.215770
530.667600	0.216767
530.883570	0.217098
531.099522	0.217805
531.315456	0.218888
531.531372	0.218969
531.747269	0.219368
531.963148	0.219761
532.179009	0.220687
532.394852	0.220488
532.610676	0.220565
532.826482	0.220290
533.042271	0.220296
533.258040	0.219744
533.473792	0.220854
533.689525	0.221826
533.905240	0.222114
534.120937	0.222319
534.336616	0.222213
534.552277	0.222938
534.767919	0.223819
534.983543	0.224512
535.199149	0.224651
535.414736	0.224532
535.630306	0.224639
535.845857	0.225247
536.061390	0.225433
536.276904	0.226327
536.492401	0.226615
536.707879	0.226890
536.923339	0.227198
537.138781	0.228082
537.354204	0.228229
537.569610	0.228171
537.784997	0.227835
538.000366	0.228248
538.215716	0.228517
538.431049	0.228659
538.646363	0.229099
538.861659	0.229477
539.076937	0.229569
539.292196	0.230187
539.507438	0.230930
539.722661	0.232054
539.937866	0.232425
540.153052	0.232493
540.368221	0.233117
540.583371	0.233079
540.798503	0.233075
541.013617	0.233035
541.228712	0.233138
541.443789	0.233368
541.658848	0.233168
541.873889	0.233804
542.088912	0.234378
542.303916	0.234529
542.518902	0.234729
542.733870	0.235319
542.948820	0.235760
543.163752	0.235980
543.378665	0.235939
543.593560	0.236220
543.808437	0.235904
544.023295	0.235781
544.238136	0.235998
544.452958	0.236367
544.667762	0.236289
544.882548	0.237035
545.097315	0.237809
545.312064	0.238363
545.526795	0.238888
545.741508	0.239145
545.956203	0.239554
546.170879	0.239600
546.385537	0.240239
546.600177	0.240776
546.814799	0.240926
547.029402	0.240888
547.243988	0.241231
547.458555	0.241585
547.673103	0.241774
547.887634	0.242547
548.102146	0.242489
548.316640	0.242297
548.531116	0.242756
548.745574	0.242679
548.960013	0.242860
549.174435	0.243190
549.388838	0.242828
549.603222	0.243544
549.817589	0.243782
550.031937	0.244695
550.246267	0.245380
550.460579	0.245348
550.674873	0.245422
550.889148	0.245552
551.103405	0.245869
551.317644	0.246275
551.531865	0.247028
551.746068	0.247578
551.960252	0.247969
552.174418	0.248130
552.388566	0.247952
552.602696	0.249088
552.816807	0.249953
553.030900	0.249898
553.244975	0.250058
553.459032	0.249764
553.673070	0.249378
553.887091	0.249492
554.101093	0.249802
554.315077	0.250868
554.529042	0.250972
554.742990	0.251027
554.956919	0.251399
555.170830	0.251799
555.384722	0.251983
555.598597	0.252090
555.812453	0.252324
556.026291	0.252645
556.240111	0.252406
556.453913	0.252088
556.667696	0.251921
556.881461	0.252242
557.095208	0.252817
557.308937	0.252901
557.522647	0.253296
557.736339	0.253306
557.950013	0.253330
558.163669	0.254040
558.377307	0.254555
558.590926	0.254812
558.804527	0.255202
559.018110	0.255249
559.231675	0.255983
559.445221	0.256445
559.658749	0.256598
559.872259	0.256801
560.085751	0.256652
560.299225	0.256527
560.512680	0.257297
560.726117	0.257498
560.939536	0.257978
561.152937	0.257760
561.366319	0.257753
561.579683	0.258037
561.793029	0.257995
562.006357	0.258249
562.219667	0.258514
562.432958	0.258263
562.646231	0.257955
562.859486	0.257774
563.072723	0.257999
563.285941	0.258344
563.499141	0.258610
563.712323	0.259204
563.925487	0.259536
564.138632	0.260072
564.351760	0.260123
564.564869	0.260628
564.777960	0.260933
564.991032	0.261189
565.204087	0.261417
565.417123	0.261734
565.630141	0.261709
565.843140	0.261675
566.056122	0.261900
566.269085	0.262401
566.482030	0.262317
566.694957	0.262673
566.907866	0.263163
567.120756	0.263461
567.333628	0.263534
567.546482	0.264313
567.759318	0.265256
567.972135	0.265776
568.184935	0.266017
568.397716	0.266899
568.610478	0.267243
568.823223	0.267000
569.035949	0.266838
569.248657	0.266775
569.461347	0.266363
569.674019	0.266111
569.886672	0.266239
570.099308	0.266395
570.311925	0.266175
570.524523	0.266285
570.737104	0.266835
570.949666	0.267342
571.162210	0.267928
571.374736	0.268178
571.587244	0.268236
571.799733	0.268534
572.012205	0.268934
572.224658	0.269261
572.437092	0.269535
572.649509	0.269897
572.861907	0.269679
573.074287	0.270283
573.286649	0.270472
573.498993	0.270563
573.711318	0.270519
573.923625	0.270712
574.135914	0.271138
574.348185	0.271181
574.560438	0.271297
574.772672	0.271714
574.984888	0.271570
575.197086	0.272039
575.409266	0.272499
575.621427	0.272527
575.833570	0.272244
576.045695	0.271983
576.257802	0.271887
576.469890	0.271749
576.681961	0.272187
576.894013	0.272420
577.106046	0.272587
577.318062	0.273117
577.530059	0.273257
577.742039	0.273650
577.954000	0.273877
578.165942	0.274017
578.377867	0.274137
578.589773	0.274360
578.801661	0.274603
579.013531	0.274706
579.225382	0.274430
579.437216	0.275007
579.649031	0.275391
579.860828	0.275947
580.072606	0.276834
580.284367	0.277335
580.496109	0.277321
580.707833	0.277901
580.919539	0.278310
581.131227	0.278726
581.342896	0.278823
581.554547	0.279072
581.766180	0.279383
581.977795	0.279753
582.189391	0.279755
582.400969	0.280083
582.612529	0.279971
582.824071	0.279780
583.035595	0.279519
583.247100	0.279408
583.458587	0.279819
583.670056	0.280014
583.881506	0.279868
584.092939	0.280755
584.304353	0.281134
584.515749	0.281219
584.727127	0.281586
584.938486	0.282101
585.149828	0.282904
585.361151	0.283061
585.572456	0.283312
585.783742	0.284050
585.995011	0.283906
586.206261	0.284048
586.417493	0.284362
586.628706	0.284560
586.839902	0.284879
587.051079	0.284895
587.262238	0.284689
587.473379	0.284574
587.684502	0.283907
587.895606	0.284055
588.106692	0.284412
588.317760	0.284560
588.528810	0.284899
588.739841	0.285188
588.950855	0.285612
589.161850	0.286150
589.372827	0.286407
589.583785	0.287400
589.794726	0.287715
590.005648	0.288254
590.216552	0.288555
590.427437	0.288770
590.638305	0.288889
590.849154	0.289057
591.059985	0.288903
591.270798	0.289391
591.481592	0.289056
591.692369	0.289453
591.903127	0.289221
592.113867	0.289101
592.324588	0.289173
592.535292	0.289487
592.745977	0.289499
592.956644	0.290165
593.167293	0.290239
593.377923	0.290585
593.588536	0.290326
593.799130	0.290768
594.009706	0.291315
594.220263	0.291756
594.430803	0.292122
594.641324	0.292459
594.851827	0.292757
595.062312	0.293058
595.272778	0.293745
595.483227	0.294122
595.693657	0.293791
595.904069	0.293852
596.114462	0.294019
596.324838	0.293986
596.535195	0.294188
596.745534	0.293956
596.955855	0.294099
597.166157	0.294009
597.376441	0.294098
597.586707	0.294715
597.796955	0.295190
598.007185	0.295635
598.217396	0.295684
598.427589	0.295995
598.637764	0.296870
598.847921	0.296821
599.058060	0.297068
599.268180	0.297596
599.478282	0.297774
599.688366	0.297863
599.898431	0.297667
600.108479	0.298041
600.318508	0.298107
600.528519	0.298249
600.738511	0.298689
600.948486	0.298967
601.158442	0.299146
601.368380	0.299118
601.578300	0.299389
601.788202	0.299580
601.998085	0.299916
602.207950	0.299956
602.417797	0.300158
602.627626	0.300322
602.837436	0.299952
603.047228	0.300050
603.257002	0.300007
603.466758	0.299918
603.676496	0.300452
603.886215	0.300686
604.095916	0.301018
604.305599	0.300963
604.515264	0.301326
604.724910	0.301995
604.934538	0.301950
605.144148	0.302797
605.353740	0.303310
605.563314	0.303204
605.772869	0.303349
605.982406	0.303592
606.191925	0.303829
606.401425	0.303814
606.610908	0.303542
606.820372	0.304108
607.029818	0.304241
607.239246	0.304452
607.448655	0.304621
607.658047	0.304568
607.867420	0.304802
608.076775	0.305011
608.286111	0.305081
608.495430	0.305493
608.704730	0.305642
608.914012	0.305711
609.123275	0.305664
609.332521	0.306151
609.541748	0.306377
609.750957	0.306579
609.960148	0.306570
610.169321	0.307059
610.378475	0.307338
610.587611	0.307433
610.796729	0.307514
611.005829	0.307627
611.214910	0.307383
611.423974	0.307544
611.633019	0.307189
611.842045	0.307533
612.051054	0.307679
612.260044	0.307678
612.469017	0.307736
612.677970	0.307718
612.886906	0.308128
613.095824	0.308593
613.304723	0.308465
613.513604	0.309126
613.722467	0.308836
613.931311	0.308679
614.140138	0.309021
614.348946	0.309111
614.557736	0.309172
614.766507	0.309181
614.975261	0.309438
615.183996	0.309918
615.392713	0.309806
615.601412	0.310252
615.810092	0.310481
616.018754	0.310651
616.227399	0.310896
616.436024	0.311236
616.644632	0.311286
616.853222	0.311266
617.061793	0.311435
617.270346	0.311549
617.478880	0.311683
617.687397	0.311887
617.895895	0.311582
618.104375	0.311698
618.312837	0.311983
618.521281	0.312324
618.729706	0.312420
618.938113	0.312877
619.146502	0.313339
619.354873	0.313562
619.563226	0.313889
619.771560	0.314433
619.979876	0.314625
620.188174	0.314772
620.396453	0.314813
620.604715	0.314901
620.812958	0.314891
621.021183	0.314540
621.229390	0.314434
621.437578	0.314459
621.645748	0.314577
621.853900	0.314575
622.062034	0.314729
622.270150	0.314848
622.478247	0.315338
622.686326	0.315734
622.894387	0.316057
623.102430	0.316626
623.310454	0.317064
623.518461	0.317156
623.726449	0.317642
623.934418	0.317864
624.142370	0.318249
624.350303	0.318164
624.558218	0.317942
624.766115	0.318273
624.973994	0.318332
625.181855	0.318483
625.389697	0.318764
625.597521	0.318874
625.805327	0.319009
626.013114	0.318939
626.220883	0.319324
626.428634	0.319459
626.636367	0.319751
626.844082	0.319971
627.051778	0.319725
627.259457	0.319655
627.467117	0.319649
627.674758	0.320021
627.882382	0.320610
628.089987	0.320826
628.297574	0.321273
628.505143	0.321489
628.712694	0.321817
628.920226	0.322198
629.127740	0.322777
629.335236	0.323459
629.542714	0.323635
629.750174	0.323536
629.957615	0.323642
630.165038	0.323918
630.372443	0.324058
630.579829	0.324247
630.787198	0.324542
630.994548	0.324355
631.201880	0.324332
631.409194	0.324548
631.616489	0.324995
631.823766	0.325087
632.031025	0.325239
632.238266	0.325517
632.445489	0.325787
632.652693	0.325619
632.859879	0.326142
633.067047	0.326236
633.274197	0.326152
633.481329	0.326315
633.688442	0.326533
633.895537	0.326347
634.102614	0.326287
634.309672	0.326025
634.516713	0.326387
634.723735	0.326407
634.930739	0.326462
635.137724	0.326683
635.344692	0.326650
635.551641	0.326964
635.758572	0.327218
635.965485	0.327360
636.172379	0.327625
636.379256	0.328068
636.586114	0.328179
636.792954	0.328406
636.999775	0.328621
637.206579	0.328873
637.413364	0.329091
637.620131	0.329455
637.826880	0.329669
638.033610	0.330091
638.240323	0.330033
638.447017	0.330211
638.653692	0.330381
638.860350	0.330512
639.066990	0.330782
639.273611	0.330700
639.480214	0.330857
639.686798	0.331169
639.893365	0.331316
640.099913	0.331611
640.306443	0.331777
640.512955	0.331908
640.719449	0.332132
640.925924	0.332246
641.132381	0.332265
641.338820	0.332505
641.545241	0.332679
641.751644	0.332719
641.958028	0.332689
642.164394	0.333088
642.370742	0.333274
642.577071	0.333233
642.783383	0.333526
642.989676	0.334069
643.195951	0.334194
643.402207	0.334440
643.608446	0.334317
643.814666	0.334524
644.020868	0.334505
644.227052	0.334605
644.433218	0.335053
644.639365	0.334864
644.845494	0.335105
645.051605	0.335206
645.257698	0.335344
645.463772	0.335673
645.669828	0.336059
645.875866	0.336426
646.081886	0.336947
646.287888	0.337098
646.493871	0.337679
646.699836	0.337360
646.905783	0.337698
647.111712	0.337637
647.317622	0.337913
647.523514	0.338187
647.729388	0.338104
647.935244	0.338175
648.141082	0.338287
648.346901	0.338269
648.552702	0.338860
648.758485	0.338715
648.964250	0.339174
649.169996	0.339773
649.375724	0.339878
649.581434	0.340614
649.787126	0.340928
649.992800	0.341378
650.198455	0.341710
650.404092	0.342106
650.609711	0.342490
650.815311	0.342787
651.020894	0.342824
651.226458	0.342971
651.432004	0.342901
651.637532	0.342904
651.843041	0.343097
652.048532	0.343365
652.254006	0.343566
652.459460	0.344107
652.664897	0.344134
652.870315	0.344343
653.075716	0.344546
653.281097	0.344801
653.486461	0.345184
653.691807	0.345128
653.897134	0.345165
654.102443	0.345368
654.307734	0.345417
654.513006	0.345940
654.718261	0.346274
654.923497	0.346597
655.128715	0.347062
655.333915	0.347322
655.539096	0.347785
655.744259	0.348137
655.949404	0.348403
656.154531	0.348910
656.359640	0.349173
656.564730	0.349477
656.769802	0.350206
656.974856	0.350192
657.179892	0.350538
657.384909	0.350715
657.589908	0.350802
657.794889	0.350879
657.999852	0.350702
658.204797	0.350568
658.409723	0.350671
658.614631	0.350404
658.819521	0.350702
659.024393	0.350797
659.229246	0.351244
659.434081	0.351486
659.638898	0.351844
659.843697	0.352004
660.048478	0.352430
660.253240	0.352595
660.457984	0.352781
660.662710	0.352841
660.867417	0.353202
661.072107	0.353206
661.276778	0.353359
661.481431	0.353462
661.686066	0.353949
661.890682	0.353926
662.095281	0.354341
662.299861	0.354501
662.504422	0.354814
662.708966	0.354817
662.913491	0.354842
663.117999	0.355226
663.322488	0.355625
663.526958	0.356100
663.731411	0.356556
663.935845	0.356472
664.140261	0.356724
664.344659	0.356969
664.549038	0.357311
664.753400	0.357769
664.957743	0.358206
665.162068	0.358380
665.366375	0.358450
665.570663	0.358741
665.774933	0.359226
665.979185	0.359554
666.183419	0.359843
666.387635	0.360180
666.591832	0.360428
666.796011	0.360629
667.000172	0.360991
667.204315	0.361092
667.408439	0.361262
667.612545	0.361224
667.816634	0.361740
668.020703	0.362170
668.224755	0.362380
668.428788	0.362643
668.632803	0.362873
668.836800	0.363039
669.040779	0.363402
669.244739	0.363733
669.448681	0.364201
669.652605	0.364307
669.856511	0.364402
670.060399	0.364782
670.264268	0.364997
670.468119	0.365356
670.671952	0.365383
670.875767	0.365321
671.079563	0.365710
671.283341	0.365857
671.487101	0.366123
671.690843	0.366380
671.894567	0.366344
672.098272	0.366529
672.301959	0.366632
672.505628	0.366863
672.709278	0.367267
672.912911	0.367185
673.116525	0.367527
673.320121	0.367725
673.523699	0.367824
673.727258	0.368079
673.930799	0.368304
674.134322	0.368366
674.337827	0.368639
674.541314	0.368921
674.744782	0.369468
674.948232	0.369666
675.151664	0.369769
675.355078	0.369876
675.558474	0.369997
675.761851	0.370395
675.965210	0.370832
676.168551	0.371260
676.371873	0.371584
676.575178	0.371737
676.778464	0.372175
676.981732	0.372608
677.184981	0.373174
677.388213	0.373769
677.591426	0.373837
677.794621	0.374018
677.997798	0.373987
678.200956	0.373980
678.404097	0.374244
678.607219	0.374327
678.810323	0.374417
679.013408	0.374359
679.216476	0.374444
679.419525	0.374562
679.622556	0.374566
679.825569	0.375070
680.028563	0.375493
680.231540	0.375515
680.434498	0.375607
680.637438	0.375991
680.840359	0.376218
681.043263	0.376286
681.246148	0.376733
681.449015	0.376965
681.651864	0.377107
681.854694	0.377072
682.057506	0.377515
682.260301	0.377754
682.463076	0.377748
682.665834	0.378198
682.868573	0.378533
683.071295	0.378805
683.273998	0.379454
683.476682	0.379697
683.679349	0.380250
683.881997	0.380545
684.084627	0.381121
684.287239	0.381279
684.489833	0.381534
684.692408	0.381930
684.894965	0.382263
685.097504	0.382234
685.300025	0.382454
685.502527	0.382307
685.705012	0.382407
685.907478	0.382354
686.109925	0.382826
686.312355	0.382973
686.514766	0.383171
686.717159	0.383241
686.919534	0.383602
687.121891	0.383929
687.324230	0.384694
687.526550	0.385112
687.728852	0.385378
687.931136	0.385691
688.133401	0.385700
688.335649	0.385648
688.537878	0.385885
688.740089	0.386094
688.942281	0.386136
689.144456	0.385874
689.346612	0.385600
689.548750	0.385497
689.750870	0.385481
689.952971	0.385939
690.155055	0.386275
690.357120	0.386302
690.559167	0.386504
690.761195	0.386603
690.963206	0.386936
691.165198	0.387305
691.367172	0.387688
691.569128	0.387925
691.771065	0.387821
691.972984	0.387956
692.174885	0.388391
692.376768	0.388629
692.578633	0.388713
692.780479	0.388819
692.982308	0.389129
693.184118	0.389152
693.385909	0.389233
