sample name	sample
index	493
start time	 03-11-2021  02:17:56 PM
880	0.563752
Peak Time (s)	91.535
Peak Height 	0.5638
calc peak height	90,93
Baseline Time (s)	10.036
Baseline Value 	0.01059
subtract baseline	10,4
Abs	0.324322
Peak Time (s)	92.036
Peak Height 	0.3243
calc peak height	90,93
Baseline Time (s)	9.535
Baseline Value 	0.002835
subtract baseline	10,3
PK_550	0.149745
Peak Time (s)	90.038
Peak Height 	0.1497
calc peak height	90,93
Baseline Time (s)	11.536
Baseline Value 	-2.2583E-4
subtract baseline	10,2
PK_880	0.314588
Peak Time (s)	92.536
Peak Height 	0.3146
calc peak height	90,93
Baseline Time (s)	10.536
Baseline Value 	-0.001022
subtract baseline	10,1


Time (s)	A880-A510	A880-A775	A880-A975	A880	I510	I775	I975	I880	
0.038000	-0.002362	-0.001908	-0.006870	-0.013142	7518.372086	49869.907159	4078.274795	26464.771005
0.535500	-0.002990	-0.002119	-0.001064	-0.016889	7551.759403	50253.587741	4105.525156	26669.105523
1.036000	-0.001111	-0.001562	-0.003113	-0.015828	7560.551291	50198.744586	4096.588662	26611.089619
1.538500	-0.001577	-0.001417	-0.001699	-0.016929	7567.385468	50334.434861	4103.810114	26671.282217
2.036500	-0.003047	-0.001587	-0.001295	-0.013980	7520.002664	49995.283853	4096.498806	26510.304023
2.537000	0.001092	-0.001299	0.002380	-0.014566	7570.674984	50090.123518	4108.760071	26542.231059
3.037000	0.001897	-0.000414	-0.001340	-0.014829	7582.207362	50214.848297	4098.804935	26556.538215
3.539500	-0.000745	-0.001196	0.000396	-0.011368	7516.703069	49755.271710	4093.865117	26368.656241
4.037000	0.000753	-0.000776	-0.001928	-0.009593	7513.762871	49609.606235	4082.211601	26272.915834
4.535500	-0.001423	-0.000388	-0.000155	-0.008197	7475.861647	49501.349036	4083.278407	26197.841471
5.035000	-0.000384	-0.000314	-0.000160	-0.007669	7481.274195	49452.780035	4081.770654	26169.546519
5.536500	0.000986	-0.000084	-0.000701	-0.006583	7484.272003	49361.157374	4077.174112	26111.372509
6.036000	-0.000738	-0.000428	0.001805	-0.005778	7457.595095	49238.531255	4081.980489	26068.385877
6.536000	0.001244	-0.001096	0.001135	-0.005186	7472.242725	49104.445928	4078.415225	26036.824714
7.036500	0.002285	0.000116	0.000402	-0.003884	7469.477334	49094.758188	4072.685467	25967.477705
7.536500	0.001458	0.000029	-0.000609	-0.003470	7456.410478	49041.573303	4068.688860	25945.499174
8.040000	0.003320	0.000709	0.000738	-0.001997	7460.510984	48957.586066	4068.340246	25867.458506
8.543000	0.000208	-0.000481	0.000291	-0.002075	7428.681318	48839.881601	4067.307024	25871.582920
9.035000	-0.000534	0.000477	0.002180	-0.000814	7407.780012	48807.775713	4069.061744	25804.906201
9.535000	-0.000575	-0.000433	0.000000	-0.001249	7411.882840	48757.658892	4064.185944	25827.867856
10.035500	0.000247	-0.000333	-0.000504	0.000000	7407.437611	48636.641475	4059.308181	25762.010594
10.535500	0.000000	0.000469	-0.000914	0.000460	7400.083212	48672.626023	4056.892074	25737.770965
11.036000	0.000152	0.000122	0.005630	0.001427	7391.632687	48534.582203	4072.452857	25686.987975
11.536000	-0.000047	0.000000	-0.001451	0.001392	7389.934519	48525.418661	4052.830554	25688.825391
12.036500	0.000184	0.000281	0.002851	0.002398	7381.904114	48449.376812	4061.969534	25636.069715
12.540000	0.000099	0.000412	-0.002293	0.002969	7375.116628	48403.273179	4046.165245	25606.139218
13.037500	0.002093	-0.000186	0.001786	0.000930	7416.978778	48554.348654	4063.092164	25713.067396
13.538000	0.002412	0.000449	0.003835	0.003632	7392.196734	48337.725821	4061.273202	25571.483448
14.035000	-0.000960	0.000005	-0.002374	0.004347	7350.009821	48216.798347	4042.163611	25534.171859
14.537000	-0.002828	-0.000334	0.001398	0.006925	7304.571091	47913.727579	4045.437360	25400.137786
15.036000	-0.000502	0.000524	0.003425	0.005510	7342.777709	48149.673927	4054.925625	25473.607461
15.558000	-0.000973	0.000710	0.004426	0.006133	7331.574441	48104.273680	4055.972377	25441.266061
16.036500	0.001512	0.000451	-0.001697	0.006334	7354.994195	48056.464736	4038.583475	25430.803933
16.537000	0.001424	0.000880	-0.002538	0.007045	7346.785525	48027.193524	4034.354103	25393.918883
17.042000	-0.000295	0.000007	0.001304	0.007702	7322.458384	47868.602065	4043.049948	25359.912373
17.538000	0.001144	0.000298	0.004265	0.004402	7371.114394	48241.578664	4060.327736	25531.315973
18.037500	-0.000798	0.001259	-0.002302	0.008799	7306.157053	47884.673732	4030.233229	25303.239722
18.535000	-0.000951	0.000221	-0.002759	0.009540	7297.072173	47701.017426	4026.990207	25265.018613
19.035000	-0.001393	0.000516	-0.004774	0.010527	7282.584133	47629.744080	4018.903918	25214.195076
19.535500	-0.000180	0.000946	-0.002811	0.010866	7291.445638	47639.069508	4023.271224	25196.799957
20.035000	-0.001542	0.000378	-0.003401	0.010812	7278.203728	47586.164373	4021.828675	25199.551795
20.536000	0.000204	0.000841	-0.006762	0.011661	7287.284161	47546.567787	4010.554207	25156.005875
21.036500	-0.001455	0.000366	-0.005634	0.011687	7270.243285	47495.115477	4013.493992	25154.646651
21.538500	-0.002885	0.000569	-0.002247	0.010969	7263.071203	47589.723914	4024.514368	25191.524598
22.037000	-0.001729	0.000397	0.006673	0.011778	7266.555043	47488.897244	4046.594780	25149.967944
22.537000	-0.001205	0.000036	-0.002011	0.011602	7273.628604	47470.029738	4023.443052	25159.009366
23.037500	-0.001590	0.000252	-0.001091	0.012626	7259.418535	47387.225517	4023.162209	25106.558768
23.539000	-0.002060	0.001077	0.000583	0.013208	7248.841026	47412.071606	4026.109206	25076.800514
24.035000	-0.001612	0.000739	0.003042	0.012907	7256.375518	47408.348258	4033.588503	25092.191535
24.535500	0.000403	0.000996	0.000272	0.013842	7267.250862	47338.968823	4023.560931	25044.452409
25.036000	-0.000463	0.000667	0.002314	0.013854	7258.394891	47304.123803	4029.041331	25043.800048
25.537000	-0.001699	0.000815	0.002655	0.013921	7245.317215	47312.371262	4029.785895	25040.408160
26.039000	-0.001942	0.001019	-0.002023	0.014823	7233.832269	47241.079991	4014.761855	24994.426997
26.537000	0.000096	0.000691	-0.000122	0.014163	7260.918971	47274.982707	4021.634005	25028.058316
27.037000	-0.002149	0.000520	-0.000624	0.014074	7239.258059	47266.663250	4020.523476	25032.580817
27.538000	-0.001631	0.000722	-0.004419	0.017603	7209.214607	46928.439458	4001.000875	24853.405560
28.035000	0.000526	0.000225	0.000032	0.011025	7296.982694	47548.552298	4030.525347	25188.597904
28.538000	-0.001839	0.000003	-0.001031	0.012970	7253.455034	47326.655478	4022.398778	25088.983171
29.054500	-0.000980	0.000162	0.002252	0.013526	7256.495679	47286.000150	4029.761848	25060.548520
29.535500	-0.003458	0.000266	-0.000901	0.017706	7190.046302	46871.880061	4010.062685	24848.186446
30.036500	-0.002067	0.000853	0.002209	0.014876	7232.053763	47218.798862	4025.994632	24991.727445
30.539000	-0.002255	0.000785	0.001240	0.015266	7226.283202	47172.162717	4022.332144	24971.915198
31.058000	-0.000314	0.000547	0.001812	0.015182	7246.561764	47156.535267	4024.099034	24976.196938
31.537000	-0.005149	-0.000180	-0.001690	0.019001	7160.576631	46696.185018	4004.525945	24782.813242
32.037000	-0.001586	-0.000608	0.000390	0.016690	7218.746288	46886.243378	4016.225060	24899.601853
32.556500	-0.000666	0.001076	0.001663	0.016427	7230.559849	47083.585158	4020.345933	24912.932714
33.035500	0.000444	0.000723	-0.000528	0.016475	7241.197094	47042.909927	4014.343216	24910.520819
33.539000	-0.001958	0.000353	-0.001841	0.019708	7185.084853	46678.662504	4002.252281	24747.187943
34.035000	0.000062	0.001050	0.004760	0.016825	7233.867893	47040.647698	4027.623880	24892.783595
34.535500	-0.000001	0.001052	0.004539	0.016300	7238.480963	47094.132713	4028.443497	24919.377279
35.039000	-0.001933	0.000534	-0.004215	0.018657	7195.734301	46802.870337	3998.755838	24800.138057
35.536500	-0.001510	0.000500	-0.001496	0.019528	7191.286899	46711.484048	4003.641329	24756.210927
36.037000	-0.001700	0.000785	0.000658	0.019477	7189.922632	46745.465096	4009.498745	24758.812991
36.537000	-0.004330	0.000313	-0.004737	0.018689	7171.716903	46777.348181	3997.295714	24798.532894
37.037000	-0.001618	0.001113	0.002114	0.019568	7189.829794	46769.377488	4013.138613	24754.229244
37.534500	-0.004759	0.000440	-0.004227	0.020562	7149.065944	46601.391735	3993.710981	24704.239063
38.035000	-0.003732	0.000473	0.001147	0.019241	7172.161282	46737.704738	4011.429871	24770.692915
38.535500	-0.002303	0.000268	0.001270	0.019702	7181.724584	46670.640578	4010.529333	24747.463302
39.035500	-0.003383	0.000939	0.000463	0.020073	7167.401865	46700.846367	4007.392107	24728.797969
39.538500	-0.001196	0.001260	0.002937	0.020389	7185.879539	46701.294210	4013.143502	24712.913144
40.036000	-0.002585	0.000228	-0.000477	0.020165	7174.366777	46620.048412	4004.654119	24724.182310
40.536500	-0.002397	0.000487	0.002587	0.020248	7175.396893	46637.712156	4012.583831	24719.988556
41.036500	-0.003448	0.000643	-0.004691	0.020814	7159.473340	46596.447156	3991.832442	24691.568170
41.537000	-0.003126	-0.000120	0.000840	0.020802	7162.760188	46521.079030	4006.460153	24692.191775
42.038000	-0.002615	0.001071	-0.006275	0.021334	7162.551783	46587.230274	3986.327479	24665.489767
42.540500	-0.002066	0.001341	0.001637	0.021525	7166.069220	46595.139773	4006.656252	24655.901720
43.035000	-0.003031	0.000706	0.001326	0.021417	7157.640533	46542.256556	4006.117478	24661.319573
43.535500	-0.003220	0.000850	-0.001989	0.021757	7152.438663	46522.542181	3996.453771	24644.274326
44.038500	-0.003376	0.000100	-0.002999	0.021049	7157.865688	46518.422352	3995.660371	24679.792989
44.536500	-0.001407	0.000686	0.001502	0.019125	7196.310256	46770.915841	4012.686769	24776.519803
45.036500	-0.000799	0.001188	0.001727	0.019068	7202.918142	46827.418969	4013.441094	24779.422285
45.537000	-0.000086	0.001192	-0.003275	0.019968	7201.047835	46736.891542	3997.778285	24734.073601
46.037000	-0.001700	0.001489	0.002431	0.020259	7182.179340	46737.477575	4012.140715	24719.445061
46.537000	-0.001032	0.000996	0.001229	0.020811	7183.334460	46632.301222	4007.469413	24691.744592
47.034500	-0.000501	0.000851	-0.001350	0.020621	7190.468546	46636.818503	4001.136864	24701.274287
47.535500	-0.003042	0.001316	-0.001429	0.026232	7110.459563	46122.177165	3986.193074	24421.242083
48.049500	-0.001016	0.000894	-0.000792	0.020555	7186.018475	46647.803335	4002.787371	24704.582496
48.541500	-0.003593	0.000591	0.002507	0.023095	7135.683219	46362.638304	4004.798904	24577.362285
49.036000	-0.001947	0.000715	-0.001920	0.022649	7156.187035	46419.623223	3994.286954	24599.627334
49.582500	-0.005281	0.000567	-0.003438	0.025744	7093.475753	46096.237874	3982.230877	24445.467215
50.036500	-0.001258	0.000508	-0.000354	0.020869	7180.523761	46577.441129	4003.116533	24688.831828
50.537000	-0.003592	0.000816	0.004393	0.021643	7149.918437	46530.659049	4013.683636	24650.014610
51.037000	0.000745	0.000987	0.001501	0.019314	7215.820567	46782.216734	4012.180082	24766.990230
51.537500	-0.003690	0.001381	0.000477	0.026608	7100.513394	46091.265060	3990.190421	24402.601838
52.034500	-0.002628	-0.000918	0.000487	0.019696	7178.570349	46551.955668	4008.460858	24747.765730
52.535500	-0.002364	0.000624	0.000478	0.011347	7264.514572	47556.609510	4030.862169	25172.113541
53.038500	0.000424	-0.000545	0.001053	0.002698	7381.281073	48331.554390	4056.143223	25620.333306
53.535500	-0.014260	-0.002314	0.002871	0.086631	6468.595597	40203.602426	3848.888576	21625.387329
54.036000	-0.052408	-0.009556	-0.007487	0.180179	5532.069556	32486.789152	3636.999620	17994.252437
54.536500	-0.027495	-0.007105	-0.003446	0.135300	5992.966023	35888.199159	3730.466276	19638.876355
55.037000	-0.007309	-0.002443	0.005833	0.020587	7123.882752	46310.020739	4020.372149	24702.968306
55.537000	-0.000601	-0.014916	0.019309	-0.090061	8437.972917	57309.295912	4406.543534	31033.263499
56.037000	0.029024	-0.008185	0.050113	-0.095604	8906.078127	58867.807859	4542.153698	31394.826119
56.534500	0.046631	0.016537	0.065211	-0.006919	7997.568901	51209.308785	4278.893362	26129.379105
57.035000	0.091844	0.041105	0.103474	0.016379	8261.989892	51350.542234	4328.876658	24915.359137
57.538000	0.131132	0.064544	0.135888	0.068860	8101.208119	48219.491592	4262.240520	22408.009944
58.036000	0.165208	0.084344	0.169643	0.138131	7695.430090	43345.155964	4151.588498	19530.048462
58.536000	0.190429	0.100675	0.191515	0.200569	7300.642724	39275.991660	4035.794396	17301.401006
59.036000	0.205064	0.111823	0.211099	0.249949	6961.385073	36214.337299	3957.371612	15752.212035
59.536500	0.217422	0.120886	0.223904	0.295436	6662.245454	33537.946111	3877.323865	14472.950436
60.036500	0.233602	0.128887	0.243110	0.329040	6513.828294	31786.545761	3843.922249	13610.297650
60.537000	0.242802	0.134562	0.247361	0.369710	6260.405723	29553.673354	3764.222804	12651.715878
61.034500	0.257612	0.141316	0.264846	0.363503	6427.611484	30359.798115	3815.308006	12792.278590
61.534500	0.256127	0.143264	0.263870	0.388903	6215.154004	28918.680358	3758.611081	12229.604654
62.037000	0.269152	0.148230	0.277117	0.398593	6240.801190	28637.689888	3766.058825	12023.468067
62.535000	0.274119	0.150820	0.286391	0.418161	6129.962864	27652.627153	3744.671285	11620.946041
63.036000	0.278126	0.154292	0.288743	0.432547	6053.413806	27039.490296	3720.307294	11336.400508
63.536000	0.285662	0.160441	0.290631	0.474239	5814.024520	25146.161826	3644.359609	10563.014059
64.036000	0.295846	0.164429	0.297689	0.481100	5836.494891	24999.762221	3644.719634	10442.701536
64.536500	0.297694	0.164044	0.298357	0.479819	5857.817800	25045.282439	3648.278444	10465.019047
65.049500	0.299279	0.165121	0.299451	0.480192	5866.111651	25081.129437	3649.601373	10458.513809
65.537500	0.298509	0.163523	0.295121	0.480369	5859.631732	24990.870171	3641.377065	10455.434125
66.034500	0.299311	0.163913	0.294116	0.482649	5849.531805	24895.122736	3635.437161	10415.793241
66.537500	0.298600	0.163089	0.295693	0.484817	5829.963587	24744.429295	3634.372231	10378.304237
67.035500	0.301141	0.162231	0.300548	0.484859	5846.945519	24699.299808	3643.080694	10377.591356
67.535500	0.299704	0.162948	0.306062	0.486824	5823.851663	24636.861347	3649.560216	10343.765598
68.036000	0.297878	0.163149	0.301190	0.488757	5798.559822	24550.575626	3637.178953	10310.664666
68.536000	0.298693	0.162468	0.304949	0.490460	5792.616035	24432.266616	3640.899589	10281.610991
69.036000	0.302520	0.163798	0.304397	0.492707	5803.197398	24386.956842	3635.838138	10243.448601
69.536500	0.298495	0.162416	0.298529	0.497307	5745.878801	24093.597581	3617.196469	10165.935786
70.037000	0.301806	0.162032	0.304645	0.493912	5790.348582	24240.781634	3634.117002	10223.068825
70.534500	0.303595	0.162916	0.308201	0.497029	5781.486139	24131.551314	3634.905513	10170.601653
71.040500	0.303890	0.161992	0.305573	0.497433	5780.762503	24066.884242	3629.467804	10163.835315
71.534500	0.301993	0.161790	0.304766	0.502806	5732.745986	23797.467512	3618.497245	10074.359196
72.035500	0.306889	0.162482	0.306786	0.501754	5771.967848	23881.393682	3623.930978	10091.795581
72.535500	0.305746	0.160824	0.302146	0.503464	5753.084481	23719.612027	3612.740960	10063.480565
73.036000	0.302250	0.161096	0.305812	0.505126	5719.264247	23653.270315	3616.255960	10036.075580
73.536500	0.301204	0.160673	0.301448	0.510819	5675.675765	23363.671939	3598.786962	9942.975917
74.037000	0.305976	0.161258	0.312582	0.510392	5709.239420	23411.287522	3618.902732	9949.906884
74.537000	0.305680	0.159571	0.311977	0.511847	5697.898501	23263.764318	3615.279768	9926.297772
75.037500	0.305148	0.160836	0.306761	0.514562	5676.970167	23196.069576	3601.488130	9882.433569
75.537500	0.304854	0.159299	0.310484	0.518310	5651.131128	22951.093701	3601.442823	9822.313162
76.035000	0.304562	0.158592	0.312926	0.517657	5653.428769	22948.605939	3606.795118	9832.752315
76.535500	0.306300	0.159471	0.308734	0.521563	5639.662735	22809.697598	3592.872827	9770.572107
77.036000	0.304872	0.158168	0.307990	0.522433	5625.142826	22710.522368	3590.127111	9756.788832
77.535500	0.300833	0.156790	0.306229	0.525421	5581.212684	22512.822266	3582.111966	9709.686089
78.036500	0.302975	0.155980	0.313566	0.524480	5600.397690	22518.712225	3596.140793	9724.482749
78.536000	0.305747	0.157031	0.312168	0.528802	5590.733347	22371.851795	3586.417732	9656.779708
79.036500	0.303891	0.156137	0.309839	0.529121	5577.235798	22317.696920	3581.962069	9651.815713
79.537000	0.304181	0.155967	0.310509	0.531194	5566.225816	22217.921100	3579.611477	9619.608025
80.037500	0.305743	0.155947	0.317431	0.533391	5562.309257	22119.754733	3587.557043	9585.627712
80.535000	0.306548	0.156173	0.308418	0.536541	5547.910449	21991.102789	3567.274558	9537.222118
81.035000	0.306788	0.155705	0.311054	0.537528	5543.338833	21927.411713	3569.990821	9522.135810
81.535500	0.306581	0.155011	0.312329	0.539078	5532.617545	21829.567504	3569.537927	9498.492015
82.035500	0.307300	0.155934	0.314147	0.542002	5519.229534	21742.788255	3567.715058	9454.134611
82.536000	0.306603	0.153346	0.313581	0.543180	5507.890937	21580.426151	3564.850859	9436.336415
83.036500	0.307764	0.153449	0.309595	0.543343	5513.918274	21577.909898	3558.083953	9433.886950
83.536500	0.304578	0.153040	0.311160	0.546412	5476.372346	21429.253355	3555.646140	9387.778460
84.037000	0.308044	0.152563	0.316355	0.546237	5498.164735	21416.422202	3564.386535	9390.403055
84.539500	0.304779	0.152223	0.310863	0.548845	5463.108944	21291.457242	3551.243443	9351.470600
85.034500	0.308413	0.152872	0.317980	0.549842	5478.786789	21276.758107	3561.150725	9336.641542
85.535000	0.305065	0.151735	0.307041	0.552655	5442.298499	21110.799712	3539.083309	9295.010437
86.035500	0.308625	0.151671	0.313003	0.551370	5470.954166	21161.940723	3550.625555	9313.995582
86.535500	0.308670	0.150009	0.315230	0.551441	5470.799221	21089.394914	3554.097279	9312.950402
87.036500	0.311398	0.149977	0.317772	0.552174	5482.687043	21057.471619	3557.023465	9302.114458
87.536000	0.309527	0.150590	0.312153	0.555273	5453.166926	20954.073727	3543.033404	9256.497395
88.036000	0.309779	0.151062	0.321202	0.554880	5456.979134	20989.966374	3558.197410	9262.267672
88.536500	0.313205	0.150243	0.312678	0.557384	5462.433926	20852.416740	3540.517508	9225.609734
89.039500	0.313769	0.149822	0.319412	0.556955	5468.329688	20852.731519	3551.949913	9231.874838
89.537000	0.310716	0.149154	0.318142	0.559341	5436.223384	20727.264828	3546.091068	9197.117364
90.037500	0.313894	0.149745	0.323780	0.558911	5457.474997	20769.142888	3555.841705	9203.367246
90.534500	0.312897	0.149028	0.321031	0.561390	5436.997269	20638.436559	3547.433020	9167.419662
91.035500	0.311857	0.147973	0.319312	0.559851	5439.925658	20658.158277	3547.144741	9189.711214
91.535500	0.314551	0.149186	0.317641	0.563752	5432.843302	20548.854165	3538.298482	9133.353952
92.036000	0.313785	0.147706	0.324322	0.561577	5441.112696	20577.081284	3552.412653	9164.711473
92.536000	0.314588	0.146105	0.319815	0.563304	5435.687204	20442.465791	3542.446845	9139.798006
93.037500	0.312058	0.146078	0.325796	0.562427	5426.006853	20476.743876	3553.418678	9152.439119
93.539500	0.313571	0.146758	0.326337	0.563447	5428.892109	20463.029965	3552.648344	9137.747019
94.037000	0.315901	0.146368	0.322244	0.563914	5439.813205	20428.485039	3545.340497	9131.024146
94.537500	0.316366	0.146234	0.314765	0.566258	5428.795169	20329.005796	3529.859138	9097.415182
95.070500	0.316100	0.143874	0.319812	0.564933	5434.996918	20287.635986	3539.861233	9116.388778
95.535000	0.315740	0.144183	0.320369	0.566207	5425.439841	20249.161387	3538.729514	9098.151197
96.057000	0.315414	0.143687	0.319377	0.565276	5428.975905	20266.534156	3538.632738	9111.481546
96.535500	0.316806	0.145093	0.321996	0.569243	5413.952821	20164.648872	3536.508662	9054.881927
97.035000	0.315536	0.143268	0.319243	0.566417	5423.016554	20204.370850	3536.621895	9095.142261
97.536500	0.316226	0.143288	0.320131	0.567473	5420.884333	20163.265903	3536.358627	9080.069371
