sample name	sample
index	901
start time	 04-08-2021  03:42:52 PM


Wavelength (nm)	Absorbance
494.344910	NaN
494.563924	NaN
494.782919	NaN
495.001897	-1.137706
495.220856	NaN
495.439797	NaN
495.658719	NaN
495.877624	-0.210132
496.096510	0.084380
496.315378	-0.098562
496.534227	-0.301606
496.753059	-0.100567
496.971872	0.152738
497.190667	0.153713
497.409444	0.147537
497.628203	0.149180
497.846943	0.154379
498.065665	0.155107
498.284369	0.153700
498.503055	0.152027
498.721723	0.152088
498.940372	0.152930
499.159003	0.152559
499.377616	0.153363
499.596210	0.153659
499.814787	0.153019
500.033345	0.152132
500.251885	0.152731
500.470406	0.152638
500.688910	0.153129
500.907395	0.151793
501.125862	0.152909
501.344311	0.152827
501.562742	0.152655
501.781154	0.152868
501.999548	0.153140
502.217924	0.153216
502.436282	0.155344
502.654621	0.155983
502.872942	0.157158
503.091245	0.156743
503.309530	0.156556
503.527797	0.155610
503.746045	0.154948
503.964275	0.155753
504.182487	0.155344
504.400681	0.155021
504.618856	0.154564
504.837013	0.153929
505.055152	0.154339
505.273273	0.154540
505.491376	0.155360
505.709460	0.156144
505.927526	0.155592
506.145574	0.156016
506.363604	0.155662
506.581615	0.155768
506.799608	0.156302
507.017583	0.155364
507.235540	0.155858
507.453478	0.156294
507.671399	0.155581
507.889301	0.156730
508.107185	0.157693
508.325050	0.157641
508.542898	0.156616
508.760727	0.157025
508.978538	0.157711
509.196330	0.157012
509.414105	0.157197
509.631861	0.157826
509.849599	0.157915
510.067319	0.157359
510.285021	0.157642
510.502704	0.158912
510.720369	0.159872
510.938016	0.160387
511.155645	0.160851
511.373255	0.161751
511.590848	0.162082
511.808422	0.161962
512.025977	0.161789
512.243515	0.162436
512.461034	0.162048
512.678536	0.161468
512.896018	0.161434
513.113483	0.162323
513.330930	0.161582
513.548358	0.162267
513.765768	0.161449
513.983160	0.162083
514.200533	0.161854
514.417889	0.162398
514.635226	0.162864
514.852545	0.162451
515.069845	0.162398
515.287128	0.163549
515.504392	0.163893
515.721638	0.164839
515.938866	0.165385
516.156075	0.166286
516.373267	0.166710
516.590440	0.166842
516.807594	0.168252
517.024731	0.168440
517.241850	0.167312
517.458950	0.166888
517.676032	0.167404
517.893095	0.167280
518.110141	0.168291
518.327168	0.168397
518.544177	0.168210
518.761168	0.168154
518.978141	0.168809
519.195095	0.170142
519.412031	0.170599
519.628949	0.170588
519.845849	0.171358
520.062731	0.170228
520.279594	0.170434
520.496439	0.171149
520.713266	0.170741
520.930074	0.170868
521.146865	0.171375
521.363637	0.171166
521.580391	0.171429
521.797127	0.170993
522.013844	0.171076
522.230543	0.171742
522.447224	0.171514
522.663887	0.172585
522.880532	0.172355
523.097158	0.172288
523.313766	0.173043
523.530356	0.173142
523.746928	0.173138
523.963481	0.173877
524.180017	0.173708
524.396534	0.174467
524.613032	0.174437
524.829513	0.175151
525.045975	0.174651
525.262420	0.174581
525.478845	0.174890
525.695253	0.175725
525.911643	0.175424
526.128014	0.175600
526.344367	0.175509
526.560702	0.176729
526.777018	0.177276
526.993316	0.177978
527.209597	0.178043
527.425858	0.179072
527.642102	0.179297
527.858328	0.180582
528.074535	0.181261
528.290724	0.181796
528.506894	0.180925
528.723047	0.181158
528.939181	0.181430
529.155297	0.182639
529.371395	0.182521
529.587475	0.183672
529.803536	0.182901
530.019579	0.183210
530.235604	0.183696
530.451611	0.184447
530.667600	0.184412
530.883570	0.184366
531.099522	0.184270
531.315456	0.184545
531.531372	0.183973
531.747269	0.184758
531.963148	0.184443
532.179009	0.184588
532.394852	0.184842
532.610676	0.185356
532.826482	0.185540
533.042271	0.185856
533.258040	0.185498
533.473792	0.186049
533.689525	0.185990
533.905240	0.186671
534.120937	0.186836
534.336616	0.187052
534.552277	0.187578
534.767919	0.188484
534.983543	0.189106
535.199149	0.190227
535.414736	0.190878
535.630306	0.190868
535.845857	0.191869
536.061390	0.192424
536.276904	0.192977
536.492401	0.192984
536.707879	0.192841
536.923339	0.192609
537.138781	0.192899
537.354204	0.192939
537.569610	0.194239
537.784997	0.193976
538.000366	0.194385
538.215716	0.194351
538.431049	0.194438
538.646363	0.195393
538.861659	0.195952
539.076937	0.196180
539.292196	0.196310
539.507438	0.196062
539.722661	0.196476
539.937866	0.196209
540.153052	0.196014
540.368221	0.196578
540.583371	0.196510
540.798503	0.197144
541.013617	0.197211
541.228712	0.197384
541.443789	0.198183
541.658848	0.198339
541.873889	0.199217
542.088912	0.200044
542.303916	0.199855
542.518902	0.200610
542.733870	0.201004
542.948820	0.201379
543.163752	0.201708
543.378665	0.201671
543.593560	0.201292
543.808437	0.201281
544.023295	0.201310
544.238136	0.202450
544.452958	0.202430
544.667762	0.202027
544.882548	0.202477
545.097315	0.202775
545.312064	0.202808
545.526795	0.203734
545.741508	0.204110
545.956203	0.204437
546.170879	0.204510
546.385537	0.204390
546.600177	0.204727
546.814799	0.205144
547.029402	0.205708
547.243988	0.206216
547.458555	0.206296
547.673103	0.206639
547.887634	0.206853
548.102146	0.207224
548.316640	0.207543
548.531116	0.208351
548.745574	0.208356
548.960013	0.208674
549.174435	0.209341
549.388838	0.210068
549.603222	0.210017
549.817589	0.211207
550.031937	0.210925
550.246267	0.211055
550.460579	0.211143
550.674873	0.211797
550.889148	0.211836
551.103405	0.212070
551.317644	0.211937
551.531865	0.212278
551.746068	0.211506
551.960252	0.212133
552.174418	0.212871
552.388566	0.212861
552.602696	0.212754
552.816807	0.212811
553.030900	0.213210
553.244975	0.213790
553.459032	0.214468
553.673070	0.215163
553.887091	0.215305
554.101093	0.215743
554.315077	0.216213
554.529042	0.216364
554.742990	0.216742
554.956919	0.216702
555.170830	0.216648
555.384722	0.216404
555.598597	0.216424
555.812453	0.216374
556.026291	0.216450
556.240111	0.216503
556.453913	0.216986
556.667696	0.217384
556.881461	0.217554
557.095208	0.217666
557.308937	0.217908
557.522647	0.218443
557.736339	0.218928
557.950013	0.218930
558.163669	0.218775
558.377307	0.218719
558.590926	0.218933
558.804527	0.219079
559.018110	0.219479
559.231675	0.219567
559.445221	0.219602
559.658749	0.219467
559.872259	0.219952
560.085751	0.220741
560.299225	0.220724
560.512680	0.220697
560.726117	0.220765
560.939536	0.220947
561.152937	0.221191
561.366319	0.220900
561.579683	0.221255
561.793029	0.221345
562.006357	0.221168
562.219667	0.221699
562.432958	0.222230
562.646231	0.222220
562.859486	0.222591
563.072723	0.222727
563.285941	0.223418
563.499141	0.223037
563.712323	0.222983
563.925487	0.223340
564.138632	0.223439
564.351760	0.222937
564.564869	0.223416
564.777960	0.223142
564.991032	0.223443
565.204087	0.223462
565.417123	0.223816
565.630141	0.223993
565.843140	0.223859
566.056122	0.224164
566.269085	0.224764
566.482030	0.224993
566.694957	0.225284
566.907866	0.225683
567.120756	0.226227
567.333628	0.226512
567.546482	0.226795
567.759318	0.227311
567.972135	0.227383
568.184935	0.227072
568.397716	0.227005
568.610478	0.227537
568.823223	0.227480
569.035949	0.227847
569.248657	0.228448
569.461347	0.228670
569.674019	0.228845
569.886672	0.228762
570.099308	0.229710
570.311925	0.230333
570.524523	0.230429
570.737104	0.230572
570.949666	0.230511
571.162210	0.230513
571.374736	0.230707
571.587244	0.231283
571.799733	0.231599
572.012205	0.231887
572.224658	0.231511
572.437092	0.231682
572.649509	0.232078
572.861907	0.231785
573.074287	0.232071
573.286649	0.232182
573.498993	0.231718
573.711318	0.231846
573.923625	0.231738
574.135914	0.232186
574.348185	0.232502
574.560438	0.232555
574.772672	0.233084
574.984888	0.233352
575.197086	0.233462
575.409266	0.233788
575.621427	0.233894
575.833570	0.234031
576.045695	0.233969
576.257802	0.234032
576.469890	0.233973
576.681961	0.233882
576.894013	0.233844
577.106046	0.233827
577.318062	0.234182
577.530059	0.234483
577.742039	0.234969
577.954000	0.235306
578.165942	0.235173
578.377867	0.235157
578.589773	0.235464
578.801661	0.235870
579.013531	0.236243
579.225382	0.236188
579.437216	0.236319
579.649031	0.236121
579.860828	0.236560
580.072606	0.236702
580.284367	0.236929
580.496109	0.236837
580.707833	0.236671
580.919539	0.237117
581.131227	0.237376
581.342896	0.237621
581.554547	0.237788
581.766180	0.237617
581.977795	0.238257
582.189391	0.238675
582.400969	0.239131
582.612529	0.239500
582.824071	0.239530
583.035595	0.239702
583.247100	0.239575
583.458587	0.239863
583.670056	0.240179
583.881506	0.240318
584.092939	0.241011
584.304353	0.240844
584.515749	0.241021
584.727127	0.241267
584.938486	0.241308
585.149828	0.241517
585.361151	0.241872
585.572456	0.242135
585.783742	0.242100
585.995011	0.241597
586.206261	0.241975
586.417493	0.241973
586.628706	0.241692
586.839902	0.241641
587.051079	0.242076
587.262238	0.241621
587.473379	0.241767
587.684502	0.241894
587.895606	0.242527
588.106692	0.243048
588.317760	0.243589
588.528810	0.244328
588.739841	0.244835
588.950855	0.244755
589.161850	0.245174
589.372827	0.245173
589.583785	0.245496
589.794726	0.245315
590.005648	0.245148
590.216552	0.244871
590.427437	0.244706
590.638305	0.244743
590.849154	0.244740
591.059985	0.244807
591.270798	0.245389
591.481592	0.245327
591.692369	0.245355
591.903127	0.245686
592.113867	0.245702
592.324588	0.245777
592.535292	0.245745
592.745977	0.245925
592.956644	0.246406
593.167293	0.246077
593.377923	0.246118
593.588536	0.246491
593.799130	0.246749
594.009706	0.247270
594.220263	0.247466
594.430803	0.247646
594.641324	0.247951
594.851827	0.248055
595.062312	0.248365
595.272778	0.248565
595.483227	0.248667
595.693657	0.248654
595.904069	0.248475
596.114462	0.248838
596.324838	0.249059
596.535195	0.249156
596.745534	0.249092
596.955855	0.249253
597.166157	0.249527
597.376441	0.249756
597.586707	0.249397
597.796955	0.249782
598.007185	0.249859
598.217396	0.250226
598.427589	0.250516
598.637764	0.250909
598.847921	0.250551
599.058060	0.250761
599.268180	0.250989
599.478282	0.251417
599.688366	0.251737
599.898431	0.252096
600.108479	0.252276
600.318508	0.252596
600.528519	0.252787
600.738511	0.253198
600.948486	0.253471
601.158442	0.253309
601.368380	0.253678
601.578300	0.253555
601.788202	0.253527
601.998085	0.253347
602.207950	0.253143
602.417797	0.253164
602.627626	0.253570
602.837436	0.253822
603.047228	0.254159
603.257002	0.254228
603.466758	0.254179
603.676496	0.254532
603.886215	0.254581
604.095916	0.254900
604.305599	0.254804
604.515264	0.255071
604.724910	0.254919
604.934538	0.255044
605.144148	0.255386
605.353740	0.255885
605.563314	0.255323
605.772869	0.255431
605.982406	0.255670
606.191925	0.255628
606.401425	0.255676
606.610908	0.255631
606.820372	0.255879
607.029818	0.256214
607.239246	0.256113
607.448655	0.256562
607.658047	0.257142
607.867420	0.257113
608.076775	0.257531
608.286111	0.257480
608.495430	0.257806
608.704730	0.257978
608.914012	0.257756
609.123275	0.258022
609.332521	0.257929
609.541748	0.258091
609.750957	0.258294
609.960148	0.258662
610.169321	0.258889
610.378475	0.258811
610.587611	0.258844
610.796729	0.258918
611.005829	0.258890
611.214910	0.259007
611.423974	0.259254
611.633019	0.259477
611.842045	0.259183
612.051054	0.259380
612.260044	0.259464
612.469017	0.259688
612.677970	0.259849
612.886906	0.260523
613.095824	0.260917
613.304723	0.260763
613.513604	0.260934
613.722467	0.261588
613.931311	0.261346
614.140138	0.261702
614.348946	0.261466
614.557736	0.261680
614.766507	0.261435
614.975261	0.261588
615.183996	0.261691
615.392713	0.261536
615.601412	0.261463
615.810092	0.261940
616.018754	0.261965
616.227399	0.262443
616.436024	0.262525
616.644632	0.262662
616.853222	0.262912
617.061793	0.263021
617.270346	0.263182
617.478880	0.263207
617.687397	0.263238
617.895895	0.263311
618.104375	0.263534
618.312837	0.263653
618.521281	0.263771
618.729706	0.263800
618.938113	0.264112
619.146502	0.264556
619.354873	0.264587
619.563226	0.264747
619.771560	0.265033
619.979876	0.265182
620.188174	0.265368
620.396453	0.265614
620.604715	0.265900
620.812958	0.265979
621.021183	0.265937
621.229390	0.266224
621.437578	0.266300
621.645748	0.266305
621.853900	0.266345
622.062034	0.266390
622.270150	0.266435
622.478247	0.266349
622.686326	0.266472
622.894387	0.266699
623.102430	0.266847
623.310454	0.267064
623.518461	0.267270
623.726449	0.267475
623.934418	0.267432
624.142370	0.267568
624.350303	0.267696
624.558218	0.267512
624.766115	0.267700
624.973994	0.267669
625.181855	0.267848
625.389697	0.267907
625.597521	0.267754
625.805327	0.268186
626.013114	0.268497
626.220883	0.268677
626.428634	0.269375
626.636367	0.269580
626.844082	0.269802
627.051778	0.270052
627.259457	0.270259
627.467117	0.270467
627.674758	0.270780
627.882382	0.270688
628.089987	0.270871
628.297574	0.270907
628.505143	0.270786
628.712694	0.270963
628.920226	0.271137
629.127740	0.271416
629.335236	0.271551
629.542714	0.271502
629.750174	0.271720
629.957615	0.271867
630.165038	0.271748
630.372443	0.271893
630.579829	0.271991
630.787198	0.272131
630.994548	0.272322
631.201880	0.272474
631.409194	0.272513
631.616489	0.273005
631.823766	0.272821
632.031025	0.273047
632.238266	0.273460
632.445489	0.273727
632.652693	0.273810
632.859879	0.273940
633.067047	0.274141
633.274197	0.274455
633.481329	0.274256
633.688442	0.274603
633.895537	0.274915
634.102614	0.274967
634.309672	0.275030
634.516713	0.275378
634.723735	0.275417
634.930739	0.275753
635.137724	0.275913
635.344692	0.276002
635.551641	0.276577
635.758572	0.276520
635.965485	0.276829
636.172379	0.277182
636.379256	0.277169
636.586114	0.277276
636.792954	0.277612
636.999775	0.277761
637.206579	0.278378
637.413364	0.278467
637.620131	0.278963
637.826880	0.278992
638.033610	0.279211
638.240323	0.279440
638.447017	0.279770
638.653692	0.279536
638.860350	0.279941
639.066990	0.279752
639.273611	0.279773
639.480214	0.279893
639.686798	0.280162
639.893365	0.280291
640.099913	0.280480
640.306443	0.280792
640.512955	0.281111
640.719449	0.281075
640.925924	0.281437
641.132381	0.281960
641.338820	0.281827
641.545241	0.281920
641.751644	0.281879
641.958028	0.282082
642.164394	0.282015
642.370742	0.282170
642.577071	0.282123
642.783383	0.282204
642.989676	0.282204
643.195951	0.282500
643.402207	0.282680
643.608446	0.282983
643.814666	0.282887
644.020868	0.282852
644.227052	0.282919
644.433218	0.283187
644.639365	0.283415
644.845494	0.283571
645.051605	0.283817
645.257698	0.284176
645.463772	0.284211
645.669828	0.284379
645.875866	0.284912
646.081886	0.285080
646.287888	0.285396
646.493871	0.285575
646.699836	0.285415
646.905783	0.285635
647.111712	0.285573
647.317622	0.285658
647.523514	0.285980
647.729388	0.286095
647.935244	0.286344
648.141082	0.286428
648.346901	0.286429
648.552702	0.286596
648.758485	0.286810
648.964250	0.287052
649.169996	0.287724
649.375724	0.287812
649.581434	0.288074
649.787126	0.288319
649.992800	0.288506
650.198455	0.288712
650.404092	0.289195
650.609711	0.289550
650.815311	0.289834
651.020894	0.289636
651.226458	0.289843
651.432004	0.289938
651.637532	0.290239
651.843041	0.290544
652.048532	0.290889
652.254006	0.290807
652.459460	0.290806
652.664897	0.290727
652.870315	0.291013
653.075716	0.291212
653.281097	0.291235
653.486461	0.291497
653.691807	0.291683
653.897134	0.291636
654.102443	0.292138
654.307734	0.292304
654.513006	0.292937
654.718261	0.293167
654.923497	0.293449
655.128715	0.293860
655.333915	0.293905
655.539096	0.294174
655.744259	0.294366
655.949404	0.294640
656.154531	0.294849
656.359640	0.294713
656.564730	0.294909
656.769802	0.295185
656.974856	0.295402
657.179892	0.295875
657.384909	0.295901
657.589908	0.296113
657.794889	0.296204
657.999852	0.296508
658.204797	0.296954
658.409723	0.297247
658.614631	0.297472
658.819521	0.297987
659.024393	0.298107
659.229246	0.298360
659.434081	0.298742
659.638898	0.298882
659.843697	0.298869
660.048478	0.298980
660.253240	0.299110
660.457984	0.299355
660.662710	0.299191
660.867417	0.299449
661.072107	0.299811
661.276778	0.300259
661.481431	0.300236
661.686066	0.300570
661.890682	0.300745
662.095281	0.300966
662.299861	0.300900
662.504422	0.301263
662.708966	0.301360
662.913491	0.301723
663.117999	0.301880
663.322488	0.302589
663.526958	0.302832
663.731411	0.303007
663.935845	0.303363
664.140261	0.303717
664.344659	0.304067
664.549038	0.304379
664.753400	0.304105
664.957743	0.304251
665.162068	0.304525
665.366375	0.304861
665.570663	0.305082
665.774933	0.305210
665.979185	0.305517
666.183419	0.305651
666.387635	0.306121
666.591832	0.306690
666.796011	0.307051
667.000172	0.306970
667.204315	0.307137
667.408439	0.307410
667.612545	0.307805
667.816634	0.308339
668.020703	0.308351
668.224755	0.308407
668.428788	0.308850
668.632803	0.308869
668.836800	0.309237
669.040779	0.309561
669.244739	0.309843
669.448681	0.309928
669.652605	0.309893
669.856511	0.310327
670.060399	0.310246
670.264268	0.310227
670.468119	0.310437
670.671952	0.310652
670.875767	0.310841
671.079563	0.311129
671.283341	0.311340
671.487101	0.311671
671.690843	0.311897
671.894567	0.312453
672.098272	0.312720
672.301959	0.313232
672.505628	0.313202
672.709278	0.313563
672.912911	0.313921
673.116525	0.314293
673.320121	0.314628
673.523699	0.314757
673.727258	0.314848
673.930799	0.315213
674.134322	0.315490
674.337827	0.316194
674.541314	0.316478
674.744782	0.316602
674.948232	0.316789
675.151664	0.316747
675.355078	0.316967
675.558474	0.317069
675.761851	0.317033
675.965210	0.317020
676.168551	0.316970
676.371873	0.316846
676.575178	0.316797
676.778464	0.317055
676.981732	0.317243
677.184981	0.317352
677.388213	0.317608
677.591426	0.317730
677.794621	0.318105
677.997798	0.318208
678.200956	0.318489
678.404097	0.319048
678.607219	0.319188
678.810323	0.319317
679.013408	0.319540
679.216476	0.319958
679.419525	0.320259
679.622556	0.320432
679.825569	0.321042
680.028563	0.321209
680.231540	0.321386
680.434498	0.321773
680.637438	0.322237
680.840359	0.322732
681.043263	0.323078
681.246148	0.323504
681.449015	0.323817
681.651864	0.323891
681.854694	0.324389
682.057506	0.324801
682.260301	0.325124
682.463076	0.325463
682.665834	0.325722
682.868573	0.325979
683.071295	0.326292
683.273998	0.326604
683.476682	0.326812
683.679349	0.326794
683.881997	0.326946
684.084627	0.326775
684.287239	0.326959
684.489833	0.327093
684.692408	0.327318
684.894965	0.327471
685.097504	0.327565
685.300025	0.327901
685.502527	0.327966
685.705012	0.328129
685.907478	0.328755
686.109925	0.328692
686.312355	0.328930
686.514766	0.328955
686.717159	0.329175
686.919534	0.329268
687.121891	0.329247
687.324230	0.329849
687.526550	0.330150
687.728852	0.329970
687.931136	0.330129
688.133401	0.330272
688.335649	0.330197
688.537878	0.330360
688.740089	0.330421
688.942281	0.330612
689.144456	0.330850
689.346612	0.330956
689.548750	0.331228
689.750870	0.331761
689.952971	0.331989
690.155055	0.332498
690.357120	0.332637
690.559167	0.333187
690.761195	0.333407
690.963206	0.333462
691.165198	0.333388
691.367172	0.333651
691.569128	0.333713
691.771065	0.334143
691.972984	0.334160
692.174885	0.334513
692.376768	0.334457
692.578633	0.334640
692.780479	0.334921
692.982308	0.335105
693.184118	0.335287
693.385909	0.335287
693.587683	0.335113
