sample name	sample
index	1515
start time	 05-18-2021  03:13:20 PM


Wavelength (nm)	Absorbance
494.344910	NaN
494.563924	NaN
494.782919	NaN
495.001897	-0.498806
495.220856	0.023515
495.439797	-0.096923
495.658719	-0.164630
495.877624	-0.192188
496.096510	-0.111285
496.315378	-0.123976
496.534227	-0.122217
496.753059	-0.150221
496.971872	-0.129829
497.190667	0.134748
497.409444	0.177460
497.628203	0.183424
497.846943	0.183123
498.065665	0.184955
498.284369	0.185732
498.503055	0.186100
498.721723	0.185394
498.940372	0.185238
499.159003	0.185780
499.377616	0.184418
499.596210	0.184129
499.814787	0.184366
500.033345	0.184654
500.251885	0.185692
500.470406	0.184640
500.688910	0.185667
500.907395	0.187224
501.125862	0.187838
501.344311	0.188449
501.562742	0.188371
501.781154	0.189475
501.999548	0.189093
502.217924	0.188330
502.436282	0.189429
502.654621	0.188855
502.872942	0.187001
503.091245	0.187007
503.309530	0.186717
503.527797	0.186763
503.746045	0.186607
503.964275	0.186067
504.182487	0.186291
504.400681	0.185115
504.618856	0.185436
504.837013	0.185770
505.055152	0.185395
505.273273	0.185734
505.491376	0.186162
505.709460	0.184841
505.927526	0.184927
506.145574	0.184551
506.363604	0.186560
506.581615	0.187733
506.799608	0.188307
507.017583	0.188375
507.235540	0.187878
507.453478	0.186808
507.671399	0.187613
507.889301	0.188598
508.107185	0.189176
508.325050	0.189017
508.542898	0.188696
508.760727	0.188584
508.978538	0.189564
509.196330	0.190312
509.414105	0.190224
509.631861	0.190235
509.849599	0.189617
510.067319	0.189392
510.285021	0.189641
510.502704	0.190496
510.720369	0.190205
510.938016	0.189645
511.155645	0.189228
511.373255	0.190346
511.590848	0.190111
511.808422	0.191273
512.025977	0.191518
512.243515	0.190010
512.461034	0.189510
512.678536	0.190111
512.896018	0.190437
513.113483	0.191188
513.330930	0.190501
513.548358	0.191540
513.765768	0.191371
513.983160	0.192416
514.200533	0.193322
514.417889	0.193520
514.635226	0.193973
514.852545	0.194438
515.069845	0.193413
515.287128	0.194725
515.504392	0.194486
515.721638	0.194790
515.938866	0.194271
516.156075	0.193815
516.373267	0.194345
516.590440	0.195410
516.807594	0.195151
517.024731	0.196179
517.241850	0.195938
517.458950	0.196642
517.676032	0.196046
517.893095	0.195409
518.110141	0.197361
518.327168	0.196566
518.544177	0.195629
518.761168	0.195444
518.978141	0.195048
519.195095	0.195178
519.412031	0.194707
519.628949	0.195757
519.845849	0.197237
520.062731	0.196350
520.279594	0.196884
520.496439	0.196656
520.713266	0.196839
520.930074	0.196663
521.146865	0.196722
521.363637	0.197354
521.580391	0.196741
521.797127	0.196393
522.013844	0.196664
522.230543	0.196537
522.447224	0.196851
522.663887	0.196904
522.880532	0.197862
523.097158	0.198280
523.313766	0.198269
523.530356	0.198477
523.746928	0.197697
523.963481	0.197445
524.180017	0.197952
524.396534	0.198322
524.613032	0.198914
524.829513	0.198738
525.045975	0.199009
525.262420	0.198954
525.478845	0.199283
525.695253	0.200905
525.911643	0.202344
526.128014	0.202459
526.344367	0.202392
526.560702	0.202903
526.777018	0.203385
526.993316	0.203586
527.209597	0.204108
527.425858	0.204290
527.642102	0.203814
527.858328	0.202561
528.074535	0.202785
528.290724	0.203303
528.506894	0.203260
528.723047	0.203002
528.939181	0.203347
529.155297	0.202972
529.371395	0.202917
529.587475	0.202492
529.803536	0.203360
530.019579	0.203757
530.235604	0.203941
530.451611	0.203891
530.667600	0.204201
530.883570	0.203751
531.099522	0.204607
531.315456	0.204916
531.531372	0.206149
531.747269	0.206248
531.963148	0.206475
532.179009	0.206343
532.394852	0.206793
532.610676	0.207671
532.826482	0.208562
533.042271	0.208337
533.258040	0.208219
533.473792	0.208130
533.689525	0.208184
533.905240	0.208321
534.120937	0.209347
534.336616	0.209230
534.552277	0.208831
534.767919	0.208261
534.983543	0.208620
535.199149	0.209512
535.414736	0.209681
535.630306	0.209941
535.845857	0.210008
536.061390	0.209756
536.276904	0.209920
536.492401	0.209822
536.707879	0.210790
536.923339	0.210652
537.138781	0.211214
537.354204	0.211289
537.569610	0.211865
537.784997	0.212090
538.000366	0.212152
538.215716	0.212426
538.431049	0.213069
538.646363	0.213053
538.861659	0.213551
539.076937	0.213355
539.292196	0.213421
539.507438	0.213146
539.722661	0.212952
539.937866	0.213409
540.153052	0.213669
540.368221	0.214036
540.583371	0.213686
540.798503	0.213569
541.013617	0.214081
541.228712	0.214758
541.443789	0.214946
541.658848	0.215695
541.873889	0.215916
542.088912	0.216465
542.303916	0.216471
542.518902	0.216747
542.733870	0.217197
542.948820	0.216483
543.163752	0.216443
543.378665	0.216184
543.593560	0.216062
543.808437	0.215721
544.023295	0.215957
544.238136	0.215785
544.452958	0.216506
544.667762	0.216989
544.882548	0.217604
545.097315	0.217621
545.312064	0.218377
545.526795	0.218279
545.741508	0.219172
545.956203	0.219219
546.170879	0.219577
546.385537	0.219504
546.600177	0.219360
546.814799	0.219796
547.029402	0.220136
547.243988	0.220185
547.458555	0.220324
547.673103	0.220111
547.887634	0.220362
548.102146	0.220660
548.316640	0.220989
548.531116	0.221208
548.745574	0.221217
548.960013	0.221134
549.174435	0.221296
549.388838	0.221544
549.603222	0.221383
549.817589	0.221541
550.031937	0.221852
550.246267	0.221658
550.460579	0.221815
550.674873	0.221507
550.889148	0.221530
551.103405	0.221637
551.317644	0.222241
551.531865	0.222150
551.746068	0.221890
551.960252	0.221962
552.174418	0.222276
552.388566	0.222648
552.602696	0.222985
552.816807	0.222900
553.030900	0.223171
553.244975	0.223072
553.459032	0.223531
553.673070	0.223647
553.887091	0.223707
554.101093	0.223737
554.315077	0.224238
554.529042	0.224822
554.742990	0.225225
554.956919	0.225463
555.170830	0.225683
555.384722	0.225688
555.598597	0.225881
555.812453	0.226132
556.026291	0.225988
556.240111	0.225811
556.453913	0.225688
556.667696	0.225771
556.881461	0.225800
557.095208	0.225424
557.308937	0.225862
557.522647	0.226384
557.736339	0.226474
557.950013	0.226897
558.163669	0.226610
558.377307	0.226472
558.590926	0.226825
558.804527	0.226805
559.018110	0.227684
559.231675	0.227375
559.445221	0.227429
559.658749	0.227712
559.872259	0.228380
560.085751	0.228463
560.299225	0.228623
560.512680	0.228863
560.726117	0.229004
560.939536	0.228934
561.152937	0.229493
561.366319	0.229353
561.579683	0.229165
561.793029	0.228945
562.006357	0.229074
562.219667	0.229143
562.432958	0.228966
562.646231	0.229131
562.859486	0.229365
563.072723	0.229217
563.285941	0.229385
563.499141	0.229090
563.712323	0.229022
563.925487	0.229173
564.138632	0.229111
564.351760	0.229129
564.564869	0.229186
564.777960	0.229039
564.991032	0.229397
565.204087	0.229614
565.417123	0.230124
565.630141	0.230257
565.843140	0.230324
566.056122	0.230931
566.269085	0.230871
566.482030	0.231386
566.694957	0.231215
566.907866	0.231194
567.120756	0.231360
567.333628	0.231491
567.546482	0.231598
567.759318	0.231832
567.972135	0.231756
568.184935	0.232280
568.397716	0.231645
568.610478	0.231793
568.823223	0.231881
569.035949	0.231674
569.248657	0.231594
569.461347	0.231381
569.674019	0.231085
569.886672	0.230929
570.099308	0.230757
570.311925	0.231600
570.524523	0.232107
570.737104	0.232252
570.949666	0.232382
571.162210	0.232715
571.374736	0.233196
571.587244	0.233853
571.799733	0.233978
572.012205	0.234415
572.224658	0.234622
572.437092	0.234307
572.649509	0.234342
572.861907	0.234557
573.074287	0.234480
573.286649	0.234640
573.498993	0.234359
573.711318	0.234924
573.923625	0.235359
574.135914	0.234928
574.348185	0.235149
574.560438	0.235492
574.772672	0.235438
574.984888	0.235939
575.197086	0.236095
575.409266	0.236558
575.621427	0.236105
575.833570	0.235573
576.045695	0.235859
576.257802	0.236200
576.469890	0.236356
576.681961	0.236698
576.894013	0.236431
577.106046	0.236117
577.318062	0.236664
577.530059	0.237549
577.742039	0.237901
577.954000	0.237869
578.165942	0.238035
578.377867	0.238147
578.589773	0.238117
578.801661	0.238478
579.013531	0.239208
579.225382	0.238773
579.437216	0.238596
579.649031	0.238556
579.860828	0.239213
580.072606	0.239294
580.284367	0.239078
580.496109	0.239230
580.707833	0.239334
580.919539	0.239670
581.131227	0.240016
581.342896	0.240057
581.554547	0.240456
581.766180	0.240202
581.977795	0.240073
582.189391	0.240480
582.400969	0.240428
582.612529	0.240564
582.824071	0.240335
583.035595	0.240219
583.247100	0.240311
583.458587	0.240429
583.670056	0.240635
583.881506	0.240508
584.092939	0.240382
584.304353	0.240296
584.515749	0.240015
584.727127	0.239649
584.938486	0.239523
585.149828	0.239222
585.361151	0.239246
585.572456	0.239329
585.783742	0.239547
585.995011	0.239695
586.206261	0.240136
586.417493	0.240354
586.628706	0.240385
586.839902	0.240608
587.051079	0.241260
587.262238	0.241441
587.473379	0.241357
587.684502	0.241515
587.895606	0.241338
588.106692	0.241438
588.317760	0.241438
588.528810	0.241902
588.739841	0.241664
588.950855	0.241812
589.161850	0.241742
589.372827	0.242066
589.583785	0.241895
589.794726	0.242411
590.005648	0.242657
590.216552	0.242756
590.427437	0.242466
590.638305	0.242785
590.849154	0.242530
591.059985	0.242658
591.270798	0.242544
591.481592	0.243202
591.692369	0.242871
591.903127	0.242779
592.113867	0.243121
592.324588	0.243667
592.535292	0.244013
592.745977	0.243978
592.956644	0.244291
593.167293	0.244345
593.377923	0.244334
593.588536	0.244505
593.799130	0.244525
594.009706	0.244525
594.220263	0.244304
594.430803	0.244378
594.641324	0.244796
594.851827	0.244645
595.062312	0.245087
595.272778	0.245287
595.483227	0.245857
595.693657	0.246159
595.904069	0.246278
596.114462	0.246424
596.324838	0.246760
596.535195	0.247031
596.745534	0.247324
596.955855	0.247702
597.166157	0.248086
597.376441	0.248232
597.586707	0.248376
597.796955	0.248577
598.007185	0.249121
598.217396	0.249054
598.427589	0.249287
598.637764	0.249430
598.847921	0.249090
599.058060	0.249019
599.268180	0.249024
599.478282	0.248886
599.688366	0.248745
599.898431	0.248506
600.108479	0.248227
600.318508	0.247776
600.528519	0.247283
600.738511	0.247149
600.948486	0.246889
601.158442	0.246894
601.368380	0.247140
601.578300	0.247377
601.788202	0.247557
601.998085	0.247734
602.207950	0.248011
602.417797	0.248667
602.627626	0.249145
602.837436	0.249450
603.047228	0.249148
603.257002	0.249175
603.466758	0.249413
603.676496	0.249523
603.886215	0.249507
604.095916	0.249973
604.305599	0.249913
604.515264	0.249789
604.724910	0.250137
604.934538	0.250561
605.144148	0.250515
605.353740	0.250554
605.563314	0.250700
605.772869	0.250783
605.982406	0.250472
606.191925	0.250509
606.401425	0.250543
606.610908	0.250297
606.820372	0.250314
607.029818	0.250782
607.239246	0.251075
607.448655	0.251215
607.658047	0.251591
607.867420	0.251603
608.076775	0.251926
608.286111	0.251749
608.495430	0.251785
608.704730	0.251470
608.914012	0.250986
609.123275	0.250815
609.332521	0.250793
609.541748	0.250756
609.750957	0.250950
609.960148	0.251058
610.169321	0.251552
610.378475	0.251676
610.587611	0.252331
610.796729	0.252767
611.005829	0.252839
611.214910	0.252798
611.423974	0.252857
611.633019	0.253111
611.842045	0.253203
612.051054	0.253462
612.260044	0.253645
612.469017	0.253720
612.677970	0.253775
612.886906	0.254282
613.095824	0.254442
613.304723	0.254883
613.513604	0.254971
613.722467	0.255055
613.931311	0.255038
614.140138	0.255059
614.348946	0.255078
614.557736	0.255558
614.766507	0.255236
614.975261	0.255394
615.183996	0.255451
615.392713	0.255526
615.601412	0.255414
615.810092	0.255368
616.018754	0.255452
616.227399	0.254995
616.436024	0.254632
616.644632	0.254639
616.853222	0.254893
617.061793	0.254863
617.270346	0.254760
617.478880	0.254790
617.687397	0.254915
617.895895	0.255171
618.104375	0.255985
618.312837	0.256470
618.521281	0.256641
618.729706	0.256444
618.938113	0.256505
619.146502	0.256717
619.354873	0.257160
619.563226	0.257075
619.771560	0.257166
619.979876	0.257028
620.188174	0.256858
620.396453	0.256970
620.604715	0.257076
620.812958	0.257172
621.021183	0.257208
621.229390	0.257105
621.437578	0.257201
621.645748	0.257208
621.853900	0.257148
622.062034	0.257079
622.270150	0.257260
622.478247	0.257448
622.686326	0.257408
622.894387	0.257603
623.102430	0.257813
623.310454	0.258132
623.518461	0.258460
623.726449	0.258800
623.934418	0.259271
624.142370	0.259224
624.350303	0.259478
624.558218	0.259715
624.766115	0.259608
624.973994	0.259547
625.181855	0.259689
625.389697	0.259565
625.597521	0.259694
625.805327	0.259531
626.013114	0.259817
626.220883	0.259985
626.428634	0.260086
626.636367	0.260321
626.844082	0.260389
627.051778	0.260247
627.259457	0.260110
627.467117	0.259995
627.674758	0.259728
627.882382	0.259621
628.089987	0.259249
628.297574	0.259072
628.505143	0.259077
628.712694	0.259624
628.920226	0.259895
629.127740	0.260195
629.335236	0.260306
629.542714	0.260897
629.750174	0.261120
629.957615	0.261528
630.165038	0.261676
630.372443	0.261697
630.579829	0.261329
630.787198	0.261441
630.994548	0.261586
631.201880	0.261850
631.409194	0.261674
631.616489	0.261820
631.823766	0.261726
632.031025	0.262031
632.238266	0.262226
632.445489	0.262380
632.652693	0.262333
632.859879	0.262441
633.067047	0.262416
633.274197	0.262805
633.481329	0.262968
633.688442	0.263121
633.895537	0.263053
634.102614	0.263186
634.309672	0.263079
634.516713	0.263309
634.723735	0.263248
634.930739	0.263536
635.137724	0.263499
635.344692	0.263674
635.551641	0.263917
635.758572	0.263955
635.965485	0.264225
636.172379	0.264521
636.379256	0.264510
636.586114	0.264707
636.792954	0.264832
636.999775	0.265105
637.206579	0.265023
637.413364	0.265059
637.620131	0.265425
637.826880	0.265233
638.033610	0.265362
638.240323	0.265637
638.447017	0.265700
638.653692	0.265533
638.860350	0.265329
639.066990	0.265458
639.273611	0.265620
639.480214	0.265468
639.686798	0.265417
639.893365	0.265426
640.099913	0.265286
640.306443	0.265414
640.512955	0.265894
640.719449	0.266141
640.925924	0.266231
641.132381	0.266234
641.338820	0.266394
641.545241	0.266731
641.751644	0.266939
641.958028	0.266951
642.164394	0.267065
642.370742	0.266953
642.577071	0.266938
642.783383	0.266856
642.989676	0.266864
643.195951	0.266993
643.402207	0.267244
643.608446	0.267014
643.814666	0.267250
644.020868	0.267436
644.227052	0.267616
644.433218	0.267954
644.639365	0.268174
644.845494	0.268297
645.051605	0.268439
645.257698	0.268562
645.463772	0.268850
645.669828	0.269125
645.875866	0.269177
646.081886	0.269333
646.287888	0.269481
646.493871	0.269617
646.699836	0.269777
646.905783	0.269853
647.111712	0.270049
647.317622	0.270616
647.523514	0.270375
647.729388	0.270327
647.935244	0.270066
648.141082	0.269973
648.346901	0.270073
648.552702	0.270108
648.758485	0.270262
648.964250	0.269967
649.169996	0.269601
649.375724	0.269749
649.581434	0.269953
649.787126	0.270284
649.992800	0.270435
650.198455	0.270457
650.404092	0.270483
650.609711	0.270376
650.815311	0.270563
651.020894	0.270629
651.226458	0.270849
651.432004	0.270711
651.637532	0.270754
651.843041	0.270567
652.048532	0.270823
652.254006	0.270906
652.459460	0.271111
652.664897	0.271183
652.870315	0.271285
653.075716	0.271285
653.281097	0.271342
653.486461	0.271363
653.691807	0.271690
653.897134	0.271727
654.102443	0.271948
654.307734	0.272155
654.513006	0.272634
654.718261	0.272917
654.923497	0.273221
655.128715	0.273639
655.333915	0.273885
655.539096	0.273985
655.744259	0.274098
655.949404	0.274375
656.154531	0.274260
656.359640	0.274283
656.564730	0.274500
656.769802	0.274751
656.974856	0.274817
657.179892	0.275190
657.384909	0.275402
657.589908	0.275464
657.794889	0.275751
657.999852	0.276261
658.204797	0.276134
658.409723	0.276217
658.614631	0.276246
658.819521	0.276341
659.024393	0.276210
659.229246	0.276233
659.434081	0.276275
659.638898	0.276306
659.843697	0.276389
660.048478	0.276772
660.253240	0.276893
660.457984	0.276985
660.662710	0.277176
660.867417	0.277352
661.072107	0.277627
661.276778	0.278016
661.481431	0.278061
661.686066	0.278074
661.890682	0.278266
662.095281	0.278401
662.299861	0.278523
662.504422	0.278607
662.708966	0.278899
662.913491	0.278787
663.117999	0.278722
663.322488	0.278574
663.526958	0.278802
663.731411	0.278791
663.935845	0.278796
664.140261	0.278975
664.344659	0.279130
664.549038	0.279146
664.753400	0.279598
664.957743	0.279839
665.162068	0.280182
665.366375	0.280025
665.570663	0.279961
665.774933	0.280008
665.979185	0.280103
666.183419	0.280373
666.387635	0.280313
666.591832	0.280273
666.796011	0.280173
667.000172	0.280182
667.204315	0.280584
667.408439	0.280686
667.612545	0.280844
667.816634	0.280793
668.020703	0.280927
668.224755	0.281133
668.428788	0.281275
668.632803	0.281606
668.836800	0.281934
669.040779	0.282103
669.244739	0.282327
669.448681	0.282588
669.652605	0.282761
669.856511	0.282742
670.060399	0.283014
670.264268	0.283125
670.468119	0.283216
670.671952	0.283279
670.875767	0.283378
671.079563	0.283659
671.283341	0.283967
671.487101	0.284418
671.690843	0.284505
671.894567	0.284202
672.098272	0.284455
672.301959	0.284438
672.505628	0.284634
672.709278	0.284919
672.912911	0.285181
673.116525	0.285083
673.320121	0.284963
673.523699	0.285311
673.727258	0.285856
673.930799	0.285821
674.134322	0.286161
674.337827	0.286320
674.541314	0.286056
674.744782	0.286091
674.948232	0.286322
675.151664	0.286452
675.355078	0.286289
675.558474	0.286193
675.761851	0.286219
675.965210	0.286455
676.168551	0.286460
676.371873	0.286729
676.575178	0.286608
676.778464	0.286596
676.981732	0.286829
677.184981	0.287124
677.388213	0.287195
677.591426	0.287731
677.794621	0.287820
677.997798	0.288208
678.200956	0.288558
678.404097	0.288875
678.607219	0.289134
678.810323	0.289234
679.013408	0.289329
679.216476	0.289389
679.419525	0.289140
679.622556	0.289402
679.825569	0.289321
680.028563	0.289272
680.231540	0.289480
680.434498	0.289332
680.637438	0.289107
680.840359	0.289060
681.043263	0.289470
681.246148	0.289810
681.449015	0.289649
681.651864	0.289618
681.854694	0.289673
682.057506	0.289593
682.260301	0.289953
682.463076	0.290409
682.665834	0.290663
682.868573	0.290831
683.071295	0.291114
683.273998	0.291377
683.476682	0.291684
683.679349	0.291780
683.881997	0.291793
684.084627	0.292064
684.287239	0.292320
684.489833	0.292576
684.692408	0.292466
684.894965	0.292523
685.097504	0.292667
685.300025	0.292773
685.502527	0.292936
685.705012	0.293202
685.907478	0.292969
686.109925	0.292734
686.312355	0.292748
686.514766	0.292955
686.717159	0.292759
686.919534	0.292674
687.121891	0.292549
687.324230	0.292684
687.526550	0.292639
687.728852	0.292870
687.931136	0.292935
688.133401	0.292897
688.335649	0.293012
688.537878	0.293166
688.740089	0.293091
688.942281	0.293172
689.144456	0.293159
689.346612	0.293155
689.548750	0.293153
689.750870	0.293532
689.952971	0.293649
690.155055	0.293685
690.357120	0.293674
690.559167	0.293999
690.761195	0.294186
690.963206	0.294349
691.165198	0.294683
691.367172	0.294788
691.569128	0.294583
691.771065	0.294850
691.972984	0.294798
692.174885	0.294927
692.376768	0.295110
692.578633	0.295315
692.780479	0.295270
692.982308	0.295140
693.184118	0.295196
693.385909	0.295319
