sample name	sample
index	1424
start time	 05-10-2021  12:16:16 PM


Wavelength (nm)	Absorbance
494.344910	0.012410
494.563924	0.012410
494.782919	0.012410
495.001897	-0.090145
495.220856	-0.002494
495.439797	0.001209
495.658719	0.003884
495.877624	0.003346
496.096510	0.003384
496.315378	-0.006383
496.534227	0.003033
496.753059	-0.011171
496.971872	-0.009036
497.190667	0.036026
497.409444	0.061694
497.628203	0.070836
497.846943	0.077647
498.065665	0.083945
498.284369	0.088911
498.503055	0.090512
498.721723	0.091741
498.940372	0.092452
499.159003	0.093993
499.377616	0.094932
499.596210	0.096611
499.814787	0.096832
500.033345	0.096885
500.251885	0.096597
500.470406	0.096856
500.688910	0.097116
500.907395	0.096699
501.125862	0.095912
501.344311	0.095000
501.562742	0.094180
501.781154	0.093983
501.999548	0.093490
502.217924	0.094777
502.436282	0.095446
502.654621	0.095730
502.872942	0.096622
503.091245	0.096839
503.309530	0.097821
503.527797	0.097665
503.746045	0.098733
503.964275	0.099473
504.182487	0.098424
504.400681	0.097433
504.618856	0.097918
504.837013	0.097563
505.055152	0.097601
505.273273	0.097651
505.491376	0.097233
505.709460	0.096823
505.927526	0.097023
506.145574	0.096635
506.363604	0.097557
506.581615	0.096652
506.799608	0.096248
507.017583	0.097118
507.235540	0.097396
507.453478	0.098911
507.671399	0.098561
507.889301	0.097851
508.107185	0.098260
508.325050	0.097447
508.542898	0.098847
508.760727	0.099495
508.978538	0.098588
509.196330	0.098111
509.414105	0.097701
509.631861	0.097833
509.849599	0.097620
510.067319	0.097620
510.285021	0.097585
510.502704	0.097618
510.720369	0.097831
510.938016	0.098489
511.155645	0.098124
511.373255	0.097918
511.590848	0.098651
511.808422	0.099853
512.025977	0.099821
512.243515	0.100643
512.461034	0.100044
512.678536	0.100080
512.896018	0.100303
513.113483	0.100394
513.330930	0.100714
513.548358	0.100639
513.765768	0.100392
513.983160	0.100590
514.200533	0.100351
514.417889	0.100703
514.635226	0.100931
514.852545	0.101305
515.069845	0.102223
515.287128	0.102593
515.504392	0.102657
515.721638	0.102901
515.938866	0.102988
516.156075	0.103484
516.373267	0.103889
516.590440	0.104095
516.807594	0.103410
517.024731	0.103686
517.241850	0.103210
517.458950	0.103125
517.676032	0.102353
517.893095	0.102894
518.110141	0.102883
518.327168	0.103267
518.544177	0.103609
518.761168	0.105295
518.978141	0.105720
519.195095	0.106555
519.412031	0.107102
519.628949	0.108222
519.845849	0.108098
520.062731	0.108567
520.279594	0.108721
520.496439	0.108508
520.713266	0.107016
520.930074	0.105851
521.146865	0.105813
521.363637	0.106175
521.580391	0.106280
521.797127	0.106799
522.013844	0.106927
522.230543	0.106883
522.447224	0.106753
522.663887	0.107844
522.880532	0.109515
523.097158	0.108912
523.313766	0.108073
523.530356	0.108193
523.746928	0.107858
523.963481	0.108013
524.180017	0.108062
524.396534	0.108470
524.613032	0.108360
524.829513	0.108212
525.045975	0.109424
525.262420	0.109710
525.478845	0.109204
525.695253	0.109757
525.911643	0.110191
526.128014	0.110394
526.344367	0.110796
526.560702	0.111142
526.777018	0.110521
526.993316	0.110576
527.209597	0.111129
527.425858	0.112092
527.642102	0.112694
527.858328	0.112435
528.074535	0.112532
528.290724	0.112961
528.506894	0.113110
528.723047	0.113013
528.939181	0.112853
529.155297	0.113154
529.371395	0.113016
529.587475	0.112800
529.803536	0.113786
530.019579	0.113946
530.235604	0.113358
530.451611	0.113795
530.667600	0.114465
530.883570	0.115047
531.099522	0.115141
531.315456	0.115154
531.531372	0.115911
531.747269	0.115414
531.963148	0.115431
532.179009	0.115929
532.394852	0.115889
532.610676	0.116569
532.826482	0.116580
533.042271	0.116506
533.258040	0.117577
533.473792	0.117112
533.689525	0.116828
533.905240	0.117725
534.120937	0.117793
534.336616	0.118062
534.552277	0.118554
534.767919	0.119212
534.983543	0.119658
535.199149	0.119199
535.414736	0.119471
535.630306	0.120077
535.845857	0.119988
536.061390	0.121180
536.276904	0.121213
536.492401	0.121280
536.707879	0.120803
536.923339	0.121240
537.138781	0.121862
537.354204	0.121981
537.569610	0.122274
537.784997	0.122391
538.000366	0.121992
538.215716	0.122645
538.431049	0.122532
538.646363	0.122912
538.861659	0.122738
539.076937	0.122495
539.292196	0.122541
539.507438	0.122233
539.722661	0.122367
539.937866	0.122605
540.153052	0.122503
540.368221	0.123265
540.583371	0.123282
540.798503	0.123800
541.013617	0.124405
541.228712	0.124918
541.443789	0.125723
541.658848	0.126441
541.873889	0.126795
542.088912	0.127364
542.303916	0.126965
542.518902	0.127386
542.733870	0.127706
542.948820	0.127821
543.163752	0.128082
543.378665	0.128393
543.593560	0.128412
543.808437	0.128167
544.023295	0.127988
544.238136	0.128179
544.452958	0.128213
544.667762	0.128064
544.882548	0.128311
545.097315	0.128522
545.312064	0.128577
545.526795	0.128306
545.741508	0.128366
545.956203	0.128565
546.170879	0.129029
546.385537	0.129309
546.600177	0.130011
546.814799	0.129920
547.029402	0.130113
547.243988	0.130200
547.458555	0.130498
547.673103	0.130888
547.887634	0.131258
548.102146	0.131467
548.316640	0.131513
548.531116	0.131267
548.745574	0.131566
548.960013	0.131587
549.174435	0.131486
549.388838	0.131786
549.603222	0.132334
549.817589	0.132577
550.031937	0.132513
550.246267	0.133195
550.460579	0.133482
550.674873	0.133765
550.889148	0.133886
551.103405	0.134038
551.317644	0.134195
551.531865	0.134148
551.746068	0.133817
551.960252	0.134068
552.174418	0.133533
552.388566	0.133692
552.602696	0.133696
552.816807	0.133785
553.030900	0.134242
553.244975	0.134787
553.459032	0.134751
553.673070	0.135216
553.887091	0.135412
554.101093	0.135893
554.315077	0.136016
554.529042	0.136179
554.742990	0.136494
554.956919	0.136386
555.170830	0.136060
555.384722	0.136506
555.598597	0.136465
555.812453	0.135962
556.026291	0.135995
556.240111	0.136362
556.453913	0.136425
556.667696	0.136806
556.881461	0.137206
557.095208	0.137378
557.308937	0.137226
557.522647	0.137345
557.736339	0.137682
557.950013	0.137380
558.163669	0.137286
558.377307	0.137326
558.590926	0.137309
558.804527	0.137286
559.018110	0.137254
559.231675	0.136999
559.445221	0.137177
559.658749	0.137479
559.872259	0.138121
560.085751	0.138013
560.299225	0.138287
560.512680	0.138270
560.726117	0.138495
560.939536	0.138453
561.152937	0.138934
561.366319	0.139294
561.579683	0.139431
561.793029	0.139084
562.006357	0.139197
562.219667	0.139467
562.432958	0.139389
562.646231	0.139382
562.859486	0.139333
563.072723	0.139946
563.285941	0.140060
563.499141	0.139892
563.712323	0.140651
563.925487	0.140998
564.138632	0.141007
564.351760	0.141086
564.564869	0.141269
564.777960	0.141910
564.991032	0.141554
565.204087	0.141453
565.417123	0.141966
565.630141	0.142116
565.843140	0.142245
566.056122	0.142271
566.269085	0.142840
566.482030	0.142896
566.694957	0.143061
566.907866	0.143037
567.120756	0.143436
567.333628	0.143427
567.546482	0.143153
567.759318	0.143417
567.972135	0.143392
568.184935	0.143235
568.397716	0.143585
568.610478	0.143546
568.823223	0.143543
569.035949	0.143931
569.248657	0.144113
569.461347	0.144478
569.674019	0.144316
569.886672	0.144721
570.099308	0.144759
570.311925	0.145043
570.524523	0.145163
570.737104	0.145399
570.949666	0.145217
571.162210	0.145437
571.374736	0.145418
571.587244	0.145674
571.799733	0.145908
572.012205	0.146195
572.224658	0.145834
572.437092	0.145941
572.649509	0.146158
572.861907	0.146169
573.074287	0.146195
573.286649	0.146784
573.498993	0.146875
573.711318	0.147156
573.923625	0.147381
574.135914	0.148149
574.348185	0.148612
574.560438	0.148601
574.772672	0.149218
574.984888	0.149558
575.197086	0.149308
575.409266	0.149638
575.621427	0.149342
575.833570	0.149387
576.045695	0.149356
576.257802	0.149654
576.469890	0.150231
576.681961	0.149916
576.894013	0.150010
577.106046	0.150201
577.318062	0.150377
577.530059	0.150890
577.742039	0.151123
577.954000	0.151080
578.165942	0.150988
578.377867	0.151032
578.589773	0.151483
578.801661	0.151471
579.013531	0.151425
579.225382	0.151586
579.437216	0.151571
579.649031	0.151847
579.860828	0.152060
580.072606	0.152241
580.284367	0.152789
580.496109	0.152512
580.707833	0.152846
580.919539	0.153252
581.131227	0.153362
581.342896	0.153474
581.554547	0.153475
581.766180	0.153728
581.977795	0.153726
582.189391	0.153235
582.400969	0.153325
582.612529	0.153592
582.824071	0.153730
583.035595	0.153842
583.247100	0.154255
583.458587	0.154656
583.670056	0.154804
583.881506	0.154713
584.092939	0.155301
584.304353	0.155535
584.515749	0.155847
584.727127	0.156200
584.938486	0.156904
585.149828	0.156701
585.361151	0.156586
585.572456	0.156697
585.783742	0.157260
585.995011	0.157549
586.206261	0.157985
586.417493	0.157773
586.628706	0.157849
586.839902	0.157564
587.051079	0.157918
587.262238	0.158188
587.473379	0.158586
587.684502	0.158720
587.895606	0.158668
588.106692	0.158871
588.317760	0.159302
588.528810	0.159702
588.739841	0.159823
588.950855	0.160068
589.161850	0.160267
589.372827	0.159819
589.583785	0.159900
589.794726	0.160226
590.005648	0.160132
590.216552	0.160259
590.427437	0.160490
590.638305	0.160782
590.849154	0.161162
591.059985	0.161531
591.270798	0.162028
591.481592	0.161912
591.692369	0.161781
591.903127	0.162171
592.113867	0.162250
592.324588	0.162189
592.535292	0.162204
592.745977	0.162075
592.956644	0.161747
593.167293	0.161883
593.377923	0.162303
593.588536	0.162928
593.799130	0.162976
594.009706	0.163213
594.220263	0.163281
594.430803	0.163393
594.641324	0.163551
594.851827	0.164013
595.062312	0.164380
595.272778	0.164515
595.483227	0.164127
595.693657	0.164156
595.904069	0.164063
596.114462	0.164089
596.324838	0.164144
596.535195	0.163929
596.745534	0.164093
596.955855	0.164203
597.166157	0.164274
597.376441	0.164518
597.586707	0.164733
597.796955	0.165164
598.007185	0.165343
598.217396	0.165263
598.427589	0.165808
598.637764	0.165624
598.847921	0.165797
599.058060	0.165804
599.268180	0.165922
599.478282	0.166073
599.688366	0.165860
599.898431	0.165654
600.108479	0.166024
600.318508	0.165966
600.528519	0.166250
600.738511	0.166221
600.948486	0.166447
601.158442	0.166889
601.368380	0.167028
601.578300	0.167269
601.788202	0.167582
601.998085	0.167671
602.207950	0.167765
602.417797	0.167902
602.627626	0.167934
602.837436	0.167985
603.047228	0.167869
603.257002	0.167863
603.466758	0.167498
603.676496	0.167418
603.886215	0.167720
604.095916	0.167982
604.305599	0.168275
604.515264	0.168311
604.724910	0.169034
604.934538	0.169098
605.144148	0.169060
605.353740	0.169675
605.563314	0.170105
605.772869	0.170256
605.982406	0.170312
606.191925	0.170393
606.401425	0.170863
606.610908	0.170705
606.820372	0.170933
607.029818	0.171426
607.239246	0.171588
607.448655	0.171556
607.658047	0.171573
607.867420	0.171957
608.076775	0.172090
608.286111	0.172195
608.495430	0.172137
608.704730	0.172519
608.914012	0.172609
609.123275	0.172731
609.332521	0.172943
609.541748	0.172808
609.750957	0.172454
609.960148	0.172509
610.169321	0.172174
610.378475	0.172199
610.587611	0.171996
610.796729	0.172225
611.005829	0.172207
611.214910	0.172321
611.423974	0.172794
611.633019	0.172954
611.842045	0.173006
612.051054	0.173402
612.260044	0.173661
612.469017	0.173826
612.677970	0.173823
612.886906	0.174047
613.095824	0.174167
613.304723	0.174223
613.513604	0.174786
613.722467	0.174780
613.931311	0.174851
614.140138	0.174967
614.348946	0.175080
614.557736	0.175175
614.766507	0.175225
614.975261	0.175403
615.183996	0.175582
615.392713	0.175264
615.601412	0.175806
615.810092	0.175959
616.018754	0.176264
616.227399	0.176305
616.436024	0.176652
616.644632	0.176827
616.853222	0.176929
617.061793	0.177129
617.270346	0.177802
617.478880	0.177736
617.687397	0.177825
617.895895	0.178099
618.104375	0.178515
618.312837	0.178584
618.521281	0.178767
618.729706	0.179023
618.938113	0.179185
619.146502	0.179028
619.354873	0.179273
619.563226	0.179691
619.771560	0.179414
619.979876	0.179410
620.188174	0.179474
620.396453	0.179505
620.604715	0.179419
620.812958	0.179319
621.021183	0.179318
621.229390	0.179204
621.437578	0.179095
621.645748	0.179244
621.853900	0.179140
622.062034	0.179007
622.270150	0.179022
622.478247	0.179405
622.686326	0.179515
622.894387	0.179639
623.102430	0.179892
623.310454	0.179890
623.518461	0.180149
623.726449	0.180397
623.934418	0.180549
624.142370	0.180321
624.350303	0.180319
624.558218	0.180327
624.766115	0.180597
624.973994	0.180531
625.181855	0.180462
625.389697	0.180730
625.597521	0.180703
625.805327	0.180654
626.013114	0.181608
626.220883	0.181718
626.428634	0.181961
626.636367	0.181869
626.844082	0.181685
627.051778	0.181859
627.259457	0.181867
627.467117	0.181968
627.674758	0.182329
627.882382	0.182047
628.089987	0.182245
628.297574	0.182379
628.505143	0.182564
628.712694	0.183173
628.920226	0.183575
629.127740	0.183619
629.335236	0.184070
629.542714	0.184326
629.750174	0.184538
629.957615	0.184481
630.165038	0.184360
630.372443	0.184577
630.579829	0.184563
630.787198	0.184609
630.994548	0.184529
631.201880	0.184721
631.409194	0.184890
631.616489	0.184730
631.823766	0.184751
632.031025	0.185060
632.238266	0.184989
632.445489	0.185205
632.652693	0.185546
632.859879	0.185991
633.067047	0.185758
633.274197	0.185727
633.481329	0.186008
633.688442	0.186425
633.895537	0.186533
634.102614	0.186532
634.309672	0.186676
634.516713	0.186557
634.723735	0.186681
634.930739	0.186911
635.137724	0.186972
635.344692	0.187260
635.551641	0.187320
635.758572	0.187511
635.965485	0.187982
636.172379	0.187853
636.379256	0.188020
636.586114	0.187790
636.792954	0.187909
636.999775	0.187989
637.206579	0.187979
637.413364	0.188224
637.620131	0.188516
637.826880	0.188645
638.033610	0.189053
638.240323	0.189520
638.447017	0.190183
638.653692	0.190510
638.860350	0.190880
639.066990	0.191218
639.273611	0.191304
639.480214	0.191418
639.686798	0.191648
639.893365	0.192243
640.099913	0.192204
640.306443	0.192209
640.512955	0.192300
640.719449	0.192672
640.925924	0.193029
641.132381	0.193502
641.338820	0.193603
641.545241	0.193709
641.751644	0.193634
641.958028	0.193824
642.164394	0.193838
642.370742	0.193965
642.577071	0.193858
642.783383	0.193662
642.989676	0.193631
643.195951	0.193981
643.402207	0.194225
643.608446	0.194103
643.814666	0.194166
644.020868	0.194354
644.227052	0.194531
644.433218	0.194527
644.639365	0.194762
644.845494	0.194546
645.051605	0.194358
645.257698	0.194444
645.463772	0.194577
645.669828	0.194651
645.875866	0.194845
646.081886	0.194699
646.287888	0.195106
646.493871	0.195385
646.699836	0.195763
646.905783	0.195938
647.111712	0.195824
647.317622	0.195863
647.523514	0.196120
647.729388	0.196123
647.935244	0.196560
648.141082	0.196630
648.346901	0.196604
648.552702	0.196777
648.758485	0.196906
648.964250	0.197138
649.169996	0.197163
649.375724	0.197379
649.581434	0.197386
649.787126	0.197321
649.992800	0.197212
650.198455	0.197322
650.404092	0.197300
650.609711	0.197403
650.815311	0.197563
651.020894	0.197757
651.226458	0.197542
651.432004	0.197891
651.637532	0.198125
651.843041	0.198211
652.048532	0.198161
652.254006	0.198301
652.459460	0.198525
652.664897	0.198687
652.870315	0.198968
653.075716	0.199246
653.281097	0.199453
653.486461	0.199550
653.691807	0.199875
653.897134	0.200391
654.102443	0.200582
654.307734	0.200918
654.513006	0.201175
654.718261	0.201443
654.923497	0.201763
655.128715	0.201981
655.333915	0.202343
655.539096	0.202799
655.744259	0.202806
655.949404	0.203070
656.154531	0.203143
656.359640	0.203366
656.564730	0.203316
656.769802	0.203451
656.974856	0.203535
657.179892	0.203569
657.384909	0.203571
657.589908	0.203712
657.794889	0.203919
657.999852	0.204145
658.204797	0.204236
658.409723	0.204454
658.614631	0.204701
658.819521	0.204946
659.024393	0.204985
659.229246	0.205275
659.434081	0.205319
659.638898	0.205335
659.843697	0.205378
660.048478	0.205442
660.253240	0.205698
660.457984	0.205476
660.662710	0.205166
660.867417	0.205590
661.072107	0.205681
661.276778	0.205902
661.481431	0.206145
661.686066	0.206403
661.890682	0.206728
662.095281	0.206943
662.299861	0.207437
662.504422	0.207892
662.708966	0.207778
662.913491	0.207843
663.117999	0.208161
663.322488	0.208342
663.526958	0.208235
663.731411	0.208155
663.935845	0.208379
664.140261	0.208316
664.344659	0.208648
664.549038	0.209020
664.753400	0.209062
664.957743	0.209113
665.162068	0.209030
665.366375	0.209427
665.570663	0.209617
665.774933	0.209842
665.979185	0.209846
666.183419	0.209863
666.387635	0.209822
666.591832	0.209932
666.796011	0.210105
667.000172	0.210500
667.204315	0.210605
667.408439	0.210936
667.612545	0.210961
667.816634	0.211161
668.020703	0.211258
668.224755	0.211443
668.428788	0.211574
668.632803	0.211744
668.836800	0.211753
669.040779	0.211723
669.244739	0.211784
669.448681	0.211926
669.652605	0.212343
669.856511	0.212284
670.060399	0.212410
670.264268	0.212938
670.468119	0.213245
670.671952	0.213680
670.875767	0.213825
671.079563	0.214128
671.283341	0.214310
671.487101	0.214501
671.690843	0.215052
671.894567	0.215422
672.098272	0.215262
672.301959	0.215260
672.505628	0.215159
672.709278	0.215492
672.912911	0.215518
673.116525	0.215513
673.320121	0.215669
673.523699	0.215631
673.727258	0.215872
673.930799	0.216154
674.134322	0.216458
674.337827	0.216517
674.541314	0.216702
674.744782	0.216853
674.948232	0.216976
675.151664	0.217163
675.355078	0.217537
675.558474	0.217673
675.761851	0.217862
675.965210	0.217940
676.168551	0.218142
676.371873	0.218326
676.575178	0.218440
676.778464	0.218519
676.981732	0.218520
677.184981	0.218457
677.388213	0.218515
677.591426	0.218636
677.794621	0.218773
677.997798	0.219051
678.200956	0.219202
678.404097	0.219373
678.607219	0.219655
678.810323	0.220044
679.013408	0.220261
679.216476	0.220441
679.419525	0.220374
679.622556	0.220561
679.825569	0.220830
680.028563	0.221114
680.231540	0.221255
680.434498	0.221587
680.637438	0.221647
680.840359	0.222019
681.043263	0.222073
681.246148	0.222618
681.449015	0.222687
681.651864	0.222778
681.854694	0.222877
682.057506	0.223035
682.260301	0.223089
682.463076	0.223122
682.665834	0.223022
682.868573	0.223285
683.071295	0.223297
683.273998	0.223572
683.476682	0.223589
683.679349	0.223713
683.881997	0.224208
684.084627	0.224436
684.287239	0.224734
684.489833	0.224785
684.692408	0.224947
684.894965	0.224914
685.097504	0.224862
685.300025	0.225377
685.502527	0.225427
685.705012	0.225389
685.907478	0.225739
686.109925	0.225842
686.312355	0.226128
686.514766	0.226255
686.717159	0.226533
686.919534	0.226994
687.121891	0.226950
687.324230	0.227352
687.526550	0.227425
687.728852	0.227192
687.931136	0.227114
688.133401	0.227119
688.335649	0.227284
688.537878	0.227519
688.740089	0.227184
688.942281	0.227044
689.144456	0.226865
689.346612	0.226795
689.548750	0.227071
689.750870	0.227400
689.952971	0.227514
690.155055	0.227510
690.357120	0.227289
690.559167	0.227614
690.761195	0.227784
690.963206	0.227988
691.165198	0.228343
691.367172	0.228341
691.569128	0.228513
691.771065	0.228706
691.972984	0.228969
692.174885	0.229253
692.376768	0.229309
692.578633	0.229483
692.780479	0.229614
692.982308	0.229801
693.184118	0.229984
693.385909	0.229908
