sample name	sample
index	296
start time	 02-25-2021  01:03:52 PM


Wavelength (nm)	Absorbance
494.344910	0.598876
494.563924	0.598876
494.782919	0.598876
495.001897	NaN
495.220856	0.098370
495.439797	0.063308
495.658719	0.048680
495.877624	-0.179402
496.096510	-0.211159
496.315378	-0.229816
496.534227	-0.188474
496.753059	-0.177760
496.971872	-0.033941
497.190667	0.096176
497.409444	0.092992
497.628203	0.091269
497.846943	0.095640
498.065665	0.096729
498.284369	0.094800
498.503055	0.095369
498.721723	0.095651
498.940372	0.095878
499.159003	0.095729
499.377616	0.095195
499.596210	0.095687
499.814787	0.096325
500.033345	0.095966
500.251885	0.096556
500.470406	0.097152
500.688910	0.097679
500.907395	0.096402
501.125862	0.095529
501.344311	0.096073
501.562742	0.096702
501.781154	0.096140
501.999548	0.095770
502.217924	0.096552
502.436282	0.096633
502.654621	0.095805
502.872942	0.097092
503.091245	0.099049
503.309530	0.099743
503.527797	0.099309
503.746045	0.099181
503.964275	0.099761
504.182487	0.099889
504.400681	0.100111
504.618856	0.100255
504.837013	0.101000
505.055152	0.100567
505.273273	0.100674
505.491376	0.100540
505.709460	0.100614
505.927526	0.101297
506.145574	0.101557
506.363604	0.101524
506.581615	0.101756
506.799608	0.100989
507.017583	0.100215
507.235540	0.100987
507.453478	0.101287
507.671399	0.102180
507.889301	0.101729
508.107185	0.101103
508.325050	0.101202
508.542898	0.101063
508.760727	0.101670
508.978538	0.102763
509.196330	0.102435
509.414105	0.102142
509.631861	0.101353
509.849599	0.100784
510.067319	0.101734
510.285021	0.101240
510.502704	0.102070
510.720369	0.101473
510.938016	0.101076
511.155645	0.101540
511.373255	0.101872
511.590848	0.102769
511.808422	0.103983
512.025977	0.104078
512.243515	0.103947
512.461034	0.104057
512.678536	0.104140
512.896018	0.104821
513.113483	0.104368
513.330930	0.104961
513.548358	0.104807
513.765768	0.105018
513.983160	0.104871
514.200533	0.105657
514.417889	0.105434
514.635226	0.106440
514.852545	0.106691
515.069845	0.107444
515.287128	0.107888
515.504392	0.108225
515.721638	0.108283
515.938866	0.108403
516.156075	0.108649
516.373267	0.108751
516.590440	0.108029
516.807594	0.107806
517.024731	0.107610
517.241850	0.107495
517.458950	0.107235
517.676032	0.107424
517.893095	0.108190
518.110141	0.107658
518.327168	0.108437
518.544177	0.109260
518.761168	0.109511
518.978141	0.109561
519.195095	0.109552
519.412031	0.110178
519.628949	0.110522
519.845849	0.110296
520.062731	0.110701
520.279594	0.111219
520.496439	0.111760
520.713266	0.112164
520.930074	0.113001
521.146865	0.114051
521.363637	0.114187
521.580391	0.114554
521.797127	0.114648
522.013844	0.115514
522.230543	0.115256
522.447224	0.115263
522.663887	0.116197
522.880532	0.116252
523.097158	0.116154
523.313766	0.116557
523.530356	0.116179
523.746928	0.116602
523.963481	0.117112
524.180017	0.117457
524.396534	0.117432
524.613032	0.116394
524.829513	0.116618
525.045975	0.117082
525.262420	0.117821
525.478845	0.118263
525.695253	0.118850
525.911643	0.119316
526.128014	0.119465
526.344367	0.119849
526.560702	0.121367
526.777018	0.121763
526.993316	0.121756
527.209597	0.122315
527.425858	0.122299
527.642102	0.122134
527.858328	0.121525
528.074535	0.121343
528.290724	0.121795
528.506894	0.121361
528.723047	0.121720
528.939181	0.122103
529.155297	0.121537
529.371395	0.122241
529.587475	0.122511
529.803536	0.123454
530.019579	0.125013
530.235604	0.125570
530.451611	0.125680
530.667600	0.126322
530.883570	0.126061
531.099522	0.126373
531.315456	0.126436
531.531372	0.127201
531.747269	0.127218
531.963148	0.126903
532.179009	0.127124
532.394852	0.127630
532.610676	0.127021
532.826482	0.127997
533.042271	0.128423
533.258040	0.128215
533.473792	0.128397
533.689525	0.128588
533.905240	0.128961
534.120937	0.128782
534.336616	0.129197
534.552277	0.130113
534.767919	0.130380
534.983543	0.130524
535.199149	0.131813
535.414736	0.131992
535.630306	0.132397
535.845857	0.132199
536.061390	0.132559
536.276904	0.132763
536.492401	0.132338
536.707879	0.132652
536.923339	0.133253
537.138781	0.133046
537.354204	0.133591
537.569610	0.134106
537.784997	0.135028
538.000366	0.135893
538.215716	0.136319
538.431049	0.136734
538.646363	0.136714
538.861659	0.137176
539.076937	0.138098
539.292196	0.137738
539.507438	0.138788
539.722661	0.138982
539.937866	0.138698
540.153052	0.138988
540.368221	0.139602
540.583371	0.140251
540.798503	0.140460
541.013617	0.140236
541.228712	0.140902
541.443789	0.140689
541.658848	0.140879
541.873889	0.141391
542.088912	0.141798
542.303916	0.141818
542.518902	0.142112
542.733870	0.142185
542.948820	0.142547
543.163752	0.142729
543.378665	0.142647
543.593560	0.142579
543.808437	0.142735
544.023295	0.142626
544.238136	0.143137
544.452958	0.143152
544.667762	0.143489
544.882548	0.143634
545.097315	0.143845
545.312064	0.144006
545.526795	0.144335
545.741508	0.144893
545.956203	0.145291
546.170879	0.145754
546.385537	0.145988
546.600177	0.146388
546.814799	0.146597
547.029402	0.146829
547.243988	0.146969
547.458555	0.147643
547.673103	0.147966
547.887634	0.147809
548.102146	0.147877
548.316640	0.147918
548.531116	0.148060
548.745574	0.148677
548.960013	0.149377
549.174435	0.149866
549.388838	0.149849
549.603222	0.149961
549.817589	0.151092
550.031937	0.151565
550.246267	0.152026
550.460579	0.152370
550.674873	0.152436
550.889148	0.152411
551.103405	0.152753
551.317644	0.153069
551.531865	0.153390
551.746068	0.152867
551.960252	0.152943
552.174418	0.153462
552.388566	0.153254
552.602696	0.153518
552.816807	0.153817
553.030900	0.154089
553.244975	0.154167
553.459032	0.154334
553.673070	0.154828
553.887091	0.154864
554.101093	0.154868
554.315077	0.155632
554.529042	0.155954
554.742990	0.156079
554.956919	0.156131
555.170830	0.156365
555.384722	0.156395
555.598597	0.156462
555.812453	0.156729
556.026291	0.156491
556.240111	0.156092
556.453913	0.156230
556.667696	0.156389
556.881461	0.156288
557.095208	0.156802
557.308937	0.157176
557.522647	0.157355
557.736339	0.157746
557.950013	0.158577
558.163669	0.159233
558.377307	0.159537
558.590926	0.159701
558.804527	0.160156
559.018110	0.160193
559.231675	0.160089
559.445221	0.160721
559.658749	0.160792
559.872259	0.160776
560.085751	0.161141
560.299225	0.161260
560.512680	0.162035
560.726117	0.162492
560.939536	0.162559
561.152937	0.162994
561.366319	0.162768
561.579683	0.162907
561.793029	0.162935
562.006357	0.162945
562.219667	0.163162
562.432958	0.163251
562.646231	0.163012
562.859486	0.163325
563.072723	0.163622
563.285941	0.163788
563.499141	0.164060
563.712323	0.164367
563.925487	0.164811
564.138632	0.165136
564.351760	0.165012
564.564869	0.165255
564.777960	0.165479
564.991032	0.165381
565.204087	0.166037
565.417123	0.166147
565.630141	0.166224
565.843140	0.166266
566.056122	0.166227
566.269085	0.166621
566.482030	0.166971
566.694957	0.166924
566.907866	0.167106
567.120756	0.166920
567.333628	0.166886
567.546482	0.167342
567.759318	0.167327
567.972135	0.167315
568.184935	0.167152
568.397716	0.166992
568.610478	0.167318
568.823223	0.167968
569.035949	0.168068
569.248657	0.168417
569.461347	0.168582
569.674019	0.168825
569.886672	0.169517
570.099308	0.169904
570.311925	0.170213
570.524523	0.170472
570.737104	0.170163
570.949666	0.170551
571.162210	0.170651
571.374736	0.170745
571.587244	0.170936
571.799733	0.170629
572.012205	0.170783
572.224658	0.170971
572.437092	0.171118
572.649509	0.171567
572.861907	0.171760
573.074287	0.172165
573.286649	0.172323
573.498993	0.172563
573.711318	0.172682
573.923625	0.172874
574.135914	0.173210
574.348185	0.172946
574.560438	0.172848
574.772672	0.172772
574.984888	0.172946
575.197086	0.173166
575.409266	0.173180
575.621427	0.173438
575.833570	0.173653
576.045695	0.173779
576.257802	0.174498
576.469890	0.174945
576.681961	0.174978
576.894013	0.174869
577.106046	0.175138
577.318062	0.175570
577.530059	0.175700
577.742039	0.175566
577.954000	0.175710
578.165942	0.175671
578.377867	0.175723
578.589773	0.176392
578.801661	0.177085
579.013531	0.177058
579.225382	0.176931
579.437216	0.177259
579.649031	0.177603
579.860828	0.178018
580.072606	0.178093
580.284367	0.178331
580.496109	0.178036
580.707833	0.177991
580.919539	0.178206
581.131227	0.178588
581.342896	0.178729
581.554547	0.178777
581.766180	0.178807
581.977795	0.178999
582.189391	0.179323
582.400969	0.179673
582.612529	0.180046
582.824071	0.179960
583.035595	0.180117
583.247100	0.180328
583.458587	0.180670
583.670056	0.181153
583.881506	0.181291
584.092939	0.181298
584.304353	0.181792
584.515749	0.181781
584.727127	0.182255
584.938486	0.182075
585.149828	0.182505
585.361151	0.182878
585.572456	0.183088
585.783742	0.183616
585.995011	0.183798
586.206261	0.184175
586.417493	0.184213
586.628706	0.184386
586.839902	0.184824
587.051079	0.185006
587.262238	0.184876
587.473379	0.184728
587.684502	0.184782
587.895606	0.184931
588.106692	0.184984
588.317760	0.185331
588.528810	0.185507
588.739841	0.185772
588.950855	0.186011
589.161850	0.186380
589.372827	0.186405
589.583785	0.186427
589.794726	0.186793
590.005648	0.186803
590.216552	0.187118
590.427437	0.187349
590.638305	0.187785
590.849154	0.187348
591.059985	0.187716
591.270798	0.187942
591.481592	0.188366
591.692369	0.188544
591.903127	0.188599
592.113867	0.188526
592.324588	0.188836
592.535292	0.189085
592.745977	0.189400
592.956644	0.189658
593.167293	0.190185
593.377923	0.190157
593.588536	0.190189
593.799130	0.190691
594.009706	0.190953
594.220263	0.191092
594.430803	0.190893
594.641324	0.191332
594.851827	0.191196
595.062312	0.190890
595.272778	0.191505
595.483227	0.191550
595.693657	0.191658
595.904069	0.191746
596.114462	0.191942
596.324838	0.192127
596.535195	0.192139
596.745534	0.192224
596.955855	0.192399
597.166157	0.192509
597.376441	0.192915
597.586707	0.192962
597.796955	0.193250
598.007185	0.193271
598.217396	0.193362
598.427589	0.193643
598.637764	0.193699
598.847921	0.194085
599.058060	0.194357
599.268180	0.194386
599.478282	0.194451
599.688366	0.194761
599.898431	0.194861
600.108479	0.194890
600.318508	0.195097
600.528519	0.195545
600.738511	0.195762
600.948486	0.195788
601.158442	0.196025
601.368380	0.196552
601.578300	0.196384
601.788202	0.196695
601.998085	0.197121
602.207950	0.197297
602.417797	0.197605
602.627626	0.197682
602.837436	0.197781
603.047228	0.198004
603.257002	0.197633
603.466758	0.197979
603.676496	0.198352
603.886215	0.198195
604.095916	0.198420
604.305599	0.198122
604.515264	0.198320
604.724910	0.198471
604.934538	0.198592
605.144148	0.198772
605.353740	0.199045
605.563314	0.199066
605.772869	0.199679
605.982406	0.199784
606.191925	0.200172
606.401425	0.200294
606.610908	0.200371
606.820372	0.200268
607.029818	0.200700
607.239246	0.200500
607.448655	0.200607
607.658047	0.200447
607.867420	0.200658
608.076775	0.200628
608.286111	0.200787
608.495430	0.201007
608.704730	0.201215
608.914012	0.201434
609.123275	0.201799
609.332521	0.201748
609.541748	0.201852
609.750957	0.202114
609.960148	0.202666
610.169321	0.202722
610.378475	0.202764
610.587611	0.202902
610.796729	0.203065
611.005829	0.203396
611.214910	0.203761
611.423974	0.204012
611.633019	0.203708
611.842045	0.203863
612.051054	0.204005
612.260044	0.204332
612.469017	0.204536
612.677970	0.204557
612.886906	0.204444
613.095824	0.204610
613.304723	0.205069
613.513604	0.205453
613.722467	0.205569
613.931311	0.205971
614.140138	0.206024
614.348946	0.206241
614.557736	0.206432
614.766507	0.206479
614.975261	0.206883
615.183996	0.206776
615.392713	0.206844
615.601412	0.206617
615.810092	0.206758
616.018754	0.206745
616.227399	0.206974
616.436024	0.206985
616.644632	0.207223
616.853222	0.207137
617.061793	0.207376
617.270346	0.207632
617.478880	0.208136
617.687397	0.208568
617.895895	0.208933
618.104375	0.209182
618.312837	0.209171
618.521281	0.209193
618.729706	0.209484
618.938113	0.209631
619.146502	0.209776
619.354873	0.209811
619.563226	0.209572
619.771560	0.209874
619.979876	0.210042
620.188174	0.210635
620.396453	0.210872
620.604715	0.210814
620.812958	0.210916
621.021183	0.211056
621.229390	0.211207
621.437578	0.211474
621.645748	0.211656
621.853900	0.211707
622.062034	0.211734
622.270150	0.212124
622.478247	0.212173
622.686326	0.212620
622.894387	0.213008
623.102430	0.213169
623.310454	0.213277
623.518461	0.213241
623.726449	0.213580
623.934418	0.213910
624.142370	0.214076
624.350303	0.214285
624.558218	0.214062
624.766115	0.214237
624.973994	0.214677
625.181855	0.214979
625.389697	0.215049
625.597521	0.215179
625.805327	0.215120
626.013114	0.215446
626.220883	0.215946
626.428634	0.216525
626.636367	0.216705
626.844082	0.216692
627.051778	0.216844
627.259457	0.216937
627.467117	0.217230
627.674758	0.217867
627.882382	0.217916
628.089987	0.217892
628.297574	0.217851
628.505143	0.217902
628.712694	0.217931
628.920226	0.217701
629.127740	0.218002
629.335236	0.217996
629.542714	0.217889
629.750174	0.217832
629.957615	0.218063
630.165038	0.218217
630.372443	0.218339
630.579829	0.218656
630.787198	0.219273
630.994548	0.219681
631.201880	0.219636
631.409194	0.219560
631.616489	0.219873
631.823766	0.219923
632.031025	0.220136
632.238266	0.220242
632.445489	0.220203
632.652693	0.220006
632.859879	0.219975
633.067047	0.220287
633.274197	0.220468
633.481329	0.220505
633.688442	0.220585
633.895537	0.220476
634.102614	0.220704
634.309672	0.221127
634.516713	0.221751
634.723735	0.221968
634.930739	0.222056
635.137724	0.222492
635.344692	0.222714
635.551641	0.223125
635.758572	0.223588
635.965485	0.223490
636.172379	0.223394
636.379256	0.223161
636.586114	0.223283
636.792954	0.223547
636.999775	0.223539
637.206579	0.223842
637.413364	0.223931
637.620131	0.224116
637.826880	0.224516
638.033610	0.224812
638.240323	0.225123
638.447017	0.225348
638.653692	0.225238
638.860350	0.225305
639.066990	0.225404
639.273611	0.225607
639.480214	0.225561
639.686798	0.225644
639.893365	0.225784
640.099913	0.225981
640.306443	0.226163
640.512955	0.226647
640.719449	0.227032
640.925924	0.226987
641.132381	0.227171
641.338820	0.227387
641.545241	0.227739
641.751644	0.228157
641.958028	0.228642
642.164394	0.228846
642.370742	0.229150
642.577071	0.229508
642.783383	0.230076
642.989676	0.230335
643.195951	0.230371
643.402207	0.230446
643.608446	0.230276
643.814666	0.230306
644.020868	0.230410
644.227052	0.230387
644.433218	0.230444
644.639365	0.230576
644.845494	0.230658
645.051605	0.231383
645.257698	0.231885
645.463772	0.231936
645.669828	0.231807
645.875866	0.231753
646.081886	0.231957
646.287888	0.231992
646.493871	0.231979
646.699836	0.232250
646.905783	0.232038
647.111712	0.231998
647.317622	0.232412
647.523514	0.232865
647.729388	0.233345
647.935244	0.233477
648.141082	0.233731
648.346901	0.234004
648.552702	0.234097
648.758485	0.234297
648.964250	0.234503
649.169996	0.235055
649.375724	0.235203
649.581434	0.235315
649.787126	0.235673
649.992800	0.235955
650.198455	0.236121
650.404092	0.236160
650.609711	0.236515
650.815311	0.236628
651.020894	0.236363
651.226458	0.236608
651.432004	0.236801
651.637532	0.236856
651.843041	0.236944
652.048532	0.237081
652.254006	0.237528
652.459460	0.237731
652.664897	0.238040
652.870315	0.238326
653.075716	0.238508
653.281097	0.238710
653.486461	0.239141
653.691807	0.239465
653.897134	0.239806
654.102443	0.239917
654.307734	0.239993
654.513006	0.239873
654.718261	0.240335
654.923497	0.240438
655.128715	0.240885
655.333915	0.241113
655.539096	0.241164
655.744259	0.241275
655.949404	0.241763
656.154531	0.242029
656.359640	0.242699
656.564730	0.242687
656.769802	0.242983
656.974856	0.243059
657.179892	0.243404
657.384909	0.243622
657.589908	0.243911
657.794889	0.243877
657.999852	0.244252
658.204797	0.244376
658.409723	0.244728
658.614631	0.244957
658.819521	0.245159
659.024393	0.245257
659.229246	0.245791
659.434081	0.246193
659.638898	0.246389
659.843697	0.246113
660.048478	0.246420
660.253240	0.246661
660.457984	0.246832
660.662710	0.246936
660.867417	0.247169
661.072107	0.247158
661.276778	0.247335
661.481431	0.247701
661.686066	0.248397
661.890682	0.248493
662.095281	0.248618
662.299861	0.248933
662.504422	0.249415
662.708966	0.249399
662.913491	0.249804
663.117999	0.249893
663.322488	0.250088
663.526958	0.250299
663.731411	0.250698
663.935845	0.251006
664.140261	0.251109
664.344659	0.251158
664.549038	0.251560
664.753400	0.251673
664.957743	0.251902
665.162068	0.252116
665.366375	0.252219
665.570663	0.252200
665.774933	0.252522
665.979185	0.252603
666.183419	0.252948
666.387635	0.253226
666.591832	0.253488
666.796011	0.253713
667.000172	0.253879
667.204315	0.254397
667.408439	0.254787
667.612545	0.254969
667.816634	0.255378
668.020703	0.255534
668.224755	0.255638
668.428788	0.255979
668.632803	0.256456
668.836800	0.256892
669.040779	0.257125
669.244739	0.257291
669.448681	0.257630
669.652605	0.257756
669.856511	0.258009
670.060399	0.258216
670.264268	0.258411
670.468119	0.258681
670.671952	0.258787
670.875767	0.258804
671.079563	0.258821
671.283341	0.258900
671.487101	0.259320
671.690843	0.259450
671.894567	0.259398
672.098272	0.259417
672.301959	0.259373
672.505628	0.259326
672.709278	0.259688
672.912911	0.260227
673.116525	0.260513
673.320121	0.260756
673.523699	0.261029
673.727258	0.261626
673.930799	0.262168
674.134322	0.262619
674.337827	0.263225
674.541314	0.263504
674.744782	0.263549
674.948232	0.263751
675.151664	0.263959
675.355078	0.264133
675.558474	0.264328
675.761851	0.264400
675.965210	0.264419
676.168551	0.264496
676.371873	0.264555
676.575178	0.264723
676.778464	0.264929
676.981732	0.265362
677.184981	0.266006
677.388213	0.266258
677.591426	0.266446
677.794621	0.266857
677.997798	0.267237
678.200956	0.267490
678.404097	0.267906
678.607219	0.268291
678.810323	0.268269
679.013408	0.268410
679.216476	0.268497
679.419525	0.268730
679.622556	0.269128
679.825569	0.269391
680.028563	0.269719
680.231540	0.269793
680.434498	0.269946
680.637438	0.270282
680.840359	0.270367
681.043263	0.270820
681.246148	0.270813
681.449015	0.270713
681.651864	0.270772
681.854694	0.270875
682.057506	0.271137
682.260301	0.271351
682.463076	0.271547
682.665834	0.271728
682.868573	0.271874
683.071295	0.272262
683.273998	0.272343
683.476682	0.272604
683.679349	0.272645
683.881997	0.272791
684.084627	0.272869
684.287239	0.272951
684.489833	0.272852
684.692408	0.272912
684.894965	0.272943
685.097504	0.273296
685.300025	0.273350
685.502527	0.273620
685.705012	0.273845
685.907478	0.273880
686.109925	0.273917
686.312355	0.274180
686.514766	0.274407
686.717159	0.274679
686.919534	0.274714
687.121891	0.274935
687.324230	0.275146
687.526550	0.275446
687.728852	0.275706
687.931136	0.276012
688.133401	0.276352
688.335649	0.276708
688.537878	0.277002
688.740089	0.277282
688.942281	0.277390
689.144456	0.277704
689.346612	0.277907
689.548750	0.278003
689.750870	0.277948
689.952971	0.277886
690.155055	0.277884
690.357120	0.277813
690.559167	0.278222
690.761195	0.278591
690.963206	0.278748
691.165198	0.278858
691.367172	0.279358
691.569128	0.279762
691.771065	0.280187
691.972984	0.280412
692.174885	0.280800
692.376768	0.280695
692.578633	0.280914
692.780479	0.280998
692.982308	0.280948
693.184118	0.280985
693.385909	0.280962
