sample name	sample
index	310
start time	 02-25-2021  02:46:28 PM


Wavelength (nm)	Absorbance
494.344910	NaN
494.563924	NaN
494.782919	NaN
495.001897	-0.152504
495.220856	0.840857
495.439797	0.510820
495.658719	0.275542
495.877624	0.188881
496.096510	0.213957
496.315378	0.386184
496.534227	0.291380
496.753059	-0.055075
496.971872	0.034067
497.190667	0.121684
497.409444	0.127996
497.628203	0.132941
497.846943	0.135992
498.065665	0.133560
498.284369	0.134951
498.503055	0.135711
498.721723	0.136498
498.940372	0.137464
499.159003	0.137898
499.377616	0.139256
499.596210	0.139107
499.814787	0.137914
500.033345	0.138984
500.251885	0.138899
500.470406	0.140195
500.688910	0.140679
500.907395	0.140168
501.125862	0.141281
501.344311	0.140974
501.562742	0.141757
501.781154	0.143348
501.999548	0.143864
502.217924	0.143670
502.436282	0.142790
502.654621	0.142794
502.872942	0.143625
503.091245	0.143441
503.309530	0.142779
503.527797	0.141622
503.746045	0.141042
503.964275	0.141305
504.182487	0.141505
504.400681	0.141486
504.618856	0.141663
504.837013	0.140747
505.055152	0.139210
505.273273	0.139480
505.491376	0.139792
505.709460	0.140226
505.927526	0.140022
506.145574	0.140021
506.363604	0.140934
506.581615	0.141473
506.799608	0.140756
507.017583	0.141932
507.235540	0.143057
507.453478	0.144770
507.671399	0.144734
507.889301	0.145767
508.107185	0.145483
508.325050	0.145366
508.542898	0.144934
508.760727	0.146060
508.978538	0.146735
509.196330	0.145922
509.414105	0.145156
509.631861	0.144978
509.849599	0.145299
510.067319	0.145860
510.285021	0.146592
510.502704	0.147758
510.720369	0.148761
510.938016	0.149020
511.155645	0.149859
511.373255	0.150269
511.590848	0.150250
511.808422	0.150493
512.025977	0.151511
512.243515	0.151121
512.461034	0.150405
512.678536	0.149963
512.896018	0.149537
513.113483	0.149900
513.330930	0.149453
513.548358	0.150231
513.765768	0.149492
513.983160	0.149729
514.200533	0.150118
514.417889	0.150610
514.635226	0.150798
514.852545	0.150973
515.069845	0.150155
515.287128	0.151159
515.504392	0.151368
515.721638	0.152167
515.938866	0.151905
516.156075	0.151734
516.373267	0.151869
516.590440	0.151982
516.807594	0.151960
517.024731	0.152887
517.241850	0.152229
517.458950	0.152577
517.676032	0.153087
517.893095	0.153553
518.110141	0.153883
518.327168	0.154554
518.544177	0.154849
518.761168	0.156652
518.978141	0.157091
519.195095	0.157543
519.412031	0.157484
519.628949	0.157509
519.845849	0.157454
520.062731	0.157133
520.279594	0.156859
520.496439	0.157152
520.713266	0.156200
520.930074	0.156176
521.146865	0.156808
521.363637	0.156827
521.580391	0.157520
521.797127	0.158103
522.013844	0.158795
522.230543	0.159309
522.447224	0.159776
522.663887	0.160553
522.880532	0.160989
523.097158	0.160961
523.313766	0.160989
523.530356	0.160544
523.746928	0.160864
523.963481	0.161287
524.180017	0.162067
524.396534	0.162292
524.613032	0.162487
524.829513	0.163015
525.045975	0.164290
525.262420	0.164450
525.478845	0.164812
525.695253	0.164850
525.911643	0.165321
526.128014	0.165168
526.344367	0.164943
526.560702	0.164623
526.777018	0.164318
526.993316	0.163332
527.209597	0.164156
527.425858	0.164427
527.642102	0.165271
527.858328	0.165627
528.074535	0.166047
528.290724	0.166536
528.506894	0.166742
528.723047	0.167255
528.939181	0.167736
529.155297	0.167951
529.371395	0.168293
529.587475	0.168482
529.803536	0.168216
530.019579	0.167987
530.235604	0.167647
530.451611	0.168283
530.667600	0.168626
530.883570	0.169373
531.099522	0.170193
531.315456	0.170337
531.531372	0.169963
531.747269	0.170330
531.963148	0.170936
532.179009	0.171710
532.394852	0.172237
532.610676	0.172387
532.826482	0.172203
533.042271	0.172520
533.258040	0.173475
533.473792	0.173928
533.689525	0.174342
533.905240	0.174439
534.120937	0.174628
534.336616	0.174728
534.552277	0.175166
534.767919	0.175368
534.983543	0.174874
535.199149	0.174818
535.414736	0.175617
535.630306	0.175505
535.845857	0.175775
536.061390	0.176348
536.276904	0.177108
536.492401	0.177410
536.707879	0.177841
536.923339	0.178866
537.138781	0.178893
537.354204	0.178951
537.569610	0.179300
537.784997	0.179868
538.000366	0.179898
538.215716	0.179481
538.431049	0.179254
538.646363	0.179897
538.861659	0.179767
539.076937	0.180198
539.292196	0.179792
539.507438	0.180809
539.722661	0.181303
539.937866	0.181544
540.153052	0.182108
540.368221	0.183259
540.583371	0.183291
540.798503	0.183864
541.013617	0.183899
541.228712	0.184596
541.443789	0.184881
541.658848	0.184556
541.873889	0.185391
542.088912	0.185700
542.303916	0.185612
542.518902	0.186087
542.733870	0.186280
542.948820	0.186710
543.163752	0.187212
543.378665	0.187772
543.593560	0.188455
543.808437	0.188388
544.023295	0.188883
544.238136	0.189359
544.452958	0.190353
544.667762	0.190471
544.882548	0.190466
545.097315	0.190752
545.312064	0.190316
545.526795	0.190322
545.741508	0.190595
545.956203	0.190655
546.170879	0.190267
546.385537	0.189752
546.600177	0.190173
546.814799	0.190986
547.029402	0.191183
547.243988	0.191207
547.458555	0.191897
547.673103	0.192260
547.887634	0.192910
548.102146	0.193492
548.316640	0.193751
548.531116	0.193900
548.745574	0.193990
548.960013	0.193895
549.174435	0.193890
549.388838	0.194251
549.603222	0.194438
549.817589	0.194320
550.031937	0.194685
550.246267	0.195031
550.460579	0.195261
550.674873	0.195363
550.889148	0.195665
551.103405	0.196018
551.317644	0.196081
551.531865	0.196803
551.746068	0.197050
551.960252	0.197068
552.174418	0.197346
552.388566	0.197605
552.602696	0.198196
552.816807	0.198627
553.030900	0.199419
553.244975	0.199564
553.459032	0.199246
553.673070	0.199739
553.887091	0.200606
554.101093	0.200261
554.315077	0.200235
554.529042	0.200281
554.742990	0.200481
554.956919	0.200450
555.170830	0.200482
555.384722	0.200774
555.598597	0.200603
555.812453	0.200100
556.026291	0.200754
556.240111	0.200944
556.453913	0.200917
556.667696	0.200890
556.881461	0.200997
557.095208	0.201221
557.308937	0.201575
557.522647	0.201663
557.736339	0.202071
557.950013	0.202067
558.163669	0.202201
558.377307	0.202492
558.590926	0.202601
558.804527	0.202838
559.018110	0.203584
559.231675	0.203751
559.445221	0.203759
559.658749	0.203627
559.872259	0.203827
560.085751	0.204259
560.299225	0.204574
560.512680	0.205000
560.726117	0.205323
560.939536	0.205432
561.152937	0.205477
561.366319	0.206092
561.579683	0.205957
561.793029	0.206338
562.006357	0.206525
562.219667	0.206563
562.432958	0.206517
562.646231	0.206847
562.859486	0.206374
563.072723	0.206548
563.285941	0.206473
563.499141	0.207175
563.712323	0.207415
563.925487	0.207539
564.138632	0.207575
564.351760	0.207753
564.564869	0.207851
564.777960	0.208297
564.991032	0.208146
565.204087	0.208552
565.417123	0.208625
565.630141	0.208727
565.843140	0.209280
566.056122	0.209944
566.269085	0.210099
566.482030	0.209969
566.694957	0.210050
566.907866	0.210562
567.120756	0.210812
567.333628	0.211225
567.546482	0.211242
567.759318	0.210960
567.972135	0.210611
568.184935	0.210702
568.397716	0.211091
568.610478	0.211020
568.823223	0.211225
569.035949	0.211488
569.248657	0.211579
569.461347	0.211723
569.674019	0.212111
569.886672	0.212414
570.099308	0.212776
570.311925	0.212842
570.524523	0.213279
570.737104	0.213425
570.949666	0.213378
571.162210	0.213164
571.374736	0.213383
571.587244	0.213294
571.799733	0.213425
572.012205	0.213412
572.224658	0.213484
572.437092	0.213476
572.649509	0.213539
572.861907	0.213719
573.074287	0.214315
573.286649	0.214558
573.498993	0.214922
573.711318	0.215474
573.923625	0.215748
574.135914	0.215842
574.348185	0.215967
574.560438	0.216183
574.772672	0.216390
574.984888	0.216343
575.197086	0.216431
575.409266	0.216455
575.621427	0.216222
575.833570	0.216285
576.045695	0.216842
576.257802	0.217015
576.469890	0.217166
576.681961	0.217292
576.894013	0.217698
577.106046	0.217773
577.318062	0.217925
577.530059	0.218059
577.742039	0.218482
577.954000	0.218409
578.165942	0.218599
578.377867	0.218738
578.589773	0.218887
578.801661	0.218589
579.013531	0.219087
579.225382	0.219359
579.437216	0.219522
579.649031	0.219757
579.860828	0.219715
580.072606	0.219742
580.284367	0.219827
580.496109	0.220070
580.707833	0.220656
580.919539	0.220571
581.131227	0.220673
581.342896	0.220696
581.554547	0.220722
581.766180	0.220724
581.977795	0.221235
582.189391	0.221431
582.400969	0.221458
582.612529	0.221249
582.824071	0.221324
583.035595	0.221389
583.247100	0.221731
583.458587	0.221980
583.670056	0.222190
583.881506	0.221739
584.092939	0.222141
584.304353	0.222218
584.515749	0.222380
584.727127	0.222914
584.938486	0.222868
585.149828	0.222991
585.361151	0.222937
585.572456	0.223250
585.783742	0.223792
585.995011	0.223939
586.206261	0.223932
586.417493	0.224195
586.628706	0.224256
586.839902	0.224456
587.051079	0.224903
587.262238	0.225223
587.473379	0.225307
587.684502	0.225673
587.895606	0.225537
588.106692	0.225815
588.317760	0.225874
588.528810	0.225534
588.739841	0.225755
588.950855	0.225757
589.161850	0.225926
589.372827	0.226437
589.583785	0.226773
589.794726	0.227474
590.005648	0.227983
590.216552	0.228247
590.427437	0.228393
590.638305	0.228742
590.849154	0.228507
591.059985	0.228223
591.270798	0.227969
591.481592	0.227806
591.692369	0.227646
591.903127	0.227617
592.113867	0.227923
592.324588	0.228260
592.535292	0.228427
592.745977	0.228854
592.956644	0.229443
593.167293	0.229980
593.377923	0.230229
593.588536	0.230535
593.799130	0.230792
594.009706	0.230764
594.220263	0.231155
594.430803	0.231307
594.641324	0.231723
594.851827	0.231902
595.062312	0.232081
595.272778	0.232207
595.483227	0.232080
595.693657	0.231829
595.904069	0.232152
596.114462	0.232372
596.324838	0.232276
596.535195	0.232212
596.745534	0.232452
596.955855	0.232494
597.166157	0.232796
597.376441	0.233195
597.586707	0.233695
597.796955	0.233507
598.007185	0.233546
598.217396	0.234204
598.427589	0.234457
598.637764	0.234251
598.847921	0.234375
599.058060	0.234448
599.268180	0.234688
599.478282	0.234800
599.688366	0.235165
599.898431	0.235390
600.108479	0.235061
600.318508	0.234967
600.528519	0.235382
600.738511	0.235582
600.948486	0.235649
601.158442	0.235357
601.368380	0.235406
601.578300	0.235773
601.788202	0.235598
601.998085	0.236121
602.207950	0.236245
602.417797	0.236722
602.627626	0.236955
602.837436	0.237199
603.047228	0.237560
603.257002	0.237522
603.466758	0.237234
603.676496	0.237697
603.886215	0.237595
604.095916	0.237846
604.305599	0.237480
604.515264	0.237952
604.724910	0.238305
604.934538	0.238679
605.144148	0.238940
605.353740	0.239438
605.563314	0.239598
605.772869	0.239870
605.982406	0.240236
606.191925	0.240319
606.401425	0.239965
606.610908	0.239851
606.820372	0.239529
607.029818	0.239617
607.239246	0.239541
607.448655	0.239386
607.658047	0.239595
607.867420	0.239599
608.076775	0.239968
608.286111	0.240119
608.495430	0.239868
608.704730	0.240149
608.914012	0.240285
609.123275	0.240500
609.332521	0.240523
609.541748	0.240395
609.750957	0.240521
609.960148	0.240281
610.169321	0.240349
610.378475	0.240911
610.587611	0.241332
610.796729	0.241571
611.005829	0.241809
611.214910	0.242067
611.423974	0.242433
611.633019	0.242365
611.842045	0.242737
612.051054	0.243172
612.260044	0.243254
612.469017	0.243109
612.677970	0.243144
612.886906	0.243107
613.095824	0.243266
613.304723	0.243619
613.513604	0.244113
613.722467	0.244512
613.931311	0.244589
614.140138	0.244807
614.348946	0.244889
614.557736	0.244946
614.766507	0.245194
614.975261	0.245452
615.183996	0.245362
615.392713	0.245123
615.601412	0.244853
615.810092	0.244854
616.018754	0.244745
616.227399	0.245135
616.436024	0.245530
616.644632	0.245585
616.853222	0.245596
617.061793	0.245731
617.270346	0.245855
617.478880	0.246102
617.687397	0.246197
617.895895	0.246441
618.104375	0.246245
618.312837	0.246327
618.521281	0.246547
618.729706	0.246757
618.938113	0.246756
619.146502	0.246981
619.354873	0.247219
619.563226	0.247190
619.771560	0.247468
619.979876	0.247686
620.188174	0.247804
620.396453	0.247634
620.604715	0.247902
620.812958	0.248152
621.021183	0.248303
621.229390	0.248411
621.437578	0.248798
621.645748	0.248744
621.853900	0.248970
622.062034	0.249082
622.270150	0.249534
622.478247	0.249405
622.686326	0.249212
622.894387	0.249312
623.102430	0.249659
623.310454	0.249431
623.518461	0.249485
623.726449	0.249650
623.934418	0.249348
624.142370	0.249448
624.350303	0.249507
624.558218	0.249956
624.766115	0.250013
624.973994	0.249903
625.181855	0.250035
625.389697	0.250331
625.597521	0.250278
625.805327	0.250805
626.013114	0.250968
626.220883	0.251177
626.428634	0.251020
626.636367	0.251302
626.844082	0.251490
627.051778	0.251868
627.259457	0.252034
627.467117	0.252054
627.674758	0.252141
627.882382	0.252470
628.089987	0.252594
628.297574	0.253128
628.505143	0.253171
628.712694	0.253293
628.920226	0.253414
629.127740	0.253434
629.335236	0.253676
629.542714	0.254011
629.750174	0.253823
629.957615	0.253848
630.165038	0.253861
630.372443	0.254214
630.579829	0.254501
630.787198	0.254571
630.994548	0.254574
631.201880	0.254674
631.409194	0.254747
631.616489	0.255090
631.823766	0.255313
632.031025	0.255534
632.238266	0.255425
632.445489	0.255422
632.652693	0.255545
632.859879	0.255717
633.067047	0.256228
633.274197	0.256149
633.481329	0.256015
633.688442	0.256335
633.895537	0.256331
634.102614	0.256582
634.309672	0.256639
634.516713	0.256712
634.723735	0.256758
634.930739	0.256546
635.137724	0.256849
635.344692	0.257118
635.551641	0.257293
635.758572	0.257527
635.965485	0.257417
636.172379	0.257597
636.379256	0.257863
636.586114	0.258296
636.792954	0.258513
636.999775	0.258479
637.206579	0.258641
637.413364	0.258687
637.620131	0.258797
637.826880	0.259096
638.033610	0.259409
638.240323	0.259606
638.447017	0.259574
638.653692	0.259810
638.860350	0.260274
639.066990	0.260326
639.273611	0.260174
639.480214	0.260298
639.686798	0.260671
639.893365	0.260706
640.099913	0.261073
640.306443	0.260986
640.512955	0.261068
640.719449	0.261274
640.925924	0.261691
641.132381	0.262224
641.338820	0.262596
641.545241	0.262653
641.751644	0.262975
641.958028	0.263107
642.164394	0.263581
642.370742	0.263697
642.577071	0.263600
642.783383	0.263570
642.989676	0.263738
643.195951	0.263623
643.402207	0.263728
643.608446	0.263632
643.814666	0.263593
644.020868	0.263838
644.227052	0.263911
644.433218	0.264236
644.639365	0.264151
644.845494	0.264360
645.051605	0.264457
645.257698	0.265052
645.463772	0.265415
645.669828	0.265714
645.875866	0.265884
646.081886	0.266080
646.287888	0.266201
646.493871	0.266656
646.699836	0.266677
646.905783	0.266972
647.111712	0.267026
647.317622	0.266982
647.523514	0.267035
647.729388	0.266972
647.935244	0.267063
648.141082	0.267039
648.346901	0.266997
648.552702	0.267201
648.758485	0.267492
648.964250	0.267513
649.169996	0.267621
649.375724	0.267875
649.581434	0.268092
649.787126	0.268419
649.992800	0.268864
650.198455	0.269388
650.404092	0.269332
650.609711	0.269361
650.815311	0.269173
651.020894	0.269601
651.226458	0.269812
651.432004	0.270150
651.637532	0.270265
651.843041	0.270345
652.048532	0.270497
652.254006	0.270779
652.459460	0.270622
652.664897	0.270709
652.870315	0.270861
653.075716	0.271006
653.281097	0.271170
653.486461	0.271573
653.691807	0.271795
653.897134	0.271893
654.102443	0.272252
654.307734	0.272662
654.513006	0.273176
654.718261	0.273104
654.923497	0.273191
655.128715	0.273362
655.333915	0.273461
655.539096	0.273687
655.744259	0.273841
655.949404	0.274034
656.154531	0.274048
656.359640	0.274028
656.564730	0.274350
656.769802	0.274530
656.974856	0.274644
657.179892	0.274822
657.384909	0.274834
657.589908	0.274893
657.794889	0.275132
657.999852	0.275592
658.204797	0.276041
658.409723	0.276262
658.614631	0.276344
658.819521	0.276516
659.024393	0.276785
659.229246	0.277083
659.434081	0.277374
659.638898	0.277498
659.843697	0.277512
660.048478	0.277663
660.253240	0.277874
660.457984	0.278150
660.662710	0.278447
660.867417	0.278614
661.072107	0.278648
661.276778	0.278689
661.481431	0.278780
661.686066	0.279153
661.890682	0.279163
662.095281	0.279256
662.299861	0.279466
662.504422	0.279581
662.708966	0.279692
662.913491	0.279903
663.117999	0.280164
663.322488	0.280278
663.526958	0.280582
663.731411	0.280864
663.935845	0.281238
664.140261	0.281481
664.344659	0.281662
664.549038	0.281821
664.753400	0.281867
664.957743	0.282253
665.162068	0.282460
665.366375	0.282407
665.570663	0.282612
665.774933	0.282630
665.979185	0.282703
666.183419	0.282844
666.387635	0.283019
666.591832	0.283137
666.796011	0.283294
667.000172	0.283468
667.204315	0.283644
667.408439	0.283967
667.612545	0.284177
667.816634	0.284494
668.020703	0.284735
668.224755	0.284901
668.428788	0.285261
668.632803	0.285247
668.836800	0.285531
669.040779	0.285785
669.244739	0.285978
669.448681	0.286471
669.652605	0.286664
669.856511	0.286886
670.060399	0.287233
670.264268	0.287514
670.468119	0.287772
670.671952	0.288189
670.875767	0.288475
671.079563	0.288699
671.283341	0.288736
671.487101	0.288880
671.690843	0.288969
671.894567	0.288940
672.098272	0.289097
672.301959	0.289418
672.505628	0.289241
672.709278	0.289354
672.912911	0.289356
673.116525	0.289387
673.320121	0.289619
673.523699	0.289957
673.727258	0.290215
673.930799	0.290478
674.134322	0.290542
674.337827	0.291050
674.541314	0.291235
674.744782	0.291525
674.948232	0.291793
675.151664	0.291996
675.355078	0.292072
675.558474	0.292352
675.761851	0.292531
675.965210	0.292917
676.168551	0.293099
676.371873	0.293409
676.575178	0.293775
676.778464	0.294071
676.981732	0.294255
677.184981	0.294628
677.388213	0.294884
677.591426	0.295025
677.794621	0.295136
677.997798	0.295144
678.200956	0.295512
678.404097	0.295596
678.607219	0.295481
678.810323	0.295597
679.013408	0.295832
679.216476	0.295800
679.419525	0.295865
679.622556	0.296030
679.825569	0.296360
680.028563	0.296302
680.231540	0.296372
680.434498	0.296638
680.637438	0.297105
680.840359	0.297306
681.043263	0.297603
681.246148	0.297780
681.449015	0.298209
681.651864	0.298257
681.854694	0.298566
682.057506	0.298561
682.260301	0.298823
682.463076	0.298809
682.665834	0.298820
682.868573	0.299447
683.071295	0.299886
683.273998	0.299791
683.476682	0.300121
683.679349	0.300116
683.881997	0.300462
684.084627	0.300600
684.287239	0.300724
684.489833	0.300825
684.692408	0.300647
684.894965	0.300843
685.097504	0.301364
685.300025	0.301366
685.502527	0.301672
685.705012	0.301605
685.907478	0.301861
686.109925	0.302146
686.312355	0.302455
686.514766	0.302648
686.717159	0.302565
686.919534	0.302618
687.121891	0.302942
687.324230	0.302988
687.526550	0.303420
687.728852	0.303364
687.931136	0.303497
688.133401	0.303535
688.335649	0.303737
688.537878	0.303887
688.740089	0.303900
688.942281	0.303971
689.144456	0.304068
689.346612	0.304226
689.548750	0.304667
689.750870	0.305064
689.952971	0.305400
690.155055	0.305684
690.357120	0.306171
690.559167	0.306462
690.761195	0.306824
690.963206	0.307140
691.165198	0.307257
691.367172	0.307331
691.569128	0.307331
691.771065	0.307416
691.972984	0.307357
692.174885	0.307625
692.376768	0.307770
692.578633	0.307719
692.780479	0.307973
692.982308	0.308287
693.184118	0.308528
693.385909	0.308457
693.587683	0.308755
