sample name	sample
index	151
start time	 02-15-2021  02:37:20 PM
880	0.432980
Peak Time (s)	92.536
Peak Height 	0.433
calc peak height	90,93
Baseline Time (s)	9.536
Baseline Value 	-0.002141
subtract baseline	10,4
Abs	0.328593
Peak Time (s)	92.038
Peak Height 	0.3286
calc peak height	90,93
Baseline Time (s)	11.037
Baseline Value 	0.004738
subtract baseline	10,3
PK_550	0.157661
Peak Time (s)	90.037
Peak Height 	0.1577
calc peak height	90,93
Baseline Time (s)	8.537
Baseline Value 	8.0553E-4
subtract baseline	10,2
PK_880	0.298255
Peak Time (s)	91.035
Peak Height 	0.2983
calc peak height	90,93
Baseline Time (s)	11.037
Baseline Value 	-9.5701E-4
subtract baseline	10,1


Time (s)	A880-A510	A880-A775	A880-A975	A880	I510	I775	I975	I880	
0.034500	0.003669	-0.001707	-0.002387	-0.000051	4076.436775	13969.911822	3227.310387	8156.181328
0.535500	-0.000335	-0.000880	-0.007972	0.000876	4064.744610	13967.381725	3223.811912	8145.237426
1.035000	0.002504	-0.002217	-0.012794	0.001493	4069.998359	13918.547970	3220.929381	8137.967569
1.536500	0.003017	0.000978	0.010021	0.001104	4072.136856	14008.288001	3233.481024	8142.544397
2.037000	0.005735	0.001281	0.013914	0.001587	4077.458443	14003.775645	3235.383008	8136.860120
2.539500	0.002209	0.000732	0.006955	0.004955	4061.132853	13905.778194	3229.668949	8097.361908
3.034000	0.007101	0.000511	0.003631	-0.001144	4087.285191	14053.184301	3231.191283	8169.115307
3.534500	0.002849	0.000615	-0.008036	0.000431	4073.337629	14016.102870	3224.015224	8150.487550
4.034500	-0.000704	-0.000127	-0.006643	-0.000624	4067.414939	14023.986734	3225.325313	8162.957741
4.534500	0.003163	-0.000917	-0.001329	-0.000831	4077.091684	14009.298823	3228.307099	8165.405854
5.035500	0.000314	0.000145	-0.017740	-0.000626	4069.829580	14030.869883	3219.445364	8162.975911
5.535500	0.000346	0.000301	0.005768	-0.000544	4069.711444	14032.762768	3232.038631	8162.015708
6.036000	0.000903	-0.000142	0.002152	-0.000570	4071.092905	14022.239987	3230.063695	8162.313354
6.536500	-0.002985	-0.000313	0.006701	0.001471	4057.122813	13966.687366	3231.441399	8138.227104
7.039000	0.000152	-0.000046	0.007896	0.000174	4067.552740	14005.946120	3232.818432	8153.528970
7.536500	0.003664	-0.001589	-0.005880	-0.001258	4079.309135	14003.159015	3226.076487	8170.466167
8.036500	0.004426	0.000594	0.002902	-0.000208	4078.619689	14031.656913	3230.276698	8158.038808
8.537500	-0.001946	0.000000	-0.002451	-0.000504	4064.200376	14024.149150	3227.520756	8161.534689
9.034500	0.007084	0.001005	-0.000745	0.000356	4083.637217	14027.821100	3227.979745	8151.378595
9.535500	0.002377	-0.000436	0.003605	0.000000	4073.241332	14000.501403	3230.548228	8155.578903
10.035000	-0.002722	-0.000066	-0.003242	-0.001207	4064.029472	14040.216972	3227.473126	8169.860885
10.536000	-0.004091	-0.000275	0.002139	-0.001229	4060.859327	14035.496790	3230.418316	8170.122405
11.036500	0.000000	0.001343	0.000000	0.001162	4064.860523	14016.016480	3227.946539	8141.863701
11.536500	0.001449	0.001835	0.005430	0.000731	4069.304813	14039.265457	3231.149144	8146.948562
12.036500	0.004944	0.000104	0.006476	-0.000231	4079.913796	14019.887724	3232.256592	8158.308600
12.537000	0.001252	-0.000056	0.002000	0.000925	4068.377466	13986.808495	3229.163604	8144.655034
13.037000	0.004235	0.002000	0.012022	0.000054	4077.538040	14060.546915	3235.181951	8154.946369
13.535000	0.004529	0.001080	-0.004185	-0.000045	4078.477838	14039.825563	3226.336139	8156.114850
14.035000	0.001402	0.001121	0.007951	0.002833	4064.226266	13968.481685	3231.379567	8122.207545
14.534500	0.000109	0.000847	-0.004158	0.001805	4063.602386	13987.392459	3225.354989	8134.288919
15.044000	0.006017	0.000415	-0.002822	0.000843	4079.910881	14000.719044	3226.591970	8145.626488
15.536000	0.000860	-0.000117	-0.002413	-0.001027	4072.077566	14034.400438	3227.825131	8167.734606
16.036500	0.002384	-0.000691	-0.007518	-0.000682	4074.879074	14011.252170	3224.887360	8163.644754
16.539500	0.001536	-0.000770	-0.006585	0.004193	4061.342097	13887.369444	3222.785232	8106.272214
17.041000	-0.000758	0.000737	-0.005706	-0.002712	4072.235821	14098.573507	3226.954561	8187.726612
17.537000	0.006097	0.000606	0.005104	-0.000779	4083.992414	14046.369543	3231.801511	8164.794676
18.037500	0.000914	-0.000253	-0.006563	-0.000597	4071.183421	14020.134369	3225.353337	8162.635456
18.534500	0.005554	-0.000451	0.003722	0.000760	4079.003741	13981.055939	3230.195484	8146.608259
19.035000	0.000486	-0.000518	-0.000299	0.000276	4068.101470	13991.516628	3228.265321	8152.320391
19.538000	0.002055	0.000255	-0.003826	0.000683	4070.853076	14000.713203	3226.137045	8147.509416
20.036000	0.000802	0.000826	0.003883	0.000545	4068.211750	14018.548115	3230.401636	8149.143907
20.536000	-0.000321	-0.001269	-0.001694	-0.000698	4068.498615	13997.128027	3228.036843	8163.838383
21.036000	0.005603	0.000396	-0.010156	-0.000012	4080.966591	14021.732909	3223.121519	8155.718358
21.536500	-0.000045	0.000450	0.006283	0.001095	4064.912895	13995.257774	3231.418488	8142.658824
22.037000	0.002548	0.001183	-0.002920	0.002298	4068.195148	13983.445171	3225.755519	8128.492591
22.537000	-0.000017	0.000278	-0.007732	0.000870	4065.509453	13996.597383	3223.943098	8145.310702
23.037000	-0.000050	0.000063	-0.002778	0.000554	4066.177702	13999.126729	3226.772061	8149.036186
23.535000	0.002624	0.001524	-0.004552	0.001791	4069.574188	14004.752703	3225.151006	8134.454633
24.035500	0.001748	0.002871	0.006418	0.002141	4066.677963	14029.870962	3230.917429	8130.347786
24.536000	-0.000632	0.000334	-0.005897	-0.000412	4067.085286	14030.268743	3225.612318	8160.455034
25.036000	-0.000048	-0.000079	0.003091	0.000324	4066.727075	14001.338439	3230.089085	8151.755114
25.536000	0.004001	0.001190	-0.009074	0.001416	4073.736800	14005.788135	3222.937900	8138.878441
26.039500	0.004545	0.001057	0.007233	0.001921	4073.827317	13989.754756	3231.486637	8132.925243
26.536500	-0.001106	0.001952	0.002144	0.002429	4059.280480	13999.481919	3228.423102	8126.958060
27.037000	0.004268	-0.000554	0.007108	0.000851	4075.716301	13976.182222	3232.008128	8145.532216
27.537500	0.009225	0.001635	0.005289	-0.001651	4093.644108	14094.415042	3232.385076	8175.120273
28.034500	0.006226	-0.000047	-0.011492	-0.000998	4084.827318	14035.424444	3222.935869	8167.386934
28.535500	-0.002860	0.000831	0.004454	0.002342	4055.380424	13973.542426	3229.730333	8127.982786
29.035500	0.002182	0.001157	0.004152	0.000021	4072.726299	14040.064700	3230.836594	8155.327067
29.535500	0.009700	0.000483	0.004283	0.000000	4090.796551	14023.620576	3230.920511	8155.577551
30.035500	0.003150	-0.000543	-0.003519	-0.000680	4076.700122	14014.911211	3227.038031	8163.615395
30.536000	-0.004103	0.000353	-0.007243	0.003499	4049.787190	13932.624927	3222.804012	8114.399487
31.036500	0.001643	0.001263	-0.027012	0.002482	4065.624723	13980.860143	3213.060674	8126.338098
31.536500	0.000185	-0.000287	-0.000757	-0.000481	4069.178920	14016.336240	3228.427613	8161.262217
32.036500	0.005252	0.001965	-0.000129	0.001261	4077.083037	14029.192149	3227.822944	8140.694288
32.534500	0.001358	0.000046	0.011985	0.005874	4056.981851	13865.853555	3231.927361	8086.632181
33.034500	0.005795	0.000356	0.004767	0.000266	4080.762732	14013.746286	3231.040422	8152.442127
33.538000	0.003350	-0.000920	0.019352	-0.001356	4078.790593	14022.432322	3240.120565	8171.623490
34.035500	0.004792	0.000206	-0.012317	0.001219	4076.086518	13986.028899	3221.325624	8141.195370
34.535500	0.002363	-0.001973	0.010824	0.002000	4068.464079	13911.998863	3233.429107	8132.000112
35.036000	0.006415	0.000598	0.008052	0.001728	4078.748300	13983.089358	3232.045241	8135.205175
35.539000	0.005011	0.000081	0.005703	0.001716	4075.424494	13970.420602	3230.757548	8135.338101
36.037000	-0.002207	0.001853	0.018515	0.002290	4057.025627	14000.486828	3237.574923	8128.585571
36.537000	0.001039	0.002649	-0.014255	0.003968	4060.702258	13978.348851	3218.866310	8108.899636
37.037000	0.004616	0.000913	0.010691	0.001722	4074.469972	13991.138823	3233.509874	8135.269729
37.535000	0.001149	-0.000202	0.023121	0.001107	4067.704819	13978.608460	3240.867315	8142.517956
38.035000	0.001891	-0.000539	0.019677	0.000541	4070.801345	13984.345141	3239.225207	8149.189901
38.535500	0.001581	-0.000424	0.025743	0.000608	4069.907596	13985.545278	3242.660422	8148.401575
39.035500	0.006754	-0.000312	0.009446	0.002077	4078.721372	13951.542128	3232.622556	8131.089423
39.536000	-0.002567	0.000215	-0.006725	0.000826	4059.613444	13996.113780	3224.504336	8145.830015
40.039000	0.004177	-0.000263	-0.016329	0.002359	4071.912492	13945.735171	3218.624009	8127.780465
40.536500	0.002738	-0.000249	0.001277	0.000827	4072.131520	13984.423694	3228.823030	8145.812418
41.037000	0.001200	0.000633	-0.002968	0.001754	4066.296727	13983.319120	3226.022539	8134.897600
41.537000	-0.001154	-0.000481	0.001474	0.000802	4062.990116	13979.251769	3228.944370	8146.113975
42.037500	0.003330	0.000306	-0.004918	0.002426	4069.746178	13958.299830	3224.615606	8126.996501
42.535000	-0.003681	0.000434	0.000899	0.001243	4056.028910	13991.141570	3228.391239	8140.912824
43.035000	0.005718	0.000804	-0.002142	0.002023	4076.378571	13980.859282	3226.322248	8131.729809
43.535000	0.000747	-0.000719	-0.000856	0.000675	4067.773991	13976.465836	3227.746085	8147.605734
44.035500	0.006857	0.000920	0.001633	-0.002759	4090.591802	14104.394819	3230.980242	8188.278622
44.536000	-0.003505	0.001839	0.002821	0.002187	4054.235087	14002.729007	3228.923713	8129.806546
45.036500	0.001838	0.001937	-0.007848	0.001066	4069.430854	14033.391318	3223.776452	8142.992658
45.537000	-0.001046	0.001692	-0.002113	0.001960	4060.522065	14004.734228	3226.372133	8132.468138
46.037000	0.002992	0.000384	-0.006477	-0.000390	4075.630528	14030.953197	3225.288561	8160.183768
46.537000	-0.001797	0.001239	0.004154	0.002036	4058.583080	13991.460487	3229.733862	8131.581211
47.037500	0.002793	-0.000043	0.000931	0.000069	4074.066305	14008.668826	3229.048135	8154.767931
47.535000	0.002335	0.001257	0.020044	0.002502	4067.209845	13980.192700	3238.319935	8126.095466
48.035500	0.002210	0.001186	0.002243	0.002601	4066.680532	13975.953467	3228.383356	8124.939648
48.536000	-0.002645	0.000479	-0.002277	0.001703	4057.377909	13980.747916	3226.422621	8135.499514
49.036000	0.004644	0.001650	0.014355	0.001605	4074.815683	14012.600459	3235.619302	8136.645916
49.539000	-0.000743	-0.000322	0.008084	0.000233	4065.300604	13997.513467	3232.889731	8152.827759
50.036500	0.002472	0.000718	0.000124	-0.002538	4079.517935	14093.677561	3230.031540	8185.657096
50.537000	-0.002793	-0.001098	0.006466	0.022242	4010.087745	13439.935822	3220.146946	7899.373834
51.037000	-0.010562	-0.008436	0.019175	0.035480	3964.315657	12960.912782	3219.869408	7752.993980
51.534500	-0.037531	-0.017792	-0.039058	0.112530	3767.613890	11179.737126	3158.941769	6984.176599
52.034500	0.012915	-0.002363	-0.020605	-0.034804	4186.860317	14858.648761	3236.432687	8583.765060
52.535500	-0.003147	-0.010748	-0.013157	-0.066960	4230.128830	15520.877847	3259.749030	9011.068292
53.035500	-0.000838	-0.009753	0.026116	-0.034351	4149.978439	14648.021301	3263.885826	8577.972886
53.536000	0.003175	-0.008687	0.019636	-0.014913	4111.272698	14169.179537	3248.148034	8334.855175
54.036000	0.007085	-0.005193	0.035585	0.002452	4078.617713	13820.869583	3247.314888	8126.684717
54.536000	0.043191	0.001015	0.055760	0.016097	4133.705370	13638.642059	3251.179706	7968.850699
55.036500	0.063556	0.012288	0.068035	0.026758	4158.400851	13653.520474	3252.143505	7848.939571
55.537000	0.091689	0.026147	0.088373	0.059670	4146.170777	13200.042534	3244.726574	7496.784246
56.037000	0.111502	0.035930	0.131939	0.098142	4099.685131	12553.644146	3247.705881	7117.585539
56.537000	0.127098	0.048465	0.142817	0.149967	4014.932491	11734.906715	3224.718992	6657.078137
57.035000	0.152080	0.062313	0.171201	0.168526	4029.446323	11641.626150	3230.038081	6505.081959
57.535000	0.161345	0.075248	0.187175	0.204305	3970.892811	11203.328806	3219.437326	6229.769735
58.035500	0.200930	0.088578	0.195533	0.234518	3991.184961	10893.924374	3208.286521	6014.315703
58.535500	0.205399	0.096594	0.225549	0.271884	3921.850920	10383.836133	3204.660698	5767.769344
59.038000	0.226730	0.103977	0.248736	0.289682	3929.047755	10210.968662	3207.313323	5657.589506
59.536500	0.233520	0.113832	0.239708	0.313163	3895.557620	9990.955204	3191.801152	5518.965011
60.037000	0.246671	0.118995	0.264739	0.333171	3882.168967	9758.988461	3194.122824	5406.618468
60.536500	0.252179	0.127168	0.273434	0.350891	3858.838493	9613.947948	3189.970622	5311.348877
61.034500	0.256992	0.130578	0.273623	0.357610	3855.255837	9564.421976	3187.019872	5276.231549
61.534500	0.270582	0.137720	0.280548	0.365935	3865.190049	9546.809099	3186.392964	5233.464056
62.038000	0.269338	0.138557	0.286836	0.380460	3835.792563	9346.408300	3182.744746	5160.778851
62.535500	0.257572	0.133051	0.287801	0.377505	3819.825876	9309.771562	3184.472492	5175.371746
63.035500	0.270236	0.138300	0.279027	0.369979	3856.899706	9495.499630	3183.920877	5212.983479
63.536500	0.270857	0.141165	0.303035	0.370338	3857.389393	9532.557916	3194.648154	5211.171091
64.036000	0.274744	0.138591	0.300928	0.366176	3872.668117	9556.181896	3195.608425	5232.238842
64.537000	0.273582	0.141842	0.281822	0.375149	3853.478269	9471.516322	3182.875330	5187.076417
65.037000	0.270533	0.145051	0.296007	0.371309	3854.960375	9575.971912	3190.954338	5206.288705
65.537000	0.282150	0.147723	0.265565	0.374358	3871.182157	9570.341470	3176.205666	5191.019749
66.034500	0.286700	0.149767	0.295498	0.376913	3875.004692	9562.712601	3188.176982	5178.306292
66.535000	0.280144	0.147979	0.316297	0.380892	3855.011216	9477.310168	3195.914589	5158.655009
67.035500	0.285968	0.146242	0.309764	0.376280	3874.815457	9519.741265	3195.015479	5181.448994
67.535500	0.285379	0.147701	0.309390	0.378761	3868.939952	9504.619648	3193.686611	5169.155584
68.035500	0.278586	0.147293	0.299847	0.379171	3855.317894	9492.557489	3189.122379	5167.133987
68.539000	0.277924	0.148594	0.293090	0.388446	3836.892297	9376.040746	3181.986738	5121.844532
69.036000	0.284338	0.150101	0.286869	0.384583	3855.956054	9454.259643	3180.959300	5140.586838
69.536500	0.291115	0.148285	0.302102	0.384821	3868.322347	9424.234763	3187.589217	5139.429546
70.037000	0.294123	0.152465	0.285116	0.391573	3861.219487	9386.832565	3177.197936	5106.792608
70.537000	0.293265	0.152390	0.295264	0.398698	3846.276938	9283.265207	3178.489916	5072.895529
71.035000	0.295301	0.154907	0.315420	0.394985	3857.010726	9372.765973	3189.013210	5090.490411
71.535000	0.285578	0.152607	0.291599	0.396042	3836.999661	9324.383777	3178.057902	5085.467277
72.035500	0.288736	0.150764	0.307938	0.393886	3846.800865	9328.870589	3186.142090	5095.726244
72.535500	0.291485	0.152600	0.320875	0.397767	3844.704119	9299.565868	3190.228330	5077.294461
73.038500	0.292484	0.152176	0.291603	0.397922	3846.265327	9291.279443	3177.256463	5076.558598
73.536000	0.302384	0.153717	0.318248	0.402038	3857.065273	9254.615478	3187.108299	5057.195727
74.036500	0.294312	0.154835	0.296762	0.402803	3840.623178	9259.622588	3177.375100	5053.615832
74.536500	0.300482	0.156282	0.299200	0.407390	3843.544947	9215.168472	3176.461187	5032.289058
75.037000	0.296327	0.155742	0.281409	0.404526	3841.160940	9248.040443	3170.236602	5045.577507
75.537000	0.297105	0.154070	0.315389	0.405669	3840.489627	9208.245681	3184.217798	5040.267252
76.035000	0.303335	0.157458	0.305992	0.408028	3847.648220	9222.755794	3179.090229	5029.340825
76.535000	0.290951	0.157213	0.340447	0.408899	3823.395834	9207.028350	3194.113512	5025.325363
77.035500	0.296635	0.153147	0.324683	0.406193	3838.661860	9187.884005	3188.134085	5037.835445
77.535500	0.299441	0.157727	0.340552	0.411300	3834.444108	9180.484403	3193.049029	5014.287847
78.036000	0.304072	0.157601	0.310551	0.411048	3843.418412	9182.255101	3179.753871	5015.442764
78.536500	0.292858	0.150023	0.306108	0.410435	3824.063688	9085.306339	3178.107340	5018.257498
79.036500	0.288129	0.155201	0.318418	0.411210	3814.199736	9146.423044	3183.110419	5014.703082
79.536500	0.288556	0.155829	0.291673	0.412451	3812.752167	9137.869504	3171.198232	5009.021814
80.037500	0.298782	0.153631	0.290850	0.412504	3831.048215	9106.602592	3170.837362	5008.778762
80.534500	0.296448	0.159469	0.315638	0.418602	3815.853387	9103.000003	3178.691644	4981.101786
81.035000	0.296886	0.155487	0.307641	0.414435	3824.114974	9105.550662	3177.054356	4999.970945
81.535000	0.296891	0.155320	0.315726	0.417103	3819.325862	9066.401937	3179.374445	4987.869026
82.035500	0.294056	0.156996	0.316854	0.418041	3812.590749	9076.566378	3179.455746	4983.628078
82.539000	0.299673	0.156215	0.308724	0.419627	3819.787337	9044.010651	3175.314061	4976.484440
83.036500	0.302158	0.155165	0.303907	0.419539	3824.417848	9030.841244	3173.331534	4976.882407
83.536500	0.295080	0.152869	0.319111	0.417722	3814.982267	9024.289226	3180.569735	4985.069512
84.036500	0.301307	0.157518	0.307709	0.423370	3816.015200	9010.655296	3173.319295	4959.728598
84.537000	0.295443	0.156651	0.324280	0.426572	3799.999598	8955.426482	3178.980457	4945.506388
85.037000	0.288087	0.153618	0.306466	0.422221	3794.763587	8973.251634	3173.279996	4964.856924
85.534500	0.296931	0.156678	0.311344	0.425314	3804.815045	8972.807691	3174.025697	4951.081860
86.035000	0.296005	0.154768	0.311126	0.423200	3806.907246	8975.563412	3174.820818	4960.484976
86.535500	0.299966	0.157213	0.325110	0.428695	3804.204949	8934.371655	3178.424848	4936.133684
87.035500	0.291007	0.154241	0.326670	0.425333	3794.431315	8939.620264	3180.547495	4950.996792
87.536000	0.299342	0.155538	0.289008	0.427116	3805.886121	8933.081521	3164.197375	4943.100389
88.036000	0.291444	0.155993	0.303907	0.427537	3791.371252	8933.542675	3170.026456	4941.240954
88.536500	0.287238	0.152398	0.316192	0.429487	3780.805254	8859.380070	3174.308261	4932.649656
89.036000	0.298865	0.155234	0.323414	0.429325	3801.170084	8899.368065	3177.430546	4933.364883
89.537000	0.288548	0.152442	0.330587	0.427269	3786.842226	8889.516938	3181.408063	4942.423664
90.037000	0.291628	0.157661	0.326887	0.430212	3787.077806	8919.997131	3178.536720	4929.467605
90.535000	0.293541	0.155179	0.305957	0.432224	3786.907050	8859.956747	3168.950251	4920.657352
91.035000	0.298255	0.154082	0.311279	0.430315	3798.373368	8870.768946	3171.917544	4929.015373
91.535500	0.288188	0.150892	0.311371	0.426384	3787.746253	8880.644701	3173.589844	4946.340914
92.038500	0.288752	0.153039	0.328593	0.428459	3785.150530	8881.606121	3180.026451	4937.177000
92.536000	0.296301	0.154218	0.312921	0.432980	3790.358922	8837.200583	3171.494842	4917.361027
93.036500	0.290441	0.151691	0.308234	0.426589	3791.274461	8888.566815	3172.199212	4945.430073
93.536500	0.291455	0.154532	0.315977	0.431813	3784.036913	8856.827488	3173.246567	4922.456083
94.033500	0.293402	0.152580	0.294417	0.429500	3791.363001	8861.626552	3165.399119	4932.594337
94.537000	0.298838	0.154726	0.308774	0.434006	3792.970702	8830.332724	3169.372126	4912.891255
95.034000	0.290492	0.152194	0.306350	0.431455	3783.001856	8830.595244	3169.424043	4924.022172
95.536500	0.299892	0.156272	0.306204	0.435606	3792.026803	8829.626463	3167.679393	4905.946059
96.035000	0.289594	0.149614	0.315645	0.430612	3782.905904	8807.664470	3173.608624	4927.711079
96.536000	0.300896	0.151522	0.303351	0.434607	3795.498044	8780.244504	3166.931816	4910.276978
