sample name	sample
index	1384
start time	 05-03-2021  03:02:29 PM


Wavelength (nm)	Absorbance
494.344910	0.044957
494.563924	0.044957
494.782919	0.044957
495.001897	-0.082147
495.220856	0.051382
495.439797	0.043702
495.658719	0.024811
495.877624	0.014427
496.096510	0.068548
496.315378	0.003951
496.534227	0.013539
496.753059	0.019454
496.971872	0.087132
497.190667	0.147741
497.409444	0.163919
497.628203	0.163674
497.846943	0.165230
498.065665	0.160369
498.284369	0.163552
498.503055	0.164747
498.721723	0.163946
498.940372	0.163857
499.159003	0.162685
499.377616	0.161194
499.596210	0.162831
499.814787	0.162624
500.033345	0.164729
500.251885	0.164772
500.470406	0.165488
500.688910	0.166440
500.907395	0.166261
501.125862	0.167709
501.344311	0.168029
501.562742	0.167917
501.781154	0.166598
501.999548	0.166969
502.217924	0.166112
502.436282	0.166651
502.654621	0.167504
502.872942	0.166113
503.091245	0.166209
503.309530	0.166417
503.527797	0.165935
503.746045	0.167829
503.964275	0.166349
504.182487	0.167146
504.400681	0.165685
504.618856	0.164447
504.837013	0.165676
505.055152	0.165027
505.273273	0.166257
505.491376	0.167361
505.709460	0.167106
505.927526	0.168322
506.145574	0.167718
506.363604	0.167995
506.581615	0.168001
506.799608	0.168849
507.017583	0.169237
507.235540	0.168586
507.453478	0.167498
507.671399	0.168343
507.889301	0.167242
508.107185	0.167178
508.325050	0.167097
508.542898	0.167168
508.760727	0.167015
508.978538	0.167091
509.196330	0.167041
509.414105	0.167407
509.631861	0.166539
509.849599	0.167161
510.067319	0.167605
510.285021	0.166528
510.502704	0.166298
510.720369	0.166530
510.938016	0.167763
511.155645	0.169080
511.373255	0.168146
511.590848	0.167817
511.808422	0.168283
512.025977	0.168739
512.243515	0.170193
512.461034	0.170084
512.678536	0.169751
512.896018	0.168685
513.113483	0.167665
513.330930	0.168398
513.548358	0.168889
513.765768	0.168781
513.983160	0.169456
514.200533	0.169661
514.417889	0.170416
514.635226	0.170405
514.852545	0.169873
515.069845	0.169820
515.287128	0.170577
515.504392	0.171439
515.721638	0.172097
515.938866	0.171959
516.156075	0.171134
516.373267	0.171651
516.590440	0.172276
516.807594	0.173152
517.024731	0.172859
517.241850	0.173327
517.458950	0.173485
517.676032	0.172497
517.893095	0.172437
518.110141	0.173134
518.327168	0.173129
518.544177	0.173925
518.761168	0.173805
518.978141	0.174526
519.195095	0.174104
519.412031	0.174078
519.628949	0.174237
519.845849	0.174618
520.062731	0.174372
520.279594	0.174167
520.496439	0.174626
520.713266	0.175160
520.930074	0.174588
521.146865	0.175310
521.363637	0.176023
521.580391	0.177754
521.797127	0.177041
522.013844	0.176955
522.230543	0.177509
522.447224	0.176143
522.663887	0.176633
522.880532	0.177498
523.097158	0.177483
523.313766	0.176427
523.530356	0.176173
523.746928	0.176367
523.963481	0.178289
524.180017	0.178863
524.396534	0.179749
524.613032	0.180340
524.829513	0.180735
525.045975	0.180286
525.262420	0.181011
525.478845	0.181663
525.695253	0.182203
525.911643	0.181488
526.128014	0.181753
526.344367	0.181774
526.560702	0.182117
526.777018	0.182333
526.993316	0.182592
527.209597	0.182251
527.425858	0.181363
527.642102	0.181975
527.858328	0.181970
528.074535	0.182775
528.290724	0.183290
528.506894	0.182689
528.723047	0.183996
528.939181	0.185051
529.155297	0.185713
529.371395	0.186045
529.587475	0.185527
529.803536	0.186181
530.019579	0.186064
530.235604	0.187115
530.451611	0.187524
530.667600	0.187182
530.883570	0.187170
531.099522	0.188279
531.315456	0.189308
531.531372	0.190215
531.747269	0.190808
531.963148	0.190932
532.179009	0.190307
532.394852	0.190613
532.610676	0.190841
532.826482	0.191202
533.042271	0.191592
533.258040	0.191651
533.473792	0.191955
533.689525	0.192105
533.905240	0.192368
534.120937	0.192766
534.336616	0.193279
534.552277	0.193689
534.767919	0.193833
534.983543	0.193645
535.199149	0.194211
535.414736	0.194462
535.630306	0.194539
535.845857	0.195227
536.061390	0.196045
536.276904	0.195752
536.492401	0.196099
536.707879	0.196526
536.923339	0.197130
537.138781	0.197661
537.354204	0.198293
537.569610	0.199070
537.784997	0.199278
538.000366	0.199500
538.215716	0.200345
538.431049	0.200287
538.646363	0.200815
538.861659	0.200496
539.076937	0.200475
539.292196	0.200419
539.507438	0.200731
539.722661	0.200912
539.937866	0.201284
540.153052	0.201880
540.368221	0.202531
540.583371	0.202803
540.798503	0.203749
541.013617	0.204111
541.228712	0.204686
541.443789	0.204278
541.658848	0.205325
541.873889	0.205145
542.088912	0.205371
542.303916	0.204948
542.518902	0.204578
542.733870	0.204452
542.948820	0.204833
543.163752	0.204336
543.378665	0.204647
543.593560	0.204281
543.808437	0.204614
544.023295	0.205098
544.238136	0.205405
544.452958	0.206533
544.667762	0.207200
544.882548	0.207093
545.097315	0.207968
545.312064	0.208173
545.526795	0.207728
545.741508	0.207958
545.956203	0.207336
546.170879	0.207584
546.385537	0.207413
546.600177	0.207607
546.814799	0.207667
547.029402	0.207474
547.243988	0.207720
547.458555	0.208225
547.673103	0.208476
547.887634	0.209638
548.102146	0.210386
548.316640	0.210862
548.531116	0.210387
548.745574	0.211379
548.960013	0.212357
549.174435	0.212520
549.388838	0.212573
549.603222	0.212447
549.817589	0.212000
550.031937	0.211902
550.246267	0.212472
550.460579	0.212888
550.674873	0.212640
550.889148	0.212365
551.103405	0.213369
551.317644	0.213661
551.531865	0.214414
551.746068	0.214442
551.960252	0.214624
552.174418	0.213900
552.388566	0.214147
552.602696	0.214402
552.816807	0.214966
553.030900	0.214686
553.244975	0.214962
553.459032	0.215458
553.673070	0.216282
553.887091	0.216075
554.101093	0.216603
554.315077	0.216956
554.529042	0.216905
554.742990	0.216720
554.956919	0.216837
555.170830	0.216934
555.384722	0.216876
555.598597	0.217053
555.812453	0.217897
556.026291	0.218274
556.240111	0.218553
556.453913	0.219092
556.667696	0.219541
556.881461	0.219973
557.095208	0.220289
557.308937	0.220369
557.522647	0.220212
557.736339	0.220569
557.950013	0.220665
558.163669	0.220882
558.377307	0.221007
558.590926	0.220858
558.804527	0.221144
559.018110	0.221204
559.231675	0.221027
559.445221	0.221496
559.658749	0.221019
559.872259	0.221154
560.085751	0.221536
560.299225	0.221059
560.512680	0.221262
560.726117	0.220589
560.939536	0.221114
561.152937	0.221340
561.366319	0.220705
561.579683	0.220876
561.793029	0.220922
562.006357	0.220948
562.219667	0.221291
562.432958	0.221223
562.646231	0.221679
562.859486	0.221602
563.072723	0.221872
563.285941	0.222424
563.499141	0.222991
563.712323	0.222845
563.925487	0.222597
564.138632	0.222952
564.351760	0.223425
564.564869	0.223474
564.777960	0.223435
564.991032	0.223716
565.204087	0.223970
565.417123	0.223803
565.630141	0.224287
565.843140	0.224761
566.056122	0.224665
566.269085	0.224525
566.482030	0.224972
566.694957	0.224899
566.907866	0.225031
567.120756	0.225317
567.333628	0.225349
567.546482	0.225179
567.759318	0.224639
567.972135	0.224898
568.184935	0.224688
568.397716	0.224647
568.610478	0.225172
568.823223	0.225431
569.035949	0.225356
569.248657	0.225713
569.461347	0.226343
569.674019	0.226661
569.886672	0.227088
570.099308	0.228109
570.311925	0.228438
570.524523	0.228492
570.737104	0.228387
570.949666	0.228591
571.162210	0.229014
571.374736	0.228747
571.587244	0.229352
571.799733	0.229470
572.012205	0.229306
572.224658	0.229254
572.437092	0.229273
572.649509	0.229267
572.861907	0.229402
573.074287	0.228987
573.286649	0.229311
573.498993	0.228832
573.711318	0.228467
573.923625	0.228815
574.135914	0.229454
574.348185	0.229640
574.560438	0.229804
574.772672	0.229949
574.984888	0.230193
575.197086	0.230192
575.409266	0.230503
575.621427	0.231298
575.833570	0.231464
576.045695	0.231329
576.257802	0.231790
576.469890	0.232107
576.681961	0.232232
576.894013	0.232237
577.106046	0.232419
577.318062	0.232773
577.530059	0.232170
577.742039	0.232083
577.954000	0.232110
578.165942	0.231809
578.377867	0.231814
578.589773	0.232037
578.801661	0.232284
579.013531	0.232486
579.225382	0.232906
579.437216	0.233345
579.649031	0.233547
579.860828	0.233419
580.072606	0.233972
580.284367	0.234068
580.496109	0.233854
580.707833	0.234142
580.919539	0.234447
581.131227	0.234526
581.342896	0.234238
581.554547	0.234081
581.766180	0.234516
581.977795	0.234283
582.189391	0.234595
582.400969	0.235099
582.612529	0.235323
582.824071	0.235533
583.035595	0.235231
583.247100	0.235914
583.458587	0.236133
583.670056	0.236028
583.881506	0.236443
584.092939	0.236393
584.304353	0.236581
584.515749	0.236470
584.727127	0.236346
584.938486	0.236812
585.149828	0.236977
585.361151	0.237416
585.572456	0.237676
585.783742	0.237520
585.995011	0.237721
586.206261	0.237797
586.417493	0.237969
586.628706	0.238051
586.839902	0.237998
587.051079	0.238241
587.262238	0.238378
587.473379	0.238701
587.684502	0.239168
587.895606	0.239248
588.106692	0.239521
588.317760	0.240037
588.528810	0.240494
588.739841	0.240589
588.950855	0.240851
589.161850	0.240880
589.372827	0.240905
589.583785	0.240879
589.794726	0.241187
590.005648	0.241032
590.216552	0.241043
590.427437	0.241241
590.638305	0.241670
590.849154	0.242135
591.059985	0.242367
591.270798	0.242528
591.481592	0.242859
591.692369	0.243274
591.903127	0.243704
592.113867	0.243890
592.324588	0.243479
592.535292	0.243374
592.745977	0.243255
592.956644	0.243402
593.167293	0.243604
593.377923	0.243777
593.588536	0.243784
593.799130	0.243500
594.009706	0.243759
594.220263	0.244235
594.430803	0.244496
594.641324	0.244526
594.851827	0.244640
595.062312	0.244687
595.272778	0.244871
595.483227	0.244727
595.693657	0.245531
595.904069	0.245823
596.114462	0.245954
596.324838	0.245808
596.535195	0.245588
596.745534	0.245858
596.955855	0.246304
597.166157	0.246533
597.376441	0.246818
597.586707	0.246380
597.796955	0.246115
598.007185	0.246518
598.217396	0.246848
598.427589	0.247731
598.637764	0.247784
598.847921	0.247690
599.058060	0.247707
599.268180	0.248228
599.478282	0.248909
599.688366	0.249462
599.898431	0.249597
600.108479	0.250163
600.318508	0.249972
600.528519	0.250318
600.738511	0.250515
600.948486	0.250790
601.158442	0.250758
601.368380	0.250722
601.578300	0.250500
601.788202	0.250341
601.998085	0.250394
602.207950	0.250776
602.417797	0.250640
602.627626	0.250857
602.837436	0.250723
603.047228	0.250852
603.257002	0.250825
603.466758	0.250778
603.676496	0.250965
603.886215	0.251042
604.095916	0.250717
604.305599	0.250936
604.515264	0.250955
604.724910	0.251588
604.934538	0.251471
605.144148	0.251745
605.353740	0.252508
605.563314	0.252824
605.772869	0.252828
605.982406	0.253365
606.191925	0.253466
606.401425	0.253438
606.610908	0.253247
606.820372	0.253409
607.029818	0.253800
607.239246	0.253305
607.448655	0.253301
607.658047	0.253352
607.867420	0.253395
608.076775	0.253823
608.286111	0.253952
608.495430	0.254113
608.704730	0.253926
608.914012	0.253616
609.123275	0.254119
609.332521	0.254269
609.541748	0.254716
609.750957	0.254775
609.960148	0.254807
610.169321	0.255231
610.378475	0.255322
610.587611	0.255702
610.796729	0.256062
611.005829	0.255982
611.214910	0.256452
611.423974	0.256650
611.633019	0.256577
611.842045	0.256395
612.051054	0.256730
612.260044	0.257048
612.469017	0.257781
612.677970	0.257906
612.886906	0.258324
613.095824	0.258231
613.304723	0.258185
613.513604	0.258843
613.722467	0.259248
613.931311	0.259095
614.140138	0.258783
614.348946	0.258719
614.557736	0.258916
614.766507	0.258700
614.975261	0.258690
615.183996	0.258443
615.392713	0.258072
615.601412	0.258114
615.810092	0.258230
616.018754	0.258479
616.227399	0.258541
616.436024	0.258491
616.644632	0.258825
616.853222	0.259392
617.061793	0.259608
617.270346	0.259891
617.478880	0.259846
617.687397	0.260019
617.895895	0.260382
618.104375	0.260319
618.312837	0.260116
618.521281	0.260259
618.729706	0.259703
618.938113	0.259999
619.146502	0.259866
619.354873	0.260253
619.563226	0.260397
619.771560	0.260413
619.979876	0.260692
620.188174	0.261185
620.396453	0.261356
620.604715	0.261959
620.812958	0.262025
621.021183	0.262508
621.229390	0.262256
621.437578	0.262423
621.645748	0.262168
621.853900	0.262072
622.062034	0.261984
622.270150	0.262053
622.478247	0.262026
622.686326	0.262221
622.894387	0.262212
623.102430	0.262498
623.310454	0.262592
623.518461	0.263201
623.726449	0.263401
623.934418	0.263466
624.142370	0.263755
624.350303	0.264005
624.558218	0.264314
624.766115	0.264289
624.973994	0.264829
625.181855	0.264872
625.389697	0.264800
625.597521	0.265254
625.805327	0.265653
626.013114	0.265678
626.220883	0.265626
626.428634	0.265434
626.636367	0.265868
626.844082	0.265591
627.051778	0.265648
627.259457	0.265836
627.467117	0.265625
627.674758	0.265662
627.882382	0.265989
628.089987	0.266391
628.297574	0.266746
628.505143	0.266722
628.712694	0.267268
628.920226	0.267457
629.127740	0.267746
629.335236	0.268248
629.542714	0.268839
629.750174	0.268946
629.957615	0.268916
630.165038	0.268991
630.372443	0.269225
630.579829	0.269218
630.787198	0.269561
630.994548	0.269501
631.201880	0.269334
631.409194	0.269021
631.616489	0.269087
631.823766	0.269350
632.031025	0.269535
632.238266	0.270009
632.445489	0.270213
632.652693	0.270403
632.859879	0.270667
633.067047	0.270936
633.274197	0.271121
633.481329	0.271175
633.688442	0.270947
633.895537	0.271145
634.102614	0.271158
634.309672	0.271133
634.516713	0.271370
634.723735	0.271420
634.930739	0.271627
635.137724	0.271996
635.344692	0.272059
635.551641	0.272426
635.758572	0.272537
635.965485	0.272268
636.172379	0.272375
636.379256	0.272233
636.586114	0.272175
636.792954	0.272134
636.999775	0.272283
637.206579	0.272443
637.413364	0.272202
637.620131	0.272464
637.826880	0.272778
638.033610	0.272852
638.240323	0.273079
638.447017	0.273361
638.653692	0.273651
638.860350	0.273514
639.066990	0.273469
639.273611	0.273917
639.480214	0.273911
639.686798	0.274034
639.893365	0.274041
640.099913	0.274430
640.306443	0.274644
640.512955	0.274549
640.719449	0.274703
640.925924	0.275107
641.132381	0.275275
641.338820	0.275486
641.545241	0.275726
641.751644	0.276320
641.958028	0.275997
642.164394	0.276162
642.370742	0.276502
642.577071	0.276750
642.783383	0.277081
642.989676	0.277375
643.195951	0.277627
643.402207	0.277691
643.608446	0.277759
643.814666	0.278139
644.020868	0.278371
644.227052	0.278399
644.433218	0.278913
644.639365	0.278992
644.845494	0.279177
645.051605	0.279341
645.257698	0.279665
645.463772	0.279384
645.669828	0.279640
645.875866	0.279592
646.081886	0.279766
646.287888	0.279377
646.493871	0.279423
646.699836	0.279681
646.905783	0.279910
647.111712	0.279811
647.317622	0.280123
647.523514	0.280189
647.729388	0.280688
647.935244	0.280804
648.141082	0.281048
648.346901	0.281431
648.552702	0.281287
648.758485	0.281455
648.964250	0.281679
649.169996	0.282002
649.375724	0.282289
649.581434	0.282180
649.787126	0.282464
649.992800	0.282733
650.198455	0.282551
650.404092	0.282847
650.609711	0.282754
650.815311	0.282857
651.020894	0.283264
651.226458	0.283254
651.432004	0.283480
651.637532	0.283648
651.843041	0.283928
652.048532	0.284185
652.254006	0.284090
652.459460	0.284294
652.664897	0.284580
652.870315	0.284467
653.075716	0.284728
653.281097	0.285228
653.486461	0.285434
653.691807	0.285489
653.897134	0.285623
654.102443	0.286049
654.307734	0.286136
654.513006	0.286303
654.718261	0.286608
654.923497	0.286993
655.128715	0.286853
655.333915	0.287086
655.539096	0.287521
655.744259	0.287648
655.949404	0.287921
656.154531	0.288147
656.359640	0.288630
656.564730	0.288671
656.769802	0.288457
656.974856	0.288614
657.179892	0.288601
657.384909	0.288762
657.589908	0.289021
657.794889	0.288887
657.999852	0.288995
658.204797	0.288794
658.409723	0.288932
658.614631	0.289222
658.819521	0.289187
659.024393	0.289210
659.229246	0.289037
659.434081	0.288982
659.638898	0.289370
659.843697	0.289344
660.048478	0.289382
660.253240	0.289560
660.457984	0.289584
660.662710	0.289905
660.867417	0.290088
661.072107	0.290082
661.276778	0.290439
661.481431	0.290327
661.686066	0.290359
661.890682	0.290599
662.095281	0.290587
662.299861	0.290782
662.504422	0.290814
662.708966	0.291122
662.913491	0.291545
663.117999	0.291528
663.322488	0.291967
663.526958	0.292572
663.731411	0.292649
663.935845	0.292912
664.140261	0.293038
664.344659	0.293425
664.549038	0.293949
664.753400	0.294141
664.957743	0.294615
665.162068	0.294607
665.366375	0.294568
665.570663	0.294998
665.774933	0.295389
665.979185	0.295501
666.183419	0.295750
666.387635	0.295554
666.591832	0.296017
666.796011	0.296401
667.000172	0.296760
667.204315	0.297271
667.408439	0.297412
667.612545	0.297620
667.816634	0.298056
668.020703	0.298375
668.224755	0.298620
668.428788	0.298834
668.632803	0.298785
668.836800	0.299135
669.040779	0.299346
669.244739	0.299481
669.448681	0.299493
669.652605	0.299790
669.856511	0.299721
670.060399	0.300108
670.264268	0.299882
670.468119	0.300153
670.671952	0.300286
670.875767	0.300476
671.079563	0.300677
671.283341	0.301039
671.487101	0.301238
671.690843	0.301544
671.894567	0.301595
672.098272	0.301987
672.301959	0.302254
672.505628	0.302317
672.709278	0.302568
672.912911	0.302980
673.116525	0.303276
673.320121	0.303490
673.523699	0.303852
673.727258	0.304216
673.930799	0.304380
674.134322	0.304470
674.337827	0.304660
674.541314	0.304763
674.744782	0.304807
674.948232	0.304698
675.151664	0.304877
675.355078	0.305229
675.558474	0.305423
675.761851	0.305687
675.965210	0.305954
676.168551	0.306039
676.371873	0.306022
676.575178	0.306066
676.778464	0.306507
676.981732	0.306366
677.184981	0.306254
677.388213	0.306287
677.591426	0.306560
677.794621	0.306623
677.997798	0.307053
678.200956	0.307346
678.404097	0.307599
678.607219	0.307748
678.810323	0.308149
679.013408	0.308201
679.216476	0.308176
679.419525	0.308269
679.622556	0.308381
679.825569	0.308302
680.028563	0.308605
680.231540	0.308976
680.434498	0.308937
680.637438	0.309039
680.840359	0.309336
681.043263	0.309846
681.246148	0.310180
681.449015	0.310432
681.651864	0.311011
681.854694	0.311128
682.057506	0.311233
682.260301	0.311707
682.463076	0.312067
682.665834	0.312266
682.868573	0.312528
683.071295	0.312646
683.273998	0.312997
683.476682	0.313058
683.679349	0.313191
683.881997	0.313604
684.084627	0.313706
684.287239	0.313977
684.489833	0.314337
684.692408	0.314274
684.894965	0.314433
685.097504	0.314686
685.300025	0.315107
685.502527	0.315570
685.705012	0.315502
685.907478	0.315573
686.109925	0.315662
686.312355	0.315595
686.514766	0.315871
686.717159	0.316115
686.919534	0.316109
687.121891	0.316062
687.324230	0.315941
687.526550	0.316186
687.728852	0.316196
687.931136	0.316351
688.133401	0.316486
688.335649	0.316495
688.537878	0.316447
688.740089	0.316887
688.942281	0.316769
689.144456	0.316971
689.346612	0.317198
689.548750	0.317237
689.750870	0.317552
689.952971	0.317827
690.155055	0.318107
690.357120	0.318343
690.559167	0.318111
690.761195	0.318680
690.963206	0.319072
691.165198	0.319028
691.367172	0.319503
691.569128	0.319605
691.771065	0.319925
691.972984	0.320007
692.174885	0.320163
692.376768	0.320543
692.578633	0.320600
692.780479	0.320766
692.982308	0.320938
693.184118	0.321056
693.385909	0.321253
