sample name	sample
index	36
start time	 02-11-2021  01:02:31 PM
880	0.233271
Peak Time (s)	82.535
Peak Height 	0.2333
calc peak height	80,83
Baseline Time (s)	9.037
Baseline Value 	-0.001227
subtract baseline	10,4
Abs	0.145120
Peak Time (s)	80.035
Peak Height 	0.1451
calc peak height	80,83
Baseline Time (s)	11.037
Baseline Value 	5.3814E-5
subtract baseline	10,3
PK_550	0.054727
Peak Time (s)	81.036
Peak Height 	0.05473
calc peak height	80,83
Baseline Time (s)	8.536
Baseline Value 	5.6983E-4
subtract baseline	10,2
PK_880	0.129559
Peak Time (s)	82.037
Peak Height 	0.1296
calc peak height	80,83
Baseline Time (s)	11.535
Baseline Value 	3.0636E-4
subtract baseline	10,1


Time (s)	A880-A510	A880-A775	A880-A975	A880	I510	I775	I975	I880	
0.037000	0.000686	-0.000707	-0.005853	0.000702	4618.285977	19948.265763	3289.228196	10794.774138
0.536500	-0.003670	0.000162	-0.006104	0.002797	4593.345035	19900.428511	3287.084066	10756.862078
1.037500	-0.000202	-0.002587	0.005066	-0.001543	4623.579846	19962.552413	3301.477136	10835.602123
1.534500	-0.000427	-0.000935	0.006405	0.003279	4603.975363	19838.969012	3298.201063	10748.166611
2.035000	-0.000377	0.000461	-0.002891	-0.000392	4618.409943	20036.954559	3292.962809	10814.646722
2.535500	-0.000633	0.000183	-0.002047	-0.001057	4620.000846	20052.168993	3294.360877	10826.745754
3.035000	-0.001417	-0.000287	-0.004447	0.001184	4608.249144	19945.881584	3290.076594	10786.038482
3.536000	0.001038	0.001074	-0.005584	0.003062	4610.484234	19925.661193	3287.316900	10752.079019
4.035500	-0.000280	-0.000132	-0.000115	0.001258	4612.370007	19949.050961	3294.006704	10784.699804
4.535500	-0.000833	-0.001532	-0.002305	0.000167	4614.457860	19936.951301	3292.987684	10804.486571
5.039500	0.000361	-0.000247	0.004082	0.000649	4617.230415	19968.358656	3298.488137	10795.742040
5.537500	-0.001090	-0.001549	-0.002475	0.000745	4611.216122	19913.691631	3292.295862	10793.988432
6.037000	0.000597	0.000771	-0.004326	-0.000294	4621.824907	20045.310326	3291.547390	10812.857920
6.573500	-0.003540	0.000382	0.012145	-0.001006	4608.507600	20058.011326	3307.704424	10825.827994
7.035500	0.001053	-0.000881	0.000117	0.001108	4618.133601	19925.596575	3294.359896	10787.407000
7.535000	-0.001389	-0.000275	0.009303	-0.000424	4614.594919	20009.305526	3304.433601	10815.222737
8.046500	-0.002895	0.000106	0.005946	-0.001315	4612.207305	20059.331142	3302.094422	10831.454064
8.536000	-0.003461	0.000000	-0.005044	0.004390	4588.040396	19832.115654	3286.598483	10728.150509
9.036500	0.005825	0.001041	-0.002434	0.000000	4641.193613	20044.349088	3293.023368	10807.517795
9.539500	0.002133	-0.000392	-0.006235	-0.001481	4632.485818	20046.235985	3290.881717	10834.468806
10.037000	0.004811	0.000892	0.010491	-0.002375	4646.577158	20132.130481	3307.431017	10850.788989
10.537500	-0.001706	0.000466	0.004452	0.001455	4606.079174	19964.724334	3298.079034	10781.121894
11.037500	-0.000497	-0.000244	0.000000	0.000311	4615.204817	19981.705035	3294.992141	10801.870789
11.535000	0.000000	-0.000293	0.014825	-0.000387	4619.857512	20007.140691	3309.684920	10814.551038
12.034500	-0.000805	-0.000646	-0.004416	-0.000346	4616.562561	19991.689793	3291.512446	10813.810363
12.535500	-0.004837	-0.000988	-0.002282	-0.000170	4600.264639	19971.412419	3293.321493	10810.608431
13.035500	-0.002807	-0.000526	-0.010313	-0.000448	4609.187510	20000.431292	3286.206439	10815.670851
13.536500	0.001017	0.000540	-0.005591	0.000334	4621.013324	20011.559076	3289.806045	10801.454141
14.036500	-0.000766	-0.000959	0.006617	-0.001004	4619.276518	20005.220011	3302.434772	10825.783955
14.536500	0.003234	0.000220	-0.002665	0.001558	4624.890158	19951.064000	3291.371207	10779.255692
15.037000	-0.002874	0.000130	0.012216	0.000252	4606.218457	19998.701501	3306.568039	10802.944907
15.537500	0.000729	-0.000423	0.000410	0.000097	4620.815048	19983.083005	3295.572916	10805.755342
16.035000	0.000496	-0.000502	0.000229	-0.000128	4620.779869	19988.797383	3295.613265	10809.835869
16.535000	-0.005068	-0.000411	-0.005107	0.001328	4593.616930	19935.379128	3289.338192	10783.427664
17.035500	0.002833	0.000978	0.002799	0.000843	4626.120083	20008.746959	3297.105320	10792.210514
17.535500	0.000695	-0.000816	-0.003821	-0.000320	4622.309011	19984.026481	3292.037328	10813.339870
18.035500	0.002240	0.001480	0.010283	0.001293	4622.043243	20010.804859	3303.732312	10784.050483
18.536000	-0.001128	0.000292	0.000013	0.001525	4608.046125	19955.185881	3293.877170	10779.861937
19.039000	0.000786	-0.000012	0.022399	-0.000076	4621.710279	20005.944821	3316.742875	10808.891667
19.537000	0.001987	0.000212	-0.007641	0.000955	4622.373440	19974.320485	3287.361759	10790.178239
20.034000	-0.000130	0.000403	-0.003105	-0.001756	4624.695340	20088.382022	3294.027516	10839.483576
20.534500	0.000211	-0.000267	0.001761	0.004351	4602.296513	19823.240194	3292.878290	10728.846969
21.034500	0.001183	-0.000252	0.008808	-0.001077	4627.178659	20035.863902	3304.583791	10827.115416
21.535000	0.002042	-0.000020	0.006283	-0.000533	4628.408830	20023.588935	3301.672633	10817.201831
22.035500	0.002904	0.000419	0.005153	-0.000988	4633.580018	20058.743735	3301.034983	10825.488142
22.535500	-0.000644	-0.000909	0.001087	0.003770	4601.244607	19820.921073	3292.792634	10739.314695
23.036000	0.000429	0.000404	0.004864	-0.000768	4623.019010	20049.537163	3300.555562	10821.490758
23.546500	-0.002050	-0.000954	-0.007247	0.003574	4596.581981	19826.764633	3285.337833	10742.847695
24.036500	-0.003145	-0.000337	0.006836	0.001058	4602.057129	19948.846522	3300.693427	10788.321362
24.537000	-0.002089	0.000885	0.007213	0.003005	4598.619832	19920.497747	3299.215574	10753.102630
25.049500	-0.000318	0.000462	0.008278	0.000057	4616.887570	20019.355104	3303.002706	10806.475983
25.534500	0.000175	-0.000347	0.001926	0.005200	4598.887330	19787.237317	3292.246716	10713.590372
26.038000	0.001331	-0.000700	-0.003727	-0.001014	4627.509102	20015.792706	3292.765213	10825.968381
26.535000	-0.004760	-0.001011	0.006004	0.003478	4586.559624	19828.252522	3297.638087	10744.567072
27.035500	0.001339	0.000627	0.007246	0.000359	4622.169976	20013.975701	3301.739869	10800.988344
27.536000	0.001836	-0.002447	0.007425	0.004272	4608.884735	19741.895573	3298.225248	10730.265629
28.039000	-0.001453	-0.000490	0.004292	0.000628	4610.261402	19959.661505	3298.703911	10796.106920
28.538500	-0.000800	-0.000659	0.001227	0.001074	4611.065080	19935.613340	3295.422881	10788.019623
29.037000	0.001032	-0.000125	-0.007778	0.001164	4617.834927	19952.946613	3287.045972	10786.390516
29.537000	-0.000801	0.000079	0.003942	0.003676	4600.999343	19862.954645	3295.529417	10741.005766
30.037500	-0.000737	0.000885	0.004447	0.000933	4611.860062	20001.594020	3298.564841	10790.590854
30.535000	0.002516	-0.000346	-0.000283	0.001177	4623.575103	19943.845235	3293.925714	10786.164610
31.035000	0.002347	-0.000570	0.008085	0.001164	4622.965402	19935.557273	3301.771801	10786.393494
31.535500	0.000631	0.000326	0.007717	0.001221	4616.052023	19968.382826	3301.371047	10785.361307
32.036000	0.000104	0.000424	0.007266	0.002131	4610.468770	19936.618651	3300.086659	10768.880221
32.536500	-0.003531	-0.001835	0.007917	-0.000025	4604.748654	19932.603321	3302.738905	10807.973157
33.036500	0.001892	0.001207	0.002185	0.002894	4614.454154	19937.423772	3294.622045	10755.111144
33.536500	-0.002719	-0.000492	-0.007498	0.000206	4606.992341	19976.127858	3288.177089	10803.778081
34.036500	-0.000754	0.001723	0.010245	0.001736	4608.677417	20002.949890	3303.276113	10776.027769
34.536500	-0.002948	-0.000853	0.016269	0.001362	4601.643531	19916.814206	3309.392044	10782.813361
35.035000	-0.002112	0.000162	0.002132	0.001834	4603.046484	19937.986733	3295.558112	10774.253615
35.535000	0.002134	-0.000260	0.007700	0.000751	4623.747044	19963.844836	3301.798775	10793.885225
36.035500	-0.000190	0.000611	-0.005381	0.001594	4611.411582	19964.921687	3288.842762	10778.597496
36.535500	-0.003969	-0.000544	0.006005	0.001690	4596.446651	19916.022672	3299.316102	10776.862868
37.038500	0.000052	0.000383	0.001865	0.001815	4611.498639	19947.399704	3295.327689	10774.610400
37.536000	-0.000857	-0.000044	0.014671	0.000347	4613.666435	19988.152664	3308.830514	10801.219184
38.039000	0.002938	-0.001421	0.009794	-0.001765	4636.767209	20016.939706	3306.179611	10839.648297
38.537000	-0.001285	0.000352	0.004945	0.004810	4594.772791	19829.469944	3295.406872	10720.602016
39.045000	0.001846	0.000350	0.000063	-0.000075	4625.851943	20020.139075	3295.410332	10808.884358
39.537000	-0.003796	0.000455	0.008570	0.003772	4589.121403	19873.810973	3299.770270	10739.267288
40.034500	0.004465	-0.000963	0.002175	-0.001093	4640.138446	20008.577878	3298.333592	10827.400880
40.535000	-0.001265	-0.002041	-0.002394	0.002746	4602.796279	19816.710954	3290.527836	10757.784712
41.035500	-0.001146	0.000320	-0.008363	-0.000335	4615.196862	20029.194823	3287.880995	10813.615680
41.536000	0.000347	-0.000161	0.002008	0.003760	4605.106371	19850.337032	3293.654786	10739.491598
42.036000	-0.002445	-0.001265	0.004840	0.001614	4602.611146	19890.917047	3298.294293	10778.249915
42.536000	-0.005738	-0.001267	-0.000559	0.003120	4584.189007	19832.231195	3291.872713	10751.021352
43.069000	0.001578	0.000902	0.000343	0.000795	4621.403651	20007.660257	3294.861265	10793.088329
43.536500	0.000620	-0.001262	-0.003891	0.001920	4613.290882	19879.093934	3289.910395	10772.703352
44.036500	0.001063	-0.000475	-0.002457	-0.000668	4625.109136	20011.039785	3293.620823	10819.672322
44.537000	-0.005964	-0.000679	0.013702	0.002994	4583.808216	19859.955265	3305.368102	10753.293433
45.037500	0.000002	-0.002085	0.006880	-0.003304	4631.278325	20051.369787	3304.869299	10867.792245
45.535500	-0.010045	-0.006953	0.008218	0.027611	4477.836276	18700.033278	3277.634791	10321.407569
46.036000	-0.033518	-0.029082	0.014890	0.167047	3992.596808	13811.871990	3175.852835	8287.636439
46.535500	-0.029811	-0.020686	0.012296	0.068306	4276.222123	16846.610021	3246.389183	9658.975023
47.036000	-0.010385	-0.011131	0.023009	-0.103853	5024.619802	24058.631271	3432.363721	12939.444211
47.536500	0.016101	0.004704	0.016446	-0.149325	5402.714918	27256.713444	3483.084747	14045.873682
48.037000	0.031348	0.013861	0.036110	-0.089328	5160.266705	24573.210628	3430.591718	12609.744646
48.537000	0.028374	0.017929	0.043302	-0.033459	4877.222927	22143.645297	3373.401326	11439.560034
49.037000	0.034176	0.020966	0.054201	-0.002673	4768.162415	20956.550429	3351.818065	10856.234033
49.537500	0.040422	0.028640	0.053592	-0.004785	4803.951378	21366.602179	3353.415761	10894.949999
50.035500	0.052528	0.036229	0.072783	0.020175	4749.199550	20645.099119	3347.316716	10449.290818
50.535000	0.051543	0.040245	0.068736	0.042735	4653.013350	19906.082757	3320.212189	10067.947839
51.035500	0.067197	0.045183	0.081293	0.055484	4664.602794	19604.107919	3320.022408	9861.040951
51.536000	0.066115	0.050150	0.085204	0.086182	4541.954267	18646.912004	3294.371842	9387.053518
52.039000	0.077572	0.055408	0.098101	0.105954	4511.318853	18131.502241	3288.040274	9099.040378
52.536500	0.088720	0.061557	0.104065	0.139289	4432.391469	17211.245868	3263.802959	8642.197100
53.037000	0.095318	0.060871	0.103950	0.150046	4418.037968	16840.759649	3254.591028	8502.096006
53.537000	0.099600	0.060692	0.105726	0.154766	4416.533480	16685.135747	3252.135913	8441.712032
54.034500	0.106717	0.060844	0.112037	0.154535	4441.956945	16697.220465	3257.613542	8444.645135
54.546000	0.104771	0.059059	0.108081	0.152937	4440.742980	16691.290295	3255.629294	8465.025873
55.040500	0.104157	0.060263	0.114571	0.157151	4424.005274	16596.524808	3257.545014	8411.451283
55.536500	0.109105	0.062103	0.108891	0.159441	4433.196184	16582.390337	3250.882854	8382.543587
56.036000	0.106829	0.061055	0.125280	0.160460	4421.808623	16517.742528	3263.840519	8369.733300
56.536000	0.103867	0.059679	0.115941	0.161549	4407.922921	16441.032174	3254.998770	8356.070470
57.036500	0.108261	0.058582	0.125088	0.163652	4415.762215	16342.123804	3260.948297	8329.797627
57.536000	0.106620	0.060014	0.120057	0.167240	4397.939944	16275.878296	3253.682227	8285.252941
58.037000	0.106012	0.062123	0.122192	0.170449	4385.063557	16242.196536	3252.787696	8245.723085
58.534500	0.108007	0.060439	0.114279	0.178738	4364.073414	15940.752854	3239.546175	8144.948801
59.034500	0.112743	0.060894	0.120227	0.175845	4389.551179	16041.167955	3246.709996	8179.899903
59.534500	0.107620	0.057710	0.112080	0.175815	4372.494344	15946.559408	3240.127553	8180.263339
60.035500	0.111833	0.062510	0.110612	0.181030	4369.163325	15934.187634	3234.799375	8117.432757
60.535500	0.109297	0.059877	0.124000	0.187886	4338.297025	15653.862097	3240.005990	8035.952819
61.036000	0.113839	0.058489	0.130597	0.183757	4366.769386	15734.221201	3248.728207	8084.869996
61.539000	0.111073	0.059575	0.122475	0.188807	4341.082130	15618.210565	3238.047355	8025.115431
62.036500	0.114137	0.059117	0.134956	0.189024	4350.384506	15598.549968	3247.981611	8022.558787
62.537000	0.111835	0.059180	0.127235	0.196010	4320.258048	15398.783689	3236.101872	7941.071570
63.037000	0.115668	0.059268	0.126949	0.193836	4339.668603	15463.710169	3237.604600	7966.288763
63.537500	0.116367	0.057714	0.137399	0.194701	4339.126346	15394.276296	3245.334013	7956.237471
64.034500	0.115679	0.057468	0.128179	0.195195	4335.285926	15373.108383	3237.500922	7950.502900
64.535500	0.111393	0.057008	0.124914	0.201156	4302.434592	15191.001618	3230.222079	7881.867962
65.035500	0.116421	0.057869	0.128682	0.198511	4326.963764	15290.122576	3235.265731	7912.212908
65.535500	0.113236	0.057968	0.117130	0.200770	4309.516898	15228.963079	3224.496452	7886.289181
66.036000	0.123916	0.058830	0.139415	0.202008	4339.916881	15218.350374	3241.046424	7872.144881
66.536000	0.121981	0.058108	0.122278	0.201321	4335.860002	15217.356288	3228.043229	7879.987592
67.036000	0.120609	0.058462	0.130383	0.204134	4322.342937	15148.181657	3232.172743	7847.933795
67.537000	0.121293	0.058357	0.134841	0.205053	4321.587976	15119.482947	3234.962114	7837.508060
68.037000	0.118735	0.057673	0.129550	0.204180	4316.185952	15124.777296	3231.483022	7847.417101
68.537500	0.120443	0.057856	0.125008	0.209946	4303.263221	14969.468868	3223.502064	7782.375653
69.035000	0.122591	0.058228	0.124804	0.205321	4324.901059	15108.370397	3226.901595	7834.468955
69.534500	0.118565	0.055328	0.127253	0.204882	4313.400254	15039.765815	3229.141519	7839.448713
70.035000	0.124892	0.056445	0.138985	0.206686	4327.916309	15020.685649	3236.955228	7819.037111
70.536000	0.122599	0.058241	0.132045	0.208171	4315.780358	15029.343761	3230.313587	7802.306627
71.038500	0.126988	0.056806	0.131662	0.207519	4331.998732	15007.588973	3230.523509	7809.644825
71.536500	0.123790	0.054956	0.140062	0.207828	4320.698624	14947.878253	3236.904516	7806.167564
72.036500	0.120282	0.055251	0.128250	0.208417	4307.605334	14939.766513	3227.172677	7799.538909
72.536500	0.126121	0.058466	0.127036	0.211073	4317.763070	14955.184855	3224.191407	7769.755085
73.034500	0.130685	0.058317	0.124025	0.212710	4327.171279	14905.978422	3220.647401	7751.493407
73.534500	0.128228	0.058170	0.136874	0.213099	4318.026466	14891.256050	3230.236125	7747.169286
74.035000	0.127700	0.055232	0.134542	0.211579	4321.206938	14852.371768	3229.602452	7764.103718
74.535000	0.127027	0.056726	0.148368	0.213844	4311.802533	14831.285557	3238.731362	7738.888061
75.036000	0.129947	0.057984	0.136701	0.215121	4317.053861	14830.783314	3228.526557	7724.724325
75.539000	0.126777	0.055608	0.140979	0.214220	4309.806827	14790.550725	3232.573721	7734.714042
76.036500	0.130688	0.055541	0.126416	0.215781	4317.310785	14746.296324	3220.131849	7717.418884
76.536500	0.129663	0.055513	0.120190	0.216239	4312.570587	14733.106044	3215.107735	7712.358181
77.037000	0.127878	0.056871	0.119528	0.219362	4296.997043	14685.406397	3212.297777	7677.993710
77.537000	0.132722	0.057730	0.137835	0.220861	4307.591994	14668.110185	3224.967300	7661.578170
78.035000	0.130140	0.056316	0.133426	0.220779	4299.665297	14632.313669	3221.659588	7662.482153
78.534500	0.122992	0.054884	0.130169	0.224990	4264.214437	14481.686000	3216.025178	7616.674530
79.035000	0.122578	0.053735	0.131740	0.220117	4278.022221	14580.872784	3220.881526	7669.724514
79.535500	0.124458	0.054409	0.136646	0.222991	4274.930487	14522.147875	3222.427219	7638.361220
80.035500	0.126338	0.054718	0.145120	0.222838	4281.258179	14534.469094	3229.072922	7640.031746
80.536000	0.126277	0.052145	0.132769	0.227870	4265.461555	14333.630157	3215.815772	7585.601031
81.036000	0.126289	0.054727	0.128984	0.225208	4273.735099	14471.760166	3214.977823	7614.320841
81.536500	0.127346	0.054603	0.137192	0.227431	4270.121217	14409.740268	3219.470599	7590.330848
82.037000	0.129559	0.054289	0.130645	0.227015	4278.281912	14412.424339	3214.869411	7594.811870
82.534500	0.123454	0.053212	0.140122	0.233271	4240.346053	14220.756580	3217.278237	7527.887738
83.034500	0.127175	0.053042	0.146748	0.229604	4262.889055	14311.758675	3225.099089	7566.999380
83.534500	0.124901	0.052329	0.137264	0.230449	4253.323529	14271.109078	3217.250815	7557.952963
84.035000	0.128362	0.051213	0.131867	0.230800	4262.859953	14232.985385	3212.964500	7554.202451
84.535500	0.122041	0.050841	0.134948	0.236491	4226.406101	14076.774754	3211.036592	7493.816644
85.036000	0.125536	0.052279	0.133246	0.234654	4242.462168	14160.872184	3211.135692	7513.224363
85.547000	0.127509	0.052982	0.137762	0.235634	4245.474404	14153.735414	3213.751067	7502.858157
86.039000	0.131477	0.049666	0.124186	0.234734	4260.344273	14091.667213	3204.473464	7512.377564
86.537000	0.126946	0.053012	0.143105	0.243843	4219.101703	13945.007541	3211.630140	7416.975047
87.037000	0.128322	0.051268	0.135730	0.238566	4239.053825	14034.675318	3210.085187	7471.993599
87.549500	0.129971	0.050977	0.142624	0.238488	4244.282770	14029.255778	3215.245824	7472.811399
88.035000	0.125028	0.050930	0.147476	0.240361	4223.764972	13980.447420	3217.476504	7453.204337
