sample name	sample
index	169
start time	 02-18-2021  10:21:38 AM


Wavelength (nm)	Absorbance
494.344910	-0.093969
494.563924	-0.093969
494.782919	-0.093969
495.001897	-0.188476
495.220856	-0.061037
495.439797	-0.043390
495.658719	-0.030652
495.877624	-0.018549
496.096510	-0.009871
496.315378	-0.002907
496.534227	-0.006485
496.753059	0.006498
496.971872	-0.006471
497.190667	0.095213
497.409444	0.131108
497.628203	0.142063
497.846943	0.150944
498.065665	0.155300
498.284369	0.157950
498.503055	0.159180
498.721723	0.160658
498.940372	0.162260
499.159003	0.163103
499.377616	0.164008
499.596210	0.164533
499.814787	0.162728
500.033345	0.162547
500.251885	0.161374
500.470406	0.161544
500.688910	0.161446
500.907395	0.160373
501.125862	0.161579
501.344311	0.160228
501.562742	0.159785
501.781154	0.160195
501.999548	0.160949
502.217924	0.161393
502.436282	0.160063
502.654621	0.159900
502.872942	0.159845
503.091245	0.159755
503.309530	0.160335
503.527797	0.160063
503.746045	0.159639
503.964275	0.159606
504.182487	0.160446
504.400681	0.161371
504.618856	0.161924
504.837013	0.162248
505.055152	0.160943
505.273273	0.160141
505.491376	0.161199
505.709460	0.161580
505.927526	0.160954
506.145574	0.159735
506.363604	0.159613
506.581615	0.159236
506.799608	0.159923
507.017583	0.160565
507.235540	0.161010
507.453478	0.161510
507.671399	0.161671
507.889301	0.161796
508.107185	0.162317
508.325050	0.163905
508.542898	0.164596
508.760727	0.164521
508.978538	0.164974
509.196330	0.166069
509.414105	0.165461
509.631861	0.165383
509.849599	0.166129
510.067319	0.166502
510.285021	0.165594
510.502704	0.165660
510.720369	0.165998
510.938016	0.166149
511.155645	0.165302
511.373255	0.165357
511.590848	0.165946
511.808422	0.165378
512.025977	0.165345
512.243515	0.165367
512.461034	0.165596
512.678536	0.165810
512.896018	0.165335
513.113483	0.165920
513.330930	0.166781
513.548358	0.167522
513.765768	0.168160
513.983160	0.169256
514.200533	0.169954
514.417889	0.169827
514.635226	0.169862
514.852545	0.170795
515.069845	0.171539
515.287128	0.171784
515.504392	0.171576
515.721638	0.172123
515.938866	0.171764
516.156075	0.172426
516.373267	0.172890
516.590440	0.173713
516.807594	0.173067
517.024731	0.172861
517.241850	0.172018
517.458950	0.172599
517.676032	0.172865
517.893095	0.172810
518.110141	0.172384
518.327168	0.172309
518.544177	0.171855
518.761168	0.172805
518.978141	0.173271
519.195095	0.174592
519.412031	0.173954
519.628949	0.174149
519.845849	0.175080
520.062731	0.175437
520.279594	0.174629
520.496439	0.175267
520.713266	0.175548
520.930074	0.175462
521.146865	0.175146
521.363637	0.175876
521.580391	0.176125
521.797127	0.176500
522.013844	0.176798
522.230543	0.178281
522.447224	0.177711
522.663887	0.177857
522.880532	0.178280
523.097158	0.178503
523.313766	0.178450
523.530356	0.177613
523.746928	0.177170
523.963481	0.177490
524.180017	0.177624
524.396534	0.178314
524.613032	0.178896
524.829513	0.179424
525.045975	0.179639
525.262420	0.180536
525.478845	0.181549
525.695253	0.182045
525.911643	0.182381
526.128014	0.183193
526.344367	0.183640
526.560702	0.183417
526.777018	0.183336
526.993316	0.183764
527.209597	0.182914
527.425858	0.183055
527.642102	0.183254
527.858328	0.182758
528.074535	0.182238
528.290724	0.181750
528.506894	0.182387
528.723047	0.182160
528.939181	0.182632
529.155297	0.183737
529.371395	0.184287
529.587475	0.184477
529.803536	0.185228
530.019579	0.185936
530.235604	0.186819
530.451611	0.187071
530.667600	0.187743
530.883570	0.187602
531.099522	0.187100
531.315456	0.187591
531.531372	0.188096
531.747269	0.188599
531.963148	0.188080
532.179009	0.187965
532.394852	0.188122
532.610676	0.188834
532.826482	0.189079
533.042271	0.190045
533.258040	0.189749
533.473792	0.190143
533.689525	0.190316
533.905240	0.191614
534.120937	0.191679
534.336616	0.192031
534.552277	0.192044
534.767919	0.192262
534.983543	0.192651
535.199149	0.193108
535.414736	0.192979
535.630306	0.193616
535.845857	0.193230
536.061390	0.194058
536.276904	0.194408
536.492401	0.194526
536.707879	0.195041
536.923339	0.195117
537.138781	0.195365
537.354204	0.195963
537.569610	0.195256
537.784997	0.195892
538.000366	0.196089
538.215716	0.196427
538.431049	0.196966
538.646363	0.197067
538.861659	0.197710
539.076937	0.197702
539.292196	0.197456
539.507438	0.197941
539.722661	0.197746
539.937866	0.198239
540.153052	0.198440
540.368221	0.198267
540.583371	0.199057
540.798503	0.198910
541.013617	0.199434
541.228712	0.200276
541.443789	0.201001
541.658848	0.201314
541.873889	0.201908
542.088912	0.201987
542.303916	0.202513
542.518902	0.202562
542.733870	0.202523
542.948820	0.202303
543.163752	0.202415
543.378665	0.202744
543.593560	0.202912
543.808437	0.202575
544.023295	0.202676
544.238136	0.203103
544.452958	0.203104
544.667762	0.203702
544.882548	0.204473
545.097315	0.204190
545.312064	0.204787
545.526795	0.205529
545.741508	0.205981
545.956203	0.206624
546.170879	0.206721
546.385537	0.206986
546.600177	0.207445
546.814799	0.207679
547.029402	0.208434
547.243988	0.208477
547.458555	0.208741
547.673103	0.208560
547.887634	0.208538
548.102146	0.208609
548.316640	0.208966
548.531116	0.209518
548.745574	0.209753
548.960013	0.209924
549.174435	0.209745
549.388838	0.209914
549.603222	0.210504
549.817589	0.210561
550.031937	0.211215
550.246267	0.211472
550.460579	0.211030
550.674873	0.211387
550.889148	0.211377
551.103405	0.211635
551.317644	0.211495
551.531865	0.211513
551.746068	0.212189
551.960252	0.212117
552.174418	0.212550
552.388566	0.212969
552.602696	0.213106
552.816807	0.213595
553.030900	0.213437
553.244975	0.213827
553.459032	0.214846
553.673070	0.214912
553.887091	0.215008
554.101093	0.215057
554.315077	0.214657
554.529042	0.214427
554.742990	0.214259
554.956919	0.214790
555.170830	0.215291
555.384722	0.214942
555.598597	0.215194
555.812453	0.215303
556.026291	0.215662
556.240111	0.216807
556.453913	0.217375
556.667696	0.217944
556.881461	0.218282
557.095208	0.218010
557.308937	0.218357
557.522647	0.218777
557.736339	0.218827
557.950013	0.218755
558.163669	0.218638
558.377307	0.219054
558.590926	0.219090
558.804527	0.219055
559.018110	0.219583
559.231675	0.219087
559.445221	0.218811
559.658749	0.219025
559.872259	0.219385
560.085751	0.219587
560.299225	0.219552
560.512680	0.219438
560.726117	0.219902
560.939536	0.219982
561.152937	0.220434
561.366319	0.220915
561.579683	0.221460
561.793029	0.221751
562.006357	0.221655
562.219667	0.222012
562.432958	0.222535
562.646231	0.222627
562.859486	0.222966
563.072723	0.223367
563.285941	0.223315
563.499141	0.223410
563.712323	0.222997
563.925487	0.223111
564.138632	0.223304
564.351760	0.223387
564.564869	0.223784
564.777960	0.223960
564.991032	0.224219
565.204087	0.224336
565.417123	0.224701
565.630141	0.224795
565.843140	0.224980
566.056122	0.224791
566.269085	0.224902
566.482030	0.224939
566.694957	0.225058
566.907866	0.224956
567.120756	0.225359
567.333628	0.225403
567.546482	0.225916
567.759318	0.226256
567.972135	0.226760
568.184935	0.227223
568.397716	0.227393
568.610478	0.227060
568.823223	0.227609
569.035949	0.227756
569.248657	0.227740
569.461347	0.228091
569.674019	0.228294
569.886672	0.228446
570.099308	0.228097
570.311925	0.228199
570.524523	0.228805
570.737104	0.228733
570.949666	0.229107
571.162210	0.229584
571.374736	0.229612
571.587244	0.229699
571.799733	0.229650
572.012205	0.230218
572.224658	0.230266
572.437092	0.230428
572.649509	0.230539
572.861907	0.230455
573.074287	0.230644
573.286649	0.230560
573.498993	0.231058
573.711318	0.231235
573.923625	0.231544
574.135914	0.231882
574.348185	0.231848
574.560438	0.232161
574.772672	0.232660
574.984888	0.232707
575.197086	0.233136
575.409266	0.233282
575.621427	0.233305
575.833570	0.233395
576.045695	0.233761
576.257802	0.233676
576.469890	0.233940
576.681961	0.233825
576.894013	0.234295
577.106046	0.234398
577.318062	0.234483
577.530059	0.234684
577.742039	0.235201
577.954000	0.235202
578.165942	0.235844
578.377867	0.235974
578.589773	0.235935
578.801661	0.235478
579.013531	0.235593
579.225382	0.235335
579.437216	0.235728
579.649031	0.235108
579.860828	0.235143
580.072606	0.235161
580.284367	0.235328
580.496109	0.235472
580.707833	0.235708
580.919539	0.235816
581.131227	0.236298
581.342896	0.235946
581.554547	0.236703
581.766180	0.236602
581.977795	0.237035
582.189391	0.237169
582.400969	0.237787
582.612529	0.238391
582.824071	0.238795
583.035595	0.238892
583.247100	0.239723
583.458587	0.239616
583.670056	0.240251
583.881506	0.240049
584.092939	0.240459
584.304353	0.240396
584.515749	0.240515
584.727127	0.240468
584.938486	0.240772
585.149828	0.240879
585.361151	0.241063
585.572456	0.241139
585.783742	0.241107
585.995011	0.241145
586.206261	0.241493
586.417493	0.241364
586.628706	0.241571
586.839902	0.241747
587.051079	0.241648
587.262238	0.241766
587.473379	0.241798
587.684502	0.242307
587.895606	0.242714
588.106692	0.243049
588.317760	0.243187
588.528810	0.243723
588.739841	0.243945
588.950855	0.244495
589.161850	0.245173
589.372827	0.245352
589.583785	0.245588
589.794726	0.245329
590.005648	0.245065
590.216552	0.245315
590.427437	0.245182
590.638305	0.245070
590.849154	0.245332
591.059985	0.244973
591.270798	0.245335
591.481592	0.245230
591.692369	0.245503
591.903127	0.245589
592.113867	0.245615
592.324588	0.245685
592.535292	0.245950
592.745977	0.246354
592.956644	0.246538
593.167293	0.246551
593.377923	0.246791
593.588536	0.247073
593.799130	0.247425
594.009706	0.248012
594.220263	0.248476
594.430803	0.248596
594.641324	0.248121
594.851827	0.248676
595.062312	0.248851
595.272778	0.249149
595.483227	0.249421
595.693657	0.249717
595.904069	0.249764
596.114462	0.250044
596.324838	0.250478
596.535195	0.250843
596.745534	0.250966
596.955855	0.251488
597.166157	0.251711
597.376441	0.251755
597.586707	0.252100
597.796955	0.252303
598.007185	0.252216
598.217396	0.252145
598.427589	0.252244
598.637764	0.251941
598.847921	0.252050
599.058060	0.252266
599.268180	0.252409
599.478282	0.252516
599.688366	0.252753
599.898431	0.252963
600.108479	0.253336
600.318508	0.253521
600.528519	0.254187
600.738511	0.254195
600.948486	0.254573
601.158442	0.254658
601.368380	0.254435
601.578300	0.254619
601.788202	0.255147
601.998085	0.255084
602.207950	0.255416
602.417797	0.255255
602.627626	0.255421
602.837436	0.255157
603.047228	0.255320
603.257002	0.255649
603.466758	0.255414
603.676496	0.255228
603.886215	0.255466
604.095916	0.255273
604.305599	0.255499
604.515264	0.255551
604.724910	0.255941
604.934538	0.255859
605.144148	0.256148
605.353740	0.256726
605.563314	0.256702
605.772869	0.256881
605.982406	0.257540
606.191925	0.257679
606.401425	0.257875
606.610908	0.257947
606.820372	0.258171
607.029818	0.258326
607.239246	0.258328
607.448655	0.258847
607.658047	0.258977
607.867420	0.258812
608.076775	0.259029
608.286111	0.259355
608.495430	0.259469
608.704730	0.259795
608.914012	0.259625
609.123275	0.260034
609.332521	0.260156
609.541748	0.260240
609.750957	0.260171
609.960148	0.260240
610.169321	0.260173
610.378475	0.260361
610.587611	0.260554
610.796729	0.260837
611.005829	0.260652
611.214910	0.260402
611.423974	0.260766
611.633019	0.260967
611.842045	0.261226
612.051054	0.261259
612.260044	0.261566
612.469017	0.261450
612.677970	0.261586
612.886906	0.261775
613.095824	0.262028
613.304723	0.261847
613.513604	0.262104
613.722467	0.261988
613.931311	0.262023
614.140138	0.261895
614.348946	0.262399
614.557736	0.262573
614.766507	0.262848
614.975261	0.263239
615.183996	0.263671
615.392713	0.263786
615.601412	0.264324
615.810092	0.264986
616.018754	0.265110
616.227399	0.265281
616.436024	0.265522
616.644632	0.265142
616.853222	0.264893
617.061793	0.264823
617.270346	0.264997
617.478880	0.264947
617.687397	0.264977
617.895895	0.265353
618.104375	0.265223
618.312837	0.265300
618.521281	0.265890
618.729706	0.266253
618.938113	0.266623
619.146502	0.266853
619.354873	0.266938
619.563226	0.266544
619.771560	0.266680
619.979876	0.267027
620.188174	0.267255
620.396453	0.267478
620.604715	0.267589
620.812958	0.267905
621.021183	0.267821
621.229390	0.267936
621.437578	0.268411
621.645748	0.268243
621.853900	0.268197
622.062034	0.268322
622.270150	0.268468
622.478247	0.268614
622.686326	0.268510
622.894387	0.268943
623.102430	0.269113
623.310454	0.269504
623.518461	0.269725
623.726449	0.269980
623.934418	0.270163
624.142370	0.270168
624.350303	0.270317
624.558218	0.270548
624.766115	0.270718
624.973994	0.270993
625.181855	0.270956
625.389697	0.271126
625.597521	0.271072
625.805327	0.271259
626.013114	0.271523
626.220883	0.271964
626.428634	0.271863
626.636367	0.271953
626.844082	0.272014
627.051778	0.272137
627.259457	0.272164
627.467117	0.272627
627.674758	0.272654
627.882382	0.272738
628.089987	0.272865
628.297574	0.273301
628.505143	0.273437
628.712694	0.273669
628.920226	0.273670
629.127740	0.273923
629.335236	0.273789
629.542714	0.273909
629.750174	0.273984
629.957615	0.273834
630.165038	0.273665
630.372443	0.273802
630.579829	0.273833
630.787198	0.274120
630.994548	0.274355
631.201880	0.274407
631.409194	0.274423
631.616489	0.274565
631.823766	0.274831
632.031025	0.275268
632.238266	0.275190
632.445489	0.275506
632.652693	0.275458
632.859879	0.275629
633.067047	0.276109
633.274197	0.276356
633.481329	0.276374
633.688442	0.276530
633.895537	0.276326
634.102614	0.276612
634.309672	0.276699
634.516713	0.276977
634.723735	0.277005
634.930739	0.276931
635.137724	0.277200
635.344692	0.277382
635.551641	0.277606
635.758572	0.277895
635.965485	0.278099
636.172379	0.278102
636.379256	0.278673
636.586114	0.278750
636.792954	0.278914
636.999775	0.279010
637.206579	0.279221
637.413364	0.279189
637.620131	0.279404
637.826880	0.279629
638.033610	0.279880
638.240323	0.279661
638.447017	0.279998
638.653692	0.280322
638.860350	0.280400
639.066990	0.280603
639.273611	0.280756
639.480214	0.280737
639.686798	0.280925
639.893365	0.281193
640.099913	0.281257
640.306443	0.281529
640.512955	0.281653
640.719449	0.281821
640.925924	0.282010
641.132381	0.282351
641.338820	0.282604
641.545241	0.282675
641.751644	0.282845
641.958028	0.283299
642.164394	0.283312
642.370742	0.283421
642.577071	0.283401
642.783383	0.283688
642.989676	0.283802
643.195951	0.284024
643.402207	0.284317
643.608446	0.284316
643.814666	0.284397
644.020868	0.284961
644.227052	0.285011
644.433218	0.285397
644.639365	0.285432
644.845494	0.285554
645.051605	0.285695
645.257698	0.285701
645.463772	0.286013
645.669828	0.285859
645.875866	0.285792
646.081886	0.286074
646.287888	0.286126
646.493871	0.286000
646.699836	0.286432
646.905783	0.286631
647.111712	0.286862
647.317622	0.286727
647.523514	0.287202
647.729388	0.287257
647.935244	0.287442
648.141082	0.287714
648.346901	0.288150
648.552702	0.288294
648.758485	0.288631
648.964250	0.288789
649.169996	0.289331
649.375724	0.289370
649.581434	0.289787
649.787126	0.290005
649.992800	0.290269
650.198455	0.290420
650.404092	0.290247
650.609711	0.290222
650.815311	0.290418
651.020894	0.290368
651.226458	0.290723
651.432004	0.290768
651.637532	0.290678
651.843041	0.290979
652.048532	0.291437
652.254006	0.291559
652.459460	0.291769
652.664897	0.291756
652.870315	0.292058
653.075716	0.292069
653.281097	0.292142
653.486461	0.292483
653.691807	0.292465
653.897134	0.292448
654.102443	0.292793
654.307734	0.293117
654.513006	0.293490
654.718261	0.293604
654.923497	0.293816
655.128715	0.293924
655.333915	0.294134
655.539096	0.294283
655.744259	0.294576
655.949404	0.294811
656.154531	0.294904
656.359640	0.295047
656.564730	0.294934
656.769802	0.295177
656.974856	0.295297
657.179892	0.295564
657.384909	0.295801
657.589908	0.295998
657.794889	0.296093
657.999852	0.296253
658.204797	0.296384
658.409723	0.297053
658.614631	0.297346
658.819521	0.297867
659.024393	0.298053
659.229246	0.298425
659.434081	0.298431
659.638898	0.298745
659.843697	0.298751
660.048478	0.299019
660.253240	0.299128
660.457984	0.299298
660.662710	0.299023
660.867417	0.299430
661.072107	0.299312
661.276778	0.299537
661.481431	0.299665
661.686066	0.299948
661.890682	0.300070
662.095281	0.300225
662.299861	0.300272
662.504422	0.300880
662.708966	0.300827
662.913491	0.301183
663.117999	0.301257
663.322488	0.301439
663.526958	0.301836
663.731411	0.302061
663.935845	0.302164
664.140261	0.302390
664.344659	0.302611
664.549038	0.302872
664.753400	0.303022
664.957743	0.303493
665.162068	0.303729
665.366375	0.303800
665.570663	0.304099
665.774933	0.304358
665.979185	0.304599
666.183419	0.304633
666.387635	0.304605
666.591832	0.304881
666.796011	0.304797
667.000172	0.304925
667.204315	0.305188
667.408439	0.305074
667.612545	0.305349
667.816634	0.305592
668.020703	0.306093
668.224755	0.306481
668.428788	0.306711
668.632803	0.306815
668.836800	0.307064
669.040779	0.307360
669.244739	0.307702
669.448681	0.307942
669.652605	0.308120
669.856511	0.308048
670.060399	0.308146
670.264268	0.308334
670.468119	0.308905
670.671952	0.309152
670.875767	0.309384
671.079563	0.309586
671.283341	0.309807
671.487101	0.310151
671.690843	0.310246
671.894567	0.310251
672.098272	0.310459
672.301959	0.310458
672.505628	0.310281
672.709278	0.310469
672.912911	0.310825
673.116525	0.310723
673.320121	0.310633
673.523699	0.310997
673.727258	0.311378
673.930799	0.311382
674.134322	0.311694
674.337827	0.311870
674.541314	0.312039
674.744782	0.312149
674.948232	0.312704
675.151664	0.313088
675.355078	0.313269
675.558474	0.313849
675.761851	0.314156
675.965210	0.314358
676.168551	0.314994
676.371873	0.315277
676.575178	0.315522
676.778464	0.315612
676.981732	0.316000
677.184981	0.316274
677.388213	0.316209
677.591426	0.316383
677.794621	0.316605
677.997798	0.316697
678.200956	0.316560
678.404097	0.316539
678.607219	0.316749
678.810323	0.316658
679.013408	0.316733
679.216476	0.317166
679.419525	0.317284
679.622556	0.317467
679.825569	0.317702
680.028563	0.318286
680.231540	0.318613
680.434498	0.318800
680.637438	0.319183
680.840359	0.319597
681.043263	0.319684
681.246148	0.319741
681.449015	0.319808
681.651864	0.319737
681.854694	0.319758
682.057506	0.319975
682.260301	0.320021
682.463076	0.320090
682.665834	0.320123
682.868573	0.320399
683.071295	0.320715
683.273998	0.320985
683.476682	0.321479
683.679349	0.321465
683.881997	0.321694
684.084627	0.321932
684.287239	0.322061
684.489833	0.322047
684.692408	0.322153
684.894965	0.322523
685.097504	0.322850
685.300025	0.322904
685.502527	0.323260
685.705012	0.323332
685.907478	0.323558
686.109925	0.323646
686.312355	0.323832
686.514766	0.323733
686.717159	0.323906
686.919534	0.323855
687.121891	0.323953
687.324230	0.324187
687.526550	0.324406
687.728852	0.324734
687.931136	0.325074
688.133401	0.325408
688.335649	0.325552
688.537878	0.325433
688.740089	0.325666
688.942281	0.326229
689.144456	0.326331
689.346612	0.326646
689.548750	0.326745
689.750870	0.327119
689.952971	0.327229
690.155055	0.327381
690.357120	0.327665
690.559167	0.328064
690.761195	0.327979
690.963206	0.328237
691.165198	0.328484
691.367172	0.328672
691.569128	0.328583
691.771065	0.328983
691.972984	0.329134
692.174885	0.329667
692.376768	0.329648
692.578633	0.329754
692.780479	0.329709
692.982308	0.329614
693.184118	0.329513
693.385909	0.329740
