sample name	sample
index	1052
start time	 04-19-2021  02:40:44 PM


Wavelength (nm)	Absorbance
494.344910	0.291352
494.563924	0.291352
494.782919	0.291352
495.001897	1.981013
495.220856	0.072281
495.439797	0.045452
495.658719	0.020953
495.877624	0.010650
496.096510	-0.034874
496.315378	-0.014365
496.534227	-0.004181
496.753059	0.000284
496.971872	-0.018884
497.190667	0.119290
497.409444	0.155955
497.628203	0.161803
497.846943	0.166092
498.065665	0.169961
498.284369	0.173741
498.503055	0.174976
498.721723	0.173983
498.940372	0.176564
499.159003	0.178252
499.377616	0.177864
499.596210	0.178581
499.814787	0.178354
500.033345	0.177872
500.251885	0.175652
500.470406	0.174410
500.688910	0.175287
500.907395	0.173744
501.125862	0.173631
501.344311	0.173794
501.562742	0.173643
501.781154	0.173809
501.999548	0.173788
502.217924	0.175006
502.436282	0.176549
502.654621	0.177482
502.872942	0.177463
503.091245	0.177899
503.309530	0.177422
503.527797	0.179152
503.746045	0.179547
503.964275	0.179207
504.182487	0.179680
504.400681	0.179839
504.618856	0.179945
504.837013	0.179861
505.055152	0.179815
505.273273	0.179155
505.491376	0.178810
505.709460	0.177851
505.927526	0.178991
506.145574	0.178844
506.363604	0.179129
506.581615	0.178263
506.799608	0.179017
507.017583	0.178048
507.235540	0.178624
507.453478	0.177613
507.671399	0.178243
507.889301	0.179327
508.107185	0.179886
508.325050	0.179061
508.542898	0.179941
508.760727	0.179792
508.978538	0.180411
509.196330	0.182436
509.414105	0.182337
509.631861	0.183222
509.849599	0.182471
510.067319	0.182463
510.285021	0.182452
510.502704	0.182250
510.720369	0.182110
510.938016	0.182967
511.155645	0.182007
511.373255	0.182349
511.590848	0.181794
511.808422	0.182245
512.025977	0.182420
512.243515	0.183634
512.461034	0.184352
512.678536	0.185438
512.896018	0.184447
513.113483	0.185223
513.330930	0.185759
513.548358	0.186287
513.765768	0.185162
513.983160	0.184478
514.200533	0.183825
514.417889	0.183974
514.635226	0.184481
514.852545	0.185486
515.069845	0.185073
515.287128	0.184776
515.504392	0.185024
515.721638	0.186548
515.938866	0.188318
516.156075	0.189148
516.373267	0.189071
516.590440	0.188473
516.807594	0.188578
517.024731	0.188507
517.241850	0.190155
517.458950	0.190484
517.676032	0.191231
517.893095	0.190617
518.110141	0.190611
518.327168	0.190636
518.544177	0.191095
518.761168	0.192133
518.978141	0.192573
519.195095	0.191720
519.412031	0.191637
519.628949	0.190904
519.845849	0.191757
520.062731	0.192010
520.279594	0.193119
520.496439	0.194146
520.713266	0.193988
520.930074	0.194235
521.146865	0.195124
521.363637	0.196340
521.580391	0.196553
521.797127	0.196932
522.013844	0.197625
522.230543	0.197382
522.447224	0.196972
522.663887	0.197548
522.880532	0.197652
523.097158	0.198086
523.313766	0.198038
523.530356	0.199060
523.746928	0.199212
523.963481	0.199464
524.180017	0.200462
524.396534	0.200843
524.613032	0.201034
524.829513	0.202702
525.045975	0.202447
525.262420	0.202880
525.478845	0.203030
525.695253	0.202835
525.911643	0.203132
526.128014	0.203591
526.344367	0.203624
526.560702	0.204077
526.777018	0.203486
526.993316	0.203533
527.209597	0.203511
527.425858	0.204033
527.642102	0.205302
527.858328	0.205973
528.074535	0.206173
528.290724	0.207095
528.506894	0.207302
528.723047	0.207262
528.939181	0.208120
529.155297	0.208473
529.371395	0.208520
529.587475	0.208115
529.803536	0.208228
530.019579	0.208200
530.235604	0.208092
530.451611	0.208887
530.667600	0.209749
530.883570	0.210577
531.099522	0.211397
531.315456	0.211547
531.531372	0.211775
531.747269	0.212042
531.963148	0.212772
532.179009	0.213684
532.394852	0.213343
532.610676	0.213922
532.826482	0.214308
533.042271	0.213878
533.258040	0.214327
533.473792	0.215167
533.689525	0.215411
533.905240	0.215486
534.120937	0.215637
534.336616	0.216461
534.552277	0.216367
534.767919	0.216621
534.983543	0.216901
535.199149	0.217054
535.414736	0.217166
535.630306	0.217951
535.845857	0.218317
536.061390	0.218606
536.276904	0.218496
536.492401	0.219195
536.707879	0.219659
536.923339	0.220454
537.138781	0.221115
537.354204	0.221180
537.569610	0.220906
537.784997	0.221214
538.000366	0.221860
538.215716	0.222319
538.431049	0.222202
538.646363	0.222426
538.861659	0.223146
539.076937	0.223117
539.292196	0.224008
539.507438	0.224826
539.722661	0.225000
539.937866	0.225354
540.153052	0.225817
540.368221	0.226368
540.583371	0.226138
540.798503	0.225743
541.013617	0.226060
541.228712	0.226213
541.443789	0.226362
541.658848	0.227270
541.873889	0.227046
542.088912	0.227197
542.303916	0.227519
542.518902	0.228505
542.733870	0.229080
542.948820	0.229852
543.163752	0.229759
543.378665	0.229953
543.593560	0.229788
543.808437	0.230512
544.023295	0.231235
544.238136	0.231599
544.452958	0.231578
544.667762	0.232305
544.882548	0.233006
545.097315	0.233672
545.312064	0.233883
545.526795	0.234012
545.741508	0.233796
545.956203	0.233822
546.170879	0.234337
546.385537	0.233848
546.600177	0.233373
546.814799	0.232923
547.029402	0.233449
547.243988	0.234036
547.458555	0.234163
547.673103	0.235008
547.887634	0.235474
548.102146	0.235554
548.316640	0.236361
548.531116	0.236854
548.745574	0.237473
548.960013	0.237858
549.174435	0.237684
549.388838	0.238521
549.603222	0.238640
549.817589	0.238312
550.031937	0.237992
550.246267	0.238300
550.460579	0.238598
550.674873	0.238121
550.889148	0.238454
551.103405	0.238636
551.317644	0.238687
551.531865	0.238685
551.746068	0.239158
551.960252	0.239799
552.174418	0.239952
552.388566	0.240322
552.602696	0.240608
552.816807	0.240605
553.030900	0.241100
553.244975	0.241177
553.459032	0.241440
553.673070	0.241531
553.887091	0.241939
554.101093	0.242236
554.315077	0.242117
554.529042	0.242869
554.742990	0.242770
554.956919	0.242832
555.170830	0.243001
555.384722	0.243301
555.598597	0.243345
555.812453	0.243552
556.026291	0.243641
556.240111	0.244118
556.453913	0.244349
556.667696	0.244678
556.881461	0.244837
557.095208	0.245229
557.308937	0.245063
557.522647	0.245755
557.736339	0.245929
557.950013	0.246348
558.163669	0.246635
558.377307	0.246611
558.590926	0.246464
558.804527	0.246914
559.018110	0.246980
559.231675	0.247492
559.445221	0.247349
559.658749	0.247714
559.872259	0.247840
560.085751	0.247883
560.299225	0.247932
560.512680	0.248313
560.726117	0.248384
560.939536	0.248708
561.152937	0.248637
561.366319	0.248732
561.579683	0.248631
561.793029	0.248756
562.006357	0.249040
562.219667	0.249358
562.432958	0.249287
562.646231	0.249728
562.859486	0.249681
563.072723	0.249476
563.285941	0.249845
563.499141	0.249801
563.712323	0.249780
563.925487	0.249742
564.138632	0.249723
564.351760	0.249472
564.564869	0.249113
564.777960	0.249260
564.991032	0.249773
565.204087	0.249653
565.417123	0.249565
565.630141	0.249522
565.843140	0.249730
566.056122	0.249724
566.269085	0.250416
566.482030	0.250305
566.694957	0.249953
566.907866	0.250119
567.120756	0.250178
567.333628	0.250596
567.546482	0.250890
567.759318	0.250981
567.972135	0.251129
568.184935	0.251423
568.397716	0.251654
568.610478	0.252240
568.823223	0.252390
569.035949	0.252788
569.248657	0.252936
569.461347	0.252974
569.674019	0.253315
569.886672	0.253491
570.099308	0.253471
570.311925	0.253889
570.524523	0.254341
570.737104	0.254437
570.949666	0.254597
571.162210	0.254831
571.374736	0.255210
571.587244	0.254929
571.799733	0.254932
572.012205	0.255103
572.224658	0.254938
572.437092	0.254903
572.649509	0.255056
572.861907	0.255130
573.074287	0.255501
573.286649	0.255120
573.498993	0.255188
573.711318	0.255386
573.923625	0.255091
574.135914	0.255220
574.348185	0.255381
574.560438	0.255484
574.772672	0.255977
574.984888	0.255402
575.197086	0.256048
575.409266	0.256445
575.621427	0.256794
575.833570	0.257768
576.045695	0.258336
576.257802	0.258636
576.469890	0.258913
576.681961	0.258665
576.894013	0.258680
577.106046	0.258626
577.318062	0.258913
577.530059	0.259143
577.742039	0.258438
577.954000	0.258668
578.165942	0.258293
578.377867	0.258338
578.589773	0.258444
578.801661	0.259619
579.013531	0.260112
579.225382	0.259946
579.437216	0.260662
579.649031	0.261010
579.860828	0.261080
580.072606	0.261372
580.284367	0.261630
580.496109	0.262076
580.707833	0.261627
580.919539	0.261621
581.131227	0.261757
581.342896	0.261670
581.554547	0.261797
581.766180	0.261338
581.977795	0.261732
582.189391	0.261640
582.400969	0.261736
582.612529	0.262011
582.824071	0.262559
583.035595	0.263032
583.247100	0.262890
583.458587	0.263508
583.670056	0.263856
583.881506	0.263859
584.092939	0.264654
584.304353	0.264556
584.515749	0.264570
584.727127	0.264380
584.938486	0.264501
585.149828	0.264704
585.361151	0.264712
585.572456	0.265317
585.783742	0.265638
585.995011	0.265489
586.206261	0.265724
586.417493	0.266407
586.628706	0.266244
586.839902	0.266499
587.051079	0.266595
587.262238	0.266632
587.473379	0.266686
587.684502	0.266523
587.895606	0.266220
588.106692	0.266515
588.317760	0.266350
588.528810	0.266831
588.739841	0.266787
588.950855	0.267081
589.161850	0.267358
589.372827	0.267603
589.583785	0.267887
589.794726	0.268221
590.005648	0.268363
590.216552	0.268399
590.427437	0.268535
590.638305	0.269040
590.849154	0.268744
591.059985	0.268755
591.270798	0.269082
591.481592	0.269398
591.692369	0.270132
591.903127	0.270346
592.113867	0.270916
592.324588	0.271275
592.535292	0.271028
592.745977	0.271740
592.956644	0.272199
593.167293	0.272380
593.377923	0.272541
593.588536	0.272624
593.799130	0.272601
594.009706	0.272345
594.220263	0.272305
594.430803	0.272712
594.641324	0.272625
594.851827	0.272714
595.062312	0.272702
595.272778	0.272708
595.483227	0.272852
595.693657	0.273238
595.904069	0.273741
596.114462	0.273887
596.324838	0.274036
596.535195	0.274726
596.745534	0.275088
596.955855	0.275247
597.166157	0.275842
597.376441	0.276069
597.586707	0.276367
597.796955	0.276505
598.007185	0.277146
598.217396	0.277424
598.427589	0.277099
598.637764	0.276882
598.847921	0.276935
599.058060	0.276986
599.268180	0.277172
599.478282	0.277247
599.688366	0.277183
599.898431	0.276934
600.108479	0.276730
600.318508	0.276990
600.528519	0.277212
600.738511	0.277322
600.948486	0.277217
601.158442	0.277334
601.368380	0.277701
601.578300	0.278160
601.788202	0.278587
601.998085	0.278974
602.207950	0.279352
602.417797	0.279533
602.627626	0.279686
602.837436	0.280066
603.047228	0.280531
603.257002	0.280626
603.466758	0.280644
603.676496	0.280881
603.886215	0.281445
604.095916	0.281706
604.305599	0.282186
604.515264	0.282658
604.724910	0.282782
604.934538	0.282706
605.144148	0.282400
605.353740	0.282630
605.563314	0.282817
605.772869	0.282567
605.982406	0.282382
606.191925	0.282440
606.401425	0.282419
606.610908	0.282607
606.820372	0.282462
607.029818	0.282684
607.239246	0.282542
607.448655	0.282517
607.658047	0.282836
607.867420	0.283217
608.076775	0.283284
608.286111	0.283262
608.495430	0.283144
608.704730	0.283510
608.914012	0.283924
609.123275	0.284067
609.332521	0.284178
609.541748	0.284348
609.750957	0.284187
609.960148	0.284432
610.169321	0.285054
610.378475	0.285511
610.587611	0.285448
610.796729	0.285359
611.005829	0.285594
611.214910	0.286104
611.423974	0.286025
611.633019	0.286047
611.842045	0.286115
612.051054	0.285902
612.260044	0.285659
612.469017	0.285730
612.677970	0.285951
612.886906	0.286427
613.095824	0.286341
613.304723	0.286498
613.513604	0.286714
613.722467	0.287014
613.931311	0.287044
614.140138	0.287438
614.348946	0.287718
614.557736	0.287951
614.766507	0.287594
614.975261	0.287675
615.183996	0.287779
615.392713	0.287893
615.601412	0.287841
615.810092	0.288416
616.018754	0.288257
616.227399	0.288423
616.436024	0.288396
616.644632	0.288629
616.853222	0.288765
617.061793	0.289324
617.270346	0.289588
617.478880	0.290093
617.687397	0.289784
617.895895	0.290460
618.104375	0.290550
618.312837	0.291009
618.521281	0.291040
618.729706	0.290957
618.938113	0.290917
619.146502	0.291132
619.354873	0.290670
619.563226	0.290990
619.771560	0.290727
619.979876	0.290831
620.188174	0.290701
620.396453	0.291303
620.604715	0.291473
620.812958	0.291483
621.021183	0.291533
621.229390	0.291749
621.437578	0.291990
621.645748	0.292338
621.853900	0.292472
622.062034	0.292546
622.270150	0.292589
622.478247	0.292957
622.686326	0.293227
622.894387	0.293842
623.102430	0.294110
623.310454	0.294162
623.518461	0.294330
623.726449	0.294836
623.934418	0.295165
624.142370	0.295302
624.350303	0.295307
624.558218	0.295584
624.766115	0.295323
624.973994	0.295605
625.181855	0.295853
625.389697	0.295987
625.597521	0.295739
625.805327	0.295772
626.013114	0.295828
626.220883	0.295812
626.428634	0.295730
626.636367	0.296033
626.844082	0.296093
627.051778	0.296166
627.259457	0.296299
627.467117	0.296510
627.674758	0.296613
627.882382	0.296687
628.089987	0.297160
628.297574	0.297341
628.505143	0.297187
628.712694	0.297251
628.920226	0.297422
629.127740	0.297747
629.335236	0.298057
629.542714	0.298533
629.750174	0.298847
629.957615	0.299071
630.165038	0.299289
630.372443	0.300022
630.579829	0.300518
630.787198	0.300760
630.994548	0.300968
631.201880	0.300913
631.409194	0.301013
631.616489	0.301140
631.823766	0.301059
632.031025	0.301096
632.238266	0.300687
632.445489	0.300607
632.652693	0.300676
632.859879	0.300527
633.067047	0.300965
633.274197	0.301187
633.481329	0.301512
633.688442	0.301951
633.895537	0.302311
634.102614	0.302661
634.309672	0.302880
634.516713	0.303274
634.723735	0.303571
634.930739	0.303709
635.137724	0.303917
635.344692	0.303986
635.551641	0.304006
635.758572	0.304339
635.965485	0.304544
636.172379	0.304797
636.379256	0.304928
636.586114	0.304982
636.792954	0.305113
636.999775	0.305161
637.206579	0.305172
637.413364	0.305627
637.620131	0.305560
637.826880	0.306019
638.033610	0.306185
638.240323	0.306295
638.447017	0.306769
638.653692	0.307072
638.860350	0.307191
639.066990	0.307420
639.273611	0.307237
639.480214	0.307309
639.686798	0.307187
639.893365	0.307245
640.099913	0.307345
640.306443	0.307421
640.512955	0.307506
640.719449	0.307803
640.925924	0.308168
641.132381	0.308478
641.338820	0.308672
641.545241	0.309043
641.751644	0.309542
641.958028	0.309940
642.164394	0.310117
642.370742	0.310453
642.577071	0.310638
642.783383	0.310686
642.989676	0.310627
643.195951	0.310766
643.402207	0.310567
643.608446	0.310479
643.814666	0.310396
644.020868	0.310561
644.227052	0.310506
644.433218	0.310820
644.639365	0.310999
644.845494	0.311465
645.051605	0.312027
645.257698	0.312281
645.463772	0.312208
645.669828	0.312329
645.875866	0.312203
646.081886	0.312266
646.287888	0.312137
646.493871	0.312392
646.699836	0.312349
646.905783	0.312362
647.111712	0.312607
647.317622	0.313179
647.523514	0.313797
647.729388	0.314478
647.935244	0.315010
648.141082	0.315304
648.346901	0.315426
648.552702	0.315908
648.758485	0.316028
648.964250	0.316369
649.169996	0.316617
649.375724	0.316474
649.581434	0.316510
649.787126	0.316487
649.992800	0.316593
650.198455	0.316981
650.404092	0.316794
650.609711	0.316918
650.815311	0.317090
651.020894	0.317104
651.226458	0.317311
651.432004	0.317562
651.637532	0.317740
651.843041	0.318186
652.048532	0.318140
652.254006	0.318509
652.459460	0.318793
652.664897	0.318996
652.870315	0.319114
653.075716	0.319450
653.281097	0.319668
653.486461	0.319969
653.691807	0.320151
653.897134	0.320163
654.102443	0.320341
654.307734	0.320790
654.513006	0.320885
654.718261	0.321273
654.923497	0.321535
655.128715	0.321682
655.333915	0.321868
655.539096	0.321703
655.744259	0.322341
655.949404	0.322786
656.154531	0.322718
656.359640	0.323069
656.564730	0.323101
656.769802	0.323089
656.974856	0.323381
657.179892	0.323809
657.384909	0.324243
657.589908	0.324483
657.794889	0.324745
657.999852	0.325058
658.204797	0.325126
658.409723	0.325613
658.614631	0.326119
658.819521	0.326314
659.024393	0.326409
659.229246	0.326926
659.434081	0.326900
659.638898	0.326996
659.843697	0.327288
660.048478	0.327762
660.253240	0.327611
660.457984	0.327616
660.662710	0.328171
660.867417	0.328300
661.072107	0.328208
661.276778	0.328448
661.481431	0.328653
661.686066	0.328638
661.890682	0.328773
662.095281	0.329185
662.299861	0.329376
662.504422	0.329168
662.708966	0.329236
662.913491	0.329572
663.117999	0.329763
663.322488	0.330111
663.526958	0.330334
663.731411	0.330583
663.935845	0.330910
664.140261	0.331247
664.344659	0.331347
664.549038	0.331817
664.753400	0.331911
664.957743	0.332201
665.162068	0.332227
665.366375	0.332553
665.570663	0.332734
665.774933	0.333103
665.979185	0.333239
666.183419	0.333674
666.387635	0.333925
666.591832	0.334319
666.796011	0.334698
667.000172	0.334914
667.204315	0.335228
667.408439	0.335656
667.612545	0.335799
667.816634	0.335921
668.020703	0.336206
668.224755	0.336102
668.428788	0.336164
668.632803	0.336357
668.836800	0.336565
669.040779	0.336762
669.244739	0.336582
669.448681	0.336685
669.652605	0.336981
669.856511	0.337073
670.060399	0.337688
670.264268	0.337701
670.468119	0.337531
670.671952	0.337749
670.875767	0.337830
671.079563	0.338218
671.283341	0.338372
671.487101	0.338782
671.690843	0.338957
671.894567	0.338971
672.098272	0.339290
672.301959	0.339873
672.505628	0.340224
672.709278	0.340400
672.912911	0.340476
673.116525	0.340681
673.320121	0.340734
673.523699	0.340880
673.727258	0.340887
673.930799	0.341182
674.134322	0.341429
674.337827	0.341571
674.541314	0.342176
674.744782	0.342704
674.948232	0.342940
675.151664	0.343157
675.355078	0.343812
675.558474	0.344259
675.761851	0.344613
675.965210	0.344801
676.168551	0.345292
676.371873	0.345065
676.575178	0.345058
676.778464	0.345299
676.981732	0.345489
677.184981	0.345502
677.388213	0.345750
677.591426	0.345763
677.794621	0.345961
677.997798	0.345911
678.200956	0.346191
678.404097	0.346251
678.607219	0.346294
678.810323	0.346418
679.013408	0.346587
679.216476	0.346951
679.419525	0.347266
679.622556	0.347515
679.825569	0.347876
680.028563	0.348116
680.231540	0.348645
680.434498	0.349265
680.637438	0.349920
680.840359	0.350031
681.043263	0.350138
681.246148	0.350460
681.449015	0.350662
681.651864	0.350610
681.854694	0.350950
682.057506	0.351139
682.260301	0.351055
682.463076	0.351152
682.665834	0.351483
682.868573	0.351477
683.071295	0.351581
683.273998	0.351856
683.476682	0.352081
683.679349	0.352147
683.881997	0.352400
684.084627	0.352427
684.287239	0.352357
684.489833	0.352383
684.692408	0.352445
684.894965	0.352820
685.097504	0.352712
685.300025	0.353017
685.502527	0.353181
685.705012	0.353213
685.907478	0.353445
686.109925	0.353683
686.312355	0.353994
686.514766	0.354356
686.717159	0.354413
686.919534	0.354759
687.121891	0.354782
687.324230	0.355213
687.526550	0.355269
687.728852	0.355563
687.931136	0.355770
688.133401	0.355850
688.335649	0.356040
688.537878	0.355946
688.740089	0.356067
688.942281	0.356321
689.144456	0.356174
689.346612	0.356492
689.548750	0.356887
689.750870	0.357326
689.952971	0.357278
690.155055	0.357543
690.357120	0.358107
690.559167	0.358288
690.761195	0.358294
690.963206	0.358574
691.165198	0.358610
691.367172	0.358613
691.569128	0.358543
691.771065	0.359056
691.972984	0.359278
692.174885	0.359572
692.376768	0.359782
692.578633	0.360121
692.780479	0.360275
692.982308	0.360552
693.184118	0.360939
693.385909	0.361067
