sample name	sample
index	259
start time	 02-25-2021  10:52:03 AM
880	0.448923
Peak Time (s)	92.035
Peak Height 	0.4489
calc peak height	90,93
Baseline Time (s)	10.537
Baseline Value 	-0.005424
subtract baseline	10,4
Abs	0.298911
Peak Time (s)	92.035
Peak Height 	0.2989
calc peak height	90,93
Baseline Time (s)	9.537
Baseline Value 	0.002443
subtract baseline	10,3
PK_550	0.132549
Peak Time (s)	91.04
Peak Height 	0.1325
calc peak height	90,93
Baseline Time (s)	10.037
Baseline Value 	2.1966E-5
subtract baseline	10,2
PK_880	0.281258
Peak Time (s)	90.537
Peak Height 	0.2813
calc peak height	90,93
Baseline Time (s)	11.536
Baseline Value 	0.002113
subtract baseline	10,1


Time (s)	A880-A510	A880-A775	A880-A975	A880	I510	I775	I975	I880	
0.037000	0.000224	0.000234	-0.001554	0.001662	6864.796095	46069.981349	3934.779468	24229.965655
0.535000	-0.002926	-0.001060	-0.003510	0.006566	6789.998961	45456.965361	3916.412634	23989.096745
1.037500	-0.003707	0.000094	-0.002274	0.003966	6806.772686	45827.218540	3926.647942	24116.497167
1.538500	-0.001283	-0.000195	0.000799	0.000542	6861.178655	46138.933871	3944.187723	24285.394447
2.035500	-0.001143	0.000164	-0.001987	0.000711	6860.901078	46157.855852	3936.176865	24277.000507
2.536000	-0.003880	0.000666	-0.001492	0.006115	6785.373243	45671.258691	3922.990498	24011.146803
3.036000	0.002820	0.000853	0.001694	-0.000567	6910.290212	46354.695645	3949.653164	24340.390103
3.536500	0.001954	0.000457	0.000713	0.000839	6888.802574	46174.264417	3943.147065	24270.657377
4.036500	0.000062	0.000325	-0.001992	0.000884	6870.579552	46156.603054	3935.696463	24268.440761
4.536500	-0.000097	0.000595	-0.003699	0.001328	6864.920802	46139.250097	3929.901637	24246.483470
5.037000	0.001661	0.000220	0.002233	0.000809	6886.329830	46153.707568	3947.367932	24272.169620
5.535000	-0.000543	-0.000393	-0.000281	0.000112	6872.148220	46162.031327	3942.420678	24306.669453
6.035500	0.000445	0.000403	0.000001	0.000467	6878.094379	46206.084146	3942.223460	24289.104649
6.535500	0.001191	0.000582	-0.000577	0.001005	6880.045618	46170.209682	3939.196367	24262.442958
7.035500	-0.000101	0.000310	0.001724	0.000682	6870.948435	46175.318599	3946.326224	24278.448410
7.535500	0.001551	-0.000144	-0.002411	0.000331	6889.788075	46165.004872	3936.056575	24295.810887
8.036500	0.001969	0.000373	0.004268	0.000420	6892.900956	46207.786856	3953.995526	24291.429796
8.536500	0.000640	-0.000241	-0.002270	-0.000154	6885.777838	46203.701890	3937.748551	24319.851655
9.036500	0.001595	0.000486	0.002048	0.000755	6886.207346	46185.575545	3947.008268	24274.810759
9.537000	0.001292	0.000552	0.000000	0.000698	6883.898094	46197.907366	3941.593918	24277.665859
10.037500	-0.001396	0.000000	0.001918	-0.000010	6865.282027	46213.428120	3948.741505	24312.710606
10.537500	-0.000582	-0.000076	0.001966	0.000000	6872.829069	46204.922499	3948.844289	24312.236836
11.037500	-0.001797	-0.000585	-0.001995	-0.000705	6868.039463	46224.471162	3939.986014	24347.206017
11.535500	0.000000	0.000030	-0.000164	0.000505	6873.555571	46165.037941	3941.670709	24287.203947
12.035500	0.000880	0.000304	-0.001177	0.000403	6882.788528	46202.532039	3939.199672	24292.239835
12.536000	0.000651	0.000099	0.002957	0.000022	6884.218705	46220.144001	3951.494813	24311.134443
13.035500	-0.000100	0.000319	0.001613	-0.001901	6895.275872	46434.880596	3953.080339	24406.690820
13.536500	0.001685	0.000050	0.000989	-0.000904	6902.728347	46307.878060	3948.646382	24357.102906
14.044500	-0.001463	0.000041	0.001271	-0.000491	6869.168298	46265.721660	3948.290040	24336.600431
14.537000	-0.001676	-0.000101	0.002119	0.002238	6841.659747	45979.386119	3943.168100	24201.574537
15.037500	0.000186	0.000228	-0.000856	0.000312	6877.121774	46204.087403	3940.317792	24296.765224
15.537000	-0.001224	0.000542	-0.005269	0.001871	6849.297997	46079.874463	3924.236860	24219.653293
16.035500	-0.000197	-0.000321	0.000777	-0.000968	6885.565777	46277.203480	3948.243304	24360.295092
16.535500	0.001546	0.000560	0.005685	-0.000373	6896.388798	46305.810803	3960.074053	24330.748120
17.035500	0.000292	-0.000065	0.002434	-0.001091	6891.335499	46315.137182	3953.110395	24366.420558
17.536500	-0.000924	-0.000190	0.001292	0.000127	6868.432853	46180.829308	3946.660928	24305.964332
18.036500	-0.000532	0.000456	0.000667	-0.000351	6876.599230	46293.258338	3946.260553	24329.658268
18.536500	-0.000133	0.000030	-0.000903	0.000851	6869.058661	46130.558402	3938.731371	24270.100250
19.037000	-0.001820	-0.000096	-0.001298	0.001061	6851.299435	46096.977625	3937.095805	24259.705440
19.537500	-0.000768	0.000664	-0.000509	0.001647	6855.649454	46114.294125	3937.642393	24230.709613
20.034500	0.001381	0.001306	-0.006752	0.001651	6875.767093	46177.989779	3920.867472	24230.526448
20.538000	-0.000735	0.000595	-0.001379	0.001595	6856.452094	46112.666818	3935.434245	24233.314802
21.035500	-0.000387	0.000446	-0.000800	0.001157	6863.802590	46141.397097	3938.179446	24254.927552
21.535500	-0.001047	0.000933	0.001937	0.001533	6854.106872	46152.550552	3944.586669	24236.358360
22.036000	0.001238	0.000918	0.001658	0.001835	6872.690429	46120.918178	3943.008597	24221.440293
22.536000	-0.002388	0.000173	-0.001839	0.001119	6845.455848	46118.063323	3935.475800	24256.827626
23.036500	-0.000886	-0.000003	0.002568	0.000618	6864.186592	46150.488166	3948.802511	24281.615508
23.537000	-0.001028	0.000675	0.000227	0.001361	6855.894470	46143.959786	3940.410884	24244.861703
24.037000	-0.001471	-0.000225	0.003995	0.000720	6857.754797	46118.122687	3952.425407	24276.571738
24.537000	0.001846	0.000690	0.006026	0.001205	6884.331307	46160.993460	3956.668067	24252.562521
25.037500	-0.001393	0.000239	-0.003348	0.000602	6859.578463	46176.169313	3932.800849	24282.396883
25.534500	-0.001108	-0.000139	-0.000142	0.000975	6858.757196	46101.238978	3940.455657	24263.932007
26.035500	-0.000669	-0.000129	0.001524	0.000440	6867.887087	46155.694587	3946.439146	24290.440501
26.535500	-0.001921	0.000200	0.006719	0.000722	6853.525829	46160.315910	3959.903877	24276.469432
27.036000	-0.001830	-0.000442	0.001254	0.000420	6857.202015	46126.399992	3945.759048	24291.432049
27.536500	-0.000985	0.000738	0.001389	0.001423	6855.719465	46144.120353	3943.399057	24241.811347
28.036500	0.004019	0.000675	0.007103	-0.002466	6939.754250	46527.515764	3969.791621	24434.879044
28.537000	0.000960	0.000770	0.000594	-0.000830	6895.177846	46372.762626	3947.366504	24353.454815
29.037000	0.000901	0.000182	-0.003187	-0.000978	6896.018086	46328.535361	3937.499503	24360.783840
29.535000	-0.001297	0.000453	-0.001708	0.000122	6864.979845	46245.516650	3938.524978	24306.167439
30.037500	-0.000334	0.000380	-0.002674	-0.001187	6886.327804	46369.349571	3939.452043	24371.157868
30.535000	-0.000084	0.000605	-0.002298	-0.000375	6881.043274	46310.489565	3938.272383	24330.846064
31.036000	0.000899	0.001139	-0.002618	-0.000549	6891.942531	46381.415502	3937.877929	24339.458236
31.545000	-0.000717	-0.000004	0.000157	0.000092	6870.699713	46202.879118	3943.664803	24307.668310
32.036000	-0.002159	0.000197	-0.003260	0.002248	6837.065996	46007.980202	3928.611981	24201.055224
32.553500	0.001014	0.000113	-0.000165	-0.000632	6893.814469	46286.988103	3944.758428	24343.598687
33.039500	0.000331	-0.000020	0.001676	-0.001018	6891.011330	46312.345261	3950.833650	24362.768800
33.538500	-0.001327	-0.000365	0.001187	0.000080	6865.090668	46168.000004	3946.500152	24308.253559
34.037500	-0.000105	0.000283	0.001715	-0.000903	6885.813363	46331.131211	3950.626654	24357.064672
34.538000	0.000462	0.000725	0.003915	-0.000186	6884.406359	46303.580104	3954.690653	24321.457963
35.035500	-0.000824	0.000597	-0.001858	0.000815	6862.915658	46190.694735	3936.244636	24271.849741
35.535500	-0.000882	0.000519	0.003169	0.001777	6853.368167	46086.897926	3947.279350	24224.302136
36.035500	-0.002527	0.000001	0.000157	0.001266	6842.786902	46086.295615	3940.478879	24249.573235
36.536000	-0.001719	-0.000142	0.000725	0.001274	6850.245157	46071.189360	3941.997976	24249.139861
37.036500	0.000244	0.000601	0.000071	0.002012	6861.700655	46071.660402	3938.224529	24212.677026
37.536500	-0.000145	0.000166	-0.002553	0.001745	6860.568510	46055.010612	3931.864024	24225.890695
38.037000	0.000133	0.000263	-0.004920	0.001425	6866.168266	46096.555784	3926.367323	24241.706008
38.537000	-0.001227	0.000151	-0.002516	0.001581	6851.986212	46069.877894	3932.406102	24234.006535
39.038000	0.000451	-0.000112	-0.004158	0.001183	6871.421570	46083.161742	3929.058886	24253.633308
39.534500	-0.000155	-0.000402	0.001176	0.001361	6864.067715	46036.662837	3942.986426	24244.862306
40.035500	-0.000827	0.000527	0.000651	0.002001	6851.796830	46065.438562	3939.827028	24213.268683
40.535500	-0.000258	0.000990	-0.000226	0.002491	6852.529557	46062.743889	3936.126222	24189.074231
41.035500	-0.003469	0.000348	-0.001179	0.001895	6828.165014	46058.150234	3935.164299	24218.496574
41.536000	-0.001106	0.000365	0.001660	0.001694	6852.055730	46079.831744	3943.397920	24228.404232
42.036500	-0.000098	0.000355	0.000705	0.001705	6861.384046	46077.780526	3940.773320	24227.852399
42.536500	-0.001737	-0.000022	0.002447	0.001526	6847.731996	46058.060823	3945.996839	24236.712471
43.037000	-0.002270	0.000487	0.002165	0.001647	6841.629163	46096.705748	3944.897791	24230.721521
43.537500	-0.002191	-0.001080	0.001029	0.000862	6849.696625	46018.794050	3943.942788	24269.547430
44.040500	-0.001916	0.000157	0.002928	0.001636	6845.026093	46064.848079	3947.005789	24231.250159
44.535000	-0.000955	0.000645	-0.000026	0.002045	6850.186905	46072.808756	3937.873953	24211.095838
45.035500	0.000648	0.000669	0.000933	-0.002644	6909.386086	46544.825801	3953.253975	24443.753705
45.536000	0.000565	0.000790	0.003195	0.001132	6872.980555	46178.308422	3949.112203	24256.201921
46.036000	0.000969	-0.000576	0.001937	-0.001243	6899.160958	46279.263322	3952.165444	24373.975971
46.536500	0.000302	0.000626	0.001311	-0.000802	6888.701732	46355.402144	3949.245800	24352.025446
47.036500	0.001518	-0.000406	-0.001900	-0.001376	6905.606735	46309.517323	3942.065678	24380.564742
47.537000	-0.000734	0.000076	-0.002277	0.002932	6843.972408	45927.987513	3929.415830	24167.364651
48.034500	-0.001207	-0.000408	0.001207	0.000419	6863.038340	46129.916741	3945.633198	24291.479456
48.559000	0.002076	0.001029	-0.001164	-0.000211	6899.868092	46336.497595	3940.901649	24322.682001
49.035000	-0.001369	0.000581	0.001599	0.002696	6840.254670	46001.640679	3940.512239	24178.984797
49.535500	0.000203	0.000217	0.002428	0.001614	6865.057218	46073.104492	3945.704497	24232.350146
50.054500	0.000149	0.001202	0.000203	0.003557	6846.376920	45977.735960	3934.407496	24136.593281
50.536000	0.002600	0.001401	-0.000238	0.000049	6902.366726	46347.782595	3942.707236	24309.793596
51.035500	0.001205	0.000437	-0.000507	-0.000865	6897.821346	46342.806027	3944.461732	24355.168088
51.536500	-0.001132	0.000722	0.000126	0.001692	6851.834034	46115.717414	3939.240313	24228.517514
52.036500	-0.000304	0.000597	0.000533	0.001122	6864.908795	46160.004885	3941.889117	24256.670604
52.537000	-0.002826	-0.004783	-0.000802	-0.002740	6877.490361	46008.723524	3948.769908	24448.521451
53.036500	-0.019205	-0.012133	0.008338	0.185660	5342.211996	30334.191418	3547.737979	16821.157345
53.537500	-0.021591	-0.023847	-0.017247	-0.104475	7737.191053	55067.028003	4206.097707	30168.906376
54.037500	-0.036733	-0.155738	-0.024914	-0.315661	10557.530388	65535.000000	5068.814438	47322.582588
54.535500	-0.013970	-0.136230	-0.012745	-0.296153	10615.941209	65535.000000	5030.172245	45365.965595
55.035000	-0.031908	-0.149081	-0.006039	-0.309004	10524.848081	65535.000000	5134.603452	46644.994491
55.535000	-0.027309	-0.111025	-0.001655	-0.270947	9951.627822	65535.000000	4957.669602	42964.590388
56.039000	-0.023213	-0.090439	-0.007521	-0.250356	9684.842685	65534.178217	4827.953433	41103.613464
56.536000	-0.010574	-0.094646	-0.004329	-0.254569	9957.498831	65535.000000	4863.466663	41477.239251
57.036500	0.004189	-0.079762	0.000393	-0.239644	9954.824153	65529.055878	4814.692014	40169.843900
57.537500	0.010491	-0.046958	0.008190	-0.192355	9309.903534	63471.713443	4636.348771	36312.166868
58.040000	0.013365	-0.023887	0.011442	-0.143365	8653.457307	59957.258709	4449.081049	32734.932860
58.535000	0.024553	-0.010670	0.025391	-0.087444	8079.923798	54605.249136	4293.749620	29115.512178
59.037500	0.031464	-0.003497	0.030099	-0.029386	7492.627565	48878.516199	4116.787386	25819.769369
59.535500	0.045026	0.003092	0.049502	0.009031	7231.267082	45623.002766	4058.794195	23869.074948
60.036000	0.056172	0.010055	0.057488	0.052279	6915.076458	42191.174987	3957.734202	21869.886795
60.536000	0.069229	0.017866	0.075489	0.094992	6643.046416	39150.079653	3891.646685	20081.556951
61.036500	0.084975	0.028909	0.090764	0.139490	6396.465483	36455.699030	3818.194290	18396.386639
61.536500	0.102899	0.036843	0.116100	0.178246	6227.731716	34150.581494	3786.085411	17062.964805
62.036500	0.117222	0.044576	0.128292	0.223156	5994.194169	31579.235757	3711.835124	15659.530913
62.537000	0.140028	0.057999	0.155995	0.251599	5952.921066	30601.195424	3710.218338	14842.884794
63.037500	0.167333	0.071767	0.181014	0.288322	5885.146455	29170.376985	3685.029997	13864.617957
63.535000	0.185222	0.083637	0.195270	0.315798	5817.655053	28239.890820	3657.382703	13184.903307
64.045500	0.192625	0.090363	0.213108	0.324126	5811.219206	28146.291795	3677.187283	12987.242207
64.535500	0.202105	0.096597	0.213197	0.339048	5773.642399	27644.454822	3646.487506	12642.402855
65.036000	0.212021	0.101113	0.227948	0.345612	5796.731216	27527.603379	3663.301124	12494.420481
65.536000	0.218018	0.104915	0.235394	0.353339	5784.792157	27305.204662	3662.719143	12323.062516
66.039500	0.219981	0.107000	0.234559	0.364908	5719.364052	26776.071832	3637.383917	12072.149234
66.537000	0.228832	0.112523	0.245963	0.368380	5755.822796	26889.530911	3653.502943	11998.135906
67.037000	0.231552	0.115185	0.246567	0.373963	5736.358534	26728.080112	3643.349522	11880.361436
67.540000	0.236033	0.116427	0.249363	0.379306	5730.520629	26503.287622	3638.200539	11769.049396
68.037500	0.238339	0.118824	0.257320	0.391136	5666.820535	25994.163237	3630.430243	11527.434664
68.535500	0.241087	0.122088	0.262777	0.391371	5683.497617	26156.446476	3640.924394	11522.704395
69.035500	0.243599	0.122731	0.262615	0.394348	5680.400102	26031.316647	3634.601759	11462.957560
69.536000	0.247783	0.125531	0.268107	0.400038	5670.411541	25877.313935	3634.203329	11349.912816
70.036000	0.251342	0.127472	0.267290	0.403058	5673.981203	25820.021983	3626.539432	11290.504870
70.536500	0.251341	0.128530	0.272077	0.406585	5650.683389	25689.590479	3629.050060	11221.653321
71.036500	0.256913	0.129798	0.274073	0.409986	5665.003638	25577.502614	3626.252495	11155.788750
71.536500	0.256051	0.130095	0.275832	0.414026	5632.767934	25382.072780	3621.728924	11078.197993
72.037000	0.256220	0.130825	0.269763	0.420817	5589.814646	25069.276660	3596.671975	10949.429266
72.537000	0.261176	0.134425	0.279083	0.419467	5630.703253	25324.443270	3617.409249	10974.856960
73.035000	0.260092	0.132685	0.276944	0.419894	5620.856692	25212.363425	3612.374996	10966.806361
73.535000	0.263863	0.133902	0.278032	0.421503	5634.967450	25192.187144	3611.357541	10936.530963
74.035500	0.259500	0.133843	0.276547	0.429140	5557.531114	24799.001690	3593.722654	10794.300788
74.535500	0.265060	0.135887	0.279231	0.426396	5610.886956	25042.785540	3604.171412	10845.117528
75.036000	0.265939	0.135356	0.283968	0.427130	5611.828286	24978.128704	3611.961159	10831.496568
75.536500	0.266973	0.135541	0.282188	0.429462	5603.417930	24868.797290	3603.960595	10788.361880
76.036500	0.263838	0.135804	0.281045	0.435588	5544.132185	24572.960851	3589.999608	10676.148897
76.537000	0.267841	0.136277	0.285354	0.430285	5603.705932	24864.341607	3608.509799	10773.187890
77.037000	0.268666	0.136323	0.279529	0.431426	5601.661756	24808.794571	3595.055207	10752.211975
77.540500	0.270987	0.136190	0.286831	0.432876	5607.301681	24728.780440	3606.343118	10725.631679
78.035500	0.267870	0.135551	0.285137	0.431445	5596.402671	24768.826223	3605.833126	10751.870741
78.535500	0.274132	0.135633	0.283045	0.432246	5631.859263	24732.437577	3600.235897	10737.168261
79.036000	0.268837	0.135536	0.292653	0.433196	5591.346901	24679.667978	3617.096096	10719.780726
79.536000	0.272398	0.135575	0.285502	0.434358	5606.842627	24623.217731	3600.903068	10698.561131
80.036500	0.272139	0.136805	0.289161	0.435524	5597.627753	24626.411150	3605.726435	10677.328086
80.536500	0.274203	0.136228	0.285797	0.435512	5611.063690	24598.078048	3599.246174	10677.543704
81.037000	0.273026	0.136226	0.286685	0.435793	5601.616201	24583.861931	3600.416745	10672.431172
81.539500	0.273966	0.135043	0.287301	0.435623	5608.804488	24533.076293	3601.931935	10675.512720
82.037500	0.269175	0.135341	0.287361	0.442351	5535.124381	24213.866603	3589.149179	10554.112391
82.537500	0.272356	0.134825	0.292808	0.436094	5595.346466	24498.690634	3611.719082	10666.963957
83.035500	0.273989	0.136894	0.289570	0.438025	5593.423785	24505.566788	3601.677017	10631.960483
83.535500	0.273203	0.136231	0.293035	0.439576	5578.402430	24395.274559	3605.382246	10603.965767
84.036000	0.275098	0.134634	0.288578	0.444096	5561.619219	24093.337899	3588.145255	10522.924885
84.536000	0.273749	0.134649	0.293674	0.438377	5589.608119	24376.187196	3608.953294	10625.590400
85.036500	0.275922	0.135955	0.294856	0.439321	5597.536199	24394.212192	3609.418823	10608.561093
85.537000	0.274093	0.135168	0.294048	0.440927	5575.446026	24275.614898	3604.726195	10579.650784
86.040000	0.274270	0.134053	0.294485	0.445819	5545.408010	23980.711901	3596.133580	10492.255790
86.537500	0.277376	0.134096	0.295019	0.439887	5603.276522	24274.017987	3608.633083	10598.358889
87.035000	0.277197	0.132987	0.293098	0.438949	5608.190440	24265.559186	3606.720066	10615.264864
87.538000	0.277998	0.134303	0.291135	0.441637	5595.984922	24197.866293	3597.731276	10566.902133
88.035500	0.275335	0.132397	0.291263	0.446785	5546.037276	23853.274816	3588.139247	10475.123910
88.535500	0.277426	0.133037	0.292612	0.440848	5597.386640	24174.409490	3602.100010	10581.073928
89.036000	0.279276	0.132561	0.294130	0.441485	5605.228403	24119.728329	3603.802659	10569.632762
89.536000	0.278722	0.131968	0.294996	0.442123	5597.517473	24059.399441	3604.244295	10558.185579
90.036000	0.274947	0.131729	0.291702	0.447320	5540.194479	23795.094192	3587.956523	10465.644302
90.537000	0.281258	0.131445	0.295320	0.442205	5613.409949	24029.829673	3604.714764	10556.731328
91.040000	0.279853	0.132549	0.293747	0.443586	5595.375074	24016.252653	3599.007849	10532.021748
91.534500	0.276249	0.130652	0.295404	0.441800	5583.675597	24010.878157	3605.661212	10563.979708
92.035000	0.277714	0.131119	0.298911	0.448923	5547.560933	23688.417625	3598.674711	10437.313705
92.535000	0.278209	0.130352	0.293018	0.443264	5586.862343	23924.919062	3598.224296	10537.779422
93.035000	0.279721	0.129529	0.301370	0.443708	5593.747707	23863.424315	3613.575225	10529.856456
93.536000	0.280761	0.130775	0.302391	0.444841	5593.145962	23868.919093	3613.355475	10509.654186
94.036000	0.277976	0.128816	0.299473	0.447792	5556.408159	23632.123349	3601.939526	10457.286731
94.536500	0.281341	0.129524	0.297281	0.445301	5593.916635	23786.080925	3602.517376	10501.472075
95.037000	0.278025	0.130439	0.298073	0.445803	5569.406337	23806.025703	3603.077185	10492.543722
95.622000	0.279928	0.128033	0.298566	0.444799	5588.045033	23738.384317	3605.977670	10510.397267
96.058500	0.279895	0.129110	0.300780	0.446024	5579.968777	23731.244032	3607.901739	10488.622141
96.537500	0.279832	0.127868	0.298468	0.446070	5579.267671	23669.280843	3603.324667	10487.797391
97.036000	0.279189	0.127604	0.298101	0.445802	5576.863209	23669.469204	3603.133525	10492.563335
97.535500	0.280908	0.128633	0.300163	0.446816	5581.383143	23670.137306	3605.162788	10474.558274
