sample name	sample
index	1256
start time	 04-29-2021  01:03:14 PM


Wavelength (nm)	Absorbance
494.344910	-0.241467
494.563924	-0.241467
494.782919	-0.241467
495.001897	-0.211485
495.220856	-0.076625
495.439797	-0.022297
495.658719	-0.004285
495.877624	0.037118
496.096510	0.112474
496.315378	0.109157
496.534227	0.069896
496.753059	0.161517
496.971872	0.095554
497.190667	0.175719
497.409444	0.188842
497.628203	0.195497
497.846943	0.200008
498.065665	0.201666
498.284369	0.202095
498.503055	0.202123
498.721723	0.202302
498.940372	0.203094
499.159003	0.203571
499.377616	0.204800
499.596210	0.204145
499.814787	0.205020
500.033345	0.204757
500.251885	0.204878
500.470406	0.206093
500.688910	0.206708
500.907395	0.206968
501.125862	0.208366
501.344311	0.206585
501.562742	0.207277
501.781154	0.206891
501.999548	0.206907
502.217924	0.207949
502.436282	0.207524
502.654621	0.209057
502.872942	0.210317
503.091245	0.208937
503.309530	0.211973
503.527797	0.212066
503.746045	0.211258
503.964275	0.211334
504.182487	0.210544
504.400681	0.210226
504.618856	0.209391
504.837013	0.209080
505.055152	0.209856
505.273273	0.208754
505.491376	0.208744
505.709460	0.208175
505.927526	0.208177
506.145574	0.209186
506.363604	0.209935
506.581615	0.209645
506.799608	0.208406
507.017583	0.209748
507.235540	0.209213
507.453478	0.210495
507.671399	0.210616
507.889301	0.210798
508.107185	0.209292
508.325050	0.209589
508.542898	0.209955
508.760727	0.210661
508.978538	0.208974
509.196330	0.209993
509.414105	0.210185
509.631861	0.210400
509.849599	0.210942
510.067319	0.212792
510.285021	0.212494
510.502704	0.213551
510.720369	0.213819
510.938016	0.215375
511.155645	0.215463
511.373255	0.214373
511.590848	0.215387
511.808422	0.215870
512.025977	0.214883
512.243515	0.215095
512.461034	0.213903
512.678536	0.214743
512.896018	0.214155
513.113483	0.213707
513.330930	0.214534
513.548358	0.214825
513.765768	0.214928
513.983160	0.215044
514.200533	0.216528
514.417889	0.217846
514.635226	0.218322
514.852545	0.218421
515.069845	0.219646
515.287128	0.219697
515.504392	0.219900
515.721638	0.220307
515.938866	0.220676
516.156075	0.220330
516.373267	0.219810
516.590440	0.219735
516.807594	0.220042
517.024731	0.220006
517.241850	0.220628
517.458950	0.221548
517.676032	0.220435
517.893095	0.221752
518.110141	0.222076
518.327168	0.222557
518.544177	0.222473
518.761168	0.222333
518.978141	0.222018
519.195095	0.221732
519.412031	0.221776
519.628949	0.222933
519.845849	0.223396
520.062731	0.224257
520.279594	0.225043
520.496439	0.224524
520.713266	0.225016
520.930074	0.226332
521.146865	0.226778
521.363637	0.227045
521.580391	0.227102
521.797127	0.227437
522.013844	0.226364
522.230543	0.225686
522.447224	0.226936
522.663887	0.227922
522.880532	0.227933
523.097158	0.228306
523.313766	0.227976
523.530356	0.228120
523.746928	0.226994
523.963481	0.227332
524.180017	0.228036
524.396534	0.229157
524.613032	0.229414
524.829513	0.229806
525.045975	0.231060
525.262420	0.231422
525.478845	0.232034
525.695253	0.233178
525.911643	0.233913
526.128014	0.234452
526.344367	0.233997
526.560702	0.234062
526.777018	0.233978
526.993316	0.234081
527.209597	0.234397
527.425858	0.234934
527.642102	0.234924
527.858328	0.235164
528.074535	0.234956
528.290724	0.235336
528.506894	0.235736
528.723047	0.235954
528.939181	0.235879
529.155297	0.236147
529.371395	0.236489
529.587475	0.236729
529.803536	0.237319
530.019579	0.237419
530.235604	0.237703
530.451611	0.236978
530.667600	0.237709
530.883570	0.237601
531.099522	0.237677
531.315456	0.238139
531.531372	0.238199
531.747269	0.238270
531.963148	0.239309
532.179009	0.239473
532.394852	0.241067
532.610676	0.240903
532.826482	0.241526
533.042271	0.242636
533.258040	0.242413
533.473792	0.244013
533.689525	0.244598
533.905240	0.245043
534.120937	0.245379
534.336616	0.245630
534.552277	0.245897
534.767919	0.245423
534.983543	0.245245
535.199149	0.245322
535.414736	0.244504
535.630306	0.244692
535.845857	0.244869
536.061390	0.245088
536.276904	0.245278
536.492401	0.246136
536.707879	0.247747
536.923339	0.248094
537.138781	0.248883
537.354204	0.249486
537.569610	0.250343
537.784997	0.250844
538.000366	0.251619
538.215716	0.252105
538.431049	0.252745
538.646363	0.252332
538.861659	0.252361
539.076937	0.252337
539.292196	0.252728
539.507438	0.252806
539.722661	0.253126
539.937866	0.253563
540.153052	0.253977
540.368221	0.253826
540.583371	0.254488
540.798503	0.255618
541.013617	0.255587
541.228712	0.255812
541.443789	0.256196
541.658848	0.256224
541.873889	0.256416
542.088912	0.255977
542.303916	0.256238
542.518902	0.255758
542.733870	0.256024
542.948820	0.256894
543.163752	0.257010
543.378665	0.256736
543.593560	0.257114
543.808437	0.256849
544.023295	0.257507
544.238136	0.258809
544.452958	0.260028
544.667762	0.260068
544.882548	0.260333
545.097315	0.260972
545.312064	0.261550
545.526795	0.261354
545.741508	0.262175
545.956203	0.262220
546.170879	0.262094
546.385537	0.262249
546.600177	0.262685
546.814799	0.262722
547.029402	0.262927
547.243988	0.263494
547.458555	0.263902
547.673103	0.264037
547.887634	0.264186
548.102146	0.264059
548.316640	0.264475
548.531116	0.265375
548.745574	0.266463
548.960013	0.266827
549.174435	0.267136
549.388838	0.267656
549.603222	0.268231
549.817589	0.269164
550.031937	0.269554
550.246267	0.269885
550.460579	0.269351
550.674873	0.269441
550.889148	0.269674
551.103405	0.269862
551.317644	0.270195
551.531865	0.269636
551.746068	0.269398
551.960252	0.269490
552.174418	0.269692
552.388566	0.270103
552.602696	0.270191
552.816807	0.270539
553.030900	0.270485
553.244975	0.271134
553.459032	0.271675
553.673070	0.271408
553.887091	0.271750
554.101093	0.272058
554.315077	0.272413
554.529042	0.272341
554.742990	0.272397
554.956919	0.272461
555.170830	0.272514
555.384722	0.273157
555.598597	0.273768
555.812453	0.274036
556.026291	0.274258
556.240111	0.274231
556.453913	0.275012
556.667696	0.274812
556.881461	0.275052
557.095208	0.275098
557.308937	0.274852
557.522647	0.275441
557.736339	0.275962
557.950013	0.275783
558.163669	0.276324
558.377307	0.275913
558.590926	0.276801
558.804527	0.277282
559.018110	0.277350
559.231675	0.277869
559.445221	0.278261
559.658749	0.277681
559.872259	0.278219
560.085751	0.278338
560.299225	0.278920
560.512680	0.278662
560.726117	0.278831
560.939536	0.278933
561.152937	0.279253
561.366319	0.279661
561.579683	0.280310
561.793029	0.280403
562.006357	0.280175
562.219667	0.279830
562.432958	0.280333
562.646231	0.280309
562.859486	0.280652
563.072723	0.280902
563.285941	0.280538
563.499141	0.280983
563.712323	0.281249
563.925487	0.281601
564.138632	0.282397
564.351760	0.282174
564.564869	0.282965
564.777960	0.283176
564.991032	0.282625
565.204087	0.282967
565.417123	0.282992
565.630141	0.283130
565.843140	0.283700
566.056122	0.283639
566.269085	0.284393
566.482030	0.284058
566.694957	0.284047
566.907866	0.284740
567.120756	0.284696
567.333628	0.284544
567.546482	0.284760
567.759318	0.284545
567.972135	0.285000
568.184935	0.284740
568.397716	0.285112
568.610478	0.285854
568.823223	0.286079
569.035949	0.286453
569.248657	0.286277
569.461347	0.286912
569.674019	0.287594
569.886672	0.287654
570.099308	0.288331
570.311925	0.288780
570.524523	0.288738
570.737104	0.288946
570.949666	0.289454
571.162210	0.290231
571.374736	0.289918
571.587244	0.289886
571.799733	0.290190
572.012205	0.290052
572.224658	0.290055
572.437092	0.290275
572.649509	0.290261
572.861907	0.290059
573.074287	0.290121
573.286649	0.290215
573.498993	0.289995
573.711318	0.289807
573.923625	0.290122
574.135914	0.289558
574.348185	0.289270
574.560438	0.289619
574.772672	0.289818
574.984888	0.289709
575.197086	0.289858
575.409266	0.290451
575.621427	0.290610
575.833570	0.290687
576.045695	0.291486
576.257802	0.291627
576.469890	0.291656
576.681961	0.292064
576.894013	0.292499
577.106046	0.292807
577.318062	0.293014
577.530059	0.293068
577.742039	0.293244
577.954000	0.293299
578.165942	0.293423
578.377867	0.293798
578.589773	0.293614
578.801661	0.293635
579.013531	0.293599
579.225382	0.293802
579.437216	0.294269
579.649031	0.294216
579.860828	0.294460
580.072606	0.294928
580.284367	0.294675
580.496109	0.294872
580.707833	0.295291
580.919539	0.295443
581.131227	0.295659
581.342896	0.295585
581.554547	0.295647
581.766180	0.295262
581.977795	0.295300
582.189391	0.295423
582.400969	0.295413
582.612529	0.295352
582.824071	0.295315
583.035595	0.295081
583.247100	0.295498
583.458587	0.295942
583.670056	0.296907
583.881506	0.297031
584.092939	0.297254
584.304353	0.297548
584.515749	0.297828
584.727127	0.298233
584.938486	0.298405
585.149828	0.298594
585.361151	0.299120
585.572456	0.298879
585.783742	0.299267
585.995011	0.299619
586.206261	0.299693
586.417493	0.299825
586.628706	0.300272
586.839902	0.300540
587.051079	0.300787
587.262238	0.300414
587.473379	0.300660
587.684502	0.300601
587.895606	0.300990
588.106692	0.301313
588.317760	0.301189
588.528810	0.300810
588.739841	0.300634
588.950855	0.300692
589.161850	0.301062
589.372827	0.301423
589.583785	0.302081
589.794726	0.301673
590.005648	0.301596
590.216552	0.301862
590.427437	0.302207
590.638305	0.302704
590.849154	0.302618
591.059985	0.303037
591.270798	0.303233
591.481592	0.302837
591.692369	0.303352
591.903127	0.303394
592.113867	0.303958
592.324588	0.304475
592.535292	0.304426
592.745977	0.304553
592.956644	0.304367
593.167293	0.304268
593.377923	0.304706
593.588536	0.305484
593.799130	0.306237
594.009706	0.306297
594.220263	0.306067
594.430803	0.306178
594.641324	0.306685
594.851827	0.306966
595.062312	0.307143
595.272778	0.307113
595.483227	0.306521
595.693657	0.306954
595.904069	0.307165
596.114462	0.307324
596.324838	0.307917
596.535195	0.308113
596.745534	0.308281
596.955855	0.308002
597.166157	0.308512
597.376441	0.308973
597.586707	0.308832
597.796955	0.308589
598.007185	0.309034
598.217396	0.309154
598.427589	0.309198
598.637764	0.308925
598.847921	0.309309
599.058060	0.309368
599.268180	0.309154
599.478282	0.309077
599.688366	0.309614
599.898431	0.309500
600.108479	0.309564
600.318508	0.309563
600.528519	0.310197
600.738511	0.311097
600.948486	0.311315
601.158442	0.311983
601.368380	0.312387
601.578300	0.312238
601.788202	0.312128
601.998085	0.312077
602.207950	0.311978
602.417797	0.312164
602.627626	0.311997
602.837436	0.312191
603.047228	0.311844
603.257002	0.312027
603.466758	0.312158
603.676496	0.312831
603.886215	0.312759
604.095916	0.313440
604.305599	0.313282
604.515264	0.312972
604.724910	0.312872
604.934538	0.313301
605.144148	0.313096
605.353740	0.313433
605.563314	0.313284
605.772869	0.313959
605.982406	0.314244
606.191925	0.314377
606.401425	0.314856
606.610908	0.314743
606.820372	0.314861
607.029818	0.315149
607.239246	0.315059
607.448655	0.315376
607.658047	0.315277
607.867420	0.315189
608.076775	0.315522
608.286111	0.315587
608.495430	0.316055
608.704730	0.316383
608.914012	0.316428
609.123275	0.316901
609.332521	0.317106
609.541748	0.317290
609.750957	0.317307
609.960148	0.317632
610.169321	0.317903
610.378475	0.317877
610.587611	0.317843
610.796729	0.318369
611.005829	0.318287
611.214910	0.318179
611.423974	0.318363
611.633019	0.318365
611.842045	0.318357
612.051054	0.318332
612.260044	0.318849
612.469017	0.318931
612.677970	0.318765
612.886906	0.318833
613.095824	0.318991
613.304723	0.318940
613.513604	0.319000
613.722467	0.318992
613.931311	0.319351
614.140138	0.319193
614.348946	0.319209
614.557736	0.318956
614.766507	0.319104
614.975261	0.319143
615.183996	0.319122
615.392713	0.319274
615.601412	0.319309
615.810092	0.319270
616.018754	0.319371
616.227399	0.319514
616.436024	0.319934
616.644632	0.320117
616.853222	0.320468
617.061793	0.320823
617.270346	0.320922
617.478880	0.321026
617.687397	0.321058
617.895895	0.321207
618.104375	0.321304
618.312837	0.321452
618.521281	0.321561
618.729706	0.321401
618.938113	0.321532
619.146502	0.321686
619.354873	0.321751
619.563226	0.321959
619.771560	0.321775
619.979876	0.321885
620.188174	0.322080
620.396453	0.321980
620.604715	0.322148
620.812958	0.322329
621.021183	0.322729
621.229390	0.322818
621.437578	0.322930
621.645748	0.323368
621.853900	0.323667
622.062034	0.323977
622.270150	0.324426
622.478247	0.324755
622.686326	0.324847
622.894387	0.325044
623.102430	0.325499
623.310454	0.325719
623.518461	0.325974
623.726449	0.326155
623.934418	0.326123
624.142370	0.326498
624.350303	0.326630
624.558218	0.327011
624.766115	0.326945
624.973994	0.327168
625.181855	0.327141
625.389697	0.327273
625.597521	0.327531
625.805327	0.327761
626.013114	0.327933
626.220883	0.328379
626.428634	0.328203
626.636367	0.328426
626.844082	0.328703
627.051778	0.329075
627.259457	0.329179
627.467117	0.329398
627.674758	0.329657
627.882382	0.329799
628.089987	0.329816
628.297574	0.329869
628.505143	0.329955
628.712694	0.329770
628.920226	0.329945
629.127740	0.329977
629.335236	0.329720
629.542714	0.329473
629.750174	0.329308
629.957615	0.329557
630.165038	0.329909
630.372443	0.329963
630.579829	0.329912
630.787198	0.329766
630.994548	0.329857
631.201880	0.330330
631.409194	0.330424
631.616489	0.330341
631.823766	0.330219
632.031025	0.330474
632.238266	0.330698
632.445489	0.331004
632.652693	0.331022
632.859879	0.331150
633.067047	0.331125
633.274197	0.331254
633.481329	0.331628
633.688442	0.331890
633.895537	0.332234
634.102614	0.332486
634.309672	0.332872
634.516713	0.333364
634.723735	0.333703
634.930739	0.333979
635.137724	0.334404
635.344692	0.334413
635.551641	0.334586
635.758572	0.334525
635.965485	0.334748
636.172379	0.334815
636.379256	0.335075
636.586114	0.335065
636.792954	0.334990
636.999775	0.334990
637.206579	0.335612
637.413364	0.335692
637.620131	0.335926
637.826880	0.336172
638.033610	0.336349
638.240323	0.336374
638.447017	0.336521
638.653692	0.336836
638.860350	0.337177
639.066990	0.336843
639.273611	0.337097
639.480214	0.337075
639.686798	0.337304
639.893365	0.337623
640.099913	0.337735
640.306443	0.338184
640.512955	0.338509
640.719449	0.338973
640.925924	0.339559
641.132381	0.339594
641.338820	0.339940
641.545241	0.340066
641.751644	0.340093
641.958028	0.340599
642.164394	0.340762
642.370742	0.340752
642.577071	0.340531
642.783383	0.340574
642.989676	0.341163
643.195951	0.341294
643.402207	0.341346
643.608446	0.341661
643.814666	0.341747
644.020868	0.342022
644.227052	0.342257
644.433218	0.342703
644.639365	0.342963
644.845494	0.342983
645.051605	0.343025
645.257698	0.343304
645.463772	0.343254
645.669828	0.343336
645.875866	0.343293
646.081886	0.343675
646.287888	0.343829
646.493871	0.343874
646.699836	0.343986
646.905783	0.344263
647.111712	0.344428
647.317622	0.344816
647.523514	0.344806
647.729388	0.345440
647.935244	0.345515
648.141082	0.345833
648.346901	0.346080
648.552702	0.346159
648.758485	0.346372
648.964250	0.346500
649.169996	0.346571
649.375724	0.347153
649.581434	0.347145
649.787126	0.347396
649.992800	0.347357
650.198455	0.347549
650.404092	0.347859
650.609711	0.347992
650.815311	0.348010
651.020894	0.348264
651.226458	0.348297
651.432004	0.348262
651.637532	0.348449
651.843041	0.348445
652.048532	0.348716
652.254006	0.348807
652.459460	0.348975
652.664897	0.349499
652.870315	0.349790
653.075716	0.349673
653.281097	0.349918
653.486461	0.349904
653.691807	0.349885
653.897134	0.350051
654.102443	0.349886
654.307734	0.350245
654.513006	0.350187
654.718261	0.350520
654.923497	0.350858
655.128715	0.351063
655.333915	0.351282
655.539096	0.352112
655.744259	0.352310
655.949404	0.353091
656.154531	0.353092
656.359640	0.353615
656.564730	0.353615
656.769802	0.353958
656.974856	0.354188
657.179892	0.354167
657.384909	0.354266
657.589908	0.354663
657.794889	0.354854
657.999852	0.355245
658.204797	0.355179
658.409723	0.355499
658.614631	0.355915
658.819521	0.356379
659.024393	0.357073
659.229246	0.357062
659.434081	0.357058
659.638898	0.357173
659.843697	0.357421
660.048478	0.357697
660.253240	0.357870
660.457984	0.357844
660.662710	0.357601
660.867417	0.357960
661.072107	0.358392
661.276778	0.358920
661.481431	0.359137
661.686066	0.359237
661.890682	0.359539
662.095281	0.359774
662.299861	0.359963
662.504422	0.360404
662.708966	0.360424
662.913491	0.360756
663.117999	0.360750
663.322488	0.361025
663.526958	0.361261
663.731411	0.361429
663.935845	0.361493
664.140261	0.361712
664.344659	0.361725
664.549038	0.361906
664.753400	0.362073
664.957743	0.362107
665.162068	0.362329
665.366375	0.362683
665.570663	0.362967
665.774933	0.363332
665.979185	0.363571
666.183419	0.364031
666.387635	0.364258
666.591832	0.364405
666.796011	0.364869
667.000172	0.364961
667.204315	0.365176
667.408439	0.365472
667.612545	0.366040
667.816634	0.366425
668.020703	0.366762
668.224755	0.367193
668.428788	0.367586
668.632803	0.367910
668.836800	0.368310
669.040779	0.368609
669.244739	0.368959
669.448681	0.368627
669.652605	0.368695
669.856511	0.368936
670.060399	0.368869
670.264268	0.369029
670.468119	0.369267
670.671952	0.369627
670.875767	0.369766
671.079563	0.369865
671.283341	0.370269
671.487101	0.370497
671.690843	0.370772
671.894567	0.371433
672.098272	0.371657
672.301959	0.371920
672.505628	0.372028
672.709278	0.372369
672.912911	0.372753
673.116525	0.372729
673.320121	0.373199
673.523699	0.373306
673.727258	0.373405
673.930799	0.373407
674.134322	0.373685
674.337827	0.373762
674.541314	0.373906
674.744782	0.373937
674.948232	0.374347
675.151664	0.374583
675.355078	0.374833
675.558474	0.374941
675.761851	0.375363
675.965210	0.375437
676.168551	0.375515
676.371873	0.375704
676.575178	0.375847
676.778464	0.375868
676.981732	0.375711
677.184981	0.376038
677.388213	0.376345
677.591426	0.376535
677.794621	0.376738
677.997798	0.377053
678.200956	0.376919
678.404097	0.377399
678.607219	0.378108
678.810323	0.378632
679.013408	0.378721
679.216476	0.378821
679.419525	0.379056
679.622556	0.378991
679.825569	0.379376
680.028563	0.380110
680.231540	0.380077
680.434498	0.380092
680.637438	0.380243
680.840359	0.380494
681.043263	0.380823
681.246148	0.381199
681.449015	0.381643
681.651864	0.381854
681.854694	0.381852
682.057506	0.382183
682.260301	0.382473
682.463076	0.382923
682.665834	0.383309
682.868573	0.383303
683.071295	0.383106
683.273998	0.383351
683.476682	0.383420
683.679349	0.383729
683.881997	0.384009
684.084627	0.384077
684.287239	0.384269
684.489833	0.384127
684.692408	0.384409
684.894965	0.384735
685.097504	0.384938
685.300025	0.385186
685.502527	0.385175
685.705012	0.385208
685.907478	0.385600
686.109925	0.385597
686.312355	0.385976
686.514766	0.386006
686.717159	0.386462
686.919534	0.386597
687.121891	0.386809
687.324230	0.387111
687.526550	0.387481
687.728852	0.387691
687.931136	0.388009
688.133401	0.388161
688.335649	0.388310
688.537878	0.387897
688.740089	0.388061
688.942281	0.388397
689.144456	0.388638
689.346612	0.388438
689.548750	0.388309
689.750870	0.388320
689.952971	0.388574
690.155055	0.388936
690.357120	0.389603
690.559167	0.389953
690.761195	0.390026
690.963206	0.390368
691.165198	0.390743
691.367172	0.391272
691.569128	0.391445
691.771065	0.391765
691.972984	0.392005
692.174885	0.392343
692.376768	0.392417
692.578633	0.392397
692.780479	0.392406
692.982308	0.392592
693.184118	0.392726
693.385909	0.392700
