sample name	sample
index	313
start time	 02-25-2021  02:53:24 PM


Wavelength (nm)	Absorbance
494.344910	-0.561909
494.563924	-0.561909
494.782919	-0.561909
495.001897	-0.046997
495.220856	-0.293290
495.439797	-0.269031
495.658719	-0.113079
495.877624	0.165640
496.096510	0.330532
496.315378	0.048421
496.534227	0.290510
496.753059	0.459003
496.971872	0.332236
497.190667	0.136957
497.409444	0.144055
497.628203	0.142813
497.846943	0.142085
498.065665	0.142211
498.284369	0.143494
498.503055	0.143210
498.721723	0.143720
498.940372	0.144149
499.159003	0.144927
499.377616	0.146176
499.596210	0.146976
499.814787	0.147108
500.033345	0.148563
500.251885	0.148763
500.470406	0.149601
500.688910	0.149082
500.907395	0.149509
501.125862	0.151294
501.344311	0.150871
501.562742	0.150373
501.781154	0.149318
501.999548	0.147384
502.217924	0.147231
502.436282	0.148167
502.654621	0.148457
502.872942	0.148416
503.091245	0.148010
503.309530	0.148314
503.527797	0.149571
503.746045	0.150164
503.964275	0.151411
504.182487	0.152531
504.400681	0.151420
504.618856	0.151312
504.837013	0.152003
505.055152	0.152413
505.273273	0.152732
505.491376	0.150911
505.709460	0.150463
505.927526	0.150132
506.145574	0.150732
506.363604	0.151395
506.581615	0.151181
506.799608	0.150718
507.017583	0.150214
507.235540	0.149952
507.453478	0.149849
507.671399	0.151514
507.889301	0.152261
508.107185	0.150722
508.325050	0.150892
508.542898	0.151077
508.760727	0.151073
508.978538	0.150486
509.196330	0.151002
509.414105	0.151761
509.631861	0.152183
509.849599	0.152387
510.067319	0.152782
510.285021	0.152676
510.502704	0.152747
510.720369	0.152742
510.938016	0.153863
511.155645	0.153718
511.373255	0.153564
511.590848	0.153188
511.808422	0.152990
512.025977	0.153766
512.243515	0.153737
512.461034	0.154654
512.678536	0.155019
512.896018	0.155414
513.113483	0.155838
513.330930	0.157057
513.548358	0.157590
513.765768	0.158133
513.983160	0.157584
514.200533	0.157701
514.417889	0.158061
514.635226	0.158504
514.852545	0.158207
515.069845	0.156970
515.287128	0.157122
515.504392	0.156014
515.721638	0.155898
515.938866	0.156574
516.156075	0.157319
516.373267	0.156963
516.590440	0.156814
516.807594	0.156716
517.024731	0.157996
517.241850	0.158796
517.458950	0.159690
517.676032	0.159973
517.893095	0.160449
518.110141	0.160838
518.327168	0.161465
518.544177	0.162364
518.761168	0.162766
518.978141	0.162827
519.195095	0.162737
519.412031	0.163110
519.628949	0.163278
519.845849	0.163325
520.062731	0.163422
520.279594	0.163744
520.496439	0.163661
520.713266	0.164754
520.930074	0.165684
521.146865	0.165336
521.363637	0.166345
521.580391	0.165823
521.797127	0.166341
522.013844	0.166719
522.230543	0.166910
522.447224	0.166511
522.663887	0.166132
522.880532	0.166504
523.097158	0.166891
523.313766	0.166814
523.530356	0.167700
523.746928	0.167354
523.963481	0.167344
524.180017	0.167020
524.396534	0.168700
524.613032	0.169900
524.829513	0.169372
525.045975	0.170224
525.262420	0.170852
525.478845	0.171338
525.695253	0.172410
525.911643	0.172610
526.128014	0.173480
526.344367	0.173760
526.560702	0.173056
526.777018	0.173734
526.993316	0.173036
527.209597	0.172475
527.425858	0.173200
527.642102	0.173038
527.858328	0.172696
528.074535	0.172553
528.290724	0.172035
528.506894	0.172465
528.723047	0.172661
528.939181	0.173134
529.155297	0.173332
529.371395	0.174168
529.587475	0.174441
529.803536	0.175159
530.019579	0.176219
530.235604	0.176367
530.451611	0.176876
530.667600	0.176756
530.883570	0.177376
531.099522	0.177959
531.315456	0.177415
531.531372	0.178030
531.747269	0.178724
531.963148	0.178979
532.179009	0.179824
532.394852	0.179892
532.610676	0.180813
532.826482	0.181063
533.042271	0.181177
533.258040	0.181908
533.473792	0.181966
533.689525	0.182023
533.905240	0.181417
534.120937	0.181662
534.336616	0.182529
534.552277	0.182613
534.767919	0.182907
534.983543	0.183025
535.199149	0.182656
535.414736	0.182835
535.630306	0.183415
535.845857	0.183988
536.061390	0.184539
536.276904	0.184136
536.492401	0.184497
536.707879	0.184601
536.923339	0.185536
537.138781	0.185910
537.354204	0.186392
537.569610	0.186815
537.784997	0.187832
538.000366	0.187916
538.215716	0.188467
538.431049	0.188989
538.646363	0.189411
538.861659	0.189302
539.076937	0.189603
539.292196	0.189691
539.507438	0.190275
539.722661	0.190026
539.937866	0.190253
540.153052	0.190281
540.368221	0.190441
540.583371	0.190835
540.798503	0.191671
541.013617	0.191903
541.228712	0.192948
541.443789	0.192657
541.658848	0.192956
541.873889	0.193323
542.088912	0.193868
542.303916	0.194069
542.518902	0.194664
542.733870	0.194574
542.948820	0.194872
543.163752	0.194500
543.378665	0.194827
543.593560	0.195327
543.808437	0.195030
544.023295	0.194886
544.238136	0.194865
544.452958	0.194582
544.667762	0.194812
544.882548	0.195155
545.097315	0.195592
545.312064	0.195863
545.526795	0.195984
545.741508	0.196553
545.956203	0.197769
546.170879	0.198037
546.385537	0.198313
546.600177	0.198668
546.814799	0.198321
547.029402	0.198793
547.243988	0.198563
547.458555	0.198709
547.673103	0.199175
547.887634	0.198601
548.102146	0.198724
548.316640	0.198999
548.531116	0.199357
548.745574	0.200106
548.960013	0.200553
549.174435	0.201119
549.388838	0.201343
549.603222	0.201427
549.817589	0.202073
550.031937	0.202775
550.246267	0.203340
550.460579	0.203791
550.674873	0.204315
550.889148	0.204230
551.103405	0.204798
551.317644	0.205168
551.531865	0.205354
551.746068	0.205798
551.960252	0.205705
552.174418	0.205935
552.388566	0.206215
552.602696	0.206546
552.816807	0.206595
553.030900	0.206309
553.244975	0.206478
553.459032	0.206401
553.673070	0.206238
553.887091	0.206930
554.101093	0.206982
554.315077	0.206867
554.529042	0.207151
554.742990	0.207128
554.956919	0.207498
555.170830	0.207620
555.384722	0.207860
555.598597	0.207896
555.812453	0.207759
556.026291	0.207875
556.240111	0.208009
556.453913	0.207954
556.667696	0.208345
556.881461	0.208470
557.095208	0.209244
557.308937	0.210048
557.522647	0.210218
557.736339	0.210074
557.950013	0.210380
558.163669	0.210472
558.377307	0.210507
558.590926	0.210632
558.804527	0.211123
559.018110	0.211381
559.231675	0.211264
559.445221	0.211664
559.658749	0.212222
559.872259	0.212653
560.085751	0.213099
560.299225	0.213324
560.512680	0.213584
560.726117	0.213838
560.939536	0.213549
561.152937	0.213860
561.366319	0.214091
561.579683	0.213835
561.793029	0.213973
562.006357	0.214342
562.219667	0.214755
562.432958	0.214701
562.646231	0.214421
562.859486	0.214575
563.072723	0.214648
563.285941	0.214728
563.499141	0.215313
563.712323	0.215082
563.925487	0.214859
564.138632	0.214914
564.351760	0.215325
564.564869	0.215863
564.777960	0.216125
564.991032	0.216341
565.204087	0.216331
565.417123	0.216627
565.630141	0.217163
565.843140	0.217168
566.056122	0.216897
566.269085	0.217373
566.482030	0.217231
566.694957	0.217130
566.907866	0.217147
567.120756	0.217701
567.333628	0.217743
567.546482	0.217761
567.759318	0.218213
567.972135	0.219041
568.184935	0.218951
568.397716	0.219042
568.610478	0.218959
568.823223	0.219190
569.035949	0.219284
569.248657	0.219254
569.461347	0.219523
569.674019	0.219328
569.886672	0.218846
570.099308	0.219055
570.311925	0.219609
570.524523	0.220127
570.737104	0.220383
570.949666	0.220316
571.162210	0.220579
571.374736	0.220851
571.587244	0.221492
571.799733	0.222077
572.012205	0.222197
572.224658	0.222389
572.437092	0.222279
572.649509	0.222364
572.861907	0.222796
573.074287	0.222881
573.286649	0.222759
573.498993	0.222569
573.711318	0.222720
573.923625	0.222696
574.135914	0.222849
574.348185	0.223229
574.560438	0.223456
574.772672	0.223201
574.984888	0.223646
575.197086	0.223507
575.409266	0.224010
575.621427	0.223966
575.833570	0.224699
576.045695	0.224601
576.257802	0.224694
576.469890	0.224943
576.681961	0.225515
576.894013	0.225540
577.106046	0.226008
577.318062	0.226063
577.530059	0.226325
577.742039	0.226262
577.954000	0.226516
578.165942	0.226890
578.377867	0.227301
578.589773	0.227422
578.801661	0.227893
579.013531	0.227979
579.225382	0.228240
579.437216	0.228413
579.649031	0.228609
579.860828	0.228908
580.072606	0.229193
580.284367	0.228828
580.496109	0.228515
580.707833	0.228614
580.919539	0.228957
581.131227	0.229150
581.342896	0.229492
581.554547	0.229324
581.766180	0.229693
581.977795	0.230157
582.189391	0.230572
582.400969	0.231089
582.612529	0.231078
582.824071	0.231096
583.035595	0.231266
583.247100	0.231060
583.458587	0.231333
583.670056	0.231304
583.881506	0.231160
584.092939	0.231387
584.304353	0.231513
584.515749	0.231801
584.727127	0.232234
584.938486	0.232288
585.149828	0.232608
585.361151	0.232919
585.572456	0.232973
585.783742	0.232781
585.995011	0.232831
586.206261	0.232889
586.417493	0.233388
586.628706	0.233586
586.839902	0.233834
587.051079	0.234267
587.262238	0.234422
587.473379	0.234783
587.684502	0.235324
587.895606	0.235371
588.106692	0.235859
588.317760	0.235578
588.528810	0.235918
588.739841	0.236094
588.950855	0.235792
589.161850	0.235704
589.372827	0.235758
589.583785	0.235984
589.794726	0.236360
590.005648	0.236282
590.216552	0.236852
590.427437	0.236829
590.638305	0.236858
590.849154	0.237296
591.059985	0.237589
591.270798	0.237638
591.481592	0.237339
591.692369	0.237459
591.903127	0.237555
592.113867	0.237184
592.324588	0.237243
592.535292	0.237254
592.745977	0.237590
592.956644	0.238166
593.167293	0.238388
593.377923	0.238550
593.588536	0.238620
593.799130	0.238933
594.009706	0.239206
594.220263	0.239484
594.430803	0.239889
594.641324	0.239849
594.851827	0.239698
595.062312	0.240108
595.272778	0.240512
595.483227	0.240785
595.693657	0.240751
595.904069	0.240898
596.114462	0.241048
596.324838	0.241029
596.535195	0.241315
596.745534	0.241531
596.955855	0.241628
597.166157	0.241612
597.376441	0.241644
597.586707	0.241687
597.796955	0.242185
598.007185	0.242377
598.217396	0.242593
598.427589	0.242508
598.637764	0.242553
598.847921	0.242553
599.058060	0.242763
599.268180	0.243111
599.478282	0.244052
599.688366	0.243941
599.898431	0.243971
600.108479	0.244483
600.318508	0.244861
600.528519	0.245284
600.738511	0.245546
600.948486	0.245904
601.158442	0.245681
601.368380	0.245492
601.578300	0.245547
601.788202	0.245832
601.998085	0.245491
602.207950	0.245515
602.417797	0.245348
602.627626	0.245468
602.837436	0.245555
603.047228	0.245858
603.257002	0.245970
603.466758	0.246067
603.676496	0.246070
603.886215	0.246491
604.095916	0.246661
604.305599	0.246868
604.515264	0.246633
604.724910	0.246955
604.934538	0.247022
605.144148	0.247042
605.353740	0.247370
605.563314	0.247521
605.772869	0.247413
605.982406	0.248165
606.191925	0.248441
606.401425	0.249082
606.610908	0.249219
606.820372	0.249466
607.029818	0.249622
607.239246	0.249834
607.448655	0.249926
607.658047	0.250413
607.867420	0.249772
608.076775	0.249660
608.286111	0.249791
608.495430	0.249775
608.704730	0.249679
608.914012	0.249748
609.123275	0.249631
609.332521	0.249461
609.541748	0.249372
609.750957	0.249623
609.960148	0.249737
610.169321	0.249759
610.378475	0.249944
610.587611	0.250633
610.796729	0.250706
611.005829	0.250921
611.214910	0.251455
611.423974	0.251766
611.633019	0.251922
611.842045	0.252073
612.051054	0.251864
612.260044	0.252223
612.469017	0.252373
612.677970	0.252406
612.886906	0.252248
613.095824	0.252295
613.304723	0.252338
613.513604	0.252607
613.722467	0.252960
613.931311	0.253339
614.140138	0.253066
614.348946	0.252844
614.557736	0.253282
614.766507	0.253840
614.975261	0.254144
615.183996	0.254323
615.392713	0.254610
615.601412	0.254544
615.810092	0.254867
616.018754	0.255170
616.227399	0.255334
616.436024	0.255430
616.644632	0.255554
616.853222	0.255626
617.061793	0.255496
617.270346	0.255414
617.478880	0.255525
617.687397	0.255444
617.895895	0.255489
618.104375	0.255431
618.312837	0.255665
618.521281	0.255678
618.729706	0.255792
618.938113	0.255987
619.146502	0.256228
619.354873	0.256312
619.563226	0.256401
619.771560	0.256568
619.979876	0.256765
620.188174	0.256876
620.396453	0.257010
620.604715	0.257013
620.812958	0.257156
621.021183	0.257162
621.229390	0.257346
621.437578	0.257503
621.645748	0.257640
621.853900	0.258043
622.062034	0.257971
622.270150	0.258128
622.478247	0.258452
622.686326	0.258678
622.894387	0.258965
623.102430	0.259392
623.310454	0.259551
623.518461	0.259529
623.726449	0.259489
623.934418	0.259663
624.142370	0.259890
624.350303	0.259946
624.558218	0.260137
624.766115	0.260150
624.973994	0.259951
625.181855	0.260129
625.389697	0.260468
625.597521	0.260604
625.805327	0.260965
626.013114	0.260986
626.220883	0.261248
626.428634	0.261337
626.636367	0.261539
626.844082	0.261849
627.051778	0.262193
627.259457	0.262235
627.467117	0.262320
627.674758	0.262267
627.882382	0.262521
628.089987	0.262271
628.297574	0.262461
628.505143	0.262501
628.712694	0.262546
628.920226	0.262443
629.127740	0.262840
629.335236	0.262620
629.542714	0.262854
629.750174	0.262922
629.957615	0.263304
630.165038	0.263546
630.372443	0.263581
630.579829	0.263853
630.787198	0.264045
630.994548	0.264056
631.201880	0.264532
631.409194	0.264637
631.616489	0.264780
631.823766	0.264978
632.031025	0.265176
632.238266	0.265639
632.445489	0.265586
632.652693	0.265989
632.859879	0.266162
633.067047	0.266452
633.274197	0.266517
633.481329	0.266584
633.688442	0.266829
633.895537	0.266858
634.102614	0.267109
634.309672	0.267453
634.516713	0.267435
634.723735	0.267605
634.930739	0.267806
635.137724	0.268137
635.344692	0.268224
635.551641	0.268443
635.758572	0.268417
635.965485	0.268459
636.172379	0.268439
636.379256	0.268586
636.586114	0.268741
636.792954	0.268916
636.999775	0.269006
637.206579	0.269221
637.413364	0.268992
637.620131	0.269255
637.826880	0.269300
638.033610	0.269617
638.240323	0.269669
638.447017	0.269462
638.653692	0.269646
638.860350	0.269758
639.066990	0.269702
639.273611	0.270055
639.480214	0.270296
639.686798	0.270566
639.893365	0.270858
640.099913	0.271046
640.306443	0.271516
640.512955	0.271638
640.719449	0.271857
640.925924	0.272306
641.132381	0.272758
641.338820	0.272927
641.545241	0.273075
641.751644	0.273223
641.958028	0.273529
642.164394	0.273602
642.370742	0.273431
642.577071	0.273642
642.783383	0.273759
642.989676	0.273816
643.195951	0.273852
643.402207	0.274039
643.608446	0.274196
643.814666	0.274363
644.020868	0.274494
644.227052	0.274945
644.433218	0.275172
644.639365	0.275468
644.845494	0.275326
645.051605	0.275453
645.257698	0.275661
645.463772	0.275714
645.669828	0.275796
645.875866	0.276257
646.081886	0.276501
646.287888	0.276642
646.493871	0.276712
646.699836	0.276986
646.905783	0.277243
647.111712	0.277158
647.317622	0.277232
647.523514	0.277188
647.729388	0.277168
647.935244	0.277323
648.141082	0.277531
648.346901	0.277872
648.552702	0.278156
648.758485	0.278442
648.964250	0.278769
649.169996	0.279127
649.375724	0.279756
649.581434	0.279902
649.787126	0.280019
649.992800	0.280209
650.198455	0.280244
650.404092	0.280536
650.609711	0.280690
650.815311	0.280640
651.020894	0.280544
651.226458	0.280361
651.432004	0.280813
651.637532	0.281052
651.843041	0.280896
652.048532	0.280988
652.254006	0.280989
652.459460	0.281059
652.664897	0.281297
652.870315	0.281634
653.075716	0.282184
653.281097	0.282084
653.486461	0.282282
653.691807	0.282545
653.897134	0.282840
654.102443	0.282971
654.307734	0.283396
654.513006	0.283575
654.718261	0.284061
654.923497	0.283753
655.128715	0.284006
655.333915	0.284283
655.539096	0.284568
655.744259	0.284759
655.949404	0.284900
656.154531	0.284984
656.359640	0.284960
656.564730	0.284832
656.769802	0.284937
656.974856	0.285059
657.179892	0.284856
657.384909	0.285168
657.589908	0.285541
657.794889	0.285840
657.999852	0.285865
658.204797	0.286542
658.409723	0.286704
658.614631	0.287341
658.819521	0.287661
659.024393	0.287948
659.229246	0.288098
659.434081	0.288024
659.638898	0.288196
659.843697	0.288422
660.048478	0.288167
660.253240	0.288561
660.457984	0.288609
660.662710	0.288821
660.867417	0.289154
661.072107	0.289395
661.276778	0.289624
661.481431	0.289876
661.686066	0.290012
661.890682	0.290429
662.095281	0.290540
662.299861	0.290939
662.504422	0.290986
662.708966	0.291088
662.913491	0.291348
663.117999	0.291791
663.322488	0.292019
663.526958	0.292193
663.731411	0.292406
663.935845	0.292660
664.140261	0.292544
664.344659	0.292579
664.549038	0.292834
664.753400	0.293011
664.957743	0.292927
665.162068	0.292792
665.366375	0.293022
665.570663	0.293191
665.774933	0.293286
665.979185	0.293584
666.183419	0.293866
666.387635	0.293934
666.591832	0.293872
666.796011	0.294029
667.000172	0.294394
667.204315	0.294672
667.408439	0.294801
667.612545	0.295122
667.816634	0.295262
668.020703	0.295561
668.224755	0.296169
668.428788	0.296390
668.632803	0.296698
668.836800	0.297142
669.040779	0.297362
669.244739	0.297794
669.448681	0.298073
669.652605	0.298290
669.856511	0.298731
670.060399	0.298607
670.264268	0.298861
670.468119	0.299101
670.671952	0.298957
670.875767	0.299103
671.079563	0.299046
671.283341	0.299064
671.487101	0.299375
671.690843	0.299263
671.894567	0.299291
672.098272	0.299391
672.301959	0.299623
672.505628	0.300084
672.709278	0.300412
672.912911	0.300818
673.116525	0.300951
673.320121	0.300954
673.523699	0.301425
673.727258	0.301813
673.930799	0.302135
674.134322	0.302263
674.337827	0.302368
674.541314	0.302545
674.744782	0.302798
674.948232	0.302947
675.151664	0.303336
675.355078	0.303128
675.558474	0.303457
675.761851	0.303674
675.965210	0.303783
676.168551	0.304080
676.371873	0.304245
676.575178	0.304384
676.778464	0.304828
676.981732	0.304924
677.184981	0.305517
677.388213	0.305771
677.591426	0.305963
677.794621	0.306551
677.997798	0.306459
678.200956	0.306786
678.404097	0.307096
678.607219	0.307274
678.810323	0.307529
679.013408	0.307757
679.216476	0.308135
679.419525	0.308102
679.622556	0.307939
679.825569	0.308573
680.028563	0.308642
680.231540	0.308764
680.434498	0.308683
680.637438	0.308868
680.840359	0.308892
681.043263	0.308829
681.246148	0.309233
681.449015	0.309501
681.651864	0.309356
681.854694	0.309451
682.057506	0.309506
682.260301	0.310045
682.463076	0.310380
682.665834	0.310497
682.868573	0.310728
683.071295	0.311022
683.273998	0.311492
683.476682	0.311789
683.679349	0.312210
683.881997	0.312630
684.084627	0.312558
684.287239	0.312401
684.489833	0.312759
684.692408	0.312904
684.894965	0.312913
685.097504	0.312999
685.300025	0.313364
685.502527	0.313329
685.705012	0.313265
685.907478	0.313675
686.109925	0.313904
686.312355	0.314057
686.514766	0.314218
686.717159	0.314546
686.919534	0.314550
687.121891	0.314577
687.324230	0.314863
687.526550	0.315289
687.728852	0.315285
687.931136	0.315721
688.133401	0.315955
688.335649	0.316063
688.537878	0.316042
688.740089	0.316203
688.942281	0.316301
689.144456	0.316486
689.346612	0.316514
689.548750	0.316691
689.750870	0.317019
689.952971	0.317106
690.155055	0.317351
690.357120	0.317990
690.559167	0.318278
690.761195	0.318719
690.963206	0.318745
691.165198	0.318961
691.367172	0.319404
691.569128	0.319388
691.771065	0.319602
691.972984	0.319834
692.174885	0.319600
692.376768	0.319869
692.578633	0.319982
692.780479	0.320352
692.982308	0.320581
693.184118	0.320595
693.385909	0.320732
