sample name	sample
index	222
start time	 02-22-2021  10:32:41 AM


Wavelength (nm)	Absorbance
494.344910	-0.180918
494.563924	-0.180918
494.782919	-0.180918
495.001897	-0.071662
495.220856	-0.103581
495.439797	-0.080008
495.658719	-0.051410
495.877624	-0.029963
496.096510	-0.008968
496.315378	-0.028165
496.534227	-0.009280
496.753059	-0.000979
496.971872	0.035621
497.190667	0.040258
497.409444	0.045621
497.628203	0.044285
497.846943	0.045600
498.065665	0.045334
498.284369	0.047140
498.503055	0.048868
498.721723	0.048929
498.940372	0.049008
499.159003	0.049902
499.377616	0.049930
499.596210	0.050235
499.814787	0.051014
500.033345	0.051751
500.251885	0.051087
500.470406	0.049613
500.688910	0.050242
500.907395	0.050084
501.125862	0.050251
501.344311	0.050345
501.562742	0.050575
501.781154	0.049387
501.999548	0.048809
502.217924	0.048954
502.436282	0.049084
502.654621	0.048268
502.872942	0.048518
503.091245	0.047953
503.309530	0.048032
503.527797	0.047849
503.746045	0.048373
503.964275	0.048976
504.182487	0.049062
504.400681	0.049205
504.618856	0.049594
504.837013	0.050004
505.055152	0.049649
505.273273	0.050112
505.491376	0.050503
505.709460	0.050736
505.927526	0.050215
506.145574	0.051434
506.363604	0.052231
506.581615	0.051807
506.799608	0.051299
507.017583	0.051870
507.235540	0.051711
507.453478	0.051907
507.671399	0.052125
507.889301	0.052327
508.107185	0.051639
508.325050	0.051826
508.542898	0.052119
508.760727	0.051802
508.978538	0.052188
509.196330	0.051587
509.414105	0.051565
509.631861	0.051362
509.849599	0.051652
510.067319	0.051670
510.285021	0.051452
510.502704	0.051787
510.720369	0.051613
510.938016	0.051527
511.155645	0.051633
511.373255	0.050943
511.590848	0.050603
511.808422	0.050860
512.025977	0.050791
512.243515	0.050527
512.461034	0.050316
512.678536	0.051827
512.896018	0.051002
513.113483	0.051299
513.330930	0.052146
513.548358	0.052265
513.765768	0.052022
513.983160	0.052585
514.200533	0.052743
514.417889	0.053175
514.635226	0.052712
514.852545	0.053310
515.069845	0.053848
515.287128	0.053663
515.504392	0.054334
515.721638	0.054052
515.938866	0.053713
516.156075	0.054046
516.373267	0.053963
516.590440	0.053566
516.807594	0.053925
517.024731	0.053969
517.241850	0.054102
517.458950	0.054174
517.676032	0.054633
517.893095	0.054733
518.110141	0.054572
518.327168	0.054687
518.544177	0.055382
518.761168	0.055760
518.978141	0.055773
519.195095	0.056587
519.412031	0.056660
519.628949	0.056733
519.845849	0.056744
520.062731	0.057067
520.279594	0.057144
520.496439	0.056662
520.713266	0.056578
520.930074	0.056470
521.146865	0.056222
521.363637	0.056196
521.580391	0.056482
521.797127	0.056561
522.013844	0.056312
522.230543	0.056763
522.447224	0.057298
522.663887	0.057350
522.880532	0.057880
523.097158	0.057707
523.313766	0.058038
523.530356	0.058338
523.746928	0.058670
523.963481	0.059148
524.180017	0.059169
524.396534	0.059268
524.613032	0.059581
524.829513	0.059343
525.045975	0.059486
525.262420	0.059603
525.478845	0.059632
525.695253	0.059940
525.911643	0.060603
526.128014	0.060156
526.344367	0.059835
526.560702	0.059762
526.777018	0.060556
526.993316	0.061300
527.209597	0.061520
527.425858	0.061258
527.642102	0.061307
527.858328	0.060856
528.074535	0.061426
528.290724	0.061961
528.506894	0.061848
528.723047	0.061452
528.939181	0.061352
529.155297	0.061382
529.371395	0.062144
529.587475	0.062690
529.803536	0.062682
530.019579	0.063233
530.235604	0.063505
530.451611	0.064227
530.667600	0.064446
530.883570	0.064551
531.099522	0.064947
531.315456	0.064913
531.531372	0.064388
531.747269	0.064677
531.963148	0.064137
532.179009	0.064169
532.394852	0.064002
532.610676	0.064070
532.826482	0.064452
533.042271	0.064530
533.258040	0.064662
533.473792	0.064741
533.689525	0.065347
533.905240	0.065531
534.120937	0.065854
534.336616	0.066406
534.552277	0.066735
534.767919	0.066642
534.983543	0.066420
535.199149	0.066921
535.414736	0.067462
535.630306	0.066959
535.845857	0.067710
536.061390	0.067997
536.276904	0.067894
536.492401	0.067597
536.707879	0.067369
536.923339	0.067585
537.138781	0.067604
537.354204	0.067780
537.569610	0.068372
537.784997	0.067729
538.000366	0.067357
538.215716	0.067152
538.431049	0.067856
538.646363	0.068161
538.861659	0.068065
539.076937	0.067915
539.292196	0.067862
539.507438	0.067905
539.722661	0.068482
539.937866	0.069303
540.153052	0.069905
540.368221	0.069938
540.583371	0.070180
540.798503	0.070894
541.013617	0.071099
541.228712	0.071548
541.443789	0.071532
541.658848	0.071552
541.873889	0.071158
542.088912	0.070979
542.303916	0.070742
542.518902	0.071115
542.733870	0.070922
542.948820	0.070869
543.163752	0.070534
543.378665	0.070576
543.593560	0.070599
543.808437	0.070730
544.023295	0.070853
544.238136	0.071340
544.452958	0.070979
544.667762	0.071087
544.882548	0.071583
545.097315	0.071838
545.312064	0.072157
545.526795	0.072533
545.741508	0.072672
545.956203	0.073299
546.170879	0.073367
546.385537	0.073901
546.600177	0.074003
546.814799	0.074018
547.029402	0.074107
547.243988	0.074403
547.458555	0.074384
547.673103	0.074624
547.887634	0.074273
548.102146	0.074412
548.316640	0.074652
548.531116	0.075096
548.745574	0.075066
548.960013	0.075327
549.174435	0.075193
549.388838	0.075540
549.603222	0.075597
549.817589	0.076276
550.031937	0.076196
550.246267	0.076035
550.460579	0.076175
550.674873	0.076633
550.889148	0.076795
551.103405	0.077067
551.317644	0.077079
551.531865	0.077111
551.746068	0.076630
551.960252	0.076661
552.174418	0.076749
552.388566	0.076572
552.602696	0.076252
552.816807	0.076116
553.030900	0.075974
553.244975	0.076133
553.459032	0.076359
553.673070	0.076582
553.887091	0.076664
554.101093	0.076556
554.315077	0.076907
554.529042	0.077109
554.742990	0.077569
554.956919	0.077778
555.170830	0.077914
555.384722	0.077708
555.598597	0.077679
555.812453	0.078075
556.026291	0.078673
556.240111	0.078218
556.453913	0.078576
556.667696	0.078506
556.881461	0.078706
557.095208	0.078655
557.308937	0.078791
557.522647	0.079104
557.736339	0.079007
557.950013	0.078819
558.163669	0.079566
558.377307	0.079750
558.590926	0.079868
558.804527	0.079828
559.018110	0.079868
559.231675	0.079993
559.445221	0.080246
559.658749	0.080274
559.872259	0.080446
560.085751	0.080109
560.299225	0.080006
560.512680	0.079877
560.726117	0.080107
560.939536	0.080181
561.152937	0.080283
561.366319	0.079997
561.579683	0.080128
561.793029	0.080311
562.006357	0.080774
562.219667	0.080805
562.432958	0.080918
562.646231	0.080573
562.859486	0.080688
563.072723	0.081271
563.285941	0.081601
563.499141	0.081677
563.712323	0.081727
563.925487	0.081542
564.138632	0.081547
564.351760	0.081711
564.564869	0.082171
564.777960	0.082167
564.991032	0.081741
565.204087	0.081616
565.417123	0.081642
565.630141	0.081814
565.843140	0.081846
566.056122	0.082332
566.269085	0.082132
566.482030	0.082252
566.694957	0.082440
566.907866	0.082361
567.120756	0.082389
567.333628	0.082754
567.546482	0.082588
567.759318	0.082833
567.972135	0.082358
568.184935	0.082856
568.397716	0.082872
568.610478	0.083225
568.823223	0.083708
569.035949	0.084017
569.248657	0.084266
569.461347	0.084351
569.674019	0.084104
569.886672	0.084259
570.099308	0.084160
570.311925	0.084385
570.524523	0.084271
570.737104	0.084385
570.949666	0.084611
571.162210	0.084470
571.374736	0.084645
571.587244	0.084738
571.799733	0.084772
572.012205	0.084919
572.224658	0.085087
572.437092	0.085191
572.649509	0.085523
572.861907	0.085600
573.074287	0.085606
573.286649	0.085869
573.498993	0.086442
573.711318	0.086835
573.923625	0.087324
574.135914	0.087360
574.348185	0.087474
574.560438	0.087320
574.772672	0.087280
574.984888	0.087348
575.197086	0.087160
575.409266	0.086942
575.621427	0.086652
575.833570	0.086365
576.045695	0.086546
576.257802	0.086492
576.469890	0.086582
576.681961	0.086489
576.894013	0.086651
577.106046	0.087006
577.318062	0.087434
577.530059	0.087696
577.742039	0.087952
577.954000	0.088052
578.165942	0.088166
578.377867	0.088271
578.589773	0.088503
578.801661	0.088504
579.013531	0.088424
579.225382	0.088110
579.437216	0.088245
579.649031	0.087923
579.860828	0.087577
580.072606	0.087763
580.284367	0.087580
580.496109	0.087661
580.707833	0.087827
580.919539	0.087907
581.131227	0.088167
581.342896	0.088215
581.554547	0.088539
581.766180	0.089085
581.977795	0.089237
582.189391	0.089870
582.400969	0.089863
582.612529	0.089973
582.824071	0.089979
583.035595	0.089997
583.247100	0.090174
583.458587	0.090385
583.670056	0.090405
583.881506	0.090905
584.092939	0.090817
584.304353	0.090869
584.515749	0.091179
584.727127	0.091402
584.938486	0.091495
585.149828	0.091611
585.361151	0.091716
585.572456	0.091797
585.783742	0.091485
585.995011	0.091450
586.206261	0.091529
586.417493	0.091329
586.628706	0.091605
586.839902	0.091808
587.051079	0.092009
587.262238	0.091911
587.473379	0.092111
587.684502	0.092432
587.895606	0.092412
588.106692	0.092748
588.317760	0.092968
588.528810	0.092700
588.739841	0.092817
588.950855	0.092858
589.161850	0.092961
589.372827	0.092897
589.583785	0.092804
589.794726	0.092869
590.005648	0.093126
590.216552	0.093196
590.427437	0.093306
590.638305	0.093485
590.849154	0.093585
591.059985	0.094107
591.270798	0.094194
591.481592	0.094246
591.692369	0.094722
591.903127	0.094737
592.113867	0.094777
592.324588	0.095042
592.535292	0.094973
592.745977	0.095005
592.956644	0.094898
593.167293	0.094771
593.377923	0.095001
593.588536	0.094771
593.799130	0.094660
594.009706	0.094689
594.220263	0.094617
594.430803	0.094569
594.641324	0.094372
594.851827	0.094390
595.062312	0.094477
595.272778	0.094407
595.483227	0.094539
595.693657	0.094837
595.904069	0.094977
596.114462	0.095221
596.324838	0.095584
596.535195	0.095924
596.745534	0.095926
596.955855	0.095970
597.166157	0.096078
597.376441	0.096148
597.586707	0.095991
597.796955	0.096113
598.007185	0.096256
598.217396	0.096043
598.427589	0.096011
598.637764	0.096124
598.847921	0.096462
599.058060	0.096442
599.268180	0.096622
599.478282	0.096786
599.688366	0.096800
599.898431	0.096929
600.108479	0.096991
600.318508	0.097026
600.528519	0.096966
600.738511	0.097027
600.948486	0.097135
601.158442	0.097228
601.368380	0.097343
601.578300	0.097273
601.788202	0.097276
601.998085	0.097539
602.207950	0.097693
602.417797	0.097832
602.627626	0.097874
602.837436	0.098048
603.047228	0.097899
603.257002	0.097970
603.466758	0.098227
603.676496	0.098227
603.886215	0.098330
604.095916	0.098314
604.305599	0.098539
604.515264	0.098777
604.724910	0.098735
604.934538	0.098886
605.144148	0.098758
605.353740	0.098641
605.563314	0.098626
605.772869	0.098893
605.982406	0.099075
606.191925	0.098850
606.401425	0.098876
606.610908	0.099251
606.820372	0.099420
607.029818	0.099763
607.239246	0.099880
607.448655	0.100106
607.658047	0.099881
607.867420	0.100120
608.076775	0.100418
608.286111	0.100385
608.495430	0.100221
608.704730	0.100285
608.914012	0.100384
609.123275	0.100609
609.332521	0.100463
609.541748	0.100688
609.750957	0.100682
609.960148	0.100914
610.169321	0.101122
610.378475	0.101420
610.587611	0.101353
610.796729	0.101350
611.005829	0.101433
611.214910	0.101594
611.423974	0.101710
611.633019	0.101681
611.842045	0.101601
612.051054	0.101349
612.260044	0.101258
612.469017	0.101723
612.677970	0.101718
612.886906	0.101780
613.095824	0.101898
613.304723	0.101848
613.513604	0.102011
613.722467	0.101919
613.931311	0.102166
614.140138	0.102115
614.348946	0.101819
614.557736	0.101665
614.766507	0.101608
614.975261	0.101662
615.183996	0.101877
615.392713	0.101783
615.601412	0.102066
615.810092	0.101967
616.018754	0.102114
616.227399	0.102336
616.436024	0.102723
616.644632	0.102950
616.853222	0.103110
617.061793	0.102921
617.270346	0.103067
617.478880	0.103108
617.687397	0.103373
617.895895	0.103469
618.104375	0.103337
618.312837	0.103300
618.521281	0.103178
618.729706	0.103108
618.938113	0.103381
619.146502	0.103451
619.354873	0.103514
619.563226	0.103342
619.771560	0.103156
619.979876	0.103283
620.188174	0.103020
620.396453	0.103428
620.604715	0.103766
620.812958	0.103808
621.021183	0.103873
621.229390	0.103846
621.437578	0.103998
621.645748	0.104225
621.853900	0.104448
622.062034	0.105029
622.270150	0.104728
622.478247	0.104523
622.686326	0.104391
622.894387	0.104525
623.102430	0.104632
623.310454	0.104694
623.518461	0.104761
623.726449	0.104653
623.934418	0.104579
624.142370	0.104797
624.350303	0.104949
624.558218	0.105007
624.766115	0.104962
624.973994	0.105087
625.181855	0.105292
625.389697	0.105387
625.597521	0.105738
625.805327	0.105756
626.013114	0.105802
626.220883	0.105976
626.428634	0.106283
626.636367	0.106285
626.844082	0.106348
627.051778	0.106504
627.259457	0.106527
627.467117	0.106526
627.674758	0.106539
627.882382	0.106861
628.089987	0.106540
628.297574	0.106673
628.505143	0.107069
628.712694	0.107059
628.920226	0.106820
629.127740	0.106858
629.335236	0.106679
629.542714	0.106793
629.750174	0.106717
629.957615	0.107061
630.165038	0.107080
630.372443	0.107009
630.579829	0.106954
630.787198	0.107125
630.994548	0.107274
631.201880	0.107477
631.409194	0.107636
631.616489	0.107688
631.823766	0.107692
632.031025	0.107742
632.238266	0.107724
632.445489	0.107967
632.652693	0.107984
632.859879	0.107837
633.067047	0.107777
633.274197	0.107733
633.481329	0.107652
633.688442	0.107784
633.895537	0.107796
634.102614	0.108019
634.309672	0.108118
634.516713	0.108288
634.723735	0.108385
634.930739	0.108492
635.137724	0.108653
635.344692	0.108752
635.551641	0.108694
635.758572	0.108911
635.965485	0.108769
636.172379	0.108825
636.379256	0.109258
636.586114	0.109601
636.792954	0.109802
636.999775	0.109848
637.206579	0.110207
637.413364	0.110495
637.620131	0.110398
637.826880	0.110781
638.033610	0.110989
638.240323	0.110706
638.447017	0.110737
638.653692	0.110775
638.860350	0.110876
639.066990	0.110593
639.273611	0.110642
639.480214	0.110701
639.686798	0.110600
639.893365	0.110577
640.099913	0.110760
640.306443	0.110939
640.512955	0.111120
640.719449	0.111297
640.925924	0.111344
641.132381	0.111463
641.338820	0.111491
641.545241	0.111489
641.751644	0.111422
641.958028	0.111482
642.164394	0.111457
642.370742	0.111493
642.577071	0.111510
642.783383	0.111656
642.989676	0.111562
643.195951	0.111520
643.402207	0.111731
643.608446	0.112071
643.814666	0.111916
644.020868	0.112157
644.227052	0.112426
644.433218	0.112474
644.639365	0.112727
644.845494	0.112977
645.051605	0.113315
645.257698	0.113350
645.463772	0.113309
645.669828	0.113556
645.875866	0.113679
646.081886	0.113569
646.287888	0.113664
646.493871	0.113638
646.699836	0.113565
646.905783	0.113669
647.111712	0.113952
647.317622	0.114102
647.523514	0.114347
647.729388	0.114327
647.935244	0.114350
648.141082	0.114462
648.346901	0.114632
648.552702	0.114989
648.758485	0.115069
648.964250	0.114920
649.169996	0.114752
649.375724	0.114675
649.581434	0.114806
649.787126	0.114805
649.992800	0.114881
650.198455	0.114924
650.404092	0.114743
650.609711	0.114802
650.815311	0.115166
651.020894	0.115380
651.226458	0.115432
651.432004	0.115248
651.637532	0.115287
651.843041	0.115411
652.048532	0.115415
652.254006	0.115535
652.459460	0.115452
652.664897	0.115451
652.870315	0.115621
653.075716	0.115662
653.281097	0.115750
653.486461	0.116006
653.691807	0.116036
653.897134	0.116206
654.102443	0.116400
654.307734	0.116697
654.513006	0.116625
654.718261	0.116590
654.923497	0.116819
655.128715	0.116996
655.333915	0.117049
655.539096	0.117078
655.744259	0.117305
655.949404	0.117476
656.154531	0.117543
656.359640	0.117603
656.564730	0.118005
656.769802	0.117939
656.974856	0.118020
657.179892	0.118239
657.384909	0.118439
657.589908	0.118511
657.794889	0.118632
657.999852	0.118675
658.204797	0.118798
658.409723	0.118935
658.614631	0.119229
658.819521	0.119426
659.024393	0.119550
659.229246	0.119604
659.434081	0.119659
659.638898	0.119620
659.843697	0.119540
660.048478	0.119504
660.253240	0.119406
660.457984	0.119208
660.662710	0.119188
660.867417	0.119253
661.072107	0.119326
661.276778	0.119475
661.481431	0.119674
661.686066	0.119713
661.890682	0.119939
662.095281	0.119828
662.299861	0.119991
662.504422	0.120284
662.708966	0.120184
662.913491	0.120167
663.117999	0.120257
663.322488	0.120197
663.526958	0.120403
663.731411	0.120525
663.935845	0.120731
664.140261	0.120900
664.344659	0.120835
664.549038	0.121073
664.753400	0.121346
664.957743	0.121398
665.162068	0.121606
665.366375	0.121767
665.570663	0.122040
665.774933	0.122299
665.979185	0.122649
666.183419	0.122893
666.387635	0.123022
666.591832	0.123116
666.796011	0.123142
667.000172	0.122986
667.204315	0.123066
667.408439	0.122912
667.612545	0.122775
667.816634	0.122680
668.020703	0.122693
668.224755	0.122638
668.428788	0.122828
668.632803	0.122937
668.836800	0.123047
669.040779	0.123086
669.244739	0.123048
669.448681	0.123260
669.652605	0.123421
669.856511	0.123493
670.060399	0.123460
670.264268	0.123420
670.468119	0.123664
670.671952	0.123827
670.875767	0.124002
671.079563	0.124298
671.283341	0.124367
671.487101	0.124493
671.690843	0.124684
671.894567	0.124978
672.098272	0.125020
672.301959	0.125122
672.505628	0.125234
672.709278	0.125324
672.912911	0.125446
673.116525	0.125559
673.320121	0.125653
673.523699	0.125651
673.727258	0.125861
673.930799	0.126028
674.134322	0.125961
674.337827	0.126108
674.541314	0.126314
674.744782	0.126441
674.948232	0.126436
675.151664	0.126340
675.355078	0.126419
675.558474	0.126350
675.761851	0.126420
675.965210	0.126485
676.168551	0.126448
676.371873	0.126388
676.575178	0.126278
676.778464	0.126406
676.981732	0.126635
677.184981	0.126828
677.388213	0.126904
677.591426	0.126931
677.794621	0.127138
677.997798	0.127240
678.200956	0.127532
678.404097	0.127912
678.607219	0.128022
678.810323	0.128037
679.013408	0.127953
679.216476	0.128107
679.419525	0.128375
679.622556	0.128403
679.825569	0.128569
680.028563	0.128623
680.231540	0.128518
680.434498	0.128649
680.637438	0.128792
680.840359	0.129032
681.043263	0.129050
681.246148	0.128983
681.449015	0.128998
681.651864	0.129300
681.854694	0.129279
682.057506	0.129512
682.260301	0.129644
682.463076	0.129757
682.665834	0.129843
682.868573	0.130119
683.071295	0.130273
683.273998	0.130622
683.476682	0.130502
683.679349	0.130698
683.881997	0.130817
684.084627	0.130957
684.287239	0.130946
684.489833	0.130829
684.692408	0.130933
684.894965	0.130939
685.097504	0.130927
685.300025	0.131083
685.502527	0.131064
685.705012	0.131009
685.907478	0.131008
686.109925	0.131173
686.312355	0.131409
686.514766	0.131308
686.717159	0.131556
686.919534	0.131631
687.121891	0.131737
687.324230	0.131847
687.526550	0.131955
687.728852	0.132085
687.931136	0.132013
688.133401	0.132116
688.335649	0.132457
688.537878	0.132437
688.740089	0.132407
688.942281	0.132618
689.144456	0.132751
689.346612	0.132826
689.548750	0.132763
689.750870	0.132934
689.952971	0.132780
690.155055	0.132773
690.357120	0.132648
690.559167	0.132633
690.761195	0.132558
690.963206	0.132609
691.165198	0.132564
691.367172	0.132694
691.569128	0.132707
691.771065	0.133043
691.972984	0.132803
692.174885	0.132993
692.376768	0.133206
692.578633	0.133145
692.780479	0.133267
692.982308	0.133584
693.184118	0.133573
693.385909	0.133668
