sample name	sample
index	639
start time	 03-19-2021  03:28:55 PM
880	0.311757
Peak Time (s)	92.535
Peak Height 	0.3118
calc peak height	90,93
Baseline Time (s)	9.537
Baseline Value 	-0.003876
subtract baseline	10,4
Abs	0.195948
Peak Time (s)	92.038
Peak Height 	0.1959
calc peak height	90,93
Baseline Time (s)	9.037
Baseline Value 	0.001227
subtract baseline	10,3
PK_550	0.089615
Peak Time (s)	90.037
Peak Height 	0.08961
calc peak height	90,93
Baseline Time (s)	9.037
Baseline Value 	-1.6033E-4
subtract baseline	10,2
PK_880	0.190801
Peak Time (s)	91.538
Peak Height 	0.1908
calc peak height	90,93
Baseline Time (s)	10.536
Baseline Value 	0.002942
subtract baseline	10,1


Time (s)	A880-A510	A880-A775	A880-A975	A880	I510	I775	I975	I880	
0.034500	-0.001755	0.000159	0.000884	0.000898	7369.079656	45445.059356	4054.905192	24181.766232
0.535000	-0.002680	0.001306	-0.003590	0.003834	7330.131418	45270.595559	4036.179520	24038.867007
1.035000	-0.002270	0.000781	-0.004279	0.004881	7323.737618	45117.906181	4031.840238	23988.154918
1.535500	0.000042	-0.000268	-0.000724	0.000293	7393.494546	45462.480153	4052.351065	24211.340242
2.036000	-0.001312	0.000083	0.001852	-0.000157	7384.287577	45540.773098	4060.073489	24233.359261
2.539000	-0.001023	-0.000535	0.001035	-0.000271	7388.389022	45491.510251	4058.275115	24238.942377
3.036500	0.000414	0.000170	0.003501	-0.001545	7416.071096	45685.455327	4067.875853	24301.405613
3.536500	-0.000240	0.000659	-0.000965	0.000539	7388.118659	45529.083122	4051.112878	24199.308352
4.037000	0.001082	0.000457	-0.002716	0.000816	7398.764402	45482.149228	4045.973432	24185.772972
4.534000	-0.001442	0.000782	0.000784	0.000968	7371.548102	45499.104147	4054.472197	24178.350277
5.034500	-0.001385	0.000722	0.003484	0.000689	7374.953679	45520.541483	4062.087792	24191.995541
5.535000	0.000133	0.000087	0.002475	0.000054	7396.858372	45520.535954	4061.128727	24223.032007
6.035000	0.000667	0.000789	0.003348	0.000692	7395.800636	45526.890308	4061.731656	24191.857140
6.535500	0.000772	0.000459	-0.000118	0.000468	7399.155816	45516.492113	4053.447616	24202.801347
7.038500	-0.001021	0.000316	0.000187	0.000288	7382.727160	45520.091718	4054.684150	24211.611600
7.536000	-0.000215	0.000259	0.000829	0.000264	7391.170224	45516.838478	4056.382667	24212.773856
8.036000	0.001417	0.000189	-0.002031	0.000152	7408.981378	45521.043068	4049.391519	24218.271539
8.537000	-0.001810	0.000739	0.004459	0.001227	7365.196497	45469.689415	4063.210870	24165.745321
9.036500	0.000130	0.000000	0.000000	-0.000213	7399.560273	45538.211068	4055.484539	24236.125115
9.537500	0.001162	-0.000438	-0.000866	0.000000	7407.916181	45474.501974	4052.736188	24225.687801
10.035000	-0.000848	-0.000078	0.000874	-0.000104	7388.483195	45519.972277	4057.437010	24230.798676
10.535500	0.000000	0.000768	-0.001185	0.000774	7388.175677	45516.823207	4049.960416	24187.867906
11.035000	0.000171	-0.000303	-0.002568	-0.000044	7398.242649	45491.996692	4048.526285	24227.828034
11.535500	-0.000153	0.000376	0.006276	0.000832	7386.016280	45472.677407	4068.902621	24184.989044
12.036000	-0.000078	0.000350	-0.002169	0.000666	7388.481120	45486.485507	4047.741148	24193.141553
12.536000	0.000002	0.000499	0.004491	0.001195	7383.907478	45449.201432	4063.372783	24167.270800
13.036500	0.000385	-0.000571	-0.002325	-0.000831	7408.471137	45542.813402	4051.140076	24266.397625
13.537000	0.000825	0.000685	0.002271	0.000136	7403.088976	45571.079798	4060.396109	24219.028459
14.037000	-0.002870	0.000705	0.003409	0.003359	7332.996861	45258.348901	4055.067397	24061.922995
14.536500	-0.002489	0.000240	0.001941	0.002580	7344.663827	45288.935461	4053.312006	24099.786685
15.034500	0.002063	0.001420	0.003464	0.001128	7405.600209	45545.877621	4060.910835	24170.555181
15.535000	0.000003	-0.000108	0.006891	-0.000074	7396.839548	45514.067853	4072.835433	24229.323978
16.035500	-0.000775	0.000828	0.005572	0.000712	7380.924937	45528.737819	4067.398309	24190.894500
16.539000	-0.001868	0.000542	-0.001263	0.001419	7362.658385	45431.558544	4048.125687	24156.341425
17.036000	-0.001529	0.000880	0.001706	0.005160	7328.374107	45100.482179	4046.171631	23974.665890
17.536500	-0.001053	0.001065	0.005333	0.001521	7369.888818	45472.731661	4064.701428	24151.404620
18.036500	-0.001558	-0.000127	-0.000274	0.001768	7362.272653	45332.303204	4049.750270	24139.361090
18.537000	0.000224	0.000565	0.000398	0.002135	7376.607725	45363.939608	4050.523083	24121.460260
19.037500	0.000254	0.000154	-0.000264	0.002072	7377.552019	45329.963796	4049.001867	24124.514344
19.538000	-0.000884	0.000137	0.004784	0.001888	7367.884811	45346.320761	4062.347823	24133.503943
20.035500	0.001457	0.000919	0.004559	0.002340	7387.061516	45378.510037	4060.610455	24111.498757
20.535000	-0.000883	0.000511	0.005797	0.002216	7364.572172	45350.790783	4064.106830	24117.536603
21.035500	0.000728	0.001197	0.001907	0.002768	7375.306405	45363.877662	4052.748737	24090.659562
21.536000	-0.000746	0.000245	0.002114	0.001977	7368.371435	45348.168547	4055.290160	24129.136142
22.036000	-0.000830	-0.000176	0.003889	0.001907	7368.238576	45313.944223	4060.002637	24132.558985
22.536000	0.000239	0.000948	0.006149	0.003013	7367.869939	45315.798179	4062.964506	24078.774253
23.037000	-0.000057	0.000888	0.003129	0.002830	7366.712942	45327.732273	4055.702344	24087.637000
23.537000	0.000919	0.000879	0.006526	0.002475	7380.222892	45361.516098	4065.315408	24104.936129
24.034500	-0.001514	0.000215	0.001361	0.002344	7356.895828	45309.503389	4052.438131	24111.290479
24.535000	-0.000349	0.000039	0.004170	0.002181	7370.335174	45308.242918	4060.023448	24119.231103
25.035000	-0.000642	0.000244	-0.003223	0.002634	7362.772272	45284.057973	4040.113469	24097.164105
25.535500	-0.000243	0.000180	0.004669	0.001884	7374.412705	45350.876989	4062.059458	24133.669236
26.038000	-0.000152	0.001000	0.003782	0.002708	7366.985627	45350.510300	4057.681119	24093.570493
26.536000	0.000388	0.000601	0.003640	0.002568	7373.883837	45325.294554	4057.676385	24100.396420
27.036000	-0.001608	0.000303	0.004071	0.002527	7354.096790	45300.316757	4058.884361	24102.403460
27.536500	-0.000195	0.000407	-0.000822	0.000353	7390.481421	45522.663874	4051.951274	24208.443029
28.037000	0.002267	0.000187	0.003259	0.000970	7409.297049	45440.816021	4060.789271	24178.275345
28.537000	0.000692	0.001345	-0.000075	0.002187	7380.833432	45434.970373	4049.190840	24118.928974
29.037500	-0.002495	0.000618	0.002514	0.006909	7301.205832	44906.154465	4043.796234	23890.273608
29.535000	0.000684	0.000551	0.003672	0.001294	7389.846077	45444.736318	4061.018868	24162.472610
30.035500	0.003043	0.000661	0.005196	0.001701	7409.758573	45415.666743	4063.884135	24142.624987
30.536500	0.000226	0.000720	0.000342	0.001123	7386.914575	45477.879800	4052.951670	24170.792459
31.036000	-0.003014	0.000467	0.000138	0.006526	7299.840232	44928.447862	4038.778661	23908.695493
31.536500	0.001272	0.001174	0.001579	0.001838	7390.287048	45452.359292	4054.279712	24135.924347
32.036500	0.000227	0.000454	-0.000460	0.001447	7383.633063	45420.239542	4050.090621	24154.973327
32.536500	0.000396	0.000321	0.008078	0.001037	7389.531197	45447.346890	4073.033701	24175.018697
33.037000	-0.001614	-0.000015	-0.001690	0.006733	7311.758144	44862.036917	4033.681819	23898.741366
33.537500	0.002255	0.000995	0.002144	0.001815	7400.544341	45437.210941	4055.780254	24137.053151
34.035000	0.000248	0.000138	0.000993	0.001790	7380.358420	45355.930810	4052.910047	24138.255268
34.535500	0.002253	0.000323	-0.002019	0.003356	7384.823362	45221.519206	4041.324302	24062.068766
35.035500	-0.000791	0.001758	0.001949	0.006192	7325.423978	45085.635020	4044.180239	23924.836069
35.538500	0.001918	0.001181	0.002715	0.004035	7374.523281	45238.875477	4051.580576	24029.130265
36.036000	-0.001165	0.000541	0.001203	0.003229	7351.477005	45255.026008	4049.787762	24068.242211
36.536500	-0.000508	0.000738	0.004621	0.003426	7356.124562	45255.063710	4057.989538	24058.667187
37.037000	-0.000524	0.000854	0.004010	0.003933	7350.837116	45217.006448	4055.135547	24034.071491
37.537000	0.001014	0.000796	0.003797	0.003777	7367.971474	45226.599101	4054.991743	24041.663420
38.037500	-0.000270	0.000239	0.004866	0.003246	7360.342907	45224.016654	4059.075951	24067.415025
38.537500	-0.001178	0.000485	0.002372	0.003590	7347.707190	45214.555728	4051.841881	24050.723736
39.037000	0.000185	0.000965	0.002284	0.003882	7358.515734	45232.821033	4050.874398	24036.551400
39.535500	0.001207	0.001169	0.003986	0.003851	7369.180202	45255.698394	4055.285960	24038.071915
40.038000	0.001934	0.001560	0.003127	0.004824	7366.685717	45199.104573	4050.626090	23990.941165
40.535000	0.001873	0.000684	0.003448	0.003724	7377.223107	45220.863592	4054.237332	24044.236942
41.036500	0.002059	0.001012	0.004184	0.004186	7374.413743	45207.802200	4054.935092	24021.805034
41.536500	-0.000589	0.000609	0.005071	0.003626	7353.284861	45223.052908	4058.628617	24048.973527
42.036500	0.001084	0.000914	0.002524	0.004129	7365.119568	45203.936157	4050.858855	24024.607586
42.537000	0.003150	0.000837	0.001261	0.004117	7386.202501	45197.520022	4047.685703	24025.152165
43.037500	0.000811	0.000257	-0.001193	0.003690	7366.800345	45182.688995	4042.565415	24045.865896
43.537500	-0.001181	0.000681	0.001600	0.003937	7344.177500	45199.874794	4048.999543	24033.893206
44.035000	0.003614	0.000446	0.003877	0.000296	7430.017521	45531.978205	4064.103749	24211.190621
44.539000	0.000979	0.000644	0.001845	0.001596	7389.772558	45424.301894	4055.576649	24147.747600
45.036000	0.003897	0.001743	0.002362	0.002495	7410.376426	45443.883004	4054.602936	24103.961843
45.535500	0.002882	0.001334	0.006310	0.002111	7403.932674	45441.428787	4065.695953	24122.651120
46.036500	0.001380	0.000308	-0.000689	0.001915	7390.608203	45360.371717	4048.326210	24132.199283
46.536500	-0.000396	0.001037	0.007396	0.002763	7363.965041	45348.811197	4066.813334	24090.923969
47.037000	-0.002499	0.000769	0.003284	0.006232	7307.928396	44986.024490	4047.453695	23922.908743
47.534500	0.000722	0.000584	0.001176	0.003876	7364.007088	45196.363941	4048.080380	24036.836925
48.037500	0.000844	0.001256	0.002923	0.005322	7350.634344	45121.274797	4048.843638	23966.831482
48.535000	0.001251	0.000668	0.003500	0.003703	7371.120521	45221.328115	4054.423137	24045.235227
49.035500	0.001056	0.001312	0.004039	0.006138	7344.540355	45047.586859	4049.603385	23927.418643
49.538500	0.001058	0.000903	0.004058	0.002535	7381.019406	45357.934291	4058.829140	24101.992769
50.035500	0.004639	0.002048	0.007533	0.000812	7435.249036	45638.463900	4072.202965	24185.981700
50.536000	0.003150	0.001880	0.009355	0.005549	7371.666633	45159.834998	4064.685350	23955.872328
51.036500	0.008713	0.001449	0.005762	-0.003645	7523.862897	46018.791907	4079.176022	24404.795405
51.536500	-0.051834	-0.013685	-0.001795	0.111668	6006.814817	34861.042097	3800.451283	19406.998030
52.037000	-0.047310	-0.015842	0.005142	-0.020909	7134.879591	46016.125103	4123.368623	25273.952887
52.537000	-0.001080	-0.006307	0.016612	-0.064505	8092.372851	51612.355437	4282.248705	27628.870578
53.034500	-0.013322	-0.001289	0.011940	0.007892	7184.950314	44628.265310	4065.306991	23842.975250
53.535000	0.029674	0.007361	0.028726	-0.020524	7938.646703	48335.879610	4187.857016	25254.188169
54.035500	0.054353	0.020476	0.053407	0.013988	7827.358316	46157.098815	4160.108230	23552.062039
54.536000	0.096595	0.037050	0.080774	0.006478	8417.195971	48617.234665	4261.457346	23911.034837
55.036000	0.109735	0.048146	0.098406	0.050513	8043.016277	45286.315240	4183.990545	21892.090720
55.536000	0.128142	0.060429	0.127498	0.100777	7684.063132	41746.491611	4125.181801	19824.361297
56.036500	0.136007	0.068174	0.138821	0.138455	7371.159109	39166.793073	4055.873277	18423.960797
56.537000	0.146013	0.076365	0.150410	0.171817	7140.614825	37131.010254	4001.705314	17281.459989
57.037500	0.150540	0.081625	0.160950	0.201466	6906.087282	35267.868622	3956.349802	16337.204505
57.537000	0.152496	0.084211	0.158437	0.219211	6765.477546	34161.398912	3910.397300	15802.127320
58.035000	0.152167	0.086631	0.166903	0.234246	6633.483905	33269.730433	3895.951177	15365.582660
58.535000	0.153465	0.088267	0.163538	0.245559	6549.918797	32603.000875	3864.450650	15046.923949
59.038000	0.157209	0.089871	0.170984	0.259079	6470.185364	31802.190862	3851.723340	14676.839275
59.535500	0.161099	0.094104	0.169229	0.284985	6297.065510	30400.831814	3795.963843	13999.088321
60.035500	0.156757	0.092411	0.177248	0.275434	6337.243672	30900.857147	3830.970522	14244.274524
60.536500	0.166823	0.094668	0.175060	0.254024	6590.507198	32462.754720	3870.923544	14813.868841
61.036000	0.159766	0.093952	0.172378	0.280310	6322.778261	30687.503356	3811.377225	14118.414322
61.537000	0.165134	0.095431	0.183634	0.292835	6267.948812	29992.514470	3808.857197	13801.560811
62.037000	0.174364	0.097775	0.184719	0.298405	6295.873383	29792.851738	3800.013106	13663.566261
62.537500	0.179301	0.100074	0.187232	0.303710	6293.064809	29608.166097	3794.556686	13533.785708
63.034500	0.181343	0.099540	0.184898	0.299050	6344.767147	29862.039058	3799.100174	13647.699600
63.535500	0.183168	0.100094	0.183815	0.296744	6377.049987	30039.394623	3801.501719	13704.539384
64.035000	0.179461	0.099133	0.180188	0.296106	6353.040691	30019.284170	3795.647092	13720.308642
64.535500	0.182478	0.100276	0.189542	0.296736	6371.699052	30051.218121	3812.845387	13704.737795
65.036500	0.179432	0.098905	0.180995	0.295277	6359.283597	30056.772702	3798.846753	13740.861655
65.536500	0.182275	0.098894	0.180371	0.293994	6391.656064	30136.002989	3800.138509	13772.705578
66.037000	0.181730	0.101117	0.183197	0.294283	6385.086370	30257.102235	3805.129796	13765.528518
66.537000	0.180295	0.100181	0.181893	0.292188	6390.287845	30329.898059	3806.693306	13817.718290
67.034000	0.182205	0.100714	0.179688	0.291965	6407.139537	30377.510254	3802.783628	13823.295267
67.534500	0.183908	0.100108	0.186035	0.290275	6434.115168	30445.906405	3818.747954	13865.604273
68.035000	0.183277	0.100362	0.184640	0.289803	6432.835489	30491.777218	3816.897887	13877.433598
68.537500	0.184858	0.099167	0.187354	0.290014	6443.788947	30402.926776	3821.920796	13872.134143
69.035500	0.184020	0.100525	0.185282	0.290052	6436.787869	30486.353028	3817.685124	13871.190605
69.536000	0.184025	0.100210	0.186330	0.290357	6434.386964	30447.098577	3819.174253	13863.530213
70.036000	0.184251	0.099566	0.186072	0.290052	6438.630162	30425.750084	3819.268016	13871.185160
70.536500	0.183918	0.098031	0.185898	0.289942	6436.848938	30335.917365	3819.141116	13873.945117
71.036500	0.184272	0.098746	0.186781	0.292516	6419.153202	30219.221324	3815.755340	13809.516834
71.537000	0.183173	0.097821	0.191289	0.290686	6424.978112	30275.985452	3828.510451	13855.290498
72.037500	0.183068	0.098224	0.186085	0.291712	6415.986762	30236.946445	3815.972698	13829.618485
72.537000	0.185532	0.098856	0.190884	0.293235	6423.464682	30181.107225	3822.543039	13791.604693
73.037500	0.184338	0.098985	0.185584	0.295743	6394.127179	30032.658509	3806.960016	13729.296554
73.535500	0.185223	0.098548	0.189121	0.295194	6405.460588	30039.637459	3815.079751	13742.907617
74.035500	0.183157	0.097483	0.183661	0.294445	6395.056206	30020.013685	3805.726426	13761.509810
74.536500	0.185722	0.098421	0.186506	0.295930	6403.589984	29986.033168	3808.416387	13724.675596
75.036500	0.184744	0.097802	0.188469	0.297988	6379.650403	29820.240338	3808.228791	13673.838945
75.536500	0.183720	0.097649	0.185335	0.297772	6373.317524	29824.198192	3802.469202	13679.171157
76.037000	0.185807	0.097237	0.186851	0.298086	6387.245866	29779.411609	3804.836629	13671.430180
76.534500	0.185809	0.096078	0.183238	0.298496	6384.034909	29682.834627	3796.936059	13661.332261
77.034000	0.183933	0.096838	0.189677	0.300083	6356.906112	29632.168193	3806.473314	13622.356944
77.535000	0.184556	0.096372	0.190147	0.300007	6362.361348	29608.246317	3807.554545	13624.216348
78.035000	0.186460	0.096873	0.193719	0.300780	6371.214849	29591.609509	3813.110978	13605.274005
78.535500	0.187278	0.095943	0.192603	0.300774	6377.672385	29535.078292	3810.901470	13605.406541
79.035500	0.185827	0.096182	0.190390	0.303125	6347.953943	29406.415069	3801.882419	13548.012310
79.536500	0.186638	0.094550	0.184083	0.300907	6371.613970	29442.116003	3793.881545	13602.167910
80.036500	0.187549	0.095491	0.191379	0.301846	6371.386098	29442.132318	3806.351595	13579.191904
80.537000	0.183043	0.093986	0.186685	0.301565	6338.436491	29367.785324	3797.674753	13586.061931
81.037000	0.184663	0.094758	0.191564	0.304117	6331.212580	29260.015757	3802.239897	13523.871435
81.537500	0.188442	0.095352	0.189125	0.303510	6365.354611	29332.661982	3798.643596	13538.627997
82.035000	0.186373	0.093878	0.182906	0.302979	6353.343911	29275.641779	3787.578671	13551.576083
82.537500	0.186056	0.094453	0.192757	0.304246	6341.021541	29233.794481	3804.334589	13520.745605
83.035500	0.186861	0.094834	0.189635	0.305943	6334.100900	29154.511020	3794.887948	13479.621325
83.535500	0.186960	0.093765	0.194220	0.304921	6342.798665	29151.622107	3805.890060	13504.372721
84.036500	0.185926	0.093137	0.187991	0.304707	6336.436684	29126.777355	3794.091467	13509.566502
84.536000	0.188720	0.094945	0.190881	0.307029	6340.090538	29095.801894	3795.198019	13453.359855
85.036500	0.185674	0.092960	0.193240	0.306306	6322.105022	29020.153304	3801.231394	13470.823193
85.537000	0.186484	0.092583	0.191476	0.305637	6333.550835	29037.651812	3799.083581	13487.024230
86.037500	0.187206	0.093411	0.192684	0.306787	6330.229599	29018.376637	3799.196795	13459.212733
86.534000	0.189026	0.092955	0.191045	0.307757	6336.824392	28933.144128	3794.100779	13435.825860
87.035000	0.188274	0.092192	0.190323	0.307098	6336.096853	28926.928971	3793.976134	13451.708851
87.535000	0.187435	0.090963	0.188941	0.307295	6328.073315	28841.992875	3790.906368	13446.961826
88.035500	0.189523	0.091255	0.188717	0.308486	6335.020243	28788.562517	3788.165162	13418.270534
88.535500	0.189682	0.092461	0.195683	0.310354	6321.794885	28749.274503	3798.083564	13373.423986
89.035500	0.188299	0.089369	0.189072	0.308113	6328.421250	28698.894209	3789.574195	13427.231431
89.536500	0.187274	0.091149	0.193079	0.309784	6307.628839	28705.373369	3794.112657	13387.092712
90.037000	0.189400	0.089615	0.190140	0.309598	6325.461140	28625.742518	3788.767798	13391.559718
90.537000	0.188589	0.089198	0.195485	0.310373	6313.225038	28555.573380	3797.661017	13372.987907
91.040000	0.188493	0.089416	0.191822	0.310229	6313.587251	28576.826895	3790.802380	13376.418602
91.537500	0.190801	0.089431	0.194833	0.311548	6321.214533	28500.200350	3794.093188	13344.883125
92.037500	0.189273	0.088486	0.195948	0.310797	6315.221584	28488.812738	3797.736000	13362.823273
92.535000	0.188048	0.089061	0.193490	0.311757	6298.425181	28466.229427	3791.075717	13339.888449
93.035500	0.190186	0.088831	0.187587	0.312702	6307.582988	28397.461972	3777.888076	13317.357847
93.536000	0.188596	0.088936	0.191344	0.312591	6296.228135	28410.096358	3785.310946	13320.000339
94.036000	0.191500	0.089602	0.197023	0.314870	6301.018878	28315.960409	3791.889481	13265.835627
94.537000	0.189525	0.087130	0.191612	0.313162	6298.974751	28271.496479	3784.726263	13306.408439
95.037000	0.191242	0.087968	0.194935	0.314437	6302.365703	28246.041523	3788.680490	13276.101002
95.534500	0.191305	0.087616	0.198789	0.314828	6299.844093	28202.965707	3795.409818	13266.830123
96.034500	0.191317	0.087089	0.199537	0.314743	6300.600734	28177.335811	3797.038619	13268.860205
96.535500	0.191426	0.086980	0.194591	0.315528	6295.410771	28125.599960	3785.909228	13250.263908
