sample name	sample
index	1000
start time	 04-14-2021  04:40:16 PM


Wavelength (nm)	Absorbance
494.344910	-0.162337
494.563924	-0.162337
494.782919	-0.162337
495.001897	-0.233901
495.220856	-0.262546
495.439797	-0.218375
495.658719	-0.195763
495.877624	-0.244297
496.096510	-0.252875
496.315378	-0.168285
496.534227	-0.178908
496.753059	-0.136216
496.971872	0.024234
497.190667	0.060840
497.409444	0.066450
497.628203	0.060690
497.846943	0.065754
498.065665	0.065802
498.284369	0.063980
498.503055	0.063410
498.721723	0.063540
498.940372	0.062844
499.159003	0.063082
499.377616	0.062107
499.596210	0.063337
499.814787	0.062152
500.033345	0.061547
500.251885	0.061816
500.470406	0.062351
500.688910	0.063438
500.907395	0.064854
501.125862	0.065576
501.344311	0.064917
501.562742	0.064901
501.781154	0.065894
501.999548	0.066477
502.217924	0.066837
502.436282	0.067225
502.654621	0.066401
502.872942	0.065587
503.091245	0.065049
503.309530	0.065918
503.527797	0.066386
503.746045	0.065423
503.964275	0.065583
504.182487	0.065424
504.400681	0.064485
504.618856	0.065027
504.837013	0.064907
505.055152	0.064734
505.273273	0.065187
505.491376	0.064516
505.709460	0.064890
505.927526	0.064194
506.145574	0.064345
506.363604	0.064109
506.581615	0.063624
506.799608	0.064059
507.017583	0.063751
507.235540	0.063569
507.453478	0.063381
507.671399	0.063198
507.889301	0.063617
508.107185	0.063558
508.325050	0.063769
508.542898	0.064109
508.760727	0.062821
508.978538	0.062593
509.196330	0.062508
509.414105	0.063042
509.631861	0.063884
509.849599	0.063886
510.067319	0.063973
510.285021	0.064097
510.502704	0.063791
510.720369	0.064209
510.938016	0.064835
511.155645	0.065059
511.373255	0.065487
511.590848	0.064916
511.808422	0.064602
512.025977	0.064772
512.243515	0.065033
512.461034	0.065154
512.678536	0.065993
512.896018	0.066566
513.113483	0.066521
513.330930	0.067145
513.548358	0.066764
513.765768	0.067658
513.983160	0.067825
514.200533	0.068847
514.417889	0.069599
514.635226	0.068277
514.852545	0.068172
515.069845	0.068054
515.287128	0.067781
515.504392	0.068427
515.721638	0.068264
515.938866	0.068239
516.156075	0.066921
516.373267	0.066447
516.590440	0.067521
516.807594	0.067635
517.024731	0.067614
517.241850	0.067699
517.458950	0.067732
517.676032	0.068098
517.893095	0.068555
518.110141	0.068828
518.327168	0.069215
518.544177	0.069101
518.761168	0.068972
518.978141	0.068941
519.195095	0.068360
519.412031	0.068048
519.628949	0.067588
519.845849	0.067292
520.062731	0.067653
520.279594	0.067222
520.496439	0.067629
520.713266	0.067960
520.930074	0.068174
521.146865	0.068640
521.363637	0.069758
521.580391	0.070410
521.797127	0.070173
522.013844	0.069902
522.230543	0.070403
522.447224	0.069795
522.663887	0.069474
522.880532	0.069435
523.097158	0.069089
523.313766	0.069192
523.530356	0.069078
523.746928	0.069423
523.963481	0.069632
524.180017	0.069302
524.396534	0.069818
524.613032	0.070132
524.829513	0.070209
525.045975	0.070465
525.262420	0.070338
525.478845	0.070626
525.695253	0.070192
525.911643	0.071004
526.128014	0.071579
526.344367	0.072028
526.560702	0.072861
526.777018	0.073637
526.993316	0.073766
527.209597	0.074088
527.425858	0.074343
527.642102	0.074664
527.858328	0.074446
528.074535	0.074405
528.290724	0.074179
528.506894	0.073448
528.723047	0.073384
528.939181	0.073037
529.155297	0.072501
529.371395	0.072399
529.587475	0.073530
529.803536	0.074114
530.019579	0.074737
530.235604	0.075921
530.451611	0.077036
530.667600	0.076817
530.883570	0.077854
531.099522	0.078244
531.315456	0.078238
531.531372	0.078136
531.747269	0.077668
531.963148	0.077789
532.179009	0.077346
532.394852	0.076515
532.610676	0.076946
532.826482	0.076994
533.042271	0.077183
533.258040	0.077259
533.473792	0.077144
533.689525	0.077972
533.905240	0.077837
534.120937	0.077813
534.336616	0.077855
534.552277	0.077963
534.767919	0.078010
534.983543	0.078054
535.199149	0.078065
535.414736	0.078200
535.630306	0.078145
535.845857	0.078225
536.061390	0.078313
536.276904	0.078508
536.492401	0.079028
536.707879	0.079238
536.923339	0.079523
537.138781	0.079537
537.354204	0.080064
537.569610	0.080222
537.784997	0.080580
538.000366	0.081201
538.215716	0.081974
538.431049	0.081769
538.646363	0.081995
538.861659	0.082194
539.076937	0.083190
539.292196	0.082901
539.507438	0.082557
539.722661	0.082944
539.937866	0.082736
540.153052	0.082793
540.368221	0.083299
540.583371	0.083598
540.798503	0.083682
541.013617	0.083452
541.228712	0.083943
541.443789	0.084561
541.658848	0.084581
541.873889	0.084364
542.088912	0.084231
542.303916	0.084270
542.518902	0.084495
542.733870	0.084778
542.948820	0.085040
543.163752	0.085202
543.378665	0.084927
543.593560	0.085213
543.808437	0.085373
544.023295	0.085570
544.238136	0.085614
544.452958	0.085860
544.667762	0.085766
544.882548	0.085653
545.097315	0.085298
545.312064	0.085666
545.526795	0.085753
545.741508	0.086279
545.956203	0.086734
546.170879	0.086720
546.385537	0.086392
546.600177	0.086625
546.814799	0.086826
547.029402	0.087196
547.243988	0.087321
547.458555	0.087226
547.673103	0.087605
547.887634	0.087314
548.102146	0.087804
548.316640	0.087837
548.531116	0.087720
548.745574	0.088167
548.960013	0.088188
549.174435	0.088331
549.388838	0.088990
549.603222	0.088695
549.817589	0.088439
550.031937	0.088442
550.246267	0.088593
550.460579	0.089116
550.674873	0.089330
550.889148	0.089443
551.103405	0.089770
551.317644	0.089195
551.531865	0.089152
551.746068	0.089687
551.960252	0.089221
552.174418	0.089393
552.388566	0.089401
552.602696	0.088990
552.816807	0.089190
553.030900	0.088998
553.244975	0.089381
553.459032	0.089773
553.673070	0.089980
553.887091	0.090504
554.101093	0.090507
554.315077	0.090174
554.529042	0.090671
554.742990	0.091038
554.956919	0.091502
555.170830	0.091405
555.384722	0.091767
555.598597	0.091956
555.812453	0.092270
556.026291	0.092564
556.240111	0.092995
556.453913	0.093195
556.667696	0.092845
556.881461	0.092539
557.095208	0.092497
557.308937	0.092100
557.522647	0.091986
557.736339	0.092096
557.950013	0.091868
558.163669	0.091800
558.377307	0.091341
558.590926	0.091403
558.804527	0.091462
559.018110	0.091722
559.231675	0.092184
559.445221	0.092454
559.658749	0.092526
559.872259	0.093137
560.085751	0.093673
560.299225	0.093826
560.512680	0.093993
560.726117	0.094261
560.939536	0.094146
561.152937	0.094322
561.366319	0.094299
561.579683	0.094473
561.793029	0.094431
562.006357	0.094837
562.219667	0.095204
562.432958	0.095587
562.646231	0.095586
562.859486	0.096269
563.072723	0.096156
563.285941	0.096153
563.499141	0.096011
563.712323	0.095781
563.925487	0.095120
564.138632	0.095251
564.351760	0.095325
564.564869	0.095291
564.777960	0.095079
564.991032	0.095266
565.204087	0.095629
565.417123	0.095549
565.630141	0.096056
565.843140	0.096450
566.056122	0.096362
566.269085	0.096326
566.482030	0.096391
566.694957	0.096268
566.907866	0.096333
567.120756	0.096353
567.333628	0.096524
567.546482	0.096577
567.759318	0.096611
567.972135	0.096625
568.184935	0.096594
568.397716	0.096806
568.610478	0.097058
568.823223	0.097109
569.035949	0.097080
569.248657	0.097364
569.461347	0.097495
569.674019	0.097595
569.886672	0.097464
570.099308	0.097459
570.311925	0.097473
570.524523	0.097512
570.737104	0.097498
570.949666	0.097783
571.162210	0.097840
571.374736	0.097951
571.587244	0.098099
571.799733	0.098310
572.012205	0.098547
572.224658	0.098799
572.437092	0.098787
572.649509	0.098596
572.861907	0.098459
573.074287	0.098220
573.286649	0.098041
573.498993	0.097722
573.711318	0.098003
573.923625	0.098002
574.135914	0.098170
574.348185	0.098529
574.560438	0.099097
574.772672	0.099062
574.984888	0.099422
575.197086	0.099703
575.409266	0.099740
575.621427	0.099750
575.833570	0.100099
576.045695	0.099900
576.257802	0.099689
576.469890	0.099676
576.681961	0.099932
576.894013	0.100003
577.106046	0.099732
577.318062	0.099996
577.530059	0.100079
577.742039	0.099921
577.954000	0.100622
578.165942	0.100920
578.377867	0.100832
578.589773	0.100877
578.801661	0.100820
579.013531	0.101065
579.225382	0.100996
579.437216	0.101284
579.649031	0.101690
579.860828	0.101447
580.072606	0.101122
580.284367	0.101032
580.496109	0.101197
580.707833	0.101168
580.919539	0.101321
581.131227	0.101638
581.342896	0.101588
581.554547	0.101684
581.766180	0.101614
581.977795	0.102268
582.189391	0.102315
582.400969	0.102288
582.612529	0.102373
582.824071	0.102611
583.035595	0.102719
583.247100	0.102759
583.458587	0.102626
583.670056	0.102702
583.881506	0.102615
584.092939	0.102717
584.304353	0.102746
584.515749	0.103150
584.727127	0.102977
584.938486	0.103042
585.149828	0.103357
585.361151	0.103447
585.572456	0.103588
585.783742	0.103906
585.995011	0.104339
586.206261	0.104728
586.417493	0.104592
586.628706	0.104823
586.839902	0.105028
587.051079	0.105296
587.262238	0.105516
587.473379	0.105426
587.684502	0.105734
587.895606	0.106066
588.106692	0.106324
588.317760	0.106551
588.528810	0.106582
588.739841	0.106639
588.950855	0.106366
589.161850	0.106428
589.372827	0.106728
589.583785	0.106902
589.794726	0.106697
590.005648	0.106385
590.216552	0.106609
590.427437	0.106734
590.638305	0.106837
590.849154	0.106981
591.059985	0.107451
591.270798	0.107738
591.481592	0.107317
591.692369	0.107480
591.903127	0.107670
592.113867	0.107603
592.324588	0.107760
592.535292	0.107421
592.745977	0.107564
592.956644	0.107074
593.167293	0.107123
593.377923	0.106885
593.588536	0.106864
593.799130	0.107023
594.009706	0.106902
594.220263	0.106956
594.430803	0.107449
594.641324	0.107388
594.851827	0.107568
595.062312	0.107570
595.272778	0.107823
595.483227	0.107590
595.693657	0.107549
595.904069	0.107718
596.114462	0.107817
596.324838	0.107983
596.535195	0.108027
596.745534	0.108110
596.955855	0.108133
597.166157	0.108188
597.376441	0.108668
597.586707	0.108772
597.796955	0.109013
598.007185	0.109050
598.217396	0.109173
598.427589	0.109321
598.637764	0.109213
598.847921	0.109369
599.058060	0.109858
599.268180	0.109770
599.478282	0.109866
599.688366	0.110149
599.898431	0.110438
600.108479	0.110534
600.318508	0.110707
600.528519	0.110968
600.738511	0.111000
600.948486	0.110920
601.158442	0.111036
601.368380	0.111145
601.578300	0.110889
601.788202	0.110635
601.998085	0.110759
602.207950	0.111033
602.417797	0.110962
602.627626	0.111039
602.837436	0.110978
603.047228	0.111248
603.257002	0.111430
603.466758	0.111515
603.676496	0.111765
603.886215	0.111724
604.095916	0.111631
604.305599	0.112232
604.515264	0.112302
604.724910	0.112502
604.934538	0.112689
605.144148	0.112991
605.353740	0.113309
605.563314	0.113301
605.772869	0.113513
605.982406	0.113481
606.191925	0.113510
606.401425	0.113678
606.610908	0.113867
606.820372	0.113782
607.029818	0.113820
607.239246	0.113965
607.448655	0.114283
607.658047	0.114537
607.867420	0.114833
608.076775	0.114535
608.286111	0.114903
608.495430	0.114926
608.704730	0.115231
608.914012	0.115193
609.123275	0.115082
609.332521	0.115206
609.541748	0.115122
609.750957	0.115179
609.960148	0.115534
610.169321	0.115309
610.378475	0.115360
610.587611	0.115367
610.796729	0.115433
611.005829	0.115464
611.214910	0.115325
611.423974	0.115545
611.633019	0.115674
611.842045	0.115792
612.051054	0.115882
612.260044	0.116136
612.469017	0.116080
612.677970	0.115962
612.886906	0.116057
613.095824	0.116305
613.304723	0.115735
613.513604	0.115635
613.722467	0.115857
613.931311	0.116143
614.140138	0.115977
614.348946	0.115816
614.557736	0.116149
614.766507	0.116517
614.975261	0.116455
615.183996	0.116979
615.392713	0.117065
615.601412	0.117031
615.810092	0.116868
616.018754	0.117375
616.227399	0.117533
616.436024	0.117474
616.644632	0.117326
616.853222	0.117468
617.061793	0.117634
617.270346	0.117997
617.478880	0.117967
617.687397	0.118062
617.895895	0.117891
618.104375	0.118076
618.312837	0.118107
618.521281	0.118248
618.729706	0.118265
618.938113	0.118359
619.146502	0.118567
619.354873	0.118509
619.563226	0.118806
619.771560	0.118749
619.979876	0.118935
620.188174	0.119162
620.396453	0.119340
620.604715	0.119490
620.812958	0.119420
621.021183	0.119175
621.229390	0.119330
621.437578	0.119180
621.645748	0.119439
621.853900	0.119481
622.062034	0.119407
622.270150	0.119423
622.478247	0.119372
622.686326	0.119496
622.894387	0.119592
623.102430	0.119761
623.310454	0.119733
623.518461	0.119699
623.726449	0.119720
623.934418	0.120264
624.142370	0.120234
624.350303	0.120402
624.558218	0.120682
624.766115	0.120716
624.973994	0.120884
625.181855	0.121140
625.389697	0.121408
625.597521	0.121675
625.805327	0.121424
626.013114	0.121600
626.220883	0.121775
626.428634	0.121636
626.636367	0.121562
626.844082	0.121442
627.051778	0.121623
627.259457	0.121574
627.467117	0.121566
627.674758	0.121516
627.882382	0.121359
628.089987	0.121631
628.297574	0.121615
628.505143	0.121961
628.712694	0.122050
628.920226	0.122087
629.127740	0.122207
629.335236	0.122436
629.542714	0.122519
629.750174	0.122739
629.957615	0.122752
630.165038	0.122827
630.372443	0.122895
630.579829	0.123048
630.787198	0.123038
630.994548	0.123089
631.201880	0.122898
631.409194	0.123220
631.616489	0.123372
631.823766	0.123079
632.031025	0.122850
632.238266	0.122823
632.445489	0.122850
632.652693	0.122901
632.859879	0.122785
633.067047	0.122807
633.274197	0.122615
633.481329	0.122636
633.688442	0.122768
633.895537	0.123528
634.102614	0.123481
634.309672	0.123567
634.516713	0.123529
634.723735	0.123495
634.930739	0.123484
635.137724	0.123617
635.344692	0.123750
635.551641	0.124179
635.758572	0.123841
635.965485	0.123800
636.172379	0.123886
636.379256	0.124147
636.586114	0.124607
636.792954	0.124881
636.999775	0.125066
637.206579	0.124979
637.413364	0.124843
637.620131	0.125060
637.826880	0.125513
638.033610	0.125719
638.240323	0.125729
638.447017	0.125586
638.653692	0.125767
638.860350	0.125647
639.066990	0.125867
639.273611	0.125928
639.480214	0.126069
639.686798	0.125988
639.893365	0.125991
640.099913	0.126172
640.306443	0.126389
640.512955	0.126445
640.719449	0.126350
640.925924	0.126428
641.132381	0.126436
641.338820	0.126465
641.545241	0.126483
641.751644	0.126721
641.958028	0.126610
642.164394	0.126672
642.370742	0.126727
642.577071	0.127136
642.783383	0.127200
642.989676	0.127421
643.195951	0.127386
643.402207	0.127661
643.608446	0.127447
643.814666	0.127912
644.020868	0.127844
644.227052	0.127756
644.433218	0.127815
644.639365	0.127814
644.845494	0.127669
645.051605	0.127933
645.257698	0.127827
645.463772	0.127984
645.669828	0.127677
645.875866	0.128079
646.081886	0.128203
646.287888	0.128306
646.493871	0.128523
646.699836	0.128660
646.905783	0.128588
647.111712	0.128786
647.317622	0.128702
647.523514	0.129035
647.729388	0.128882
647.935244	0.129083
648.141082	0.129247
648.346901	0.129384
648.552702	0.129670
648.758485	0.129766
648.964250	0.129890
649.169996	0.130217
649.375724	0.130401
649.581434	0.130397
649.787126	0.130453
649.992800	0.130453
650.198455	0.130416
650.404092	0.130548
650.609711	0.130509
650.815311	0.130457
651.020894	0.130375
651.226458	0.129877
651.432004	0.129890
651.637532	0.129989
651.843041	0.129978
652.048532	0.130050
652.254006	0.130015
652.459460	0.130428
652.664897	0.130499
652.870315	0.130675
653.075716	0.131181
653.281097	0.131467
653.486461	0.131445
653.691807	0.131580
653.897134	0.131691
654.102443	0.131686
654.307734	0.131559
654.513006	0.131999
654.718261	0.132251
654.923497	0.132187
655.128715	0.132322
655.333915	0.132607
655.539096	0.132773
655.744259	0.132954
655.949404	0.133120
656.154531	0.133237
656.359640	0.133119
656.564730	0.133062
656.769802	0.133130
656.974856	0.133231
657.179892	0.133108
657.384909	0.133192
657.589908	0.133290
657.794889	0.133383
657.999852	0.133473
658.204797	0.133452
658.409723	0.133445
658.614631	0.133689
658.819521	0.133600
659.024393	0.133700
659.229246	0.133792
659.434081	0.133684
659.638898	0.133713
659.843697	0.133845
660.048478	0.133926
660.253240	0.134160
660.457984	0.134293
660.662710	0.134719
660.867417	0.134985
661.072107	0.135106
661.276778	0.135533
661.481431	0.135595
661.686066	0.135780
661.890682	0.136108
662.095281	0.136215
662.299861	0.136343
662.504422	0.136214
662.708966	0.136396
662.913491	0.136577
663.117999	0.136562
663.322488	0.136808
663.526958	0.136904
663.731411	0.137097
663.935845	0.137149
664.140261	0.137179
664.344659	0.137224
664.549038	0.137296
664.753400	0.137088
664.957743	0.137019
665.162068	0.137088
665.366375	0.137153
665.570663	0.137104
665.774933	0.137248
665.979185	0.137257
666.183419	0.137556
666.387635	0.137671
666.591832	0.138159
666.796011	0.138294
667.000172	0.138547
667.204315	0.138501
667.408439	0.138833
667.612545	0.138698
667.816634	0.138734
668.020703	0.138843
668.224755	0.138899
668.428788	0.138967
668.632803	0.139261
668.836800	0.139358
669.040779	0.139593
669.244739	0.139459
669.448681	0.139776
669.652605	0.140076
669.856511	0.140102
670.060399	0.140044
670.264268	0.140015
670.468119	0.139974
670.671952	0.139893
670.875767	0.140123
671.079563	0.140210
671.283341	0.140403
671.487101	0.140477
671.690843	0.140641
671.894567	0.140871
672.098272	0.140982
672.301959	0.141294
672.505628	0.141488
672.709278	0.141458
672.912911	0.141592
673.116525	0.141773
673.320121	0.142025
673.523699	0.141968
673.727258	0.142142
673.930799	0.142310
674.134322	0.142270
674.337827	0.142350
674.541314	0.142497
674.744782	0.142613
674.948232	0.142465
675.151664	0.142368
675.355078	0.142569
675.558474	0.142799
675.761851	0.142835
675.965210	0.142988
676.168551	0.143106
676.371873	0.143225
676.575178	0.143477
676.778464	0.143860
676.981732	0.143983
677.184981	0.144148
677.388213	0.144236
677.591426	0.144264
677.794621	0.144060
677.997798	0.144170
678.200956	0.144275
678.404097	0.144305
678.607219	0.144232
678.810323	0.144297
679.013408	0.144423
679.216476	0.144509
679.419525	0.144684
679.622556	0.145148
679.825569	0.145228
680.028563	0.145249
680.231540	0.145073
680.434498	0.145300
680.637438	0.145511
680.840359	0.145599
681.043263	0.145569
681.246148	0.145781
681.449015	0.145749
681.651864	0.145955
681.854694	0.146155
682.057506	0.146399
682.260301	0.146409
682.463076	0.146505
682.665834	0.146351
682.868573	0.146555
683.071295	0.146494
683.273998	0.146510
683.476682	0.146453
683.679349	0.146458
683.881997	0.146559
684.084627	0.146545
684.287239	0.146584
684.489833	0.146788
684.692408	0.146800
684.894965	0.146810
685.097504	0.146875
685.300025	0.147070
685.502527	0.147117
685.705012	0.146937
685.907478	0.146779
686.109925	0.146758
686.312355	0.146647
686.514766	0.146810
686.717159	0.146944
686.919534	0.147160
687.121891	0.147141
687.324230	0.147303
687.526550	0.147700
687.728852	0.148023
687.931136	0.148423
688.133401	0.148577
688.335649	0.148462
688.537878	0.148513
688.740089	0.148657
688.942281	0.148868
689.144456	0.149063
689.346612	0.149050
689.548750	0.149399
689.750870	0.149394
689.952971	0.149707
690.155055	0.149927
690.357120	0.150075
690.559167	0.149980
690.761195	0.149966
690.963206	0.149813
691.165198	0.149824
691.367172	0.149828
691.569128	0.149837
691.771065	0.149804
691.972984	0.149778
692.174885	0.149984
692.376768	0.150332
692.578633	0.150408
692.780479	0.150580
692.982308	0.150876
693.184118	0.150855
693.385909	0.150907
