sample name	sample
index	867
start time	 04-08-2021  01:13:26 PM
880	0.336708
Peak Time (s)	102.537
Peak Height 	0.3367
calc peak height	100,103
Baseline Time (s)	9.536
Baseline Value 	-0.004694
subtract baseline	10,4
Abs	0.265389
Peak Time (s)	102.041
Peak Height 	0.2654
calc peak height	100,103
Baseline Time (s)	11.537
Baseline Value 	-0.00137
subtract baseline	10,3
PK_550	0.134822
Peak Time (s)	102.041
Peak Height 	0.1348
calc peak height	100,103
Baseline Time (s)	11.036
Baseline Value 	-2.2434E-4
subtract baseline	10,2
PK_880	0.245293
Peak Time (s)	102.537
Peak Height 	0.2453
calc peak height	100,103
Baseline Time (s)	11.036
Baseline Value 	0.001413
subtract baseline	10,1


Time (s)	A880-A510	A880-A775	A880-A975	A880	I510	I775	I975	I880	
0.035500	-0.003321	0.000755	0.000773	0.007438	6791.495444	42014.194663	3893.453855	22495.605541
0.535500	-0.000559	0.001340	0.003830	0.005719	6833.941751	42223.189908	3906.988302	22574.161313
1.036000	-0.001956	0.000911	0.001649	0.005122	6826.332801	42238.483408	3902.481926	22601.521869
1.538500	-0.002642	0.000016	0.000530	0.004155	6829.009157	42245.041268	3902.052994	22645.933752
2.039000	-0.001258	0.000202	0.002643	0.002800	6855.143215	42385.558970	3911.934438	22708.332526
2.536500	-0.001103	0.000059	0.000895	0.001132	6872.623826	42525.050927	3911.706407	22785.374153
3.037000	0.001592	-0.000305	0.001981	-0.000980	6919.086596	42685.580553	3920.887010	22883.365864
3.537500	-0.003700	0.000130	0.001670	0.003443	6825.722063	42320.270397	3907.318737	22678.702081
4.035000	0.000223	0.000446	0.002509	0.001108	6885.625562	42562.788686	3916.399638	22786.477874
4.535500	0.000046	0.000431	0.004186	0.001025	6884.713827	42569.012742	3921.460865	22790.310598
5.035500	-0.001970	0.001060	0.000125	0.001079	6864.805087	42621.808177	3909.654904	22787.814445
5.535500	-0.000963	0.000768	0.002523	0.000908	6876.126095	42610.654429	3917.014376	22795.744843
6.038500	-0.001178	0.000113	0.002355	0.000483	6878.151891	42589.570818	3917.751573	22815.437667
6.536500	0.000555	0.000627	0.003732	0.000856	6891.255259	42602.510077	3920.640646	22798.130327
7.036500	0.000804	0.000926	0.000656	0.001071	6891.577057	42610.184467	3911.195278	22788.175354
7.537000	0.000544	0.000244	0.002902	0.000006	6899.363285	42645.351590	3920.695868	22837.528280
8.034500	-0.000580	-0.000025	0.002438	0.000081	6887.787478	42613.775246	3919.147610	22834.081097
8.537500	0.000992	-0.000094	0.001991	0.000214	6901.676787	42595.160885	3917.477564	22827.878262
9.035000	-0.002535	0.000870	-0.001453	0.000556	6864.410066	42652.419255	3906.646901	22812.056816
9.535500	-0.000743	0.000485	-0.000316	0.000000	6886.985134	42668.063917	3911.478376	22837.821925
10.035000	-0.000672	-0.000325	-0.000796	-0.000300	6890.564727	42621.238129	3910.963650	22851.743334
10.536000	0.001134	0.000430	0.002134	0.000063	6904.526765	42657.317783	3918.325515	22834.914935
11.036000	0.000000	0.000000	0.001433	-0.000261	6896.685594	42647.526972	3917.240892	22849.947337
11.536500	0.000280	-0.000632	0.000000	-0.000603	6902.691636	42620.841539	3914.108020	22865.800853
12.036500	-0.000270	0.000899	0.003527	0.000252	6889.121654	42682.984795	3921.791300	22826.125494
12.537000	-0.002377	0.000334	0.001215	0.000242	6868.940920	42632.014677	3915.170093	22826.608651
13.037500	-0.000931	0.000270	0.002703	0.000309	6882.204076	42619.949735	3919.251890	22823.494399
13.537500	-0.003233	0.000283	-0.002761	0.004921	6816.119036	42199.637212	3890.592583	22610.765015
14.035000	-0.003291	0.000583	0.002807	0.002564	6837.974716	42441.870349	3913.077277	22719.181614
14.535500	-0.000424	0.000802	0.000158	0.003000	6861.217440	42422.132738	3904.276772	22699.102555
15.044000	-0.001213	0.000460	0.004410	0.000688	6875.831324	42602.542560	3923.079304	22805.920788
15.536000	-0.001152	0.000573	0.001551	0.001466	6868.943786	42541.532643	3912.626104	22769.917166
16.039000	0.000900	-0.000197	0.003694	0.000238	6900.564503	42583.595183	3922.312120	22826.794069
16.536500	-0.000280	-0.000366	0.003614	0.000326	6888.315901	42560.054883	3921.828792	22822.714352
17.037000	0.002245	0.001201	0.004181	-0.000278	6918.606741	42759.592992	3925.207580	22850.717761
17.539000	0.000907	0.001094	0.002900	0.003044	6873.566441	42444.745254	3911.969674	22697.070846
18.037000	-0.001053	0.001156	0.003564	0.003228	6853.005360	42433.566584	3913.345502	22688.580472
18.535000	0.000498	0.001448	0.004725	0.003245	6867.707142	42458.785552	3916.624054	22687.798852
19.034500	0.000386	0.000467	0.002406	0.002827	6870.645314	42407.313851	3911.178443	22707.065947
19.535500	-0.002167	0.000596	0.003683	0.002456	6849.733088	42453.034241	3915.898803	22724.177015
20.036000	-0.000825	0.000955	0.002383	0.002915	6858.186924	42443.902944	3910.860419	22703.019713
20.538500	-0.000124	0.000751	0.006702	0.002682	6867.135733	42446.457119	3923.938890	22713.747607
21.037000	0.001551	0.000853	0.000182	0.002858	6881.556677	42439.799979	3904.748825	22705.654688
21.537000	-0.000930	0.000931	0.001817	0.003076	6855.637052	42426.921969	3908.787055	22695.603756
22.037000	0.000076	0.000418	0.004014	0.002462	6871.173046	42436.165254	3916.833304	22723.909446
22.537000	0.000125	0.000615	-0.000508	0.002385	6872.385875	42461.248302	3904.132142	22727.471653
23.034500	-0.000583	0.001041	0.004494	0.002666	6862.885470	42474.495254	3917.623399	22714.477062
23.535000	0.000907	0.000840	0.003368	0.002395	6879.811175	42480.959546	3915.169938	22726.998005
24.035500	0.000793	0.001896	0.005456	0.002987	6873.014351	42523.395953	3919.469783	22699.690057
24.535500	-0.000240	0.001652	0.003535	0.002643	6866.405180	42532.610381	3914.939136	22715.569771
25.038500	-0.000125	0.001375	0.003169	0.002804	6865.959960	42492.469016	3913.430090	22708.145511
25.536500	-0.000547	0.000786	0.005595	0.001973	6869.891193	42514.661485	3922.791988	22746.496506
26.036500	0.000060	0.000657	0.002395	0.002192	6873.613478	42482.714478	3912.964355	22736.358764
26.536500	-0.000532	0.001017	0.004646	0.002216	6867.695728	42513.440547	3919.354898	22735.239102
27.037000	0.001659	0.001839	0.003562	0.000249	6907.802199	42769.861127	3921.899420	22826.256136
27.534500	0.001018	0.000815	0.007236	-0.000200	6905.942465	42716.876542	3933.845346	22847.110766
28.035000	0.002109	0.001927	0.004945	0.001301	6901.975115	42681.049045	3922.854578	22777.550094
28.535500	0.001760	0.000906	0.002985	0.000654	6904.860371	42646.656555	3919.070974	22807.507690
29.036000	0.001668	0.001867	0.008352	0.002323	6887.835947	42581.619589	3929.757230	22730.318000
29.536000	-0.004051	0.000584	-0.000471	0.005936	6798.777163	42134.849253	3894.181361	22564.246376
30.036000	0.000156	0.000195	0.002738	0.000472	6891.113457	42598.117712	3918.885479	22815.932616
30.536000	0.000386	0.000212	0.007853	0.002157	6877.087534	42445.212414	3928.792226	22737.993438
31.036500	-0.000846	0.001190	0.004098	0.003260	6854.680554	42433.774484	3914.783385	22687.130613
31.537000	-0.003212	0.000301	-0.000282	0.005719	6808.750210	42128.821506	3895.327126	22574.164322
32.037500	0.003158	0.001034	0.007209	0.001241	6912.728716	42604.522036	3929.579619	22780.339349
32.537500	-0.000383	0.001128	0.003589	0.000996	6880.861549	42635.720063	3919.826211	22791.670723
33.035500	-0.000432	0.000714	0.007673	0.000856	6881.737413	42610.482528	3932.046301	22798.157311
33.540500	-0.003760	0.001299	0.003484	0.006888	6792.542607	42113.308424	3902.678628	22520.716128
34.035500	-0.001768	0.002057	0.004177	0.003712	6841.554112	42471.758906	3913.715977	22666.323182
34.536000	0.000501	-0.000009	0.003935	0.002575	6874.178364	42386.852272	3916.282877	22718.701826
35.036500	-0.002063	0.000081	-0.000078	0.002530	6850.022918	42399.160929	3904.941619	22720.754470
35.536500	-0.002768	0.000226	0.000808	0.005049	6819.314379	42182.857856	3900.305641	22604.883741
36.037000	-0.001758	0.000954	0.002065	0.003083	6847.654820	42428.359339	3909.472111	22695.269739
36.537000	-0.000519	0.001725	0.004679	0.004241	6848.416501	42393.005447	3913.634384	22641.964911
37.037500	-0.001019	0.000645	0.008555	0.003021	6855.307695	42405.761654	3928.320707	22698.104416
37.535000	0.000135	0.001221	0.004386	0.005048	6846.958062	42273.396727	3910.488206	22604.928589
38.035000	-0.002231	0.000450	0.004282	0.003349	6840.589313	42358.044027	3915.054692	22683.001388
38.535500	-0.000041	0.001268	0.004937	0.003838	6856.849437	42388.067167	3915.531857	22660.505170
39.038500	0.000284	0.001975	0.006698	0.003864	6859.712261	42450.349090	3920.519014	22659.310454
39.535500	0.000636	0.001695	0.004788	0.003855	6863.171495	42425.529039	3915.055363	22659.711009
40.036500	-0.001355	0.000736	-0.000631	0.003192	6850.453661	42398.489495	3901.489209	22690.232194
40.536500	-0.000420	0.000972	0.001294	0.002907	6862.137870	42446.153107	3907.775626	22703.384891
41.037000	-0.000366	0.001931	0.002496	0.003607	6855.949511	42469.835003	3909.206451	22671.139664
41.534500	0.000055	0.000409	0.000192	0.002494	6870.663052	42432.430792	3905.811878	22722.435796
42.034500	-0.000832	0.001361	0.002942	0.003350	6853.954892	42441.252711	3911.216692	22682.987609
42.535000	0.000161	0.000884	0.002683	0.003234	6864.572324	42408.212209	3910.806247	22688.301141
43.035500	-0.000581	0.001811	0.004247	0.003579	6854.171054	42461.425293	3914.296528	22672.448441
43.538500	0.000111	0.001292	0.004187	0.002357	6872.511076	42525.779637	3917.630233	22728.733657
44.036000	-0.001374	0.000718	0.006718	0.001065	6870.667894	42591.647542	3928.666463	22788.476612
44.536000	0.002568	0.002162	0.007462	0.002076	6898.919498	42631.382758	3927.892067	22741.718831
45.037000	-0.001722	0.001273	0.004819	0.002803	6850.671849	42483.196030	3918.166528	22708.177849
45.536500	0.002230	0.001385	0.006291	0.001579	6900.451704	42605.695806	3925.939527	22764.666202
46.037000	-0.000215	0.000834	0.005342	0.001124	6881.244959	42596.886538	3924.513056	22785.743004
46.537500	0.000883	0.001263	0.002506	0.001437	6888.819274	42607.584003	3915.447028	22771.268148
47.035000	0.000220	0.000664	0.001728	0.002167	6875.391441	42485.642136	3911.126389	22737.522975
47.540500	0.000199	0.001111	0.005111	0.003688	6860.590447	42387.486425	3916.460867	22667.414989
48.035500	0.000144	0.002204	0.005835	0.002347	6872.927491	42610.353951	3922.405523	22729.199636
48.535500	0.000950	0.001107	0.006076	0.001071	6892.987866	42626.865605	3926.789490	22788.185733
49.036000	0.000076	0.000569	0.003759	0.001571	6879.741361	42531.631236	3918.659703	22765.067172
49.538000	0.000195	0.001369	0.003992	0.004401	6853.724155	42345.902344	3911.211735	22634.633662
50.036500	0.000146	0.000604	0.002155	0.000631	6889.476852	42621.042663	3916.751332	22808.565058
50.537000	0.001531	0.001302	0.008302	0.007996	6832.166308	42013.215847	3913.259399	22470.190389
51.037000	-0.020196	-0.006528	0.013325	0.021978	6505.858661	40088.484399	3887.862255	21843.317627
51.534500	-0.045421	-0.018218	0.010720	-0.010009	6565.614874	41876.352132	3973.142317	23307.658381
52.035000	-0.028151	-0.013381	0.003964	-0.058927	7202.283935	47035.488884	4106.048162	25766.438038
52.535000	-0.023847	-0.011954	-0.011776	-0.093568	7624.841767	50873.034879	4169.949996	27682.955728
53.035500	-0.019696	-0.011789	-0.008658	-0.097209	7714.020267	51296.801821	4193.479635	27893.386773
53.536000	-0.014736	-0.009250	-0.010635	-0.098625	7788.212987	51741.226230	4191.515751	27975.728672
54.036500	-0.003073	-0.009947	-0.007969	-0.123217	8231.344152	54513.866675	4290.102091	29449.107661
54.536500	0.005188	-0.006246	-0.005950	-0.113453	8212.228219	53795.919018	4261.458327	28854.120814
55.037000	0.008201	-0.004898	-0.007262	-0.107558	8175.762311	53263.919121	4235.259813	28501.318069
55.537500	0.000941	-0.004201	-0.004771	-0.071514	7655.954121	49313.203812	4118.847443	26445.207585
56.036500	0.000005	-0.002627	0.001578	-0.046550	7368.942300	46870.283278	4058.037995	25117.949158
56.535000	0.004785	-0.000247	0.004303	-0.030079	7244.874268	45460.735420	4014.774404	24283.054835
57.034500	0.007486	0.000029	0.013471	-0.019888	7167.142174	44496.094951	4011.609669	23782.149179
57.538000	0.009787	0.001207	0.013099	-0.019091	7182.643927	44532.777631	4008.004211	23743.478818
58.035500	0.015322	0.003867	0.020153	-0.015719	7205.034504	44464.293130	4019.399038	23580.602029
58.536000	0.021739	0.005786	0.034768	0.016631	6943.793836	41639.375350	3965.383675	22080.653360
59.036500	0.019778	0.006613	0.038355	0.026269	6831.907358	40857.804532	3947.455241	21654.958934
59.537000	0.023916	0.009198	0.041615	0.016238	6969.006771	41981.904148	3987.172193	22098.243698
60.037000	0.028214	0.013871	0.046187	0.046309	6722.934942	39751.726176	3912.033538	20799.525437
60.540000	0.033723	0.016562	0.052613	0.054623	6697.024360	39275.383746	3906.643149	20456.042689
61.037500	0.035283	0.018085	0.050572	0.056184	6697.011365	39272.133637	3896.423764	20392.267186
61.535000	0.038377	0.019271	0.060788	0.057654	6711.988006	39248.244739	3921.382129	20332.428241
62.038500	0.047331	0.021955	0.059126	0.062201	6752.933778	39091.966669	3903.614024	20148.652632
62.535500	0.048308	0.023395	0.062205	0.064603	6739.647450	39011.431270	3905.537043	20052.298366
63.036000	0.050540	0.024866	0.060781	0.068436	6724.779459	38814.583640	3890.665982	19899.705116
63.536500	0.051062	0.025680	0.064476	0.069440	6720.312984	38798.877015	3898.256617	19859.967013
64.036500	0.054292	0.027443	0.067919	0.072242	6724.274307	38712.593948	3900.073100	19749.501352
64.537000	0.060262	0.029722	0.071259	0.075968	6745.128478	38592.833249	3898.978873	19603.714416
65.037000	0.061311	0.030137	0.075017	0.078414	6732.130547	38425.499247	3902.697632	19508.700242
65.537000	0.066590	0.032726	0.077397	0.082790	6740.526278	38278.898645	3897.042926	19340.033496
66.037500	0.069555	0.034541	0.078406	0.086722	6731.539869	38105.978897	3888.808410	19189.919314
66.538000	0.070538	0.035654	0.083061	0.090387	6706.709059	37898.689621	3891.594992	19051.241874
67.034500	0.074036	0.038038	0.087626	0.095437	6692.412525	37683.418025	3890.231110	18862.041943
67.535500	0.075583	0.038954	0.088719	0.101179	6654.013116	37297.008932	3877.229188	18649.531606
68.036000	0.080944	0.039735	0.091357	0.103308	6683.566485	37189.857863	3878.646192	18571.469668
68.536000	0.083262	0.042275	0.094094	0.107972	6662.095054	37021.683913	3873.293673	18401.769925
69.037000	0.085774	0.043717	0.099025	0.112057	6647.766949	36813.619454	3875.641718	18254.655774
69.536500	0.088731	0.046054	0.097599	0.117382	6626.296358	36579.916530	3857.037988	18064.919024
70.037000	0.090551	0.046360	0.105942	0.118455	6633.048171	36520.105230	3877.082390	18026.933804
70.537500	0.093225	0.048633	0.110357	0.121541	6629.320798	36456.935935	3880.784761	17918.322949
71.035000	0.097434	0.049979	0.109508	0.124399	6641.571673	36339.644412	3870.489275	17818.406714
71.538000	0.100850	0.051631	0.109960	0.127257	6646.643599	36246.485833	3863.855897	17719.154601
72.035500	0.102458	0.053828	0.117764	0.129305	6642.638401	36257.962856	3879.789410	17648.406681
72.536000	0.103919	0.054814	0.113667	0.131116	6639.462574	36194.350644	3863.436879	17586.157346
73.036000	0.109701	0.056927	0.120251	0.134831	6658.270396	36071.113058	3871.351719	17459.234543
73.536000	0.111486	0.059654	0.122474	0.139140	6635.312067	35949.744901	3865.589806	17313.349723
74.037000	0.115204	0.060025	0.126717	0.140115	6660.255627	35903.600765	3874.623971	17280.541022
74.539500	0.119889	0.062238	0.132024	0.143292	6674.039597	35830.030729	3880.549449	17174.160402
75.037500	0.121268	0.064419	0.129353	0.147042	6652.396274	35710.626246	3862.776766	17049.589516
75.534500	0.123954	0.066045	0.137700	0.150368	6646.571907	35581.727951	3876.653681	16940.013517
76.035000	0.129347	0.067350	0.137829	0.152975	6671.984205	35483.397703	3869.786936	16854.704735
76.535500	0.130523	0.069479	0.143279	0.156675	6648.957396	35365.068148	3874.629754	16734.482724
77.035500	0.135664	0.072255	0.148629	0.161628	6650.667719	35201.892409	3875.734878	16575.179990
77.536000	0.137927	0.073255	0.147682	0.164529	6644.868304	35059.981447	3865.094841	16482.700800
78.036000	0.140274	0.074078	0.151092	0.167177	6642.133200	34924.393804	3867.193957	16398.831412
78.536500	0.142962	0.075786	0.154466	0.171106	6630.880326	34760.134237	3865.663963	16275.312710
79.037000	0.146909	0.077154	0.154300	0.174593	6635.049362	34604.165380	3855.642932	16166.631521
79.537000	0.149905	0.079052	0.161030	0.178748	6624.560392	34438.929708	3862.699975	16038.274867
80.037500	0.151870	0.081189	0.163268	0.183198	6602.151041	34270.432776	3856.635047	15902.141225
80.537500	0.155147	0.082823	0.162904	0.186970	6597.702600	34115.489958	3845.385901	15787.846178
81.035000	0.157021	0.083071	0.165634	0.190021	6587.148609	33913.524127	3844.514436	15696.106883
81.535500	0.159623	0.086464	0.169261	0.196132	6555.860410	33718.892180	3837.813667	15514.312743
82.035500	0.162198	0.087039	0.173302	0.198954	6553.663908	33558.966111	3841.098244	15431.225297
82.536000	0.164335	0.087843	0.170872	0.202408	6541.990519	33371.365538	3825.330396	15330.244360
83.035500	0.166297	0.090048	0.182796	0.207002	6518.761530	33203.153209	3845.003996	15197.176686
83.536500	0.168829	0.090332	0.177965	0.209415	6519.812349	33054.149862	3825.560819	15127.854254
84.037000	0.171764	0.092272	0.177988	0.213903	6506.172405	32876.691556	3813.737663	14999.944837
84.537000	0.174690	0.094262	0.184856	0.218676	6490.012630	32684.071294	3819.271321	14865.345427
85.036500	0.176011	0.094763	0.189048	0.222033	6472.281369	32487.701701	3821.482327	14771.552977
85.535000	0.177585	0.096880	0.188380	0.226006	6451.487278	32360.748000	3809.236847	14661.477133
86.034500	0.178824	0.097968	0.190953	0.229645	6430.807667	32187.174597	3806.443861	14561.548173
86.535500	0.183569	0.099932	0.196194	0.234167	6432.715871	32014.111861	3808.326910	14438.517684
87.035000	0.185691	0.100034	0.196382	0.237526	6422.099280	31795.225096	3800.040838	14347.962238
87.536000	0.186412	0.101423	0.201609	0.242173	6388.589677	31577.905010	3801.551983	14223.831279
88.041500	0.190635	0.102678	0.201496	0.244917	6401.178950	31479.215324	3794.132108	14151.168605
88.536500	0.190657	0.104555	0.204592	0.248873	6367.790892	31341.853723	3791.907814	14047.204570
89.036500	0.193656	0.106269	0.208719	0.253611	6353.122165	31143.260298	3790.327624	13923.903746
89.540000	0.195549	0.107593	0.213895	0.257398	6337.215658	30982.487268	3793.917229	13826.332569
90.034500	0.198627	0.108088	0.209162	0.260106	6340.314507	30838.876599	3774.816882	13757.068825
90.535000	0.201683	0.109202	0.215173	0.264030	6333.044596	30657.523044	3780.139345	13657.476647
91.035000	0.201813	0.110303	0.215369	0.268079	6300.397023	30468.536628	3770.330939	13555.656671
91.536000	0.204010	0.110626	0.217301	0.270468	6298.804539	30336.815851	3769.173898	13496.020261
92.036000	0.207816	0.113518	0.226571	0.275206	6291.084172	30219.679200	3780.708845	13378.716582
92.536000	0.210028	0.114319	0.224390	0.277859	6287.445289	30102.726902	3768.409572	13313.604234
93.036500	0.210300	0.114213	0.230043	0.280023	6271.835133	29959.987125	3777.274320	13260.771945
93.537000	0.213054	0.117547	0.225238	0.285201	6251.945514	29844.551921	3752.098665	13135.420884
94.037000	0.213425	0.117114	0.228600	0.287989	6232.226008	29644.132610	3753.531969	13068.548221
94.537500	0.219484	0.119566	0.233788	0.292304	6246.448082	29528.913600	3755.715777	12965.909117
95.034000	0.217264	0.119005	0.239778	0.293735	6216.750342	29406.232475	3767.177548	12932.088384
95.535000	0.219348	0.120694	0.239860	0.297645	6201.978005	29270.087894	3757.543449	12840.235625
96.035500	0.223362	0.123622	0.242120	0.301944	6199.681994	29186.426221	3752.448259	12740.214319
96.536000	0.224037	0.122420	0.242974	0.303213	6194.894809	29036.239601	3751.413453	12710.867505
97.035500	0.226061	0.124795	0.245653	0.306811	6182.245307	28962.255928	3749.126501	12628.146291
97.536500	0.228252	0.126193	0.247436	0.311201	6164.649623	28782.045124	3742.664572	12528.139183
98.036500	0.230818	0.125461	0.249662	0.312029	6178.552322	28688.653468	3746.126072	12509.405599
