sample name	sample
index	763
start time	 03-31-2021  12:28:38 PM


Wavelength (nm)	Absorbance
494.344910	-0.072219
494.563924	-0.072219
494.782919	-0.072219
495.001897	-0.090125
495.220856	-0.047172
495.439797	-0.055082
495.658719	-0.037823
495.877624	-0.037920
496.096510	-0.021415
496.315378	-0.004708
496.534227	0.026188
496.753059	0.029736
496.971872	0.025515
497.190667	0.109070
497.409444	0.132666
497.628203	0.134486
497.846943	0.140060
498.065665	0.142571
498.284369	0.143513
498.503055	0.144416
498.721723	0.146244
498.940372	0.147400
499.159003	0.146869
499.377616	0.147264
499.596210	0.149355
499.814787	0.149036
500.033345	0.149915
500.251885	0.150741
500.470406	0.150031
500.688910	0.149097
500.907395	0.148942
501.125862	0.148385
501.344311	0.148598
501.562742	0.148541
501.781154	0.149096
501.999548	0.148471
502.217924	0.147442
502.436282	0.148051
502.654621	0.148681
502.872942	0.148724
503.091245	0.149091
503.309530	0.149444
503.527797	0.148380
503.746045	0.148651
503.964275	0.148364
504.182487	0.149003
504.400681	0.149541
504.618856	0.149522
504.837013	0.149598
505.055152	0.151095
505.273273	0.151166
505.491376	0.151454
505.709460	0.151608
505.927526	0.151421
506.145574	0.152421
506.363604	0.151871
506.581615	0.152451
506.799608	0.151836
507.017583	0.151561
507.235540	0.151475
507.453478	0.152591
507.671399	0.153752
507.889301	0.155045
508.107185	0.153548
508.325050	0.153331
508.542898	0.152933
508.760727	0.155939
508.978538	0.156474
509.196330	0.156153
509.414105	0.155922
509.631861	0.155545
509.849599	0.155300
510.067319	0.156376
510.285021	0.157423
510.502704	0.158605
510.720369	0.157664
510.938016	0.157503
511.155645	0.158298
511.373255	0.158191
511.590848	0.157578
511.808422	0.157188
512.025977	0.157241
512.243515	0.156562
512.461034	0.156194
512.678536	0.155098
512.896018	0.155897
513.113483	0.155825
513.330930	0.156919
513.548358	0.157265
513.765768	0.157533
513.983160	0.157352
514.200533	0.157998
514.417889	0.158681
514.635226	0.159632
514.852545	0.159645
515.069845	0.160197
515.287128	0.160312
515.504392	0.160943
515.721638	0.162183
515.938866	0.163157
516.156075	0.163608
516.373267	0.163663
516.590440	0.164402
516.807594	0.164201
517.024731	0.164276
517.241850	0.164302
517.458950	0.164235
517.676032	0.163337
517.893095	0.162704
518.110141	0.162864
518.327168	0.163617
518.544177	0.163800
518.761168	0.164479
518.978141	0.165452
519.195095	0.165181
519.412031	0.166621
519.628949	0.167923
519.845849	0.168784
520.062731	0.169703
520.279594	0.169263
520.496439	0.168893
520.713266	0.169056
520.930074	0.168466
521.146865	0.168633
521.363637	0.168269
521.580391	0.168195
521.797127	0.168851
522.013844	0.168516
522.230543	0.169084
522.447224	0.169594
522.663887	0.169922
522.880532	0.170319
523.097158	0.170627
523.313766	0.170163
523.530356	0.169894
523.746928	0.170118
523.963481	0.170977
524.180017	0.171091
524.396534	0.171289
524.613032	0.171898
524.829513	0.172552
525.045975	0.173211
525.262420	0.172998
525.478845	0.174273
525.695253	0.173862
525.911643	0.173410
526.128014	0.174118
526.344367	0.174210
526.560702	0.173709
526.777018	0.174300
526.993316	0.174737
527.209597	0.176164
527.425858	0.175545
527.642102	0.175987
527.858328	0.176376
528.074535	0.176059
528.290724	0.176452
528.506894	0.177825
528.723047	0.177468
528.939181	0.178015
529.155297	0.178037
529.371395	0.178818
529.587475	0.179302
529.803536	0.179904
530.019579	0.180268
530.235604	0.180831
530.451611	0.180712
530.667600	0.181922
530.883570	0.181589
531.099522	0.181812
531.315456	0.181724
531.531372	0.182608
531.747269	0.182231
531.963148	0.182440
532.179009	0.183162
532.394852	0.183428
532.610676	0.183209
532.826482	0.183759
533.042271	0.184621
533.258040	0.185498
533.473792	0.185360
533.689525	0.186486
533.905240	0.186824
534.120937	0.186717
534.336616	0.187269
534.552277	0.187806
534.767919	0.188787
534.983543	0.188816
535.199149	0.189566
535.414736	0.190067
535.630306	0.190279
535.845857	0.190515
536.061390	0.191228
536.276904	0.191489
536.492401	0.192284
536.707879	0.192510
536.923339	0.193322
537.138781	0.192945
537.354204	0.192724
537.569610	0.193292
537.784997	0.194166
538.000366	0.193893
538.215716	0.194484
538.431049	0.194153
538.646363	0.194075
538.861659	0.193612
539.076937	0.194376
539.292196	0.195323
539.507438	0.195530
539.722661	0.195946
539.937866	0.196493
540.153052	0.196262
540.368221	0.196885
540.583371	0.197986
540.798503	0.198963
541.013617	0.199508
541.228712	0.199869
541.443789	0.199941
541.658848	0.200131
541.873889	0.200849
542.088912	0.201212
542.303916	0.201058
542.518902	0.200470
542.733870	0.200718
542.948820	0.200862
543.163752	0.201123
543.378665	0.202014
543.593560	0.202483
543.808437	0.202887
544.023295	0.202994
544.238136	0.203886
544.452958	0.204388
544.667762	0.204596
544.882548	0.204625
545.097315	0.205484
545.312064	0.205804
545.526795	0.205772
545.741508	0.206189
545.956203	0.206894
546.170879	0.207085
546.385537	0.207636
546.600177	0.207672
546.814799	0.207980
547.029402	0.207517
547.243988	0.208083
547.458555	0.208322
547.673103	0.208592
547.887634	0.208926
548.102146	0.209108
548.316640	0.209146
548.531116	0.209627
548.745574	0.209771
548.960013	0.210442
549.174435	0.210556
549.388838	0.211178
549.603222	0.211441
549.817589	0.211527
550.031937	0.211989
550.246267	0.212811
550.460579	0.213220
550.674873	0.213912
550.889148	0.214401
551.103405	0.214516
551.317644	0.215077
551.531865	0.215150
551.746068	0.215953
551.960252	0.216208
552.174418	0.216100
552.388566	0.216092
552.602696	0.216310
552.816807	0.216430
553.030900	0.216938
553.244975	0.216656
553.459032	0.216621
553.673070	0.216601
553.887091	0.216695
554.101093	0.217345
554.315077	0.218099
554.529042	0.218504
554.742990	0.219010
554.956919	0.218796
555.170830	0.219317
555.384722	0.220137
555.598597	0.219945
555.812453	0.220335
556.026291	0.220094
556.240111	0.220216
556.453913	0.220570
556.667696	0.220751
556.881461	0.221326
557.095208	0.221551
557.308937	0.221528
557.522647	0.222102
557.736339	0.222497
557.950013	0.222885
558.163669	0.222981
558.377307	0.222937
558.590926	0.223288
558.804527	0.223700
559.018110	0.223889
559.231675	0.224034
559.445221	0.224585
559.658749	0.224865
559.872259	0.225021
560.085751	0.225621
560.299225	0.225837
560.512680	0.226037
560.726117	0.226248
560.939536	0.226387
561.152937	0.226985
561.366319	0.227252
561.579683	0.227080
561.793029	0.227711
562.006357	0.227318
562.219667	0.227660
562.432958	0.227513
562.646231	0.227348
562.859486	0.228022
563.072723	0.228482
563.285941	0.228667
563.499141	0.229007
563.712323	0.228990
563.925487	0.229691
564.138632	0.230045
564.351760	0.230679
564.564869	0.231377
564.777960	0.231611
564.991032	0.231416
565.204087	0.231612
565.417123	0.232198
565.630141	0.232726
565.843140	0.232562
566.056122	0.232467
566.269085	0.232304
566.482030	0.232514
566.694957	0.232669
566.907866	0.233045
567.120756	0.233484
567.333628	0.233742
567.546482	0.233810
567.759318	0.234598
567.972135	0.235286
568.184935	0.235841
568.397716	0.236117
568.610478	0.236482
568.823223	0.236703
569.035949	0.236651
569.248657	0.236791
569.461347	0.236881
569.674019	0.237298
569.886672	0.237517
570.099308	0.237829
570.311925	0.237607
570.524523	0.237362
570.737104	0.237594
570.949666	0.237563
571.162210	0.237794
571.374736	0.238496
571.587244	0.238219
571.799733	0.238186
572.012205	0.238141
572.224658	0.238434
572.437092	0.238811
572.649509	0.238788
572.861907	0.239126
573.074287	0.239316
573.286649	0.238914
573.498993	0.239445
573.711318	0.239627
573.923625	0.239493
574.135914	0.239765
574.348185	0.240067
574.560438	0.240951
574.772672	0.241092
574.984888	0.241164
575.197086	0.241639
575.409266	0.241517
575.621427	0.242100
575.833570	0.242793
576.045695	0.242853
576.257802	0.243100
576.469890	0.242733
576.681961	0.243539
576.894013	0.244051
577.106046	0.244669
577.318062	0.245213
577.530059	0.245487
577.742039	0.245791
577.954000	0.246088
578.165942	0.246553
578.377867	0.246662
578.589773	0.246869
578.801661	0.246844
579.013531	0.246526
579.225382	0.246755
579.437216	0.246837
579.649031	0.246754
579.860828	0.247173
580.072606	0.247041
580.284367	0.247808
580.496109	0.248064
580.707833	0.248171
580.919539	0.248488
581.131227	0.248697
581.342896	0.248846
581.554547	0.249401
581.766180	0.249795
581.977795	0.249863
582.189391	0.250110
582.400969	0.250129
582.612529	0.250570
582.824071	0.251101
583.035595	0.251418
583.247100	0.251379
583.458587	0.251638
583.670056	0.251474
583.881506	0.251806
584.092939	0.251997
584.304353	0.252518
584.515749	0.252602
584.727127	0.252410
584.938486	0.252322
585.149828	0.253195
585.361151	0.253539
585.572456	0.254211
585.783742	0.254545
585.995011	0.254514
586.206261	0.254503
586.417493	0.254617
586.628706	0.255433
586.839902	0.255922
587.051079	0.255273
587.262238	0.255319
587.473379	0.255139
587.684502	0.255218
587.895606	0.255985
588.106692	0.256321
588.317760	0.256957
588.528810	0.257205
588.739841	0.257283
588.950855	0.258001
589.161850	0.258025
589.372827	0.258609
589.583785	0.258964
589.794726	0.258930
590.005648	0.259095
590.216552	0.259109
590.427437	0.259259
590.638305	0.259191
590.849154	0.259383
591.059985	0.259892
591.270798	0.260163
591.481592	0.260741
591.692369	0.261005
591.903127	0.260749
592.113867	0.261132
592.324588	0.261529
592.535292	0.261887
592.745977	0.262011
592.956644	0.262027
593.167293	0.261558
593.377923	0.261447
593.588536	0.261404
593.799130	0.262124
594.009706	0.262326
594.220263	0.261724
594.430803	0.261876
594.641324	0.261996
594.851827	0.261845
595.062312	0.262330
595.272778	0.262363
595.483227	0.262398
595.693657	0.262339
595.904069	0.262626
596.114462	0.263067
596.324838	0.263548
596.535195	0.264205
596.745534	0.264983
596.955855	0.265709
597.166157	0.266336
597.376441	0.266701
597.586707	0.267251
597.796955	0.267544
598.007185	0.267866
598.217396	0.267979
598.427589	0.268130
598.637764	0.268255
598.847921	0.268177
599.058060	0.268577
599.268180	0.268889
599.478282	0.269173
599.688366	0.269258
599.898431	0.269695
600.108479	0.269895
600.318508	0.269703
600.528519	0.269975
600.738511	0.269877
600.948486	0.269969
601.158442	0.269934
601.368380	0.269970
601.578300	0.270218
601.788202	0.270246
601.998085	0.270849
602.207950	0.271159
602.417797	0.271471
602.627626	0.271901
602.837436	0.271720
603.047228	0.272063
603.257002	0.272413
603.466758	0.272918
603.676496	0.272775
603.886215	0.272666
604.095916	0.273357
604.305599	0.273302
604.515264	0.273801
604.724910	0.274657
604.934538	0.274815
605.144148	0.274924
605.353740	0.274820
605.563314	0.274974
605.772869	0.275270
605.982406	0.275213
606.191925	0.275328
606.401425	0.275446
606.610908	0.275271
606.820372	0.275299
607.029818	0.275366
607.239246	0.275483
607.448655	0.275972
607.658047	0.276062
607.867420	0.276209
608.076775	0.276517
608.286111	0.276379
608.495430	0.276721
608.704730	0.277314
608.914012	0.277512
609.123275	0.277720
609.332521	0.277809
609.541748	0.277923
609.750957	0.278039
609.960148	0.277997
610.169321	0.278495
610.378475	0.278468
610.587611	0.278237
610.796729	0.278394
611.005829	0.278532
611.214910	0.279037
611.423974	0.279536
611.633019	0.279781
611.842045	0.280225
612.051054	0.280610
612.260044	0.280791
612.469017	0.281177
612.677970	0.281423
612.886906	0.281800
613.095824	0.281911
613.304723	0.282007
613.513604	0.282085
613.722467	0.282346
613.931311	0.282192
614.140138	0.282221
614.348946	0.282655
614.557736	0.282347
614.766507	0.282430
614.975261	0.282354
615.183996	0.282793
615.392713	0.282864
615.601412	0.282930
615.810092	0.283157
616.018754	0.283407
616.227399	0.283419
616.436024	0.283899
616.644632	0.284181
616.853222	0.284330
617.061793	0.284261
617.270346	0.284574
617.478880	0.284760
617.687397	0.284820
617.895895	0.285098
618.104375	0.285494
618.312837	0.286006
618.521281	0.286139
618.729706	0.286685
618.938113	0.286693
619.146502	0.287066
619.354873	0.287318
619.563226	0.287688
619.771560	0.288066
619.979876	0.288170
620.188174	0.288297
620.396453	0.288353
620.604715	0.288572
620.812958	0.288948
621.021183	0.289160
621.229390	0.289112
621.437578	0.289153
621.645748	0.289444
621.853900	0.289575
622.062034	0.289464
622.270150	0.289777
622.478247	0.289840
622.686326	0.289906
622.894387	0.289874
623.102430	0.290229
623.310454	0.290596
623.518461	0.290887
623.726449	0.291251
623.934418	0.291690
624.142370	0.292004
624.350303	0.292201
624.558218	0.292753
624.766115	0.293024
624.973994	0.293388
625.181855	0.293462
625.389697	0.293257
625.597521	0.293422
625.805327	0.293886
626.013114	0.293898
626.220883	0.294183
626.428634	0.294162
626.636367	0.294634
626.844082	0.294705
627.051778	0.295146
627.259457	0.295774
627.467117	0.295999
627.674758	0.295854
627.882382	0.295960
628.089987	0.296237
628.297574	0.296128
628.505143	0.296114
628.712694	0.296557
628.920226	0.296565
629.127740	0.296600
629.335236	0.296623
629.542714	0.296821
629.750174	0.297114
629.957615	0.297258
630.165038	0.297589
630.372443	0.297899
630.579829	0.297891
630.787198	0.298643
630.994548	0.298650
631.201880	0.299091
631.409194	0.299389
631.616489	0.299798
631.823766	0.299980
632.031025	0.300436
632.238266	0.300523
632.445489	0.300831
632.652693	0.300291
632.859879	0.300623
633.067047	0.300405
633.274197	0.300828
633.481329	0.300753
633.688442	0.301073
633.895537	0.301436
634.102614	0.301509
634.309672	0.301721
634.516713	0.302189
634.723735	0.302176
634.930739	0.302403
635.137724	0.302534
635.344692	0.302942
635.551641	0.302859
635.758572	0.302656
635.965485	0.303106
636.172379	0.303353
636.379256	0.303472
636.586114	0.303545
636.792954	0.303924
636.999775	0.303971
637.206579	0.303936
637.413364	0.304197
637.620131	0.304524
637.826880	0.304620
638.033610	0.304465
638.240323	0.304777
638.447017	0.305289
638.653692	0.305715
638.860350	0.306014
639.066990	0.306395
639.273611	0.306448
639.480214	0.306745
639.686798	0.307088
639.893365	0.307663
640.099913	0.307686
640.306443	0.307847
640.512955	0.307791
640.719449	0.308022
640.925924	0.308207
641.132381	0.308762
641.338820	0.308937
641.545241	0.308949
641.751644	0.309098
641.958028	0.309639
642.164394	0.309835
642.370742	0.310467
642.577071	0.310429
642.783383	0.310455
642.989676	0.310448
643.195951	0.310803
643.402207	0.311136
643.608446	0.311123
643.814666	0.311453
644.020868	0.311614
644.227052	0.311659
644.433218	0.312139
644.639365	0.312621
644.845494	0.313139
645.051605	0.313343
645.257698	0.313686
645.463772	0.314521
645.669828	0.314671
645.875866	0.315039
646.081886	0.315266
646.287888	0.315442
646.493871	0.315735
646.699836	0.315715
646.905783	0.315810
647.111712	0.315997
647.317622	0.316061
647.523514	0.316142
647.729388	0.316100
647.935244	0.315868
648.141082	0.316137
648.346901	0.316294
648.552702	0.316760
648.758485	0.317167
648.964250	0.317332
649.169996	0.317422
649.375724	0.317692
649.581434	0.318282
649.787126	0.318725
649.992800	0.319035
650.198455	0.319303
650.404092	0.319518
650.609711	0.319679
650.815311	0.319972
651.020894	0.320205
651.226458	0.320428
651.432004	0.320789
651.637532	0.321422
651.843041	0.321356
652.048532	0.321787
652.254006	0.321870
652.459460	0.322066
652.664897	0.321966
652.870315	0.322330
653.075716	0.322713
653.281097	0.322686
653.486461	0.322723
653.691807	0.323183
653.897134	0.323429
654.102443	0.323752
654.307734	0.323864
654.513006	0.324330
654.718261	0.324470
654.923497	0.324546
655.128715	0.324990
655.333915	0.325245
655.539096	0.325514
655.744259	0.325710
655.949404	0.325957
656.154531	0.326372
656.359640	0.326819
656.564730	0.327112
656.769802	0.327432
656.974856	0.327631
657.179892	0.327775
657.384909	0.328184
657.589908	0.328392
657.794889	0.328617
657.999852	0.329002
658.204797	0.329018
658.409723	0.329359
658.614631	0.329698
658.819521	0.329804
659.024393	0.330171
659.229246	0.330356
659.434081	0.330677
659.638898	0.331022
659.843697	0.331108
660.048478	0.331631
660.253240	0.331727
660.457984	0.332013
660.662710	0.332081
660.867417	0.332416
661.072107	0.332779
661.276778	0.333107
661.481431	0.333439
661.686066	0.333861
661.890682	0.333797
662.095281	0.333961
662.299861	0.334006
662.504422	0.334717
662.708966	0.335270
662.913491	0.335259
663.117999	0.335436
663.322488	0.335447
663.526958	0.335766
663.731411	0.336083
663.935845	0.336611
664.140261	0.336880
664.344659	0.337245
664.549038	0.337465
664.753400	0.337715
664.957743	0.338036
665.162068	0.338696
665.366375	0.339022
665.570663	0.339612
665.774933	0.339727
665.979185	0.339990
666.183419	0.340129
666.387635	0.340016
666.591832	0.340497
666.796011	0.340585
667.000172	0.340771
667.204315	0.340806
667.408439	0.340967
667.612545	0.341206
667.816634	0.341606
668.020703	0.341867
668.224755	0.341972
668.428788	0.342135
668.632803	0.342644
668.836800	0.342770
669.040779	0.342885
669.244739	0.343259
669.448681	0.343803
669.652605	0.344075
669.856511	0.344427
670.060399	0.344860
670.264268	0.345207
670.468119	0.345291
670.671952	0.345602
670.875767	0.346151
671.079563	0.346360
671.283341	0.346308
671.487101	0.346826
671.690843	0.346957
671.894567	0.347517
672.098272	0.347757
672.301959	0.347713
672.505628	0.347807
672.709278	0.347951
672.912911	0.348035
673.116525	0.348436
673.320121	0.348431
673.523699	0.348472
673.727258	0.348482
673.930799	0.348609
674.134322	0.349137
674.337827	0.349647
674.541314	0.349881
674.744782	0.350106
674.948232	0.350335
675.151664	0.350527
675.355078	0.350885
675.558474	0.351159
675.761851	0.351474
675.965210	0.351814
676.168551	0.352237
676.371873	0.352550
676.575178	0.352885
676.778464	0.353202
676.981732	0.353608
677.184981	0.354059
677.388213	0.354273
677.591426	0.354439
677.794621	0.354607
677.997798	0.354501
678.200956	0.354502
678.404097	0.354766
678.607219	0.354784
678.810323	0.354972
679.013408	0.355250
679.216476	0.355622
679.419525	0.356029
679.622556	0.356281
679.825569	0.356716
680.028563	0.357310
680.231540	0.357563
680.434498	0.358000
680.637438	0.358289
680.840359	0.358293
681.043263	0.358398
681.246148	0.358749
681.449015	0.358877
681.651864	0.359072
681.854694	0.359226
682.057506	0.359406
682.260301	0.359896
682.463076	0.360155
682.665834	0.360322
682.868573	0.360781
683.071295	0.361164
683.273998	0.361404
683.476682	0.361500
683.679349	0.361939
683.881997	0.362200
684.084627	0.362408
684.287239	0.362405
684.489833	0.362943
684.692408	0.362982
684.894965	0.362899
685.097504	0.363230
685.300025	0.363647
685.502527	0.363679
685.705012	0.364063
685.907478	0.364124
686.109925	0.364426
686.312355	0.364610
686.514766	0.364792
686.717159	0.365103
686.919534	0.365329
687.121891	0.365433
687.324230	0.365634
687.526550	0.365730
687.728852	0.365948
687.931136	0.366391
688.133401	0.366679
688.335649	0.367074
688.537878	0.367390
688.740089	0.367611
688.942281	0.367938
689.144456	0.368224
689.346612	0.368417
689.548750	0.368526
689.750870	0.368857
689.952971	0.368920
690.155055	0.369140
690.357120	0.369402
690.559167	0.369744
690.761195	0.370161
690.963206	0.370207
691.165198	0.370562
691.367172	0.370790
691.569128	0.370934
691.771065	0.371205
691.972984	0.371528
692.174885	0.371837
692.376768	0.372018
692.578633	0.372038
692.780479	0.372308
692.982308	0.372375
693.184118	0.372755
693.385909	0.373046
