sample name	sample
index	802
start time	 03-31-2021  02:52:07 PM


Wavelength (nm)	Absorbance
494.344910	NaN
494.563924	NaN
494.782919	NaN
495.001897	NaN
495.220856	NaN
495.439797	NaN
495.658719	NaN
495.877624	0.022870
496.096510	-0.306987
496.315378	-0.255910
496.534227	NaN
496.753059	NaN
496.971872	1.273226
497.190667	0.198252
497.409444	0.191154
497.628203	0.185514
497.846943	0.190473
498.065665	0.192369
498.284369	0.191750
498.503055	0.189729
498.721723	0.189515
498.940372	0.188996
499.159003	0.189604
499.377616	0.189335
499.596210	0.190373
499.814787	0.189552
500.033345	0.188506
500.251885	0.188150
500.470406	0.189555
500.688910	0.189205
500.907395	0.190350
501.125862	0.191048
501.344311	0.192162
501.562742	0.191995
501.781154	0.192573
501.999548	0.193002
502.217924	0.192971
502.436282	0.191333
502.654621	0.191022
502.872942	0.190060
503.091245	0.190182
503.309530	0.188711
503.527797	0.189701
503.746045	0.189573
503.964275	0.190619
504.182487	0.191984
504.400681	0.193070
504.618856	0.193643
504.837013	0.194818
505.055152	0.193977
505.273273	0.194411
505.491376	0.195192
505.709460	0.195223
505.927526	0.195016
506.145574	0.195947
506.363604	0.196246
506.581615	0.196145
506.799608	0.195188
507.017583	0.196215
507.235540	0.195837
507.453478	0.195054
507.671399	0.195243
507.889301	0.195139
508.107185	0.193816
508.325050	0.193494
508.542898	0.194235
508.760727	0.195091
508.978538	0.194260
509.196330	0.195103
509.414105	0.195397
509.631861	0.196374
509.849599	0.196796
510.067319	0.197196
510.285021	0.198063
510.502704	0.198215
510.720369	0.198099
510.938016	0.198955
511.155645	0.199034
511.373255	0.199061
511.590848	0.198530
511.808422	0.198203
512.025977	0.197776
512.243515	0.196439
512.461034	0.196652
512.678536	0.196719
512.896018	0.196806
513.113483	0.196986
513.330930	0.196711
513.548358	0.196886
513.765768	0.197998
513.983160	0.199049
514.200533	0.200036
514.417889	0.200507
514.635226	0.201137
514.852545	0.201132
515.069845	0.201016
515.287128	0.201595
515.504392	0.202129
515.721638	0.201348
515.938866	0.200654
516.156075	0.201121
516.373267	0.200769
516.590440	0.201042
516.807594	0.201158
517.024731	0.201395
517.241850	0.201667
517.458950	0.201697
517.676032	0.201971
517.893095	0.202506
518.110141	0.202715
518.327168	0.203269
518.544177	0.203211
518.761168	0.204051
518.978141	0.204233
519.195095	0.204906
519.412031	0.204281
519.628949	0.205261
519.845849	0.206109
520.062731	0.205743
520.279594	0.204804
520.496439	0.204878
520.713266	0.204394
520.930074	0.204694
521.146865	0.204690
521.363637	0.205352
521.580391	0.204802
521.797127	0.204987
522.013844	0.206164
522.230543	0.206953
522.447224	0.206751
522.663887	0.206966
522.880532	0.207709
523.097158	0.208045
523.313766	0.208173
523.530356	0.208540
523.746928	0.207843
523.963481	0.207715
524.180017	0.208389
524.396534	0.209150
524.613032	0.209896
524.829513	0.210039
525.045975	0.210555
525.262420	0.210053
525.478845	0.210243
525.695253	0.211357
525.911643	0.211354
526.128014	0.211508
526.344367	0.212185
526.560702	0.212550
526.777018	0.213350
526.993316	0.213172
527.209597	0.214026
527.425858	0.214367
527.642102	0.214586
527.858328	0.214703
528.074535	0.214871
528.290724	0.215000
528.506894	0.215001
528.723047	0.214640
528.939181	0.214993
529.155297	0.215642
529.371395	0.216289
529.587475	0.216260
529.803536	0.216602
530.019579	0.216856
530.235604	0.216956
530.451611	0.216759
530.667600	0.216997
530.883570	0.217614
531.099522	0.217995
531.315456	0.218230
531.531372	0.218797
531.747269	0.219243
531.963148	0.219608
532.179009	0.219589
532.394852	0.220288
532.610676	0.220635
532.826482	0.220382
533.042271	0.220969
533.258040	0.221417
533.473792	0.222073
533.689525	0.222760
533.905240	0.223169
534.120937	0.223173
534.336616	0.223127
534.552277	0.222863
534.767919	0.223137
534.983543	0.222861
535.199149	0.222307
535.414736	0.221906
535.630306	0.221870
535.845857	0.221667
536.061390	0.222603
536.276904	0.222989
536.492401	0.224161
536.707879	0.224419
536.923339	0.224618
537.138781	0.225087
537.354204	0.225235
537.569610	0.225436
537.784997	0.226655
538.000366	0.226796
538.215716	0.227510
538.431049	0.227972
538.646363	0.228694
538.861659	0.229408
539.076937	0.229962
539.292196	0.231158
539.507438	0.231267
539.722661	0.230843
539.937866	0.231494
540.153052	0.231199
540.368221	0.230780
540.583371	0.231191
540.798503	0.231799
541.013617	0.232200
541.228712	0.231867
541.443789	0.231891
541.658848	0.233020
541.873889	0.233023
542.088912	0.234046
542.303916	0.234212
542.518902	0.234809
542.733870	0.234591
542.948820	0.234275
543.163752	0.234378
543.378665	0.235371
543.593560	0.234722
543.808437	0.234654
544.023295	0.234609
544.238136	0.235180
544.452958	0.234608
544.667762	0.234638
544.882548	0.235125
545.097315	0.236123
545.312064	0.236363
545.526795	0.237085
545.741508	0.237799
545.956203	0.237634
546.170879	0.238198
546.385537	0.238361
546.600177	0.239039
546.814799	0.239102
547.029402	0.238519
547.243988	0.238559
547.458555	0.238916
547.673103	0.238826
547.887634	0.239365
548.102146	0.239119
548.316640	0.239616
548.531116	0.239557
548.745574	0.240563
548.960013	0.241000
549.174435	0.240889
549.388838	0.240924
549.603222	0.241159
549.817589	0.241580
550.031937	0.242294
550.246267	0.242101
550.460579	0.242746
550.674873	0.243521
550.889148	0.243467
551.103405	0.243945
551.317644	0.244077
551.531865	0.244364
551.746068	0.244314
551.960252	0.244373
552.174418	0.244997
552.388566	0.244882
552.602696	0.244515
552.816807	0.244938
553.030900	0.245467
553.244975	0.245587
553.459032	0.245833
553.673070	0.246197
553.887091	0.246234
554.101093	0.246423
554.315077	0.246573
554.529042	0.246494
554.742990	0.246875
554.956919	0.246815
555.170830	0.246988
555.384722	0.247049
555.598597	0.247239
555.812453	0.247212
556.026291	0.247520
556.240111	0.247573
556.453913	0.247693
556.667696	0.248042
556.881461	0.248129
557.095208	0.248128
557.308937	0.248473
557.522647	0.249018
557.736339	0.249713
557.950013	0.249962
558.163669	0.250596
558.377307	0.250555
558.590926	0.250620
558.804527	0.250919
559.018110	0.251142
559.231675	0.251463
559.445221	0.251287
559.658749	0.251255
559.872259	0.251379
560.085751	0.251354
560.299225	0.251681
560.512680	0.251922
560.726117	0.251768
560.939536	0.252253
561.152937	0.252043
561.366319	0.252649
561.579683	0.252827
561.793029	0.252973
562.006357	0.252867
562.219667	0.253174
562.432958	0.252957
562.646231	0.253615
562.859486	0.253786
563.072723	0.254263
563.285941	0.254168
563.499141	0.254324
563.712323	0.254407
563.925487	0.254703
564.138632	0.254560
564.351760	0.254897
564.564869	0.255130
564.777960	0.255115
564.991032	0.255083
565.204087	0.255364
565.417123	0.254908
565.630141	0.254974
565.843140	0.255457
566.056122	0.255764
566.269085	0.255749
566.482030	0.255678
566.694957	0.256170
566.907866	0.256668
567.120756	0.256300
567.333628	0.256809
567.546482	0.257087
567.759318	0.257097
567.972135	0.257097
568.184935	0.257199
568.397716	0.257386
568.610478	0.257515
568.823223	0.257302
569.035949	0.257566
569.248657	0.258045
569.461347	0.258057
569.674019	0.258280
569.886672	0.258638
570.099308	0.259148
570.311925	0.259145
570.524523	0.259215
570.737104	0.259619
570.949666	0.259828
571.162210	0.259864
571.374736	0.259896
571.587244	0.260097
571.799733	0.260392
572.012205	0.260825
572.224658	0.260868
572.437092	0.260455
572.649509	0.260421
572.861907	0.260751
573.074287	0.260580
573.286649	0.261263
573.498993	0.261080
573.711318	0.261039
573.923625	0.261092
574.135914	0.261606
574.348185	0.262382
574.560438	0.262702
574.772672	0.262732
574.984888	0.262869
575.197086	0.262791
575.409266	0.263395
575.621427	0.263908
575.833570	0.263784
576.045695	0.263666
576.257802	0.263787
576.469890	0.263623
576.681961	0.263798
576.894013	0.264411
577.106046	0.264716
577.318062	0.264982
577.530059	0.264860
577.742039	0.264726
577.954000	0.265383
578.165942	0.265529
578.377867	0.265729
578.589773	0.266305
578.801661	0.266208
579.013531	0.265982
579.225382	0.265761
579.437216	0.265936
579.649031	0.266623
579.860828	0.266284
580.072606	0.266387
580.284367	0.266827
580.496109	0.266528
580.707833	0.266776
580.919539	0.266797
581.131227	0.266725
581.342896	0.266786
581.554547	0.266591
581.766180	0.266729
581.977795	0.266851
582.189391	0.266681
582.400969	0.266580
582.612529	0.266858
582.824071	0.266861
583.035595	0.267548
583.247100	0.267565
583.458587	0.267767
583.670056	0.268358
583.881506	0.268433
584.092939	0.268623
584.304353	0.268716
584.515749	0.268961
584.727127	0.269829
584.938486	0.269931
585.149828	0.270437
585.361151	0.270568
585.572456	0.270727
585.783742	0.270634
585.995011	0.270741
586.206261	0.271357
586.417493	0.270920
586.628706	0.270523
586.839902	0.270316
587.051079	0.270170
587.262238	0.270164
587.473379	0.269453
587.684502	0.269819
587.895606	0.269937
588.106692	0.269928
588.317760	0.270445
588.528810	0.270820
588.739841	0.270753
588.950855	0.270856
589.161850	0.271189
589.372827	0.271643
589.583785	0.271736
589.794726	0.272260
590.005648	0.272211
590.216552	0.272157
590.427437	0.272070
590.638305	0.272504
590.849154	0.272791
591.059985	0.272752
591.270798	0.273017
591.481592	0.273350
591.692369	0.273349
591.903127	0.273564
592.113867	0.274100
592.324588	0.274240
592.535292	0.274224
592.745977	0.274182
592.956644	0.274241
593.167293	0.274799
593.377923	0.274876
593.588536	0.274605
593.799130	0.274853
594.009706	0.274944
594.220263	0.275245
594.430803	0.275616
594.641324	0.275730
594.851827	0.275956
595.062312	0.275675
595.272778	0.275678
595.483227	0.275952
595.693657	0.276118
595.904069	0.275853
596.114462	0.276158
596.324838	0.275974
596.535195	0.276161
596.745534	0.276772
596.955855	0.276871
597.166157	0.277234
597.376441	0.277688
597.586707	0.277955
597.796955	0.278178
598.007185	0.277991
598.217396	0.278221
598.427589	0.278017
598.637764	0.278172
598.847921	0.278450
599.058060	0.278766
599.268180	0.278854
599.478282	0.278955
599.688366	0.279316
599.898431	0.279960
600.108479	0.280188
600.318508	0.281194
600.528519	0.281382
600.738511	0.281426
600.948486	0.281319
601.158442	0.281254
601.368380	0.281403
601.578300	0.281319
601.788202	0.281008
601.998085	0.281113
602.207950	0.280665
602.417797	0.280517
602.627626	0.280417
602.837436	0.280360
603.047228	0.280482
603.257002	0.280659
603.466758	0.280898
603.676496	0.281357
603.886215	0.281426
604.095916	0.281684
604.305599	0.281648
604.515264	0.282065
604.724910	0.281994
604.934538	0.282410
605.144148	0.282336
605.353740	0.282492
605.563314	0.282017
605.772869	0.282157
605.982406	0.282331
606.191925	0.282389
606.401425	0.282297
606.610908	0.282987
606.820372	0.282906
607.029818	0.283154
607.239246	0.283219
607.448655	0.283637
607.658047	0.283546
607.867420	0.283355
608.076775	0.283799
608.286111	0.284198
608.495430	0.284044
608.704730	0.284130
608.914012	0.284281
609.123275	0.284044
609.332521	0.283881
609.541748	0.284019
609.750957	0.284359
609.960148	0.284383
610.169321	0.284359
610.378475	0.284370
610.587611	0.284209
610.796729	0.284176
611.005829	0.284401
611.214910	0.284816
611.423974	0.284818
611.633019	0.285011
611.842045	0.284831
612.051054	0.285324
612.260044	0.285506
612.469017	0.285693
612.677970	0.285600
612.886906	0.286193
613.095824	0.286461
613.304723	0.286771
613.513604	0.286766
613.722467	0.287089
613.931311	0.286864
614.140138	0.286895
614.348946	0.287330
614.557736	0.287485
614.766507	0.287196
614.975261	0.287021
615.183996	0.287527
615.392713	0.287505
615.601412	0.287464
615.810092	0.287422
616.018754	0.287491
616.227399	0.287294
616.436024	0.287537
616.644632	0.287613
616.853222	0.287957
617.061793	0.287787
617.270346	0.287901
617.478880	0.287979
617.687397	0.288329
617.895895	0.288406
618.104375	0.288862
618.312837	0.289205
618.521281	0.289379
618.729706	0.289324
618.938113	0.289576
619.146502	0.290211
619.354873	0.290316
619.563226	0.290370
619.771560	0.290711
619.979876	0.290532
620.188174	0.290337
620.396453	0.290667
620.604715	0.291031
620.812958	0.291363
621.021183	0.291313
621.229390	0.291712
621.437578	0.291710
621.645748	0.291955
621.853900	0.292172
622.062034	0.292226
622.270150	0.292413
622.478247	0.292313
622.686326	0.292199
622.894387	0.291978
623.102430	0.291999
623.310454	0.291882
623.518461	0.291749
623.726449	0.291991
623.934418	0.292172
624.142370	0.292122
624.350303	0.292328
624.558218	0.292142
624.766115	0.292225
624.973994	0.292060
625.181855	0.292478
625.389697	0.292647
625.597521	0.292555
625.805327	0.292773
626.013114	0.292757
626.220883	0.293024
626.428634	0.293167
626.636367	0.293646
626.844082	0.293899
627.051778	0.293803
627.259457	0.293792
627.467117	0.294146
627.674758	0.294074
627.882382	0.294322
628.089987	0.293866
628.297574	0.294047
628.505143	0.293823
628.712694	0.294021
628.920226	0.294277
629.127740	0.294369
629.335236	0.294190
629.542714	0.294522
629.750174	0.294703
629.957615	0.295154
630.165038	0.295522
630.372443	0.295634
630.579829	0.295710
630.787198	0.295743
630.994548	0.296005
631.201880	0.296442
631.409194	0.296416
631.616489	0.296193
631.823766	0.296405
632.031025	0.296358
632.238266	0.296543
632.445489	0.296828
632.652693	0.297008
632.859879	0.297206
633.067047	0.297383
633.274197	0.297537
633.481329	0.298064
633.688442	0.298398
633.895537	0.298711
634.102614	0.299305
634.309672	0.299443
634.516713	0.299709
634.723735	0.299933
634.930739	0.299949
635.137724	0.300306
635.344692	0.300163
635.551641	0.300261
635.758572	0.300085
635.965485	0.300110
636.172379	0.300202
636.379256	0.300214
636.586114	0.300060
636.792954	0.300132
636.999775	0.300215
637.206579	0.300529
637.413364	0.300642
637.620131	0.300658
637.826880	0.300766
638.033610	0.300838
638.240323	0.300780
638.447017	0.301136
638.653692	0.301153
638.860350	0.301104
639.066990	0.301073
639.273611	0.300943
639.480214	0.301200
639.686798	0.301020
639.893365	0.301211
640.099913	0.301531
640.306443	0.301567
640.512955	0.301739
640.719449	0.301940
640.925924	0.302330
641.132381	0.302677
641.338820	0.302901
641.545241	0.303111
641.751644	0.303118
641.958028	0.303163
642.164394	0.303430
642.370742	0.303681
642.577071	0.303856
642.783383	0.303749
642.989676	0.303561
643.195951	0.303646
643.402207	0.303710
643.608446	0.303888
643.814666	0.304245
644.020868	0.303974
644.227052	0.304077
644.433218	0.304101
644.639365	0.304161
644.845494	0.304256
645.051605	0.304381
645.257698	0.304554
645.463772	0.304455
645.669828	0.304430
645.875866	0.304837
646.081886	0.304863
646.287888	0.304980
646.493871	0.305191
646.699836	0.305518
646.905783	0.305720
647.111712	0.305762
647.317622	0.305930
647.523514	0.306090
647.729388	0.305918
647.935244	0.306035
648.141082	0.306493
648.346901	0.306650
648.552702	0.306856
648.758485	0.306774
648.964250	0.307165
649.169996	0.307624
649.375724	0.307693
649.581434	0.308168
649.787126	0.308494
649.992800	0.308385
650.198455	0.308342
650.404092	0.308266
650.609711	0.308726
650.815311	0.308609
651.020894	0.308836
651.226458	0.309049
651.432004	0.309373
651.637532	0.309243
651.843041	0.309165
652.048532	0.309427
652.254006	0.309450
652.459460	0.309616
652.664897	0.309721
652.870315	0.309612
653.075716	0.309899
653.281097	0.309712
653.486461	0.310118
653.691807	0.310232
653.897134	0.310314
654.102443	0.310797
654.307734	0.310886
654.513006	0.311038
654.718261	0.311169
654.923497	0.311301
655.128715	0.311468
655.333915	0.311472
655.539096	0.311959
655.744259	0.312150
655.949404	0.312243
656.154531	0.312510
656.359640	0.312905
656.564730	0.313356
656.769802	0.313440
656.974856	0.313781
657.179892	0.314376
657.384909	0.314441
657.589908	0.314763
657.794889	0.314938
657.999852	0.315101
658.204797	0.315207
658.409723	0.315161
658.614631	0.315268
658.819521	0.315379
659.024393	0.315087
659.229246	0.315082
659.434081	0.314968
659.638898	0.314925
659.843697	0.314644
660.048478	0.314776
660.253240	0.314877
660.457984	0.315155
660.662710	0.315188
660.867417	0.315465
661.072107	0.315892
661.276778	0.316352
661.481431	0.316621
661.686066	0.317017
661.890682	0.317169
662.095281	0.317353
662.299861	0.317395
662.504422	0.317590
662.708966	0.317476
662.913491	0.317637
663.117999	0.317711
663.322488	0.317944
663.526958	0.318323
663.731411	0.318268
663.935845	0.318204
664.140261	0.318491
664.344659	0.318631
664.549038	0.319006
664.753400	0.318959
664.957743	0.319234
665.162068	0.319388
665.366375	0.319338
665.570663	0.319662
665.774933	0.320320
665.979185	0.320521
666.183419	0.320528
666.387635	0.320685
666.591832	0.321151
666.796011	0.321288
667.000172	0.321642
667.204315	0.321873
667.408439	0.322029
667.612545	0.321998
667.816634	0.322110
668.020703	0.322325
668.224755	0.322609
668.428788	0.322511
668.632803	0.322580
668.836800	0.322495
669.040779	0.322647
669.244739	0.322720
669.448681	0.322766
669.652605	0.323066
669.856511	0.323181
670.060399	0.323252
670.264268	0.323221
670.468119	0.323217
670.671952	0.323283
670.875767	0.323233
671.079563	0.323697
671.283341	0.323582
671.487101	0.323596
671.690843	0.323970
671.894567	0.324113
672.098272	0.324509
672.301959	0.324928
672.505628	0.325111
672.709278	0.325448
672.912911	0.325445
673.116525	0.325830
673.320121	0.325948
673.523699	0.326049
673.727258	0.326233
673.930799	0.326382
674.134322	0.326581
674.337827	0.326723
674.541314	0.326734
674.744782	0.326783
674.948232	0.327004
675.151664	0.327210
675.355078	0.327338
675.558474	0.327495
675.761851	0.327512
675.965210	0.327582
676.168551	0.327623
676.371873	0.328085
676.575178	0.328362
676.778464	0.328517
676.981732	0.328669
677.184981	0.328867
677.388213	0.329166
677.591426	0.329451
677.794621	0.329647
677.997798	0.330213
678.200956	0.330152
678.404097	0.330489
678.607219	0.330894
678.810323	0.331052
679.013408	0.331282
679.216476	0.331487
679.419525	0.331495
679.622556	0.331770
679.825569	0.331792
680.028563	0.332055
680.231540	0.332178
680.434498	0.332304
680.637438	0.332294
680.840359	0.332281
681.043263	0.332330
681.246148	0.332729
681.449015	0.332712
681.651864	0.332818
681.854694	0.332614
682.057506	0.332840
682.260301	0.333037
682.463076	0.333321
682.665834	0.333786
682.868573	0.333843
683.071295	0.333933
683.273998	0.333858
683.476682	0.334047
683.679349	0.334621
683.881997	0.334900
684.084627	0.335007
684.287239	0.335025
684.489833	0.334885
684.692408	0.335151
684.894965	0.335243
685.097504	0.335822
685.300025	0.335913
685.502527	0.335860
685.705012	0.335660
685.907478	0.335365
686.109925	0.335683
686.312355	0.335864
686.514766	0.336003
686.717159	0.336121
686.919534	0.336075
687.121891	0.336319
687.324230	0.336728
687.526550	0.337158
687.728852	0.337579
687.931136	0.337807
688.133401	0.337963
688.335649	0.337976
688.537878	0.338340
688.740089	0.338527
688.942281	0.338752
689.144456	0.338806
689.346612	0.338772
689.548750	0.338771
689.750870	0.339019
689.952971	0.339117
690.155055	0.339324
690.357120	0.339553
690.559167	0.339751
690.761195	0.339677
690.963206	0.339618
691.165198	0.339735
691.367172	0.340153
691.569128	0.340188
691.771065	0.340710
691.972984	0.340942
692.174885	0.340727
692.376768	0.340703
692.578633	0.340928
692.780479	0.341034
692.982308	0.341147
693.184118	0.341313
693.385909	0.341169
693.587683	0.341026
693.789438	0.340897
