sample name	sample
index	1092
start time	 04-22-2021  11:48:25 AM


Wavelength (nm)	Absorbance
494.344910	0.004519
494.563924	0.004519
494.782919	0.004519
495.001897	-0.026721
495.220856	0.034672
495.439797	0.094085
495.658719	0.051733
495.877624	0.104703
496.096510	0.106798
496.315378	0.085163
496.534227	0.075897
496.753059	0.027369
496.971872	0.033341
497.190667	0.068487
497.409444	0.058168
497.628203	0.066321
497.846943	0.065129
498.065665	0.067331
498.284369	0.067121
498.503055	0.067883
498.721723	0.068942
498.940372	0.067832
499.159003	0.067785
499.377616	0.069504
499.596210	0.067833
499.814787	0.068166
500.033345	0.068154
500.251885	0.069321
500.470406	0.069193
500.688910	0.068493
500.907395	0.069808
501.125862	0.069222
501.344311	0.069145
501.562742	0.070522
501.781154	0.070752
501.999548	0.070381
502.217924	0.069838
502.436282	0.069229
502.654621	0.069510
502.872942	0.068508
503.091245	0.066868
503.309530	0.066199
503.527797	0.066204
503.746045	0.066828
503.964275	0.067139
504.182487	0.066458
504.400681	0.066899
504.618856	0.066773
504.837013	0.067500
505.055152	0.069277
505.273273	0.070140
505.491376	0.070040
505.709460	0.068150
505.927526	0.068139
506.145574	0.069052
506.363604	0.069935
506.581615	0.070571
506.799608	0.070234
507.017583	0.069955
507.235540	0.069417
507.453478	0.069516
507.671399	0.070566
507.889301	0.070409
508.107185	0.069617
508.325050	0.069115
508.542898	0.069634
508.760727	0.070226
508.978538	0.070517
509.196330	0.071934
509.414105	0.072301
509.631861	0.072433
509.849599	0.072675
510.067319	0.073545
510.285021	0.073834
510.502704	0.074311
510.720369	0.075026
510.938016	0.075282
511.155645	0.074291
511.373255	0.073947
511.590848	0.073231
511.808422	0.073025
512.025977	0.072868
512.243515	0.073368
512.461034	0.072264
512.678536	0.071827
512.896018	0.071851
513.113483	0.071704
513.330930	0.071724
513.548358	0.072944
513.765768	0.072541
513.983160	0.072666
514.200533	0.072452
514.417889	0.072762
514.635226	0.072529
514.852545	0.072816
515.069845	0.072915
515.287128	0.072461
515.504392	0.072407
515.721638	0.072490
515.938866	0.071950
516.156075	0.072670
516.373267	0.073176
516.590440	0.073272
516.807594	0.073180
517.024731	0.073642
517.241850	0.074764
517.458950	0.074408
517.676032	0.075029
517.893095	0.075243
518.110141	0.075337
518.327168	0.074901
518.544177	0.075605
518.761168	0.075607
518.978141	0.075123
519.195095	0.074390
519.412031	0.074490
519.628949	0.074457
519.845849	0.074475
520.062731	0.074210
520.279594	0.074317
520.496439	0.074745
520.713266	0.074749
520.930074	0.075370
521.146865	0.076282
521.363637	0.076753
521.580391	0.077175
521.797127	0.077494
522.013844	0.076839
522.230543	0.076887
522.447224	0.076558
522.663887	0.077045
522.880532	0.077531
523.097158	0.076711
523.313766	0.076775
523.530356	0.076886
523.746928	0.077310
523.963481	0.077282
524.180017	0.077353
524.396534	0.077975
524.613032	0.078385
524.829513	0.077913
525.045975	0.078527
525.262420	0.078546
525.478845	0.079145
525.695253	0.079198
525.911643	0.079764
526.128014	0.080389
526.344367	0.080164
526.560702	0.079667
526.777018	0.079988
526.993316	0.080060
527.209597	0.080229
527.425858	0.079563
527.642102	0.079496
527.858328	0.080153
528.074535	0.080308
528.290724	0.080806
528.506894	0.081460
528.723047	0.081735
528.939181	0.081788
529.155297	0.081879
529.371395	0.082455
529.587475	0.082735
529.803536	0.082908
530.019579	0.083071
530.235604	0.082773
530.451611	0.083421
530.667600	0.083980
530.883570	0.084211
531.099522	0.084523
531.315456	0.084488
531.531372	0.084793
531.747269	0.084228
531.963148	0.084451
532.179009	0.085006
532.394852	0.083985
532.610676	0.084136
532.826482	0.084623
533.042271	0.084621
533.258040	0.084758
533.473792	0.084973
533.689525	0.085325
533.905240	0.085523
534.120937	0.084905
534.336616	0.085857
534.552277	0.085372
534.767919	0.085576
534.983543	0.086151
535.199149	0.086339
535.414736	0.086530
535.630306	0.087175
535.845857	0.087176
536.061390	0.087535
536.276904	0.087659
536.492401	0.087827
536.707879	0.087767
536.923339	0.087604
537.138781	0.088104
537.354204	0.088181
537.569610	0.087883
537.784997	0.087830
538.000366	0.088417
538.215716	0.088136
538.431049	0.088465
538.646363	0.088822
538.861659	0.089339
539.076937	0.089168
539.292196	0.089135
539.507438	0.089991
539.722661	0.090329
539.937866	0.090548
540.153052	0.090672
540.368221	0.090467
540.583371	0.090311
540.798503	0.090585
541.013617	0.090900
541.228712	0.091077
541.443789	0.091245
541.658848	0.091182
541.873889	0.090873
542.088912	0.091512
542.303916	0.092144
542.518902	0.092157
542.733870	0.092354
542.948820	0.092114
543.163752	0.092580
543.378665	0.092222
543.593560	0.092258
543.808437	0.092286
544.023295	0.091958
544.238136	0.091757
544.452958	0.092118
544.667762	0.091848
544.882548	0.092171
545.097315	0.092120
545.312064	0.092005
545.526795	0.091854
545.741508	0.092266
545.956203	0.092364
546.170879	0.092816
546.385537	0.092877
546.600177	0.093244
546.814799	0.093162
547.029402	0.093819
547.243988	0.094209
547.458555	0.094558
547.673103	0.094441
547.887634	0.094448
548.102146	0.094806
548.316640	0.095528
548.531116	0.095414
548.745574	0.095604
548.960013	0.095290
549.174435	0.095497
549.388838	0.096055
549.603222	0.096047
549.817589	0.096029
550.031937	0.096217
550.246267	0.096028
550.460579	0.095880
550.674873	0.096409
550.889148	0.096511
551.103405	0.096336
551.317644	0.096030
551.531865	0.096194
551.746068	0.096837
551.960252	0.096426
552.174418	0.096712
552.388566	0.096946
552.602696	0.096803
552.816807	0.096982
553.030900	0.096802
553.244975	0.096857
553.459032	0.096934
553.673070	0.096759
553.887091	0.096889
554.101093	0.096384
554.315077	0.096378
554.529042	0.095857
554.742990	0.095717
554.956919	0.096199
555.170830	0.095964
555.384722	0.096752
555.598597	0.096674
555.812453	0.096592
556.026291	0.096660
556.240111	0.097035
556.453913	0.097643
556.667696	0.097446
556.881461	0.097514
557.095208	0.097930
557.308937	0.097342
557.522647	0.097184
557.736339	0.097168
557.950013	0.096966
558.163669	0.096828
558.377307	0.097036
558.590926	0.097619
558.804527	0.097965
559.018110	0.098210
559.231675	0.098501
559.445221	0.098730
559.658749	0.098953
559.872259	0.099247
560.085751	0.099306
560.299225	0.099207
560.512680	0.098793
560.726117	0.098313
560.939536	0.098113
561.152937	0.098123
561.366319	0.098514
561.579683	0.098644
561.793029	0.098745
562.006357	0.098385
562.219667	0.098350
562.432958	0.098374
562.646231	0.098566
562.859486	0.099044
563.072723	0.098840
563.285941	0.098629
563.499141	0.098669
563.712323	0.098717
563.925487	0.098887
564.138632	0.098826
564.351760	0.099056
564.564869	0.098790
564.777960	0.098331
564.991032	0.098395
565.204087	0.098549
565.417123	0.098743
565.630141	0.098723
565.843140	0.099174
566.056122	0.098964
566.269085	0.099000
566.482030	0.099261
566.694957	0.099637
566.907866	0.099842
567.120756	0.100027
567.333628	0.099839
567.546482	0.099866
567.759318	0.099791
567.972135	0.100361
568.184935	0.100472
568.397716	0.100518
568.610478	0.100389
568.823223	0.100472
569.035949	0.100581
569.248657	0.100840
569.461347	0.101135
569.674019	0.100800
569.886672	0.100748
570.099308	0.100754
570.311925	0.101098
570.524523	0.101332
570.737104	0.101488
570.949666	0.101368
571.162210	0.101283
571.374736	0.101114
571.587244	0.101394
571.799733	0.101463
572.012205	0.101393
572.224658	0.100912
572.437092	0.100865
572.649509	0.100914
572.861907	0.100955
573.074287	0.100963
573.286649	0.101375
573.498993	0.101584
573.711318	0.101698
573.923625	0.102247
574.135914	0.103047
574.348185	0.103080
574.560438	0.103139
574.772672	0.103518
574.984888	0.103559
575.197086	0.103371
575.409266	0.103005
575.621427	0.103199
575.833570	0.102848
576.045695	0.102407
576.257802	0.102581
576.469890	0.102390
576.681961	0.102046
576.894013	0.102196
577.106046	0.102211
577.318062	0.102335
577.530059	0.101890
577.742039	0.101474
577.954000	0.101406
578.165942	0.101080
578.377867	0.101557
578.589773	0.101744
578.801661	0.101673
579.013531	0.101870
579.225382	0.102281
579.437216	0.102431
579.649031	0.103061
579.860828	0.103468
580.072606	0.103773
580.284367	0.103478
580.496109	0.103303
580.707833	0.103178
580.919539	0.102919
581.131227	0.102954
581.342896	0.102995
581.554547	0.102960
581.766180	0.102802
581.977795	0.102703
582.189391	0.102848
582.400969	0.102840
582.612529	0.103242
582.824071	0.103410
583.035595	0.103336
583.247100	0.103846
583.458587	0.103899
583.670056	0.104037
583.881506	0.104365
584.092939	0.104362
584.304353	0.104726
584.515749	0.104579
584.727127	0.104634
584.938486	0.105079
585.149828	0.104700
585.361151	0.104902
585.572456	0.104903
585.783742	0.104721
585.995011	0.104619
586.206261	0.104456
586.417493	0.104565
586.628706	0.104658
586.839902	0.104346
587.051079	0.104516
587.262238	0.104494
587.473379	0.104453
587.684502	0.104532
587.895606	0.104932
588.106692	0.105148
588.317760	0.105173
588.528810	0.105011
588.739841	0.105001
588.950855	0.104846
589.161850	0.104548
589.372827	0.104622
589.583785	0.104803
589.794726	0.104781
590.005648	0.104820
590.216552	0.104888
590.427437	0.105015
590.638305	0.105422
590.849154	0.105449
591.059985	0.105866
591.270798	0.106122
591.481592	0.106388
591.692369	0.106448
591.903127	0.106756
592.113867	0.106855
592.324588	0.107377
592.535292	0.107208
592.745977	0.107834
592.956644	0.107894
593.167293	0.108019
593.377923	0.107764
593.588536	0.107934
593.799130	0.108161
594.009706	0.108038
594.220263	0.107758
594.430803	0.107774
594.641324	0.107290
594.851827	0.107285
595.062312	0.106886
595.272778	0.106849
595.483227	0.106400
595.693657	0.106104
595.904069	0.106072
596.114462	0.106119
596.324838	0.106040
596.535195	0.106230
596.745534	0.106366
596.955855	0.106686
597.166157	0.106707
597.376441	0.106797
597.586707	0.106940
597.796955	0.107405
598.007185	0.107745
598.217396	0.107890
598.427589	0.108016
598.637764	0.108001
598.847921	0.108242
599.058060	0.108467
599.268180	0.108847
599.478282	0.108777
599.688366	0.108889
599.898431	0.108803
600.108479	0.108978
600.318508	0.108874
600.528519	0.108711
600.738511	0.108519
600.948486	0.108842
601.158442	0.108934
601.368380	0.108785
601.578300	0.108553
601.788202	0.108424
601.998085	0.108325
602.207950	0.108429
602.417797	0.108873
602.627626	0.108944
602.837436	0.108663
603.047228	0.108592
603.257002	0.108594
603.466758	0.108671
603.676496	0.108567
603.886215	0.108402
604.095916	0.108601
604.305599	0.108363
604.515264	0.108558
604.724910	0.108624
604.934538	0.108654
605.144148	0.108817
605.353740	0.109074
605.563314	0.109123
605.772869	0.109673
605.982406	0.109732
606.191925	0.109867
606.401425	0.110132
606.610908	0.110190
606.820372	0.110414
607.029818	0.110705
607.239246	0.110453
607.448655	0.110845
607.658047	0.110839
607.867420	0.110658
608.076775	0.110843
608.286111	0.110387
608.495430	0.110385
608.704730	0.110090
608.914012	0.110020
609.123275	0.110262
609.332521	0.110165
609.541748	0.110152
609.750957	0.110542
609.960148	0.110515
610.169321	0.110815
610.378475	0.111028
610.587611	0.111210
610.796729	0.111274
611.005829	0.111030
611.214910	0.111221
611.423974	0.111203
611.633019	0.111112
611.842045	0.111130
612.051054	0.111145
612.260044	0.111059
612.469017	0.111039
612.677970	0.110887
612.886906	0.111018
613.095824	0.111047
613.304723	0.110899
613.513604	0.110945
613.722467	0.111120
613.931311	0.111233
614.140138	0.111396
614.348946	0.111433
614.557736	0.111441
614.766507	0.111661
614.975261	0.111604
615.183996	0.111977
615.392713	0.112136
615.601412	0.112178
615.810092	0.112164
616.018754	0.112287
616.227399	0.112408
616.436024	0.112551
616.644632	0.112699
616.853222	0.112805
617.061793	0.112742
617.270346	0.112739
617.478880	0.112635
617.687397	0.112560
617.895895	0.112629
618.104375	0.112984
618.312837	0.113093
618.521281	0.113084
618.729706	0.113145
618.938113	0.113278
619.146502	0.113365
619.354873	0.113303
619.563226	0.113626
619.771560	0.113381
619.979876	0.113138
620.188174	0.113084
620.396453	0.112934
620.604715	0.113222
620.812958	0.112869
621.021183	0.112960
621.229390	0.113212
621.437578	0.113070
621.645748	0.113059
621.853900	0.113362
622.062034	0.113539
622.270150	0.113655
622.478247	0.113604
622.686326	0.113799
622.894387	0.113586
623.102430	0.113600
623.310454	0.113629
623.518461	0.113854
623.726449	0.113647
623.934418	0.113778
624.142370	0.114095
624.350303	0.114021
624.558218	0.114356
624.766115	0.114574
624.973994	0.114510
625.181855	0.114399
625.389697	0.114553
625.597521	0.114571
625.805327	0.114582
626.013114	0.114392
626.220883	0.114331
626.428634	0.114226
626.636367	0.114356
626.844082	0.114899
627.051778	0.115492
627.259457	0.115731
627.467117	0.115931
627.674758	0.115862
627.882382	0.116250
628.089987	0.116510
628.297574	0.116662
628.505143	0.116603
628.712694	0.116234
628.920226	0.116232
629.127740	0.115980
629.335236	0.116173
629.542714	0.116405
629.750174	0.116663
629.957615	0.116663
630.165038	0.116761
630.372443	0.117028
630.579829	0.117286
630.787198	0.117233
630.994548	0.117530
631.201880	0.117496
631.409194	0.117378
631.616489	0.117244
631.823766	0.117280
632.031025	0.117424
632.238266	0.117404
632.445489	0.117299
632.652693	0.117230
632.859879	0.117167
633.067047	0.117262
633.274197	0.117510
633.481329	0.117487
633.688442	0.117437
633.895537	0.117532
634.102614	0.117760
634.309672	0.117733
634.516713	0.118009
634.723735	0.118302
634.930739	0.118115
635.137724	0.118209
635.344692	0.118287
635.551641	0.118498
635.758572	0.118353
635.965485	0.118330
636.172379	0.118587
636.379256	0.118502
636.586114	0.118294
636.792954	0.118573
636.999775	0.118469
637.206579	0.118176
637.413364	0.118250
637.620131	0.118392
637.826880	0.118244
638.033610	0.118042
638.240323	0.117925
638.447017	0.118134
638.653692	0.118307
638.860350	0.118443
639.066990	0.118757
639.273611	0.118829
639.480214	0.119195
639.686798	0.119262
639.893365	0.119570
640.099913	0.119902
640.306443	0.120136
640.512955	0.120080
640.719449	0.120340
640.925924	0.120597
641.132381	0.120869
641.338820	0.120838
641.545241	0.120943
641.751644	0.121032
641.958028	0.121246
642.164394	0.120921
642.370742	0.120933
642.577071	0.120892
642.783383	0.120943
642.989676	0.120810
643.195951	0.120830
643.402207	0.120846
643.608446	0.120759
643.814666	0.120614
644.020868	0.120908
644.227052	0.121130
644.433218	0.121266
644.639365	0.121300
644.845494	0.121191
645.051605	0.121140
645.257698	0.121260
645.463772	0.121499
645.669828	0.121668
645.875866	0.121737
646.081886	0.121895
646.287888	0.122052
646.493871	0.121888
646.699836	0.122414
646.905783	0.122615
647.111712	0.123036
647.317622	0.123454
647.523514	0.123681
647.729388	0.123724
647.935244	0.123708
648.141082	0.123822
648.346901	0.124187
648.552702	0.124140
648.758485	0.124271
648.964250	0.124123
649.169996	0.123850
649.375724	0.123882
649.581434	0.124122
649.787126	0.124274
649.992800	0.124472
650.198455	0.124547
650.404092	0.124696
650.609711	0.124600
650.815311	0.124721
651.020894	0.124941
651.226458	0.124840
651.432004	0.124982
651.637532	0.125053
651.843041	0.125058
652.048532	0.125326
652.254006	0.125437
652.459460	0.125924
652.664897	0.126244
652.870315	0.126465
653.075716	0.126843
653.281097	0.126765
653.486461	0.126896
653.691807	0.127040
653.897134	0.127057
654.102443	0.127167
654.307734	0.127041
654.513006	0.126996
654.718261	0.127044
654.923497	0.126870
655.128715	0.127050
655.333915	0.127014
655.539096	0.126893
655.744259	0.126895
655.949404	0.126748
656.154531	0.126804
656.359640	0.126865
656.564730	0.126973
656.769802	0.127052
656.974856	0.127066
657.179892	0.127406
657.384909	0.127581
657.589908	0.127620
657.794889	0.127752
657.999852	0.127719
658.204797	0.127877
658.409723	0.128160
658.614631	0.128323
658.819521	0.128532
659.024393	0.128587
659.229246	0.128636
659.434081	0.128768
659.638898	0.129002
659.843697	0.129292
660.048478	0.129277
660.253240	0.129269
660.457984	0.129528
660.662710	0.129620
660.867417	0.129833
661.072107	0.130139
661.276778	0.130200
661.481431	0.130344
661.686066	0.130506
661.890682	0.130745
662.095281	0.130755
662.299861	0.130790
662.504422	0.130799
662.708966	0.130842
662.913491	0.130787
663.117999	0.130940
663.322488	0.131102
663.526958	0.131253
663.731411	0.131443
663.935845	0.131298
664.140261	0.131427
664.344659	0.131686
664.549038	0.131575
664.753400	0.131880
664.957743	0.131911
665.162068	0.132116
665.366375	0.132060
665.570663	0.131881
665.774933	0.132082
665.979185	0.132169
666.183419	0.131890
666.387635	0.132159
666.591832	0.131892
666.796011	0.132198
667.000172	0.131892
667.204315	0.131864
667.408439	0.132100
667.612545	0.132298
667.816634	0.132297
668.020703	0.132641
668.224755	0.132751
668.428788	0.133149
668.632803	0.133150
668.836800	0.133297
669.040779	0.133596
669.244739	0.133700
669.448681	0.133928
669.652605	0.134108
669.856511	0.134338
670.060399	0.134399
670.264268	0.134457
670.468119	0.134631
670.671952	0.134998
670.875767	0.135267
671.079563	0.135353
671.283341	0.135425
671.487101	0.135776
671.690843	0.135891
671.894567	0.135911
672.098272	0.136070
672.301959	0.136230
672.505628	0.136230
672.709278	0.136144
672.912911	0.136297
673.116525	0.136277
673.320121	0.136327
673.523699	0.136409
673.727258	0.136439
673.930799	0.136322
674.134322	0.136339
674.337827	0.136359
674.541314	0.136673
674.744782	0.136833
674.948232	0.137009
675.151664	0.136776
675.355078	0.136935
675.558474	0.137155
675.761851	0.137526
675.965210	0.137491
676.168551	0.137567
676.371873	0.137533
676.575178	0.137440
676.778464	0.137643
676.981732	0.137737
677.184981	0.137774
677.388213	0.137854
677.591426	0.137801
677.794621	0.138064
677.997798	0.138282
678.200956	0.138250
678.404097	0.138348
678.607219	0.138313
678.810323	0.138659
679.013408	0.138525
679.216476	0.138632
679.419525	0.138711
679.622556	0.138757
679.825569	0.138748
680.028563	0.138793
680.231540	0.138980
680.434498	0.138912
680.637438	0.139035
680.840359	0.139179
681.043263	0.139137
681.246148	0.139074
681.449015	0.138969
681.651864	0.139012
681.854694	0.139148
682.057506	0.139231
682.260301	0.139471
682.463076	0.139371
682.665834	0.139480
682.868573	0.139611
683.071295	0.139756
683.273998	0.140107
683.476682	0.140344
683.679349	0.140552
683.881997	0.140658
684.084627	0.140879
684.287239	0.141029
684.489833	0.141293
684.692408	0.141520
684.894965	0.141613
685.097504	0.141768
685.300025	0.141964
685.502527	0.142130
685.705012	0.142154
685.907478	0.142204
686.109925	0.142250
686.312355	0.142435
686.514766	0.142527
686.717159	0.142788
686.919534	0.142619
687.121891	0.142454
687.324230	0.142315
687.526550	0.142497
687.728852	0.142400
687.931136	0.142462
688.133401	0.142428
688.335649	0.142240
688.537878	0.142153
688.740089	0.142053
688.942281	0.142313
689.144456	0.142455
689.346612	0.142531
689.548750	0.142439
689.750870	0.142532
689.952971	0.142736
690.155055	0.143015
690.357120	0.143104
690.559167	0.143320
690.761195	0.143288
690.963206	0.143207
691.165198	0.143213
691.367172	0.143455
691.569128	0.143506
691.771065	0.143311
691.972984	0.143246
692.174885	0.143335
692.376768	0.143287
692.578633	0.143380
692.780479	0.143613
692.982308	0.143450
693.184118	0.143633
693.385909	0.143625
