sample name	sample
index	1326
start time	 05-03-2021  11:12:30 AM


Wavelength (nm)	Absorbance
494.344910	0.040611
494.563924	0.040611
494.782919	0.040611
495.001897	-0.272097
495.220856	0.049873
495.439797	0.042589
495.658719	0.047199
495.877624	0.031812
496.096510	0.064544
496.315378	0.051477
496.534227	0.046315
496.753059	0.009487
496.971872	-0.000731
497.190667	0.041470
497.409444	0.048990
497.628203	0.050455
497.846943	0.050629
498.065665	0.049969
498.284369	0.052039
498.503055	0.053765
498.721723	0.054204
498.940372	0.054775
499.159003	0.054252
499.377616	0.053848
499.596210	0.054587
499.814787	0.055427
500.033345	0.056813
500.251885	0.056721
500.470406	0.055511
500.688910	0.054665
500.907395	0.054928
501.125862	0.054938
501.344311	0.057009
501.562742	0.056227
501.781154	0.055965
501.999548	0.055348
502.217924	0.054680
502.436282	0.054906
502.654621	0.055376
502.872942	0.054481
503.091245	0.054438
503.309530	0.053196
503.527797	0.053598
503.746045	0.054349
503.964275	0.054816
504.182487	0.054740
504.400681	0.055392
504.618856	0.055179
504.837013	0.055576
505.055152	0.056545
505.273273	0.055834
505.491376	0.055350
505.709460	0.055466
505.927526	0.054802
506.145574	0.054346
506.363604	0.054896
506.581615	0.054952
506.799608	0.054200
507.017583	0.052509
507.235540	0.052734
507.453478	0.053038
507.671399	0.052303
507.889301	0.053721
508.107185	0.055026
508.325050	0.053877
508.542898	0.054122
508.760727	0.054952
508.978538	0.056223
509.196330	0.055488
509.414105	0.055702
509.631861	0.056115
509.849599	0.055706
510.067319	0.055154
510.285021	0.055225
510.502704	0.055200
510.720369	0.054751
510.938016	0.054591
511.155645	0.055044
511.373255	0.054502
511.590848	0.055060
511.808422	0.054309
512.025977	0.054626
512.243515	0.055372
512.461034	0.055868
512.678536	0.056437
512.896018	0.057176
513.113483	0.057607
513.330930	0.058682
513.548358	0.058085
513.765768	0.058438
513.983160	0.058331
514.200533	0.058456
514.417889	0.058138
514.635226	0.058057
514.852545	0.056418
515.069845	0.056905
515.287128	0.056409
515.504392	0.056268
515.721638	0.056089
515.938866	0.056349
516.156075	0.055765
516.373267	0.055509
516.590440	0.054699
516.807594	0.055876
517.024731	0.055408
517.241850	0.055633
517.458950	0.055984
517.676032	0.057327
517.893095	0.057089
518.110141	0.057096
518.327168	0.056973
518.544177	0.057647
518.761168	0.057338
518.978141	0.057403
519.195095	0.057302
519.412031	0.056788
519.628949	0.056237
519.845849	0.056472
520.062731	0.056939
520.279594	0.057176
520.496439	0.057224
520.713266	0.056876
520.930074	0.056834
521.146865	0.056659
521.363637	0.056525
521.580391	0.055775
521.797127	0.055752
522.013844	0.055436
522.230543	0.056301
522.447224	0.056527
522.663887	0.057237
522.880532	0.057103
523.097158	0.056921
523.313766	0.057886
523.530356	0.058421
523.746928	0.058539
523.963481	0.058574
524.180017	0.058041
524.396534	0.058616
524.613032	0.059077
524.829513	0.059961
525.045975	0.060172
525.262420	0.059469
525.478845	0.059467
525.695253	0.059558
525.911643	0.060059
526.128014	0.060343
526.344367	0.059858
526.560702	0.059627
526.777018	0.059274
526.993316	0.059000
527.209597	0.059531
527.425858	0.059138
527.642102	0.059018
527.858328	0.059015
528.074535	0.059649
528.290724	0.059816
528.506894	0.060115
528.723047	0.060485
528.939181	0.061478
529.155297	0.060896
529.371395	0.061344
529.587475	0.061297
529.803536	0.060917
530.019579	0.059852
530.235604	0.059563
530.451611	0.059226
530.667600	0.059114
530.883570	0.058930
531.099522	0.060361
531.315456	0.060679
531.531372	0.060528
531.747269	0.061208
531.963148	0.061544
532.179009	0.061668
532.394852	0.061962
532.610676	0.062058
532.826482	0.062228
533.042271	0.061382
533.258040	0.061189
533.473792	0.061811
533.689525	0.061328
533.905240	0.061430
534.120937	0.061821
534.336616	0.061943
534.552277	0.062073
534.767919	0.062215
534.983543	0.062518
535.199149	0.063169
535.414736	0.063168
535.630306	0.063451
535.845857	0.063369
536.061390	0.063067
536.276904	0.062933
536.492401	0.063005
536.707879	0.063023
536.923339	0.063222
537.138781	0.063405
537.354204	0.063204
537.569610	0.063109
537.784997	0.064021
538.000366	0.064177
538.215716	0.063950
538.431049	0.064120
538.646363	0.063968
538.861659	0.063864
539.076937	0.063268
539.292196	0.063432
539.507438	0.063068
539.722661	0.062550
539.937866	0.062647
540.153052	0.062999
540.368221	0.062978
540.583371	0.063181
540.798503	0.063574
541.013617	0.064012
541.228712	0.064355
541.443789	0.064826
541.658848	0.064935
541.873889	0.065292
542.088912	0.065152
542.303916	0.065478
542.518902	0.065266
542.733870	0.065294
542.948820	0.065245
543.163752	0.065395
543.378665	0.065605
543.593560	0.065862
543.808437	0.065700
544.023295	0.066013
544.238136	0.066065
544.452958	0.066706
544.667762	0.066395
544.882548	0.066494
545.097315	0.066377
545.312064	0.066568
545.526795	0.066760
545.741508	0.067038
545.956203	0.067487
546.170879	0.067299
546.385537	0.066921
546.600177	0.067292
546.814799	0.067414
547.029402	0.067684
547.243988	0.068049
547.458555	0.067977
547.673103	0.067968
547.887634	0.067484
548.102146	0.067238
548.316640	0.067434
548.531116	0.067034
548.745574	0.066887
548.960013	0.066649
549.174435	0.066169
549.388838	0.066019
549.603222	0.066266
549.817589	0.066502
550.031937	0.066408
550.246267	0.065918
550.460579	0.066321
550.674873	0.066721
550.889148	0.066861
551.103405	0.067017
551.317644	0.067403
551.531865	0.067471
551.746068	0.067475
551.960252	0.067686
552.174418	0.068187
552.388566	0.068206
552.602696	0.067944
552.816807	0.068102
553.030900	0.068145
553.244975	0.068265
553.459032	0.068187
553.673070	0.068415
553.887091	0.068870
554.101093	0.068895
554.315077	0.069010
554.529042	0.069174
554.742990	0.068898
554.956919	0.069691
555.170830	0.069934
555.384722	0.069731
555.598597	0.069670
555.812453	0.069679
556.026291	0.069578
556.240111	0.069529
556.453913	0.069531
556.667696	0.069496
556.881461	0.068941
557.095208	0.068596
557.308937	0.068821
557.522647	0.069151
557.736339	0.069067
557.950013	0.069324
558.163669	0.069101
558.377307	0.068923
558.590926	0.069450
558.804527	0.069458
559.018110	0.069919
559.231675	0.069776
559.445221	0.069493
559.658749	0.069903
559.872259	0.070214
560.085751	0.070686
560.299225	0.071041
560.512680	0.070923
560.726117	0.071213
560.939536	0.070937
561.152937	0.071241
561.366319	0.071487
561.579683	0.071095
561.793029	0.071008
562.006357	0.070941
562.219667	0.070991
562.432958	0.070538
562.646231	0.070600
562.859486	0.070787
563.072723	0.070848
563.285941	0.071035
563.499141	0.071335
563.712323	0.071409
563.925487	0.071873
564.138632	0.071848
564.351760	0.072377
564.564869	0.072335
564.777960	0.072245
564.991032	0.072077
565.204087	0.071940
565.417123	0.071879
565.630141	0.071888
565.843140	0.071258
566.056122	0.071406
566.269085	0.071744
566.482030	0.072107
566.694957	0.072385
566.907866	0.072580
567.120756	0.072623
567.333628	0.072628
567.546482	0.073138
567.759318	0.073617
567.972135	0.073834
568.184935	0.073607
568.397716	0.073244
568.610478	0.073119
568.823223	0.073278
569.035949	0.073076
569.248657	0.073319
569.461347	0.072890
569.674019	0.072770
569.886672	0.072351
570.099308	0.072051
570.311925	0.072232
570.524523	0.072055
570.737104	0.072188
570.949666	0.072146
571.162210	0.072145
571.374736	0.072224
571.587244	0.072578
571.799733	0.072884
572.012205	0.073480
572.224658	0.073712
572.437092	0.073979
572.649509	0.073890
572.861907	0.074479
573.074287	0.074448
573.286649	0.074390
573.498993	0.074031
573.711318	0.074068
573.923625	0.073951
574.135914	0.073561
574.348185	0.073452
574.560438	0.073276
574.772672	0.073200
574.984888	0.073283
575.197086	0.073257
575.409266	0.073489
575.621427	0.073471
575.833570	0.073535
576.045695	0.073565
576.257802	0.073528
576.469890	0.073736
576.681961	0.073506
576.894013	0.073332
577.106046	0.073961
577.318062	0.073904
577.530059	0.074165
577.742039	0.074045
577.954000	0.073903
578.165942	0.073983
578.377867	0.074139
578.589773	0.074347
578.801661	0.075061
579.013531	0.074923
579.225382	0.075477
579.437216	0.075426
579.649031	0.075637
579.860828	0.076284
580.072606	0.076366
580.284367	0.076173
580.496109	0.076272
580.707833	0.075906
580.919539	0.075652
581.131227	0.075182
581.342896	0.075371
581.554547	0.075910
581.766180	0.075712
581.977795	0.076255
582.189391	0.076667
582.400969	0.076908
582.612529	0.077004
582.824071	0.077227
583.035595	0.077496
583.247100	0.077402
583.458587	0.077015
583.670056	0.077550
583.881506	0.077640
584.092939	0.077714
584.304353	0.077651
584.515749	0.077861
584.727127	0.077712
584.938486	0.077843
585.149828	0.077767
585.361151	0.078054
585.572456	0.077722
585.783742	0.077625
585.995011	0.077371
586.206261	0.077224
586.417493	0.077179
586.628706	0.077460
586.839902	0.077382
587.051079	0.077574
587.262238	0.077364
587.473379	0.077141
587.684502	0.076940
587.895606	0.077131
588.106692	0.077397
588.317760	0.077412
588.528810	0.077467
588.739841	0.077569
588.950855	0.077708
589.161850	0.077876
589.372827	0.078348
589.583785	0.078591
589.794726	0.078839
590.005648	0.078738
590.216552	0.078680
590.427437	0.078778
590.638305	0.078817
590.849154	0.079031
591.059985	0.079281
591.270798	0.079210
591.481592	0.079141
591.692369	0.079110
591.903127	0.079430
592.113867	0.079465
592.324588	0.079212
592.535292	0.079568
592.745977	0.079502
592.956644	0.079173
593.167293	0.079358
593.377923	0.079386
593.588536	0.079257
593.799130	0.079182
594.009706	0.079482
594.220263	0.079791
594.430803	0.079476
594.641324	0.079788
594.851827	0.079968
595.062312	0.079684
595.272778	0.079960
595.483227	0.079890
595.693657	0.080023
595.904069	0.080328
596.114462	0.080549
596.324838	0.081146
596.535195	0.080643
596.745534	0.080740
596.955855	0.080969
597.166157	0.081049
597.376441	0.081311
597.586707	0.081377
597.796955	0.081018
598.007185	0.080886
598.217396	0.080317
598.427589	0.080630
598.637764	0.080412
598.847921	0.080668
599.058060	0.080588
599.268180	0.080743
599.478282	0.080687
599.688366	0.080896
599.898431	0.080937
600.108479	0.081357
600.318508	0.081888
600.528519	0.082558
600.738511	0.082390
600.948486	0.082332
601.158442	0.082558
601.368380	0.082846
601.578300	0.082802
601.788202	0.082931
601.998085	0.082834
602.207950	0.082394
602.417797	0.082419
602.627626	0.082543
602.837436	0.082767
603.047228	0.082669
603.257002	0.082605
603.466758	0.082626
603.676496	0.082614
603.886215	0.082761
604.095916	0.082824
604.305599	0.082817
604.515264	0.083014
604.724910	0.083070
604.934538	0.083214
605.144148	0.083178
605.353740	0.083465
605.563314	0.083671
605.772869	0.083688
605.982406	0.083641
606.191925	0.083317
606.401425	0.083322
606.610908	0.083489
606.820372	0.083529
607.029818	0.083671
607.239246	0.083724
607.448655	0.083695
607.658047	0.083561
607.867420	0.083637
608.076775	0.083812
608.286111	0.083943
608.495430	0.084087
608.704730	0.083699
608.914012	0.083532
609.123275	0.083287
609.332521	0.083347
609.541748	0.083625
609.750957	0.084055
609.960148	0.084115
610.169321	0.084092
610.378475	0.083880
610.587611	0.084201
610.796729	0.084141
611.005829	0.084341
611.214910	0.084187
611.423974	0.084053
611.633019	0.083802
611.842045	0.083754
612.051054	0.083671
612.260044	0.083731
612.469017	0.083821
612.677970	0.084113
612.886906	0.084083
613.095824	0.084521
613.304723	0.084564
613.513604	0.084891
613.722467	0.085206
613.931311	0.085172
614.140138	0.085313
614.348946	0.085186
614.557736	0.085125
614.766507	0.085078
614.975261	0.084679
615.183996	0.084696
615.392713	0.084679
615.601412	0.084639
615.810092	0.084895
616.018754	0.084954
616.227399	0.084815
616.436024	0.084874
616.644632	0.085048
616.853222	0.085216
617.061793	0.085305
617.270346	0.085152
617.478880	0.085309
617.687397	0.085091
617.895895	0.084921
618.104375	0.085324
618.312837	0.085184
618.521281	0.084996
618.729706	0.084904
618.938113	0.085037
619.146502	0.085018
619.354873	0.084658
619.563226	0.085066
619.771560	0.084996
619.979876	0.085012
620.188174	0.085304
620.396453	0.085604
620.604715	0.085737
620.812958	0.085600
621.021183	0.085649
621.229390	0.085888
621.437578	0.085742
621.645748	0.085857
621.853900	0.085991
622.062034	0.085957
622.270150	0.085738
622.478247	0.085828
622.686326	0.085806
622.894387	0.085933
623.102430	0.085660
623.310454	0.085665
623.518461	0.085706
623.726449	0.085597
623.934418	0.085586
624.142370	0.085805
624.350303	0.085732
624.558218	0.086062
624.766115	0.085929
624.973994	0.086291
625.181855	0.086327
625.389697	0.086483
625.597521	0.086660
625.805327	0.086702
626.013114	0.086811
626.220883	0.086893
626.428634	0.087001
626.636367	0.087226
626.844082	0.087285
627.051778	0.087419
627.259457	0.087283
627.467117	0.087191
627.674758	0.087351
627.882382	0.087367
628.089987	0.087504
628.297574	0.087371
628.505143	0.087431
628.712694	0.087529
628.920226	0.087753
629.127740	0.087925
629.335236	0.088069
629.542714	0.088246
629.750174	0.088267
629.957615	0.088483
630.165038	0.088752
630.372443	0.088945
630.579829	0.089180
630.787198	0.089166
630.994548	0.089214
631.201880	0.089377
631.409194	0.089443
631.616489	0.089714
631.823766	0.089952
632.031025	0.089954
632.238266	0.089951
632.445489	0.089797
632.652693	0.089797
632.859879	0.090099
633.067047	0.090130
633.274197	0.090242
633.481329	0.090212
633.688442	0.090128
633.895537	0.090037
634.102614	0.090140
634.309672	0.090152
634.516713	0.090212
634.723735	0.090131
634.930739	0.090214
635.137724	0.090128
635.344692	0.090033
635.551641	0.090026
635.758572	0.090254
635.965485	0.090224
636.172379	0.090227
636.379256	0.090273
636.586114	0.090263
636.792954	0.090229
636.999775	0.090252
637.206579	0.090455
637.413364	0.090703
637.620131	0.090707
637.826880	0.090570
638.033610	0.090619
638.240323	0.090638
638.447017	0.090795
638.653692	0.090622
638.860350	0.090953
639.066990	0.090912
639.273611	0.090705
639.480214	0.090751
639.686798	0.090932
639.893365	0.091434
640.099913	0.091480
640.306443	0.091789
640.512955	0.092112
640.719449	0.091976
640.925924	0.092060
641.132381	0.092291
641.338820	0.092481
641.545241	0.092812
641.751644	0.092576
641.958028	0.092740
642.164394	0.092702
642.370742	0.093028
642.577071	0.093118
642.783383	0.093244
642.989676	0.093304
643.195951	0.093461
643.402207	0.093386
643.608446	0.093824
643.814666	0.093930
644.020868	0.093591
644.227052	0.093692
644.433218	0.093791
644.639365	0.093997
644.845494	0.094099
645.051605	0.094219
645.257698	0.094232
645.463772	0.094282
645.669828	0.094433
645.875866	0.095019
646.081886	0.094846
646.287888	0.094978
646.493871	0.094927
646.699836	0.095201
646.905783	0.095033
647.111712	0.095139
647.317622	0.094971
647.523514	0.094930
647.729388	0.094849
647.935244	0.095039
648.141082	0.095125
648.346901	0.095197
648.552702	0.095104
648.758485	0.095253
648.964250	0.095529
649.169996	0.095522
649.375724	0.095523
649.581434	0.095763
649.787126	0.095656
649.992800	0.095400
650.198455	0.095519
650.404092	0.095566
650.609711	0.095505
650.815311	0.095431
651.020894	0.095463
651.226458	0.095527
651.432004	0.095272
651.637532	0.095353
651.843041	0.095598
652.048532	0.095837
652.254006	0.095869
652.459460	0.096147
652.664897	0.096213
652.870315	0.096434
653.075716	0.096722
653.281097	0.097140
653.486461	0.097293
653.691807	0.097599
653.897134	0.097602
654.102443	0.097642
654.307734	0.097561
654.513006	0.097657
654.718261	0.097698
654.923497	0.097645
655.128715	0.097521
655.333915	0.097941
655.539096	0.097990
655.744259	0.098110
655.949404	0.098196
656.154531	0.098320
656.359640	0.098338
656.564730	0.098517
656.769802	0.098548
656.974856	0.098544
657.179892	0.098176
657.384909	0.098236
657.589908	0.098074
657.794889	0.098355
657.999852	0.098387
658.204797	0.098573
658.409723	0.098721
658.614631	0.098912
658.819521	0.099028
659.024393	0.099279
659.229246	0.099342
659.434081	0.099585
659.638898	0.099336
659.843697	0.099267
660.048478	0.099418
660.253240	0.099319
660.457984	0.099320
660.662710	0.099537
660.867417	0.099543
661.072107	0.099354
661.276778	0.099297
661.481431	0.099466
661.686066	0.099711
661.890682	0.099833
662.095281	0.099930
662.299861	0.100010
662.504422	0.100038
662.708966	0.100025
662.913491	0.100361
663.117999	0.100609
663.322488	0.100650
663.526958	0.100940
663.731411	0.100896
663.935845	0.100897
664.140261	0.101139
664.344659	0.101233
664.549038	0.101341
664.753400	0.101458
664.957743	0.101509
665.162068	0.101546
665.366375	0.101491
665.570663	0.101420
665.774933	0.101790
665.979185	0.101707
666.183419	0.101872
666.387635	0.102078
666.591832	0.102128
666.796011	0.102293
667.000172	0.102546
667.204315	0.102556
667.408439	0.102736
667.612545	0.102556
667.816634	0.102720
668.020703	0.102614
668.224755	0.102576
668.428788	0.102615
668.632803	0.102578
668.836800	0.102686
669.040779	0.102805
669.244739	0.102908
669.448681	0.103054
669.652605	0.103029
669.856511	0.103158
670.060399	0.103494
670.264268	0.103705
670.468119	0.103843
670.671952	0.103979
670.875767	0.103926
671.079563	0.104188
671.283341	0.104378
671.487101	0.104631
671.690843	0.104754
671.894567	0.104763
672.098272	0.104740
672.301959	0.104948
672.505628	0.105063
672.709278	0.105471
672.912911	0.105492
673.116525	0.105547
673.320121	0.105570
673.523699	0.105780
673.727258	0.105852
673.930799	0.105882
674.134322	0.105828
674.337827	0.106029
674.541314	0.106103
674.744782	0.106281
674.948232	0.106311
675.151664	0.106401
675.355078	0.106396
675.558474	0.106473
675.761851	0.106612
675.965210	0.106765
676.168551	0.106747
676.371873	0.106720
676.575178	0.106832
676.778464	0.106933
676.981732	0.107121
677.184981	0.107351
677.388213	0.107538
677.591426	0.107683
677.794621	0.107877
677.997798	0.107978
678.200956	0.108228
678.404097	0.108368
678.607219	0.108568
678.810323	0.108789
679.013408	0.108926
679.216476	0.109057
679.419525	0.109178
679.622556	0.109125
679.825569	0.109108
680.028563	0.109152
680.231540	0.109048
680.434498	0.109085
680.637438	0.109076
680.840359	0.108990
681.043263	0.109061
681.246148	0.109128
681.449015	0.109273
681.651864	0.109257
681.854694	0.109296
682.057506	0.109413
682.260301	0.109397
682.463076	0.109272
682.665834	0.109208
682.868573	0.108961
683.071295	0.108849
683.273998	0.108841
683.476682	0.109100
683.679349	0.109052
683.881997	0.109013
684.084627	0.109166
684.287239	0.109220
684.489833	0.109368
684.692408	0.109414
684.894965	0.109616
685.097504	0.109804
685.300025	0.109772
685.502527	0.109742
685.705012	0.109886
685.907478	0.110028
686.109925	0.110181
686.312355	0.110331
686.514766	0.110715
686.717159	0.110767
686.919534	0.110637
687.121891	0.110722
687.324230	0.111014
687.526550	0.111159
687.728852	0.111036
687.931136	0.111235
688.133401	0.111217
688.335649	0.111225
688.537878	0.111424
688.740089	0.111741
688.942281	0.111924
689.144456	0.111930
689.346612	0.111811
689.548750	0.112047
689.750870	0.112010
689.952971	0.112165
690.155055	0.112233
690.357120	0.112175
690.559167	0.112166
690.761195	0.112172
690.963206	0.112251
691.165198	0.112334
691.367172	0.112292
691.569128	0.112440
691.771065	0.112501
691.972984	0.112556
692.174885	0.112698
692.376768	0.112859
692.578633	0.113022
692.780479	0.113219
692.982308	0.113288
693.184118	0.113389
693.385909	0.113357
