sample name	sample
index	442
start time	 03-11-2021  10:43:44 AM


Wavelength (nm)	Absorbance
494.344910	-0.092299
494.563924	-0.092299
494.782919	-0.092299
495.001897	-0.142698
495.220856	0.004236
495.439797	0.013136
495.658719	0.029893
495.877624	0.036238
496.096510	0.072527
496.315378	0.055115
496.534227	0.020894
496.753059	0.006123
496.971872	-0.008816
497.190667	0.032558
497.409444	0.039225
497.628203	0.041191
497.846943	0.042923
498.065665	0.044202
498.284369	0.045550
498.503055	0.046576
498.721723	0.046072
498.940372	0.046652
499.159003	0.046581
499.377616	0.047327
499.596210	0.047868
499.814787	0.048589
500.033345	0.048232
500.251885	0.047882
500.470406	0.048306
500.688910	0.049335
500.907395	0.049091
501.125862	0.049269
501.344311	0.049149
501.562742	0.048458
501.781154	0.048752
501.999548	0.048039
502.217924	0.048683
502.436282	0.047618
502.654621	0.046811
502.872942	0.047495
503.091245	0.047584
503.309530	0.046549
503.527797	0.047235
503.746045	0.046797
503.964275	0.047139
504.182487	0.046230
504.400681	0.047256
504.618856	0.048040
504.837013	0.047367
505.055152	0.047365
505.273273	0.048553
505.491376	0.048366
505.709460	0.047906
505.927526	0.048821
506.145574	0.050153
506.363604	0.049868
506.581615	0.050042
506.799608	0.050345
507.017583	0.050567
507.235540	0.050181
507.453478	0.050195
507.671399	0.050515
507.889301	0.050100
508.107185	0.049894
508.325050	0.049869
508.542898	0.049428
508.760727	0.050043
508.978538	0.050363
509.196330	0.050134
509.414105	0.050462
509.631861	0.050005
509.849599	0.050233
510.067319	0.049772
510.285021	0.049858
510.502704	0.050398
510.720369	0.050580
510.938016	0.050280
511.155645	0.050593
511.373255	0.050634
511.590848	0.051364
511.808422	0.051154
512.025977	0.051265
512.243515	0.050596
512.461034	0.050638
512.678536	0.050138
512.896018	0.050795
513.113483	0.050936
513.330930	0.050778
513.548358	0.051328
513.765768	0.051046
513.983160	0.050569
514.200533	0.051679
514.417889	0.051920
514.635226	0.052197
514.852545	0.051946
515.069845	0.051695
515.287128	0.052741
515.504392	0.052752
515.721638	0.053779
515.938866	0.054647
516.156075	0.054904
516.373267	0.055120
516.590440	0.055061
516.807594	0.055057
517.024731	0.055824
517.241850	0.054794
517.458950	0.054757
517.676032	0.054057
517.893095	0.053402
518.110141	0.053128
518.327168	0.052978
518.544177	0.053313
518.761168	0.053374
518.978141	0.053211
519.195095	0.054049
519.412031	0.054299
519.628949	0.054250
519.845849	0.055038
520.062731	0.055394
520.279594	0.054614
520.496439	0.054778
520.713266	0.054807
520.930074	0.054853
521.146865	0.055167
521.363637	0.055320
521.580391	0.056030
521.797127	0.055558
522.013844	0.055133
522.230543	0.055781
522.447224	0.055351
522.663887	0.055812
522.880532	0.056050
523.097158	0.055857
523.313766	0.055473
523.530356	0.055380
523.746928	0.055803
523.963481	0.055976
524.180017	0.056127
524.396534	0.056652
524.613032	0.056535
524.829513	0.057021
525.045975	0.056277
525.262420	0.056260
525.478845	0.056462
525.695253	0.056640
525.911643	0.056788
526.128014	0.057065
526.344367	0.057312
526.560702	0.057019
526.777018	0.056738
526.993316	0.057085
527.209597	0.057466
527.425858	0.057631
527.642102	0.057603
527.858328	0.058140
528.074535	0.058269
528.290724	0.058106
528.506894	0.058640
528.723047	0.059242
528.939181	0.059527
529.155297	0.059527
529.371395	0.059554
529.587475	0.059464
529.803536	0.059775
530.019579	0.059990
530.235604	0.060206
530.451611	0.060549
530.667600	0.060715
530.883570	0.060983
531.099522	0.061197
531.315456	0.061559
531.531372	0.062665
531.747269	0.062787
531.963148	0.062826
532.179009	0.063584
532.394852	0.063552
532.610676	0.063501
532.826482	0.063600
533.042271	0.063798
533.258040	0.063693
533.473792	0.063294
533.689525	0.062790
533.905240	0.063140
534.120937	0.062351
534.336616	0.062900
534.552277	0.063123
534.767919	0.063494
534.983543	0.063414
535.199149	0.063275
535.414736	0.063627
535.630306	0.064192
535.845857	0.063910
536.061390	0.064610
536.276904	0.064369
536.492401	0.064507
536.707879	0.064163
536.923339	0.064212
537.138781	0.064876
537.354204	0.064731
537.569610	0.064355
537.784997	0.064530
538.000366	0.064382
538.215716	0.064582
538.431049	0.063918
538.646363	0.064189
538.861659	0.064119
539.076937	0.063728
539.292196	0.063596
539.507438	0.064029
539.722661	0.064085
539.937866	0.064419
540.153052	0.064232
540.368221	0.064889
540.583371	0.065495
540.798503	0.065628
541.013617	0.066025
541.228712	0.066574
541.443789	0.066899
541.658848	0.066915
541.873889	0.066852
542.088912	0.067230
542.303916	0.067269
542.518902	0.066834
542.733870	0.067448
542.948820	0.067597
543.163752	0.067693
543.378665	0.067260
543.593560	0.067947
543.808437	0.067979
544.023295	0.067953
544.238136	0.067910
544.452958	0.068329
544.667762	0.068136
544.882548	0.068434
545.097315	0.068392
545.312064	0.068953
545.526795	0.068724
545.741508	0.069114
545.956203	0.069513
546.170879	0.069792
546.385537	0.069667
546.600177	0.069956
546.814799	0.069801
547.029402	0.069700
547.243988	0.069522
547.458555	0.069580
547.673103	0.069349
547.887634	0.069212
548.102146	0.069131
548.316640	0.069399
548.531116	0.069544
548.745574	0.069295
548.960013	0.069594
549.174435	0.069716
549.388838	0.070025
549.603222	0.070105
549.817589	0.070103
550.031937	0.070422
550.246267	0.070275
550.460579	0.070352
550.674873	0.070913
550.889148	0.071032
551.103405	0.071044
551.317644	0.070925
551.531865	0.071511
551.746068	0.071791
551.960252	0.072042
552.174418	0.072380
552.388566	0.072285
552.602696	0.072273
552.816807	0.072391
553.030900	0.072911
553.244975	0.073215
553.459032	0.072932
553.673070	0.073000
553.887091	0.072738
554.101093	0.072675
554.315077	0.072733
554.529042	0.072521
554.742990	0.072727
554.956919	0.072477
555.170830	0.072303
555.384722	0.072187
555.598597	0.072177
555.812453	0.072684
556.026291	0.072743
556.240111	0.072987
556.453913	0.073092
556.667696	0.072752
556.881461	0.073109
557.095208	0.073382
557.308937	0.074005
557.522647	0.074136
557.736339	0.073984
557.950013	0.074142
558.163669	0.074307
558.377307	0.074636
558.590926	0.075183
558.804527	0.075237
559.018110	0.075332
559.231675	0.074911
559.445221	0.074742
559.658749	0.074691
559.872259	0.074740
560.085751	0.074524
560.299225	0.074563
560.512680	0.074298
560.726117	0.074163
560.939536	0.074001
561.152937	0.074178
561.366319	0.074330
561.579683	0.074676
561.793029	0.074607
562.006357	0.074774
562.219667	0.075016
562.432958	0.075333
562.646231	0.075418
562.859486	0.075658
563.072723	0.075947
563.285941	0.076405
563.499141	0.076140
563.712323	0.076254
563.925487	0.076311
564.138632	0.076181
564.351760	0.075867
564.564869	0.075859
564.777960	0.075758
564.991032	0.075604
565.204087	0.075428
565.417123	0.075651
565.630141	0.075824
565.843140	0.076032
566.056122	0.076114
566.269085	0.076551
566.482030	0.076853
566.694957	0.076996
566.907866	0.077241
567.120756	0.077184
567.333628	0.077420
567.546482	0.077381
567.759318	0.077250
567.972135	0.077214
568.184935	0.077394
568.397716	0.077420
568.610478	0.077519
568.823223	0.077275
569.035949	0.077452
569.248657	0.077306
569.461347	0.077630
569.674019	0.077827
569.886672	0.078238
570.099308	0.077946
570.311925	0.078029
570.524523	0.078219
570.737104	0.078409
570.949666	0.078218
571.162210	0.078320
571.374736	0.078122
571.587244	0.078100
571.799733	0.077840
572.012205	0.077996
572.224658	0.078110
572.437092	0.078071
572.649509	0.078189
572.861907	0.078295
573.074287	0.078317
573.286649	0.078789
573.498993	0.079034
573.711318	0.079107
573.923625	0.079266
574.135914	0.079253
574.348185	0.079283
574.560438	0.079119
574.772672	0.079343
574.984888	0.079663
575.197086	0.079386
575.409266	0.079356
575.621427	0.079474
575.833570	0.079403
576.045695	0.079399
576.257802	0.079428
576.469890	0.079751
576.681961	0.079843
576.894013	0.079372
577.106046	0.079527
577.318062	0.079659
577.530059	0.079735
577.742039	0.079758
577.954000	0.079800
578.165942	0.079720
578.377867	0.079645
578.589773	0.079586
578.801661	0.079905
579.013531	0.080232
579.225382	0.080189
579.437216	0.080532
579.649031	0.080621
579.860828	0.080651
580.072606	0.080869
580.284367	0.081092
580.496109	0.081207
580.707833	0.081506
580.919539	0.081284
581.131227	0.081237
581.342896	0.081071
581.554547	0.081333
581.766180	0.081492
581.977795	0.081538
582.189391	0.081803
582.400969	0.082110
582.612529	0.082005
582.824071	0.081971
583.035595	0.082109
583.247100	0.082152
583.458587	0.082457
583.670056	0.082608
583.881506	0.082780
584.092939	0.082639
584.304353	0.082875
584.515749	0.083155
584.727127	0.083390
584.938486	0.083441
585.149828	0.083606
585.361151	0.083456
585.572456	0.083122
585.783742	0.083270
585.995011	0.083442
586.206261	0.083045
586.417493	0.082753
586.628706	0.082718
586.839902	0.082871
587.051079	0.082919
587.262238	0.083078
587.473379	0.083431
587.684502	0.083389
587.895606	0.083471
588.106692	0.083718
588.317760	0.084064
588.528810	0.083971
588.739841	0.084116
588.950855	0.084223
589.161850	0.083952
589.372827	0.083982
589.583785	0.083905
589.794726	0.083841
590.005648	0.083816
590.216552	0.083647
590.427437	0.083940
590.638305	0.084100
590.849154	0.084172
591.059985	0.084067
591.270798	0.083915
591.481592	0.084122
591.692369	0.084228
591.903127	0.084219
592.113867	0.084620
592.324588	0.084804
592.535292	0.084729
592.745977	0.084424
592.956644	0.084795
593.167293	0.084773
593.377923	0.085061
593.588536	0.084918
593.799130	0.085121
594.009706	0.085084
594.220263	0.084787
594.430803	0.084856
594.641324	0.085291
594.851827	0.085227
595.062312	0.085639
595.272778	0.085498
595.483227	0.085786
595.693657	0.086003
595.904069	0.085898
596.114462	0.086086
596.324838	0.086154
596.535195	0.086107
596.745534	0.086140
596.955855	0.086147
597.166157	0.086128
597.376441	0.086059
597.586707	0.085989
597.796955	0.086188
598.007185	0.086322
598.217396	0.086285
598.427589	0.086443
598.637764	0.086414
598.847921	0.086397
599.058060	0.086495
599.268180	0.086778
599.478282	0.086796
599.688366	0.086715
599.898431	0.086775
600.108479	0.086912
600.318508	0.086579
600.528519	0.087056
600.738511	0.087452
600.948486	0.087476
601.158442	0.087687
601.368380	0.087801
601.578300	0.087732
601.788202	0.087861
601.998085	0.087967
602.207950	0.088317
602.417797	0.088209
602.627626	0.087873
602.837436	0.087763
603.047228	0.087473
603.257002	0.087389
603.466758	0.087784
603.676496	0.088016
603.886215	0.088180
604.095916	0.088719
604.305599	0.088868
604.515264	0.089022
604.724910	0.089640
604.934538	0.089962
605.144148	0.090346
605.353740	0.090402
605.563314	0.090292
605.772869	0.090191
605.982406	0.089889
606.191925	0.090192
606.401425	0.090427
606.610908	0.090310
606.820372	0.090229
607.029818	0.090140
607.239246	0.090317
607.448655	0.090525
607.658047	0.090683
607.867420	0.090596
608.076775	0.090401
608.286111	0.090431
608.495430	0.090654
608.704730	0.090609
608.914012	0.090685
609.123275	0.090457
609.332521	0.090348
609.541748	0.090283
609.750957	0.090607
609.960148	0.090827
610.169321	0.090870
610.378475	0.090757
610.587611	0.091076
610.796729	0.091036
611.005829	0.091091
611.214910	0.091442
611.423974	0.091479
611.633019	0.091473
611.842045	0.091309
612.051054	0.091475
612.260044	0.091550
612.469017	0.091676
612.677970	0.091818
612.886906	0.091899
613.095824	0.091544
613.304723	0.091943
613.513604	0.091910
613.722467	0.091892
613.931311	0.091648
614.140138	0.091807
614.348946	0.091751
614.557736	0.091753
614.766507	0.091835
614.975261	0.091943
615.183996	0.091589
615.392713	0.091555
615.601412	0.091709
615.810092	0.091938
616.018754	0.091881
616.227399	0.091838
616.436024	0.092151
616.644632	0.092262
616.853222	0.092345
617.061793	0.092734
617.270346	0.092840
617.478880	0.092913
617.687397	0.092961
617.895895	0.093125
618.104375	0.093162
618.312837	0.093127
618.521281	0.093113
618.729706	0.093414
618.938113	0.093318
619.146502	0.093668
619.354873	0.093982
619.563226	0.094198
619.771560	0.093995
619.979876	0.094056
620.188174	0.093986
620.396453	0.094155
620.604715	0.094040
620.812958	0.094223
621.021183	0.094051
621.229390	0.093856
621.437578	0.093696
621.645748	0.093686
621.853900	0.093827
622.062034	0.093931
622.270150	0.094008
622.478247	0.094155
622.686326	0.094199
622.894387	0.094198
623.102430	0.094297
623.310454	0.094588
623.518461	0.094970
623.726449	0.094981
623.934418	0.094792
624.142370	0.094881
624.350303	0.094898
624.558218	0.095014
624.766115	0.095045
624.973994	0.094970
625.181855	0.094868
625.389697	0.094599
625.597521	0.094467
625.805327	0.094812
626.013114	0.094642
626.220883	0.094466
626.428634	0.094332
626.636367	0.094502
626.844082	0.094746
627.051778	0.094902
627.259457	0.095303
627.467117	0.095539
627.674758	0.095695
627.882382	0.095879
628.089987	0.096093
628.297574	0.096028
628.505143	0.096259
628.712694	0.096238
628.920226	0.096321
629.127740	0.096223
629.335236	0.096433
629.542714	0.096453
629.750174	0.096595
629.957615	0.096675
630.165038	0.096732
630.372443	0.096722
630.579829	0.096647
630.787198	0.096669
630.994548	0.096710
631.201880	0.096737
631.409194	0.096636
631.616489	0.096640
631.823766	0.096449
632.031025	0.096805
632.238266	0.096755
632.445489	0.097012
632.652693	0.096905
632.859879	0.096869
633.067047	0.096893
633.274197	0.096978
633.481329	0.097035
633.688442	0.097361
633.895537	0.097102
634.102614	0.097083
634.309672	0.097088
634.516713	0.097366
634.723735	0.097636
634.930739	0.097532
635.137724	0.097639
635.344692	0.097732
635.551641	0.097493
635.758572	0.097786
635.965485	0.098109
636.172379	0.098340
636.379256	0.098403
636.586114	0.098323
636.792954	0.098456
636.999775	0.098555
637.206579	0.098650
637.413364	0.099104
637.620131	0.099271
637.826880	0.099355
638.033610	0.099554
638.240323	0.099472
638.447017	0.099768
638.653692	0.099763
638.860350	0.099861
639.066990	0.100125
639.273611	0.100217
639.480214	0.100318
639.686798	0.100280
639.893365	0.100121
640.099913	0.100331
640.306443	0.100341
640.512955	0.100445
640.719449	0.100581
640.925924	0.100365
641.132381	0.100528
641.338820	0.100465
641.545241	0.100492
641.751644	0.100575
641.958028	0.100637
642.164394	0.100761
642.370742	0.100791
642.577071	0.100734
642.783383	0.100866
642.989676	0.100897
643.195951	0.100825
643.402207	0.100854
643.608446	0.100945
643.814666	0.100941
644.020868	0.100620
644.227052	0.101031
644.433218	0.101214
644.639365	0.101276
644.845494	0.101008
645.051605	0.101252
645.257698	0.101594
645.463772	0.101679
645.669828	0.101572
645.875866	0.102004
646.081886	0.101951
646.287888	0.101727
646.493871	0.101931
646.699836	0.102177
646.905783	0.102150
647.111712	0.101933
647.317622	0.101931
647.523514	0.102253
647.729388	0.102477
647.935244	0.102707
648.141082	0.102800
648.346901	0.102627
648.552702	0.102790
648.758485	0.102991
648.964250	0.103245
649.169996	0.103629
649.375724	0.103635
649.581434	0.103591
649.787126	0.103478
649.992800	0.103670
650.198455	0.103985
650.404092	0.104106
650.609711	0.104207
650.815311	0.104297
651.020894	0.104215
651.226458	0.104421
651.432004	0.104610
651.637532	0.104704
651.843041	0.104877
652.048532	0.104874
652.254006	0.104923
652.459460	0.104802
652.664897	0.104806
652.870315	0.104640
653.075716	0.104680
653.281097	0.104521
653.486461	0.104398
653.691807	0.104300
653.897134	0.104277
654.102443	0.104162
654.307734	0.104342
654.513006	0.104363
654.718261	0.104350
654.923497	0.104351
655.128715	0.104490
655.333915	0.104728
655.539096	0.105095
655.744259	0.105290
655.949404	0.105532
656.154531	0.105567
656.359640	0.105713
656.564730	0.106057
656.769802	0.106254
656.974856	0.106189
657.179892	0.106138
657.384909	0.106046
657.589908	0.105814
657.794889	0.105768
657.999852	0.105795
658.204797	0.105769
658.409723	0.105469
658.614631	0.105391
658.819521	0.105612
659.024393	0.105799
659.229246	0.105849
659.434081	0.106134
659.638898	0.106368
659.843697	0.106467
660.048478	0.106673
660.253240	0.107091
660.457984	0.107289
660.662710	0.107399
660.867417	0.107563
661.072107	0.107844
661.276778	0.108058
661.481431	0.108053
661.686066	0.108203
661.890682	0.108133
662.095281	0.108164
662.299861	0.108319
662.504422	0.108365
662.708966	0.108406
662.913491	0.108216
663.117999	0.108188
663.322488	0.108252
663.526958	0.108418
663.731411	0.108544
663.935845	0.108688
664.140261	0.108734
664.344659	0.108574
664.549038	0.108465
664.753400	0.108547
664.957743	0.108726
665.162068	0.108999
665.366375	0.108732
665.570663	0.108882
665.774933	0.108770
665.979185	0.108728
666.183419	0.109030
666.387635	0.109227
666.591832	0.109310
666.796011	0.109323
667.000172	0.109190
667.204315	0.109561
667.408439	0.109502
667.612545	0.109673
667.816634	0.109644
668.020703	0.109582
668.224755	0.109725
668.428788	0.109858
668.632803	0.109859
668.836800	0.109989
669.040779	0.110150
669.244739	0.110035
669.448681	0.110174
669.652605	0.110284
669.856511	0.110430
670.060399	0.110553
670.264268	0.110703
670.468119	0.110866
670.671952	0.110973
670.875767	0.110911
671.079563	0.111328
671.283341	0.111366
671.487101	0.111541
671.690843	0.111663
671.894567	0.111804
672.098272	0.111793
672.301959	0.111861
672.505628	0.111834
672.709278	0.111920
672.912911	0.111972
673.116525	0.112083
673.320121	0.112266
673.523699	0.112219
673.727258	0.112376
673.930799	0.112496
674.134322	0.112501
674.337827	0.112614
674.541314	0.112625
674.744782	0.112759
674.948232	0.112722
675.151664	0.112632
675.355078	0.112819
675.558474	0.112786
675.761851	0.112753
675.965210	0.112969
676.168551	0.113136
676.371873	0.113503
676.575178	0.113613
676.778464	0.113945
676.981732	0.114061
677.184981	0.114214
677.388213	0.114250
677.591426	0.114492
677.794621	0.114676
677.997798	0.114868
678.200956	0.114748
678.404097	0.114787
678.607219	0.114804
678.810323	0.114938
679.013408	0.115042
679.216476	0.115196
679.419525	0.115212
679.622556	0.115017
679.825569	0.114958
680.028563	0.115108
680.231540	0.115141
680.434498	0.115158
680.637438	0.115208
680.840359	0.115190
681.043263	0.115103
681.246148	0.115257
681.449015	0.115344
681.651864	0.115377
681.854694	0.115303
682.057506	0.115158
682.260301	0.115195
682.463076	0.115265
682.665834	0.115319
682.868573	0.115532
683.071295	0.115550
683.273998	0.115721
683.476682	0.115657
683.679349	0.115605
683.881997	0.115902
684.084627	0.115973
684.287239	0.116072
684.489833	0.115939
684.692408	0.115825
684.894965	0.115676
685.097504	0.115631
685.300025	0.115695
685.502527	0.115859
685.705012	0.115767
685.907478	0.115775
686.109925	0.115650
686.312355	0.115880
686.514766	0.116038
686.717159	0.116172
686.919534	0.116216
687.121891	0.116405
687.324230	0.116632
687.526550	0.116820
687.728852	0.116775
687.931136	0.116960
688.133401	0.116885
688.335649	0.116730
688.537878	0.116796
688.740089	0.116864
688.942281	0.116895
689.144456	0.117005
689.346612	0.116990
689.548750	0.117184
689.750870	0.117244
689.952971	0.117314
690.155055	0.117527
690.357120	0.117679
690.559167	0.117828
690.761195	0.117989
690.963206	0.118026
691.165198	0.118216
691.367172	0.118398
691.569128	0.118593
691.771065	0.119003
691.972984	0.119316
692.174885	0.119653
692.376768	0.119765
692.578633	0.119863
692.780479	0.119963
692.982308	0.120001
693.184118	0.119988
693.385909	0.119956
