sample name	sample
index	283
start time	 02-25-2021  12:13:25 PM
880	0.398240
Peak Time (s)	92.536
Peak Height 	0.3982
calc peak height	90,93
Baseline Time (s)	8.537
Baseline Value 	-0.001507
subtract baseline	10,4
Abs	0.289098
Peak Time (s)	90.541
Peak Height 	0.2891
calc peak height	90,93
Baseline Time (s)	9.035
Baseline Value 	0.001514
subtract baseline	10,3
PK_550	0.136781
Peak Time (s)	90.541
Peak Height 	0.1368
calc peak height	90,93
Baseline Time (s)	9.035
Baseline Value 	-4.9828E-5
subtract baseline	10,2
PK_880	0.280145
Peak Time (s)	90.541
Peak Height 	0.2801
calc peak height	90,93
Baseline Time (s)	8.537
Baseline Value 	-4.9091E-4
subtract baseline	10,1


Time (s)	A880-A510	A880-A775	A880-A975	A880	I510	I775	I975	I880	
0.035500	-0.003351	-0.000597	-0.002633	0.006204	6792.725913	45242.238251	3985.032797	23957.061988
0.535500	-0.000880	-0.000312	-0.004656	0.003196	6841.681289	45564.068548	3987.484003	24103.285125
1.035500	-0.003037	-0.000138	-0.006181	0.002562	6828.004980	45643.373780	3985.264133	24134.205032
1.538500	0.000931	-0.000337	0.001641	0.000361	6883.688701	45840.793070	4010.482976	24242.047120
2.036500	-0.000299	-0.000244	0.002160	0.002519	6853.008374	45637.297382	4006.320033	24136.334861
2.536500	-0.001153	-0.000268	0.000941	-0.000101	6868.971751	45893.239138	4009.879066	24264.734080
3.039500	0.002005	0.000648	0.002045	-0.001790	6913.101997	46151.558773	4017.004034	24347.896276
3.537000	-0.001593	-0.000231	-0.003014	0.000013	6863.961191	45885.575185	3999.576280	24259.138934
4.035000	0.000403	0.000795	-0.002544	0.001441	6869.095371	45845.850442	3997.164149	24189.078263
4.535000	-0.000021	-0.000022	-0.000860	0.000413	6874.574472	45866.692096	4004.006107	24239.485786
5.035000	-0.001464	-0.000779	-0.001966	-0.000342	6868.336902	45866.494139	4003.116154	24276.575557
5.535500	0.001084	0.000023	0.001527	0.000143	6887.060185	45897.892595	4010.747673	24252.733802
6.035500	0.002457	0.000369	-0.001754	0.000609	6895.317919	45885.960167	4001.249562	24229.852282
6.536000	0.002636	0.000410	-0.005165	0.000083	6901.748528	45942.042589	3993.994234	24255.690337
7.036500	-0.000775	-0.000427	0.001383	-0.000249	6873.729489	45892.088183	4011.378936	24271.977526
7.539500	0.002082	0.000540	0.004560	0.000414	6893.680177	45922.224044	4017.801721	24239.429773
8.037000	0.001862	0.000790	-0.002272	0.000594	6890.030325	45929.161063	3999.982078	24230.594278
8.537500	0.000000	0.000287	-0.000621	0.000000	6878.505211	45938.114765	4005.655185	24259.756636
9.035000	0.001120	0.000000	0.000000	0.000079	6887.961643	45901.861929	4007.028534	24255.859961
9.534500	-0.000212	-0.000640	0.000000	-0.000707	6883.000392	45916.353970	4009.025487	24294.517331
10.035500	0.001237	0.000368	-0.000490	0.000302	6886.996597	45916.240188	4005.220469	24244.899004
10.535500	-0.000736	-0.000814	0.002847	-0.000563	6876.936937	45884.868960	4015.917622	24287.434214
11.036000	-0.000019	0.000106	-0.003757	-0.000093	6879.178500	45929.449108	3997.971527	24264.341827
11.536500	0.000310	-0.000524	0.001156	0.001938	6863.757875	45666.850505	4005.247735	24164.754102
12.039000	0.001365	0.000230	0.003912	0.000077	6890.215706	45924.885868	4017.004792	24255.993581
12.537000	-0.000362	0.000195	-0.004035	-0.000102	6876.146204	45939.084205	3997.294441	24264.784526
13.037000	0.003333	0.001010	0.003055	-0.001920	6926.474543	46200.496826	4019.926244	24354.300743
13.537500	-0.002300	-0.000682	-0.002437	0.001562	6843.607576	45688.305713	3997.128241	24183.132527
14.035000	0.000507	0.000138	-0.004290	0.000274	6880.624142	45896.313995	3995.709362	24246.303618
14.538000	-0.001020	0.000118	-0.001579	0.001677	6854.094372	45755.685842	3998.997536	24177.482421
15.035500	0.002107	0.000495	0.000583	0.000322	6894.742162	45926.807225	4007.893010	24243.933508
15.546500	-0.001965	-0.000277	0.001156	0.002796	6835.526330	45606.873127	4003.076855	24122.818972
16.036500	0.000827	0.000096	-0.001709	-0.000815	6893.437729	45999.912755	4004.964035	24299.864102
16.536000	0.003124	0.000466	0.002201	-0.000364	6910.289026	45991.802462	4013.756657	24277.628862
17.036500	0.000620	-0.000503	-0.000467	-0.001373	6896.641818	45995.866370	4009.531503	24327.349945
17.537000	0.001867	-0.000010	0.001158	-0.003346	6926.111736	46240.964689	4018.718629	24424.817014
18.037000	-0.000406	0.000324	-0.002660	0.000612	6869.271512	45881.203620	3998.957118	24229.678655
18.537000	0.000102	0.000292	-0.000263	0.000955	6870.770861	45844.195194	4004.144798	24212.888795
19.035000	-0.000595	0.000788	-0.002530	0.001300	6861.340270	45859.040375	3997.552888	24195.961191
19.535500	-0.003593	0.000096	0.000234	0.001459	6832.910844	45775.104848	4004.124279	24188.163000
20.035500	-0.000863	-0.000261	0.000673	0.000437	6866.723173	45840.750406	4007.829594	24238.293805
20.536000	-0.002425	-0.000244	-0.001317	0.000501	6852.030433	45836.051465	4002.625614	24235.150896
21.036500	-0.001463	-0.000190	-0.002501	0.000295	6862.578001	45861.802523	4000.157968	24245.271851
21.536500	-0.000355	0.000103	0.000772	0.001816	6858.844649	45740.536741	4004.583714	24170.692443
22.036500	0.000504	0.000507	-0.000721	0.000717	6876.569931	45888.964125	4003.587536	24224.544013
22.537000	0.000220	-0.000398	0.000180	0.000264	6878.107769	45844.245988	4007.016967	24246.799560
23.037500	-0.001227	-0.000605	0.002764	0.000296	6864.704689	45820.680621	4013.511498	24245.211842
23.535000	-0.000709	0.000816	-0.000098	0.001749	6856.256387	45817.472187	4002.550407	24173.958173
24.035000	-0.000107	0.000393	-0.000021	0.001179	6866.848818	45832.078652	4004.188520	24201.910448
24.535500	0.000361	-0.000172	0.000766	0.000682	6875.587790	45825.300313	4007.443713	24226.260112
25.036000	0.000617	0.000124	0.001588	0.001070	6874.396849	45816.304350	4008.545464	24207.262213
25.536000	-0.001424	-0.000133	0.001523	0.001895	6848.495357	45709.536689	4006.287430	24166.846392
26.039000	0.002319	0.000677	-0.000712	0.001329	6887.503429	45845.295299	4002.062568	24194.551399
26.536500	-0.002103	0.000301	-0.002206	0.000808	6852.172186	45859.601634	3999.607541	24220.100988
27.037000	0.002270	-0.000446	0.000643	0.000635	6893.370534	45802.874126	4007.249129	24228.563538
27.534000	-0.002743	0.000607	-0.001893	0.003282	6824.196972	45645.943611	3994.176579	24099.081838
28.035000	-0.000442	0.000140	-0.001346	-0.001041	6883.950368	46026.724899	4006.456848	24310.976605
28.535000	0.001393	0.000636	0.000214	-0.000520	6895.911216	46024.246365	4009.094600	24285.328511
29.035000	0.001908	-0.000249	-0.002064	-0.000528	6900.676364	45937.282746	4003.337420	24285.696455
29.535500	-0.002991	-0.000609	-0.005179	0.002035	6833.149487	45648.999645	3989.075313	24159.989571
30.036000	-0.000175	0.000319	-0.001360	-0.000267	6879.342684	45967.679699	4004.458622	24272.875941
30.538500	0.001820	0.000565	-0.001040	-0.000241	6897.259671	45989.556291	4005.203634	24271.606116
31.068500	0.000129	0.000241	-0.002280	-0.000320	6882.587189	45965.240588	4002.267533	24275.493465
31.536500	-0.002469	0.000254	0.000056	0.003438	6825.247643	45595.947823	3998.682731	24091.487978
32.036500	-0.000108	-0.000095	-0.004084	-0.000254	6879.827579	45925.450203	3997.553267	24272.226925
32.562000	-0.000693	-0.000087	0.002342	-0.000799	6879.464426	45980.123288	4015.229329	24299.036343
33.037500	0.000243	0.000275	-0.003741	-0.000531	6885.536033	45989.488486	3999.113850	24285.848604
33.535000	-0.000325	0.000238	-0.006040	0.001775	6859.486909	45757.995057	3987.576562	24172.715515
34.035500	0.001410	-0.000131	-0.001768	-0.001157	6901.874420	46011.337594	4005.681936	24316.702362
34.535500	0.002870	0.000547	0.003078	0.001689	6889.239642	45796.907757	4010.761719	24176.938805
35.036500	0.000010	0.000449	-0.001264	0.001362	6866.250778	45819.534244	4000.587796	24192.948466
35.536500	-0.001083	0.000248	-0.000293	0.001322	6856.738120	45803.658593	4003.138997	24194.899553
36.036500	0.000106	0.000695	0.001409	0.001270	6867.959915	45852.924114	4007.583386	24197.457220
36.537000	-0.000850	0.000083	0.003632	0.001543	6856.842322	45765.494671	4012.543792	24184.071101
37.037500	-0.001039	0.000647	-0.000685	0.001415	6856.289540	45833.845119	4001.912688	24190.334547
37.535000	-0.001277	-0.000790	-0.000490	0.001396	6854.312511	45694.025805	4002.453407	24191.265215
38.034500	0.001700	0.000776	0.000798	0.001390	6881.318775	45849.075411	4005.728963	24191.570591
38.535000	-0.001416	-0.000344	0.000839	0.000720	6859.160468	45804.612250	4007.532898	24224.409583
39.035500	-0.001647	-0.000298	-0.000428	0.001057	6854.037503	45775.856410	4003.469433	24207.887437
39.535500	0.000660	-0.000192	0.000286	0.002305	6863.602485	45663.377794	4002.118393	24146.775153
40.036000	-0.000465	-0.001194	-0.002585	0.000264	6871.896089	45765.776619	4000.025130	24246.793152
40.536000	-0.000400	-0.000179	0.001996	0.001055	6865.324469	45787.818354	4009.621358	24207.980448
41.037000	0.000358	-0.000018	-0.000331	0.001260	6870.329594	45783.478559	4003.200760	24197.929607
41.537000	-0.001003	0.000220	-0.000132	0.001249	6858.115627	45808.017999	4003.732098	24198.471390
42.037500	-0.001201	0.000528	0.001738	0.001676	6852.475504	45796.330147	4007.388870	24177.567848
42.535000	-0.001616	0.000124	0.000821	0.000981	6855.005069	45825.046728	4006.825756	24211.626310
43.035000	-0.000719	0.000294	-0.000388	0.001663	6856.940694	45774.516105	4002.036420	24178.184198
43.535000	-0.000798	-0.000465	-0.000876	0.001546	6857.292631	45711.305775	4001.101248	24183.935105
44.035500	0.000817	0.000462	0.003314	0.001677	6870.705197	45789.673867	4011.391485	24177.509703
44.538500	0.003258	-0.000086	0.003522	-0.003278	6938.283311	46226.617595	4024.621575	24421.462092
45.036000	-0.000395	-0.000167	-0.001019	-0.001420	6887.819396	46033.853520	4008.248302	24329.648644
45.563500	-0.002724	0.000411	-0.003980	0.002510	6831.274486	45702.548125	3990.882466	24136.756681
46.037000	0.001264	0.000233	0.001699	-0.000790	6897.192377	46011.029516	4013.565136	24298.621924
46.537000	0.000299	-0.000326	-0.003549	-0.001445	6894.369425	46020.504596	4001.902618	24330.890767
47.034500	0.000760	0.000247	0.001034	-0.000932	6893.885815	46026.430097	4012.228005	24305.585765
47.535000	0.000151	-0.000528	0.004376	0.001889	6862.762245	45671.278174	4013.559284	24167.116787
48.037500	0.000716	-0.000154	-0.001243	-0.001062	6894.676301	45999.594003	4006.768882	24311.995021
48.535500	0.002059	0.000314	-0.001449	0.001432	6884.200523	45799.224552	3999.942331	24189.482485
49.038500	0.000049	-0.000007	0.003653	-0.000196	6880.729975	45928.399083	4017.041973	24269.396305
49.536000	-0.001180	0.000476	-0.001425	0.002703	6843.416020	45690.036805	3996.803745	24127.352304
50.037500	0.003435	-0.000012	-0.001634	-0.001115	6920.024665	46019.023647	4005.914545	24314.639857
50.537000	0.001503	0.000400	0.000309	-0.000607	6897.711412	46009.497498	4009.556445	24289.625016
51.036500	0.003031	0.000308	0.004618	-0.002957	6933.239350	46233.861299	4026.621677	24405.564209
51.537000	-0.000825	0.000797	0.000437	0.006197	6815.277462	45378.839519	3992.710672	23957.406231
52.035000	0.007709	-0.001236	0.001303	-0.004058	6986.776126	46189.756807	4020.916483	24460.088897
52.535000	-0.020564	-0.016560	0.004211	0.160616	5533.821777	31517.861494	3673.940576	17661.822579
53.035500	-0.019610	-0.031425	-0.015167	-0.141112	8151.145291	58253.455905	4377.999765	32453.547657
53.538500	-0.032110	-0.171789	-0.011908	-0.335193	10858.082694	65535.000000	5225.201466	49095.277214
54.036000	-0.029100	-0.158398	0.003748	-0.321802	10670.968588	65535.000000	5237.333129	47693.188622
54.536000	-0.032886	-0.133297	0.002106	-0.296701	10173.242911	65535.000000	5098.056037	45178.645522
55.036500	-0.023683	-0.100462	0.007761	-0.263819	9789.212457	65528.184765	4964.796241	42097.010489
55.536500	-0.020303	-0.079125	0.000168	-0.238216	9447.362245	64916.381383	4813.226710	39853.979020
56.037000	-0.004338	-0.084144	0.002400	-0.247273	9833.523044	65495.380856	4863.480038	40632.426775
56.534500	0.009633	-0.066755	0.006878	-0.226977	9733.799890	65078.037922	4793.437536	38910.420264
57.035000	0.008473	-0.043414	0.015672	-0.188311	9138.176752	62923.932304	4667.919926	35844.385493
57.534500	0.012907	-0.024857	0.018288	-0.147922	8645.411783	59983.538818	4521.080291	32920.307072
58.035500	0.022799	-0.013736	0.027087	-0.100390	8171.439072	55396.642718	4383.201043	29809.930027
58.536000	0.034524	-0.002941	0.040385	-0.052411	7752.166557	51092.994797	4269.761303	26997.227237
59.036000	0.049261	0.005752	0.054125	-0.005755	7410.909098	47063.200118	4170.158042	24544.460726
59.536500	0.067968	0.015843	0.068893	0.045354	7089.215065	43087.410899	4068.611329	22143.373091
60.037000	0.081929	0.024570	0.089289	0.085479	6846.408789	40287.894078	4016.941755	20446.677295
60.536500	0.104041	0.036792	0.113371	0.133227	6622.276388	37355.043510	3957.975901	18621.613022
61.037500	0.124028	0.050046	0.134735	0.182484	6382.047948	34617.804528	3892.484186	16937.793357
61.537500	0.147187	0.063609	0.161521	0.222186	6253.259581	32767.910727	3863.552057	15712.921772
62.034500	0.169080	0.076151	0.177644	0.257230	6154.323652	31262.269070	3822.694968	14721.007777
62.535000	0.188362	0.090373	0.193219	0.285314	6089.759058	30372.765224	3796.643339	13981.874771
63.035500	0.202059	0.101803	0.207500	0.305276	6044.590938	29839.267495	3785.057904	13484.825035
63.547000	0.212429	0.110287	0.212186	0.288948	6241.667172	31420.322506	3828.680557	13889.678639
64.039000	0.220355	0.113528	0.223656	0.307448	6162.166305	30437.367147	3813.851411	13432.120013
64.536500	0.229028	0.119040	0.227338	0.315943	6163.487190	30249.178619	3803.837748	13228.450671
65.039500	0.232856	0.122030	0.244797	0.322822	6140.897696	30005.829465	3825.998015	13066.412526
65.537000	0.233156	0.125066	0.234224	0.335099	6053.729081	29436.188251	3778.802816	12783.533913
66.037500	0.239772	0.127374	0.250568	0.334017	6109.474562	29643.702071	3814.569828	12808.141730
66.534500	0.247120	0.131074	0.250979	0.339525	6122.950619	29532.784092	3803.958399	12683.489771
67.035500	0.249498	0.133206	0.255062	0.344040	6107.308199	29387.335141	3803.064626	12582.495568
67.537500	0.248406	0.134077	0.251925	0.353078	6034.196438	28894.777214	3778.241423	12383.425914
68.035500	0.255912	0.136745	0.260028	0.350934	6103.798865	29183.839142	3799.087333	12430.272071
68.536000	0.258875	0.137819	0.260636	0.354479	6099.557347	29034.987206	3793.061773	12352.938327
69.036500	0.259946	0.139932	0.261526	0.356782	6090.599990	29023.622317	3790.177813	12303.044221
69.536500	0.257229	0.139941	0.264443	0.364167	6018.071248	28584.470065	3781.119531	12144.787330
70.036500	0.263081	0.140927	0.265551	0.361374	6080.036068	28808.550856	3789.023630	12204.327934
70.537000	0.264505	0.141572	0.272132	0.363242	6076.823629	28735.838914	3798.668470	12164.470647
71.037500	0.266205	0.143728	0.274044	0.366440	6066.011775	28674.048248	3796.026724	12096.634260
71.534500	0.266317	0.143256	0.271840	0.372093	6026.332638	28313.779296	3780.053241	11977.925456
72.038000	0.272521	0.144785	0.273805	0.369954	6086.266523	28528.905616	3788.360348	12022.652070
72.535500	0.269252	0.143711	0.273729	0.369260	6067.646009	28506.518541	3789.617849	12037.218616
73.035500	0.273163	0.144537	0.274477	0.371344	6080.847454	28432.615489	3786.902032	11993.562599
73.536000	0.269814	0.144860	0.272322	0.377623	6011.903937	28085.497541	3769.942579	11863.285806
74.036500	0.271981	0.145363	0.276008	0.372507	6063.914238	28412.875955	3787.648921	11969.295986
74.536500	0.273688	0.146576	0.277767	0.374622	6060.974583	28359.992043	3786.924875	11925.311459
75.037000	0.274096	0.147562	0.275796	0.375797	6055.466183	28348.978225	3780.560773	11900.977917
75.537000	0.272986	0.144930	0.272700	0.378367	6029.149364	28046.554244	3769.215297	11847.983070
76.034500	0.273372	0.145271	0.279408	0.375587	6051.774285	28227.521407	3788.298895	11905.321049
76.535500	0.273838	0.146139	0.278834	0.377879	6038.707331	28144.828589	3782.491520	11858.022477
77.035500	0.276241	0.147573	0.281753	0.379027	6047.679066	28161.397117	3786.076099	11834.417910
77.535500	0.279552	0.147530	0.281681	0.380177	6063.201027	28092.223548	3783.600328	11810.830664
78.038500	0.276802	0.146154	0.282132	0.379959	6045.028549	28025.283150	3784.954518	11815.301520
78.536500	0.279420	0.147473	0.282898	0.380639	6058.930506	28062.185942	3785.128601	11801.379003
79.036500	0.281045	0.147892	0.282356	0.382303	6058.647347	27990.278040	3780.669787	11767.398812
79.537000	0.279243	0.146431	0.285432	0.381630	6050.536554	27944.915697	3788.260578	11781.127401
80.040000	0.279485	0.147350	0.278949	0.383171	6041.244751	27909.158824	3772.095350	11749.742837
80.537500	0.279882	0.145921	0.288708	0.383144	6044.272056	27828.646661	3791.851008	11750.276890
81.037500	0.279324	0.144834	0.284556	0.382772	6042.943661	27787.748204	3784.166902	11757.850618
81.535500	0.275490	0.143079	0.280805	0.386759	5987.500806	27461.518364	3768.643611	11677.073547
82.035500	0.282063	0.145067	0.280190	0.384776	6048.202548	27686.666521	3771.368224	11717.150357
82.535500	0.279482	0.144600	0.283506	0.385071	6027.663998	27643.320897	3777.414887	11711.180555
83.036000	0.278964	0.142907	0.285183	0.385132	6023.550152	27543.762388	3780.666930	11709.951010
83.536000	0.274908	0.143185	0.279713	0.390373	5958.162314	27264.338615	3759.338966	11604.483515
84.036500	0.280688	0.142880	0.281466	0.386086	6029.021890	27488.271602	3771.301279	11690.654617
84.537000	0.280730	0.141628	0.280795	0.386237	6028.247611	27409.100605	3769.663234	11687.603872
85.037000	0.281468	0.141919	0.289650	0.387780	6022.526260	27338.736293	3784.341140	11656.501013
85.535000	0.275982	0.140580	0.284797	0.391316	5959.074592	27066.461559	3767.521962	11585.644349
86.038000	0.278290	0.140345	0.283733	0.388191	5997.123843	27227.513808	3771.623676	11648.236752
86.535500	0.281455	0.140101	0.283378	0.389656	6009.130443	27132.124055	3768.000332	11618.832396
87.035500	0.278966	0.139327	0.288595	0.389120	5995.339655	27118.884866	3779.505000	11629.571059
87.536000	0.278284	0.138218	0.287064	0.392472	5967.059739	26871.907891	3769.730333	11562.600933
88.036500	0.278353	0.138445	0.288767	0.391045	5977.521534	26963.161079	3775.985335	11591.054680
88.536000	0.278730	0.139804	0.286319	0.393442	5963.402476	26905.836772	3766.322919	11543.299217
89.037000	0.278159	0.136873	0.289244	0.392795	5963.935742	26780.194793	3773.435786	11556.174118
89.537000	0.274891	0.137422	0.288158	0.400257	5890.051627	26403.854815	3756.513377	11409.011835
90.034000	0.275865	0.135956	0.287513	0.393238	5944.913043	26705.621314	3769.098244	11547.353906
90.540500	0.280145	0.136781	0.289098	0.395386	5959.715568	26633.382758	3767.978987	11504.779889
91.037500	0.275499	0.134700	0.284842	0.394742	5931.985173	26555.184790	3760.834704	11517.525355
91.537000	0.279194	0.135402	0.286385	0.396354	5946.386353	26505.744310	3760.696013	11485.653364
92.038500	0.278468	0.134118	0.288436	0.396849	5937.940670	26409.443728	3763.769687	11475.904835
92.536000	0.279452	0.134310	0.279549	0.398240	5935.120880	26344.752211	3743.686451	11448.527461
93.039000	0.279278	0.135017	0.293179	0.398784	5930.171290	26353.549723	3769.338290	11437.856780
93.536500	0.277471	0.132978	0.284167	0.402526	5892.162899	26044.087961	3744.328679	11364.759502
94.037000	0.279513	0.134013	0.287365	0.400812	5917.836865	26190.734393	3753.873972	11398.161662
94.534500	0.279053	0.132975	0.295941	0.401199	5912.023368	26114.550619	3770.027701	11390.598910
95.084500	0.279934	0.132130	0.291172	0.402115	5911.787196	26020.815802	3758.779828	11372.748045
95.579000	0.275882	0.132000	0.286829	0.409386	5835.211259	25630.970729	3736.256884	11232.377006
96.038000	0.281084	0.132203	0.288444	0.404917	5900.490200	25876.292456	3747.979823	11318.379806
96.535000	0.279559	0.132079	0.292752	0.406386	5880.123987	25792.343397	3753.508008	11290.009111
97.038500	0.280533	0.131513	0.288212	0.406426	5886.463338	25760.488712	3744.608248	11289.231226
97.536500	0.277268	0.130747	0.285480	0.414242	5812.142453	25314.148824	3724.465882	11139.923983
