sample name	sample
index	34
start time	 02-11-2021  12:59:30 PM


Wavelength (nm)	Absorbance
494.344910	-0.214017
494.563924	-0.214017
494.782919	-0.214017
495.001897	0.279043
495.220856	-0.073090
495.439797	-0.081912
495.658719	-0.179737
495.877624	-0.166643
496.096510	-0.163592
496.315378	-0.078589
496.534227	-0.095825
496.753059	-0.113984
496.971872	-0.031024
497.190667	0.039501
497.409444	0.057967
497.628203	0.066896
497.846943	0.069959
498.065665	0.069282
498.284369	0.070158
498.503055	0.070469
498.721723	0.070532
498.940372	0.068883
499.159003	0.067449
499.377616	0.068054
499.596210	0.068058
499.814787	0.066020
500.033345	0.066181
500.251885	0.066841
500.470406	0.064022
500.688910	0.063881
500.907395	0.064406
501.125862	0.065887
501.344311	0.065197
501.562742	0.065712
501.781154	0.065897
501.999548	0.065395
502.217924	0.064908
502.436282	0.066971
502.654621	0.066494
502.872942	0.067583
503.091245	0.066381
503.309530	0.067155
503.527797	0.069603
503.746045	0.069146
503.964275	0.067757
504.182487	0.066849
504.400681	0.066125
504.618856	0.064941
504.837013	0.065182
505.055152	0.065836
505.273273	0.065684
505.491376	0.062452
505.709460	0.063349
505.927526	0.063123
506.145574	0.063190
506.363604	0.064103
506.581615	0.065881
506.799608	0.064784
507.017583	0.064990
507.235540	0.063954
507.453478	0.065667
507.671399	0.065991
507.889301	0.067209
508.107185	0.068455
508.325050	0.067255
508.542898	0.066791
508.760727	0.067808
508.978538	0.066680
509.196330	0.066867
509.414105	0.066426
509.631861	0.065647
509.849599	0.065592
510.067319	0.063097
510.285021	0.064375
510.502704	0.064364
510.720369	0.064107
510.938016	0.066102
511.155645	0.068370
511.373255	0.068939
511.590848	0.069197
511.808422	0.069363
512.025977	0.070240
512.243515	0.069282
512.461034	0.068287
512.678536	0.067444
512.896018	0.066912
513.113483	0.064321
513.330930	0.063886
513.548358	0.063343
513.765768	0.064350
513.983160	0.064341
514.200533	0.065563
514.417889	0.065455
514.635226	0.065660
514.852545	0.064279
515.069845	0.065659
515.287128	0.064325
515.504392	0.065167
515.721638	0.064205
515.938866	0.064432
516.156075	0.063612
516.373267	0.064695
516.590440	0.065039
516.807594	0.066142
517.024731	0.065336
517.241850	0.066563
517.458950	0.066305
517.676032	0.066869
517.893095	0.067674
518.110141	0.067941
518.327168	0.067812
518.544177	0.068063
518.761168	0.068305
518.978141	0.069440
519.195095	0.069292
519.412031	0.069979
519.628949	0.070269
519.845849	0.069704
520.062731	0.068795
520.279594	0.069666
520.496439	0.069105
520.713266	0.069353
520.930074	0.068058
521.146865	0.067319
521.363637	0.066461
521.580391	0.066627
521.797127	0.067340
522.013844	0.068704
522.230543	0.068043
522.447224	0.068940
522.663887	0.068335
522.880532	0.068983
523.097158	0.069745
523.313766	0.069949
523.530356	0.069192
523.746928	0.069081
523.963481	0.068756
524.180017	0.068399
524.396534	0.067251
524.613032	0.067660
524.829513	0.068631
525.045975	0.069467
525.262420	0.070136
525.478845	0.069858
525.695253	0.070292
525.911643	0.070321
526.128014	0.070295
526.344367	0.070231
526.560702	0.070554
526.777018	0.069574
526.993316	0.068593
527.209597	0.068760
527.425858	0.070112
527.642102	0.069740
527.858328	0.069679
528.074535	0.070121
528.290724	0.072049
528.506894	0.071740
528.723047	0.072460
528.939181	0.072190
529.155297	0.072176
529.371395	0.071631
529.587475	0.071038
529.803536	0.071509
530.019579	0.072537
530.235604	0.071925
530.451611	0.072628
530.667600	0.072166
530.883570	0.073015
531.099522	0.073153
531.315456	0.073288
531.531372	0.074377
531.747269	0.073228
531.963148	0.073013
532.179009	0.073064
532.394852	0.072250
532.610676	0.071885
532.826482	0.071134
533.042271	0.071118
533.258040	0.071664
533.473792	0.071535
533.689525	0.072968
533.905240	0.072204
534.120937	0.072116
534.336616	0.072288
534.552277	0.073289
534.767919	0.074707
534.983543	0.075553
535.199149	0.074282
535.414736	0.074127
535.630306	0.073761
535.845857	0.074758
536.061390	0.074682
536.276904	0.074950
536.492401	0.074871
536.707879	0.074756
536.923339	0.073921
537.138781	0.075277
537.354204	0.075662
537.569610	0.075663
537.784997	0.075635
538.000366	0.076340
538.215716	0.076477
538.431049	0.076574
538.646363	0.076840
538.861659	0.076590
539.076937	0.076738
539.292196	0.077880
539.507438	0.078009
539.722661	0.078526
539.937866	0.078933
540.153052	0.078803
540.368221	0.079703
540.583371	0.079485
540.798503	0.080295
541.013617	0.080129
541.228712	0.078706
541.443789	0.078582
541.658848	0.078851
541.873889	0.078359
542.088912	0.078581
542.303916	0.077826
542.518902	0.078069
542.733870	0.078338
542.948820	0.078386
543.163752	0.079021
543.378665	0.079696
543.593560	0.079601
543.808437	0.080233
544.023295	0.080982
544.238136	0.080602
544.452958	0.080831
544.667762	0.080674
544.882548	0.080616
545.097315	0.080901
545.312064	0.080320
545.526795	0.080245
545.741508	0.079764
545.956203	0.079552
546.170879	0.080143
546.385537	0.080072
546.600177	0.080284
546.814799	0.080310
547.029402	0.079422
547.243988	0.079910
547.458555	0.079423
547.673103	0.079386
547.887634	0.079919
548.102146	0.079907
548.316640	0.080688
548.531116	0.080972
548.745574	0.081270
548.960013	0.082834
549.174435	0.083800
549.388838	0.083490
549.603222	0.083518
549.817589	0.082950
550.031937	0.082706
550.246267	0.082412
550.460579	0.082063
550.674873	0.082072
550.889148	0.081268
551.103405	0.080863
551.317644	0.081583
551.531865	0.082322
551.746068	0.082593
551.960252	0.083018
552.174418	0.082572
552.388566	0.082504
552.602696	0.083025
552.816807	0.083500
553.030900	0.083641
553.244975	0.083929
553.459032	0.083568
553.673070	0.083176
553.887091	0.083100
554.101093	0.083256
554.315077	0.083766
554.529042	0.083712
554.742990	0.083654
554.956919	0.083518
555.170830	0.083680
555.384722	0.083929
555.598597	0.084892
555.812453	0.085259
556.026291	0.085739
556.240111	0.085181
556.453913	0.085034
556.667696	0.085234
556.881461	0.085415
557.095208	0.085335
557.308937	0.085220
557.522647	0.085494
557.736339	0.085722
557.950013	0.085667
558.163669	0.086147
558.377307	0.086573
558.590926	0.086493
558.804527	0.086606
559.018110	0.086499
559.231675	0.086618
559.445221	0.086336
559.658749	0.086051
559.872259	0.086118
560.085751	0.086428
560.299225	0.086761
560.512680	0.087054
560.726117	0.087261
560.939536	0.088007
561.152937	0.088479
561.366319	0.088137
561.579683	0.088421
561.793029	0.088515
562.006357	0.088583
562.219667	0.088206
562.432958	0.087772
562.646231	0.087751
562.859486	0.087287
563.072723	0.087127
563.285941	0.087067
563.499141	0.087719
563.712323	0.087618
563.925487	0.087673
564.138632	0.087956
564.351760	0.088857
564.564869	0.088899
564.777960	0.088844
564.991032	0.088777
565.204087	0.089507
565.417123	0.089166
565.630141	0.089662
565.843140	0.089564
566.056122	0.089619
566.269085	0.089495
566.482030	0.089418
566.694957	0.089815
566.907866	0.089708
567.120756	0.089212
567.333628	0.089157
567.546482	0.088707
567.759318	0.088808
567.972135	0.088936
568.184935	0.088944
568.397716	0.089663
568.610478	0.089679
568.823223	0.090256
569.035949	0.090570
569.248657	0.090948
569.461347	0.091525
569.674019	0.091707
569.886672	0.092001
570.099308	0.092378
570.311925	0.092182
570.524523	0.092233
570.737104	0.092328
570.949666	0.092497
571.162210	0.092601
571.374736	0.092353
571.587244	0.092211
571.799733	0.091947
572.012205	0.091636
572.224658	0.091917
572.437092	0.092091
572.649509	0.092191
572.861907	0.092643
573.074287	0.092636
573.286649	0.093198
573.498993	0.093466
573.711318	0.093258
573.923625	0.093065
574.135914	0.092922
574.348185	0.093280
574.560438	0.093085
574.772672	0.093073
574.984888	0.092857
575.197086	0.092250
575.409266	0.092457
575.621427	0.092718
575.833570	0.093415
576.045695	0.093463
576.257802	0.093171
576.469890	0.093613
576.681961	0.093478
576.894013	0.094016
577.106046	0.094063
577.318062	0.094156
577.530059	0.094312
577.742039	0.093852
577.954000	0.094059
578.165942	0.094174
578.377867	0.093742
578.589773	0.094027
578.801661	0.094056
579.013531	0.094635
579.225382	0.094076
579.437216	0.094393
579.649031	0.094789
579.860828	0.094676
580.072606	0.094707
580.284367	0.095110
580.496109	0.095571
580.707833	0.095400
580.919539	0.095000
581.131227	0.095962
581.342896	0.095599
581.554547	0.096118
581.766180	0.095916
581.977795	0.096041
582.189391	0.096191
582.400969	0.095761
582.612529	0.096519
582.824071	0.097341
583.035595	0.096488
583.247100	0.096282
583.458587	0.095565
583.670056	0.095778
583.881506	0.096100
584.092939	0.095717
584.304353	0.095221
584.515749	0.095111
584.727127	0.094570
584.938486	0.095254
585.149828	0.096274
585.361151	0.096610
585.572456	0.096986
585.783742	0.097224
585.995011	0.097914
586.206261	0.098559
586.417493	0.098188
586.628706	0.098773
586.839902	0.098911
587.051079	0.098386
587.262238	0.098461
587.473379	0.098005
587.684502	0.097708
587.895606	0.097711
588.106692	0.097739
588.317760	0.097342
588.528810	0.097575
588.739841	0.097733
588.950855	0.097973
589.161850	0.098512
589.372827	0.098529
589.583785	0.098727
589.794726	0.098854
590.005648	0.098772
590.216552	0.099516
590.427437	0.099093
590.638305	0.099401
590.849154	0.099403
591.059985	0.099734
591.270798	0.100517
591.481592	0.100205
591.692369	0.099719
591.903127	0.099621
592.113867	0.100353
592.324588	0.100755
592.535292	0.100636
592.745977	0.100954
592.956644	0.100595
593.167293	0.100640
593.377923	0.100783
593.588536	0.101503
593.799130	0.102418
594.009706	0.101270
594.220263	0.101731
594.430803	0.101804
594.641324	0.101793
594.851827	0.102062
595.062312	0.102007
595.272778	0.102222
595.483227	0.102320
595.693657	0.102001
595.904069	0.103116
596.114462	0.102944
596.324838	0.103386
596.535195	0.103652
596.745534	0.103371
596.955855	0.103602
597.166157	0.104288
597.376441	0.104362
597.586707	0.104711
597.796955	0.104627
598.007185	0.104767
598.217396	0.104477
598.427589	0.104625
598.637764	0.104571
598.847921	0.104185
599.058060	0.103557
599.268180	0.103531
599.478282	0.103052
599.688366	0.102839
599.898431	0.102604
600.108479	0.102683
600.318508	0.102425
600.528519	0.102476
600.738511	0.102346
600.948486	0.102754
601.158442	0.102572
601.368380	0.102430
601.578300	0.102618
601.788202	0.102720
601.998085	0.102749
602.207950	0.103094
602.417797	0.103177
602.627626	0.104017
602.837436	0.104050
603.047228	0.104141
603.257002	0.104536
603.466758	0.104430
603.676496	0.104658
603.886215	0.104809
604.095916	0.105180
604.305599	0.105255
604.515264	0.105013
604.724910	0.105346
604.934538	0.105683
605.144148	0.105983
605.353740	0.105964
605.563314	0.105963
605.772869	0.106061
605.982406	0.105569
606.191925	0.105846
606.401425	0.105727
606.610908	0.105800
606.820372	0.105866
607.029818	0.105714
607.239246	0.105670
607.448655	0.105776
607.658047	0.106038
607.867420	0.106303
608.076775	0.106620
608.286111	0.107032
608.495430	0.106802
608.704730	0.106986
608.914012	0.107570
609.123275	0.107966
609.332521	0.107713
609.541748	0.107323
609.750957	0.107250
609.960148	0.107120
610.169321	0.107560
610.378475	0.107899
610.587611	0.107915
610.796729	0.107853
611.005829	0.107927
611.214910	0.108148
611.423974	0.108557
611.633019	0.108700
611.842045	0.108518
612.051054	0.108427
612.260044	0.108734
612.469017	0.108740
612.677970	0.108355
612.886906	0.107922
613.095824	0.108067
613.304723	0.108322
613.513604	0.108534
613.722467	0.109293
613.931311	0.109175
614.140138	0.108863
614.348946	0.109124
614.557736	0.109070
614.766507	0.109579
614.975261	0.109678
615.183996	0.109629
615.392713	0.109715
615.601412	0.109042
615.810092	0.108950
616.018754	0.109057
616.227399	0.108834
616.436024	0.109110
616.644632	0.109160
616.853222	0.109188
617.061793	0.109238
617.270346	0.109378
617.478880	0.110045
617.687397	0.110047
617.895895	0.110036
618.104375	0.110143
618.312837	0.110576
618.521281	0.110890
618.729706	0.110957
618.938113	0.110792
619.146502	0.111011
619.354873	0.110712
619.563226	0.111060
619.771560	0.110967
619.979876	0.110973
620.188174	0.110808
620.396453	0.110912
620.604715	0.111323
620.812958	0.111564
621.021183	0.111518
621.229390	0.111956
621.437578	0.111888
621.645748	0.112221
621.853900	0.112569
622.062034	0.112789
622.270150	0.112921
622.478247	0.112795
622.686326	0.113044
622.894387	0.112781
623.102430	0.112853
623.310454	0.113021
623.518461	0.113287
623.726449	0.113289
623.934418	0.113519
624.142370	0.113610
624.350303	0.114339
624.558218	0.114421
624.766115	0.114700
624.973994	0.114434
625.181855	0.114704
625.389697	0.114539
625.597521	0.114777
625.805327	0.114548
626.013114	0.114401
626.220883	0.113809
626.428634	0.114032
626.636367	0.114283
626.844082	0.114258
627.051778	0.114233
627.259457	0.114632
627.467117	0.114727
627.674758	0.115100
627.882382	0.115082
628.089987	0.115024
628.297574	0.115269
628.505143	0.115213
628.712694	0.115562
628.920226	0.115651
629.127740	0.115672
629.335236	0.116010
629.542714	0.116199
629.750174	0.116689
629.957615	0.116734
630.165038	0.116511
630.372443	0.116476
630.579829	0.116500
630.787198	0.116894
630.994548	0.117168
631.201880	0.116957
631.409194	0.116918
631.616489	0.116878
631.823766	0.117044
632.031025	0.117198
632.238266	0.117651
632.445489	0.117652
632.652693	0.117476
632.859879	0.117078
633.067047	0.117176
633.274197	0.117304
633.481329	0.117726
633.688442	0.118113
633.895537	0.118410
634.102614	0.118367
634.309672	0.118654
634.516713	0.118666
634.723735	0.119015
634.930739	0.119209
635.137724	0.119329
635.344692	0.119034
635.551641	0.119320
635.758572	0.119187
635.965485	0.118978
636.172379	0.119040
636.379256	0.119239
636.586114	0.119370
636.792954	0.119517
636.999775	0.119564
637.206579	0.119590
637.413364	0.119396
637.620131	0.119329
637.826880	0.119400
638.033610	0.119196
638.240323	0.119283
638.447017	0.118947
638.653692	0.118814
638.860350	0.118902
639.066990	0.119227
639.273611	0.119350
639.480214	0.119251
639.686798	0.119475
639.893365	0.119887
640.099913	0.119807
640.306443	0.120338
640.512955	0.120394
640.719449	0.120096
640.925924	0.120213
641.132381	0.120070
641.338820	0.120357
641.545241	0.120506
641.751644	0.120474
641.958028	0.120681
642.164394	0.120536
642.370742	0.120473
642.577071	0.120718
642.783383	0.120770
642.989676	0.120664
643.195951	0.120657
643.402207	0.120864
643.608446	0.121145
643.814666	0.121311
644.020868	0.121680
644.227052	0.122207
644.433218	0.122649
644.639365	0.122350
644.845494	0.122908
645.051605	0.122980
645.257698	0.123103
645.463772	0.123536
645.669828	0.123740
645.875866	0.123805
646.081886	0.123911
646.287888	0.124088
646.493871	0.124735
646.699836	0.124831
646.905783	0.124962
647.111712	0.125089
647.317622	0.124765
647.523514	0.124778
647.729388	0.124632
647.935244	0.124195
648.141082	0.124246
648.346901	0.124276
648.552702	0.124365
648.758485	0.124761
648.964250	0.124808
649.169996	0.125129
649.375724	0.125228
649.581434	0.125446
649.787126	0.126022
649.992800	0.126024
650.198455	0.126005
650.404092	0.126072
650.609711	0.126750
650.815311	0.127152
651.020894	0.127254
651.226458	0.127570
651.432004	0.128120
651.637532	0.128173
651.843041	0.128425
652.048532	0.128404
652.254006	0.128818
652.459460	0.128473
652.664897	0.128698
652.870315	0.128889
653.075716	0.128979
653.281097	0.129139
653.486461	0.129622
653.691807	0.129887
653.897134	0.130278
654.102443	0.130148
654.307734	0.130512
654.513006	0.130578
654.718261	0.130682
654.923497	0.130820
655.128715	0.130617
655.333915	0.130625
655.539096	0.130458
655.744259	0.130508
655.949404	0.130844
656.154531	0.130314
656.359640	0.130400
656.564730	0.130534
656.769802	0.130545
656.974856	0.130319
657.179892	0.130269
657.384909	0.130355
657.589908	0.130269
657.794889	0.130031
657.999852	0.130339
658.204797	0.130270
658.409723	0.130340
658.614631	0.130303
658.819521	0.130850
659.024393	0.130868
659.229246	0.131106
659.434081	0.131164
659.638898	0.131375
659.843697	0.131376
660.048478	0.131510
660.253240	0.131798
660.457984	0.131927
660.662710	0.132022
660.867417	0.131922
661.072107	0.131930
661.276778	0.132303
661.481431	0.132657
661.686066	0.132982
661.890682	0.132806
662.095281	0.132833
662.299861	0.133062
662.504422	0.133280
662.708966	0.133640
662.913491	0.133952
663.117999	0.133979
663.322488	0.134185
663.526958	0.134477
663.731411	0.135040
663.935845	0.134923
664.140261	0.135018
664.344659	0.134909
664.549038	0.134978
664.753400	0.134762
664.957743	0.135049
665.162068	0.135219
665.366375	0.135196
665.570663	0.135078
665.774933	0.135602
665.979185	0.135981
666.183419	0.136228
666.387635	0.136474
666.591832	0.136816
666.796011	0.136865
667.000172	0.136891
667.204315	0.137248
667.408439	0.137567
667.612545	0.137164
667.816634	0.137230
668.020703	0.137160
668.224755	0.137227
668.428788	0.137285
668.632803	0.137227
668.836800	0.137452
669.040779	0.137258
669.244739	0.137405
669.448681	0.137818
669.652605	0.137665
669.856511	0.138053
670.060399	0.138015
670.264268	0.138123
670.468119	0.138549
670.671952	0.138207
670.875767	0.138404
671.079563	0.138130
671.283341	0.138089
671.487101	0.138255
671.690843	0.137997
671.894567	0.138064
672.098272	0.138443
672.301959	0.138312
672.505628	0.138482
672.709278	0.138156
672.912911	0.138693
673.116525	0.138827
673.320121	0.139027
673.523699	0.139301
673.727258	0.139858
673.930799	0.139674
674.134322	0.139735
674.337827	0.140116
674.541314	0.140827
674.744782	0.140707
674.948232	0.140994
675.151664	0.140904
675.355078	0.141297
675.558474	0.141621
675.761851	0.142074
675.965210	0.142132
676.168551	0.142209
676.371873	0.142214
676.575178	0.142357
676.778464	0.142469
676.981732	0.142537
677.184981	0.142731
677.388213	0.142327
677.591426	0.142058
677.794621	0.142334
677.997798	0.142413
678.200956	0.142567
678.404097	0.142896
678.607219	0.142786
678.810323	0.143120
679.013408	0.143141
679.216476	0.143627
679.419525	0.144093
679.622556	0.144210
679.825569	0.144178
680.028563	0.144147
680.231540	0.144297
680.434498	0.144624
680.637438	0.144621
680.840359	0.144477
681.043263	0.144142
681.246148	0.144054
681.449015	0.143939
681.651864	0.144194
681.854694	0.144559
682.057506	0.144209
682.260301	0.144334
682.463076	0.144635
682.665834	0.144584
682.868573	0.145155
683.071295	0.145338
683.273998	0.145922
683.476682	0.146269
683.679349	0.146121
683.881997	0.146493
684.084627	0.146470
684.287239	0.146424
684.489833	0.146628
684.692408	0.146367
684.894965	0.146284
685.097504	0.146437
685.300025	0.146502
685.502527	0.146546
685.705012	0.146733
685.907478	0.146699
686.109925	0.146547
686.312355	0.146844
686.514766	0.147075
686.717159	0.147587
686.919534	0.147309
687.121891	0.147405
687.324230	0.147624
687.526550	0.147832
687.728852	0.148196
687.931136	0.148839
688.133401	0.149048
688.335649	0.149185
688.537878	0.149055
688.740089	0.149437
688.942281	0.149595
689.144456	0.149717
689.346612	0.149535
689.548750	0.149559
689.750870	0.149482
689.952971	0.149572
690.155055	0.149616
690.357120	0.149841
690.559167	0.149478
690.761195	0.149651
690.963206	0.149645
691.165198	0.149913
691.367172	0.149960
691.569128	0.150302
691.771065	0.150017
691.972984	0.150005
692.174885	0.149895
692.376768	0.150232
692.578633	0.149968
692.780479	0.150095
692.982308	0.150169
693.184118	0.150299
693.385909	0.150158
