sample name	sample
index	1373
start time	 05-03-2021  02:29:59 PM
880	0.460588
Peak Time (s)	92.538
Peak Height 	0.4606
calc peak height	90,93
Baseline Time (s)	9.036
Baseline Value 	-0.003718
subtract baseline	10,4
Abs	0.312581
Peak Time (s)	91.537
Peak Height 	0.3126
calc peak height	90,93
Baseline Time (s)	11.037
Baseline Value 	0.002994
subtract baseline	10,3
PK_550	0.173748
Peak Time (s)	90.035
Peak Height 	0.1737
calc peak height	90,93
Baseline Time (s)	9.539
Baseline Value 	3.9884E-4
subtract baseline	10,2
PK_880	0.298538
Peak Time (s)	92.538
Peak Height 	0.2985
calc peak height	90,93
Baseline Time (s)	10.037
Baseline Value 	0.001448
subtract baseline	10,1


Time (s)	A880-A510	A880-A775	A880-A975	A880	I510	I775	I975	I880	
0.036000	-0.001077	-0.000553	-0.004612	0.002673	6139.481402	42380.818171	3920.403303	22076.198780
0.544500	-0.001318	-0.000713	-0.003996	0.003495	6131.771609	42291.936197	3919.948446	22040.092700
1.037000	-0.002303	-0.000927	-0.005756	0.002668	6130.625481	42347.415355	3917.901092	22076.411779
1.564500	-0.000388	-0.000451	0.000800	0.001104	6155.918161	42532.516941	3935.874006	22145.257523
2.094500	-0.001601	-0.000441	-0.003560	0.000840	6149.008686	42557.521985	3926.767629	22156.949714
2.535000	-0.001115	0.000638	-0.003951	0.003358	6134.232100	42426.699494	3920.348081	22046.077632
3.042500	-0.000199	-0.000534	-0.000590	-0.001799	6178.576038	42789.906284	3939.260230	22273.768793
3.571500	-0.002127	0.000608	0.001840	0.000889	6144.816379	42648.644381	3938.683362	22154.779153
4.075000	0.000523	-0.000095	-0.003872	-0.000219	6172.276361	42685.605382	3928.421752	22203.730745
4.538500	-0.001483	0.000254	-0.002440	0.002588	6137.148681	42461.738716	3925.378357	22079.933681
5.106500	0.002238	-0.000648	-0.002518	-0.000059	6183.706117	42620.550984	3931.073103	22196.664744
5.550000	0.001538	0.000572	-0.002777	0.000221	6176.497177	42706.323183	3929.874818	22184.266683
6.037000	0.001390	0.000554	-0.001945	0.000196	6175.591866	42706.956622	3931.778523	22185.380570
6.539000	-0.001958	0.000211	-0.000752	-0.000003	6152.543762	42693.862656	3934.883302	22194.198224
7.058500	-0.000914	0.000450	0.001585	0.000126	6159.222253	42703.945907	3939.821915	22188.478844
7.549000	0.002866	-0.000260	0.002379	-0.000245	6189.705588	42672.887664	3942.437805	22204.871281
8.035500	-0.001522	0.000122	-0.001183	-0.000437	6158.893785	42725.337156	3934.888638	22213.381061
8.575500	0.002154	0.001555	-0.002404	0.000737	6177.233659	42749.018338	3929.557379	22161.479525
9.036000	-0.000092	0.000595	0.000319	0.000000	6166.159496	42728.650198	3937.268682	22194.044211
9.539000	-0.000882	0.000000	-0.003282	-0.000530	6164.257666	42722.749216	3930.422388	22217.515945
10.037000	0.000000	-0.000022	0.006020	0.000069	6166.326793	42665.933598	3949.951289	22190.982995
10.537000	0.001703	0.000234	0.002771	0.000032	6179.094382	42692.688117	3942.698215	22192.618571
11.037000	-0.000939	-0.000001	0.000000	-0.000232	6161.661400	42695.451583	3937.074098	22204.323303
11.534500	0.001352	-0.000427	-0.004425	-0.000332	6179.191766	42665.601937	3927.444354	22208.712940
12.038000	0.000800	-0.000387	0.001696	-0.000982	6179.919108	42728.692166	3942.561624	22237.539204
12.534500	-0.000046	0.000480	0.003145	0.000319	6164.166952	42689.032885	3942.895141	22179.959470
13.035000	0.004813	0.000118	-0.000558	-0.001553	6213.814393	42827.176480	3938.781033	22262.838578
13.535500	-0.000845	-0.000335	0.004169	-0.000018	6160.784104	42645.326705	3945.961826	22194.845017
14.038500	0.000292	0.000024	-0.000766	0.002176	6153.064033	42478.262511	3929.998103	22098.036863
14.536500	-0.002339	-0.000430	-0.000935	0.001592	6138.167977	42490.111845	3930.922086	22123.769909
15.036500	-0.000174	-0.000830	-0.002722	-0.000556	6169.629106	42649.238361	3931.722854	22218.640808
15.537000	-0.000257	-0.000754	-0.000177	-0.000402	6167.890126	42642.141600	3937.056884	22211.813529
16.037000	-0.000837	0.000279	-0.000538	0.000464	6157.320176	42657.432371	3934.316057	22173.530395
16.535000	0.000428	-0.000606	-0.004400	0.000359	6167.338629	42586.317248	3925.971750	22178.177283
17.036000	0.000168	0.000601	-0.001792	0.000102	6167.318174	42719.909944	3932.330672	22189.552963
17.535500	0.001466	0.000612	0.002874	-0.001140	6185.978609	42834.506995	3945.569782	22244.511293
18.035500	0.001313	-0.000131	-0.000906	0.000918	6169.733605	42578.673858	3932.485441	22153.502592
18.539000	0.000669	-0.000013	-0.002244	0.001409	6161.417174	42544.644836	3928.422354	22131.837325
19.036000	-0.000110	0.000246	0.003674	0.001797	6152.891103	42532.930836	3940.760703	22114.733475
19.536500	-0.000610	0.001144	0.001233	0.002145	6146.711539	42582.929828	3934.516958	22099.387181
20.037000	-0.000964	-0.000571	-0.004998	0.000848	6153.586774	42544.909004	3923.568863	22156.555116
20.537000	-0.001898	-0.000770	0.000358	0.000846	6146.792569	42527.010316	3935.462803	22156.655917
21.035000	-0.000253	0.000743	0.002571	0.001297	6155.502093	42623.775385	3939.408165	22136.775116
21.537500	-0.002611	0.000086	-0.000567	0.001221	6138.883511	42570.810118	3932.565536	22140.120322
22.035000	0.001276	0.000696	-0.001733	0.001635	6164.210283	42588.665959	3929.053618	22121.886591
22.535000	-0.000418	0.000178	-0.004532	0.000900	6157.191467	42608.414795	3924.483982	22154.290948
23.038000	-0.000912	0.000005	0.000153	0.001073	6152.321523	42576.836290	3934.499452	22146.631548
23.536000	-0.001222	0.000422	0.001973	0.001282	6148.543011	42595.836238	3938.099505	22137.420289
24.036500	-0.002686	-0.000267	0.002229	0.000932	6140.437752	42564.981921	3939.457672	22152.860526
24.540000	0.001460	0.000726	-0.000610	0.001781	6164.485044	42578.056898	3931.223895	22115.438986
25.037000	-0.000119	0.000008	0.000235	0.001334	6156.209375	42553.430098	3934.100643	22135.134881
25.539500	0.000472	0.000047	0.000818	0.001414	6159.939219	42549.697906	3935.223876	22131.609342
26.035000	-0.000651	-0.000059	-0.004814	0.001155	6153.630056	42563.597121	3923.300191	22143.027617
26.535000	-0.000299	0.000516	0.002164	0.001550	6153.319425	42580.012552	3937.928883	22125.632261
27.035000	-0.001137	-0.000586	0.000353	0.000858	6152.255760	42542.660508	3935.427343	22156.144395
27.538500	0.001418	0.000624	0.000279	-0.001241	6186.376348	42844.951699	3939.960090	22249.019535
28.036000	0.000815	0.000492	0.000285	0.000046	6172.474687	42715.079349	3937.090400	22192.027877
28.539000	-0.005363	-0.000263	-0.008181	0.005393	6088.999898	42161.195957	3906.671999	21956.979476
29.036500	0.000389	0.000219	0.001672	-0.000141	6170.716141	42707.134840	3940.616744	22200.275656
29.537000	-0.001890	-0.000104	0.000599	0.000205	6151.520414	42646.057100	3937.434658	22184.968344
30.037000	-0.000981	0.000778	0.000791	0.000254	6157.798746	42722.163402	3937.755850	22182.802510
30.537500	-0.001376	0.000332	-0.005928	0.004300	6125.522625	42313.618713	3913.951668	22004.801959
31.035000	0.000389	-0.000076	-0.000627	0.001376	6159.610801	42541.971221	3932.086047	22133.282067
31.535000	-0.002096	0.000128	-0.001425	0.001870	6137.906854	42515.531901	3929.213344	22111.493224
32.035000	0.001442	0.000315	0.003453	-0.000044	6177.739651	42707.127003	3944.404634	22196.002370
32.536000	-0.003791	-0.000670	-0.007640	0.004812	6104.429218	42176.880976	3909.108470	21982.383470
33.036000	-0.001064	0.000939	0.000252	0.000327	6156.656126	42730.196718	3936.387235	22179.583249
33.536000	-0.000628	0.000442	-0.001070	0.000615	6157.744298	42658.528174	3932.794239	22166.874184
34.036000	0.001888	0.001077	0.001893	-0.000466	6184.122532	42815.413206	3941.843741	22214.665864
34.537000	-0.000875	0.000082	0.000770	0.003131	6137.618506	42396.824395	3931.289032	22056.057573
35.040000	0.000587	0.000306	-0.002884	0.001682	6158.821155	42548.849279	3926.399565	22119.806939
35.535000	0.000372	0.000019	-0.002948	0.000992	6162.290271	42585.514014	3927.783345	22150.203684
36.036000	0.000201	-0.000113	0.004500	0.001557	6156.917299	42522.109481	3943.158253	22125.313107
36.538000	-0.001387	-0.000268	-0.000533	0.002884	6135.699976	42387.532385	3928.944448	22066.914848
37.035500	-0.002897	0.000083	0.000284	0.001808	6132.552114	42517.150144	3933.153524	22114.251013
37.536000	0.000964	0.000080	-0.003423	0.001611	6162.094070	42534.769411	3925.363553	22122.922987
38.035500	-0.001061	-0.000137	0.002071	0.001607	6147.350341	42515.371115	3937.593782	22123.108887
38.536500	-0.001219	0.000116	0.004019	0.001843	6144.478030	42516.883577	3941.431334	22112.694762
39.037000	-0.000419	-0.000338	0.005461	0.001417	6153.410584	42514.295161	3945.638981	22131.459782
39.537000	-0.002952	0.000591	-0.000418	0.001908	6131.428467	42554.285408	3931.367544	22109.852837
40.040000	-0.001180	0.000109	0.005123	0.001158	6149.754556	42578.631597	3945.461370	22142.906782
40.534000	-0.000767	-0.000149	-0.000268	0.001479	6150.419396	42525.939910	3932.656150	22128.730024
41.034500	-0.001189	-0.000621	0.001090	0.001181	6149.523967	42510.148671	3936.350793	22141.897759
41.535500	0.000261	-0.000389	-0.002857	0.001123	6160.528711	42536.528829	3927.697173	22144.452295
42.036000	-0.001003	-0.000119	-0.003772	0.001055	6151.798090	42567.303458	3925.821939	22147.460781
42.536000	0.000538	0.001017	0.001066	0.002173	6154.877026	42568.889309	3934.082689	22098.181100
43.036500	-0.002017	-0.000041	0.002615	0.001426	6141.712540	42540.524054	3939.215973	22131.072669
43.539000	-0.001092	-0.000253	0.000465	0.000778	6153.160083	42580.237645	3935.854313	22159.644126
44.037000	-0.002482	0.000055	-0.000197	0.001321	6139.096264	42558.878806	3933.166744	22135.698293
44.537500	-0.003598	0.000795	-0.002935	0.005749	6099.084854	42224.487586	3917.329698	21941.425294
45.037500	-0.000322	0.000537	0.002434	0.000241	6162.710687	42701.271358	3941.469273	22183.372117
45.540500	-0.000762	0.000061	-0.001057	-0.000049	6161.620440	42684.398983	3934.304024	22196.225389
46.035000	0.000315	-0.000195	0.004472	-0.000139	6170.162915	42669.215879	3946.919841	22200.189832
46.535500	-0.002287	0.000332	-0.005004	0.005740	6108.572364	42183.604529	3912.826559	21941.847357
47.035500	0.002877	0.000688	0.003223	-0.000004	6188.010335	42737.521264	3943.796127	22194.209566
47.535500	-0.000171	0.000668	0.002489	0.000187	6164.209987	42718.226863	3941.715860	22185.779889
48.036000	-0.000283	0.000309	-0.006732	0.001749	6151.980259	42542.977063	3917.774416	22116.835901
48.536000	-0.003663	0.000454	-0.005067	0.003789	6112.709136	42371.014011	3916.954713	22027.206189
49.036500	0.000879	0.000628	0.003854	-0.000005	6173.312457	42732.145762	3945.220274	22194.259921
49.536500	-0.000879	0.000643	0.004553	0.000178	6159.092654	42716.698562	3946.385577	22186.151055
50.037500	0.002386	0.000600	0.006723	-0.000839	6190.544494	42805.872225	3953.611074	22231.176010
50.535000	-0.002364	-0.000253	-0.001336	0.004403	6117.644349	42251.465368	3923.808306	22000.304242
51.038000	0.002453	0.000127	0.001067	0.001281	6175.430893	42569.051048	3936.076113	22137.451092
51.536000	0.017321	-0.005190	0.005911	0.045730	5965.372737	38287.043070	3851.481486	20274.304830
52.036000	0.014378	-0.019291	-0.015766	0.166601	5226.132717	28865.921983	3603.581616	16074.128509
52.536500	0.016329	-0.034909	-0.022958	-0.159399	7753.646933	55838.107023	4294.987961	30711.846305
53.036500	0.027955	-0.090943	-0.005012	-0.286077	9541.823646	65168.149495	4820.350852	40102.304107
53.537000	0.033230	-0.068198	0.009046	-0.256034	9178.355557	64132.443251	4753.318092	37621.469152
54.039500	0.030715	-0.031142	0.014703	-0.178746	8138.785075	58725.386450	4481.475659	31974.912557
54.540500	0.034004	-0.020232	0.015068	-0.136682	7698.600927	54869.202931	4342.687902	29298.807701
55.034500	0.040270	-0.013514	0.021100	-0.129261	7686.082061	54785.402188	4338.289423	28853.014572
55.534500	0.043518	-0.009083	0.028951	-0.121856	7641.300068	54432.083036	4339.701382	28415.703277
56.039500	0.057938	0.001443	0.044014	-0.090957	7467.948488	52076.108946	4290.496011	26669.294608
56.539500	0.072508	0.011130	0.061833	-0.033780	7049.039669	46994.507242	4175.696658	23747.732971
57.036500	0.082878	0.022814	0.075000	0.036729	6523.529742	41423.861137	4026.009728	20636.340586
57.536500	0.097250	0.032109	0.089540	0.091371	6210.196014	37616.034069	3932.468537	18549.605175
58.037000	0.114989	0.044134	0.107255	0.145174	5953.216133	34443.022218	3855.367340	16736.103200
58.536500	0.131197	0.055729	0.129033	0.186875	5784.004636	32338.405566	3815.466303	15477.168762
59.037000	0.151586	0.069616	0.154511	0.228222	5652.150276	30541.916855	3784.969701	14342.763614
59.537500	0.169895	0.079749	0.166303	0.265238	5539.712006	28889.908972	3738.729884	13414.862607
60.034500	0.187613	0.090853	0.185750	0.304026	5418.737239	27292.256284	3705.050420	12523.787085
60.535000	0.199555	0.099049	0.204759	0.334179	5318.803654	26095.514197	3686.313025	11884.010215
61.036000	0.214297	0.109427	0.210230	0.363799	5240.217436	25095.451134	3647.328244	11297.365419
61.535500	0.224997	0.117649	0.226046	0.383072	5196.139267	24540.748962	3641.921330	10936.567540
62.067000	0.240294	0.127812	0.243025	0.378572	5299.254410	25279.785668	3676.216185	11019.374242
62.539500	0.238022	0.129570	0.244881	0.410289	5125.062639	23795.955434	3628.993117	10453.582870
63.047500	0.243837	0.132572	0.248190	0.403142	5189.891815	24287.242087	3645.160892	10577.495147
63.561000	0.246842	0.137385	0.254435	0.407762	5181.704489	24296.663224	3647.708788	10497.160586
64.037500	0.252479	0.139835	0.258758	0.407734	5210.544153	24418.405469	3654.576583	10497.638419
64.537500	0.255247	0.140907	0.259356	0.412102	5202.357222	24256.583145	3648.620826	10422.459588
65.035000	0.260859	0.145179	0.264027	0.412255	5230.403337	24458.986711	3655.765021	10419.846456
65.535500	0.261957	0.148052	0.270046	0.413656	5228.838867	24531.775723	3663.143498	10395.901464
66.036000	0.267078	0.149932	0.270157	0.416051	5242.970426	24506.310623	3659.484091	10355.153582
66.536500	0.267004	0.151933	0.271563	0.421364	5215.136471	24343.078963	3653.268974	10265.543301
67.036000	0.271507	0.153367	0.273847	0.422009	5235.034638	24381.836023	3655.869389	10254.743215
67.537000	0.273050	0.154259	0.283197	0.423564	5234.968925	24349.224832	3668.372645	10228.752468
68.039500	0.274959	0.157006	0.278509	0.426023	5232.122602	24363.399989	3656.900356	10187.859181
68.536500	0.273181	0.157877	0.281702	0.430450	5200.247629	24189.342067	3654.937143	10114.810210
69.037500	0.278857	0.159650	0.286110	0.428090	5241.614855	24391.767258	3665.766601	10153.661897
69.534500	0.279668	0.163037	0.295296	0.431458	5228.369042	24392.728404	3675.211744	10098.288485
70.034500	0.280161	0.162769	0.290265	0.430459	5236.086593	24428.684369	3668.652300	10114.663415
70.537500	0.279833	0.162481	0.290205	0.433893	5216.675396	24245.996552	3663.017803	10058.516601
71.036000	0.284510	0.164379	0.295732	0.434642	5236.947338	24302.250984	3670.734890	10046.333073
71.536500	0.285148	0.164151	0.290029	0.436477	5230.752901	24201.407578	3658.600680	10016.568954
72.039500	0.286314	0.166860	0.296718	0.439804	5219.602501	24171.234015	3663.985888	9962.901292
72.540000	0.287197	0.167980	0.291911	0.444202	5201.597122	24012.233477	3649.336385	9892.606566
73.036500	0.289561	0.169267	0.299992	0.443660	5216.478009	24100.828303	3663.050560	9901.237602
73.537000	0.288973	0.169741	0.299550	0.445512	5203.972088	24033.987277	3659.375679	9871.796547
74.038000	0.290114	0.169165	0.295073	0.446181	5206.386432	23973.861326	3651.202151	9861.202242
74.535000	0.286650	0.168066	0.296312	0.449094	5174.007937	23781.144146	3648.563951	9815.233657
75.035000	0.287929	0.171023	0.294124	0.449415	5178.842949	23907.566545	3644.628505	9810.186939
75.536000	0.293271	0.171577	0.305237	0.450950	5198.157948	23860.444417	3659.774333	9786.115789
76.036000	0.294466	0.172149	0.302241	0.451443	5201.739764	23864.222001	3654.219018	9778.399749
76.536500	0.292474	0.173881	0.304039	0.455807	5169.533902	23738.311954	3650.161045	9710.488399
77.039000	0.293395	0.172810	0.313044	0.452871	5189.019855	23827.434219	3669.246140	9756.095113
77.536500	0.297993	0.175160	0.304337	0.454722	5203.001360	23851.379477	3652.345369	9727.304342
78.037000	0.294948	0.173422	0.300607	0.453456	5193.939800	23828.760333	3648.458310	9746.987000
78.539500	0.298075	0.175683	0.305620	0.454853	5202.753379	23870.187840	3654.168307	9725.272457
79.034500	0.295499	0.175002	0.304881	0.455093	5188.422655	23826.033287	3652.618706	9721.549317
79.535000	0.295083	0.174259	0.314297	0.454547	5189.080430	23816.566062	3668.561910	9730.016381
80.035500	0.296666	0.174588	0.304400	0.455069	5194.470793	23807.312046	3651.895022	9721.918857
80.536000	0.299183	0.177137	0.314703	0.458668	5188.974350	23757.132145	3662.573085	9666.324892
81.036500	0.295215	0.174695	0.306238	0.456452	5180.104939	23746.342981	3652.615023	9700.506503
81.539000	0.293741	0.176357	0.305057	0.458427	5162.741327	23731.430599	3647.640036	9670.041776
82.037000	0.298065	0.175068	0.310479	0.457702	5188.204418	23704.521025	3657.362649	9681.201029
82.537000	0.296647	0.175615	0.309682	0.459770	5170.594405	23632.217045	3652.814874	9649.401351
83.037000	0.293574	0.173458	0.303824	0.456784	5170.149334	23671.571820	3648.283556	9695.364070
83.537500	0.298576	0.176045	0.304856	0.457810	5190.247704	23745.952139	3648.292714	9679.533749
84.035000	0.297185	0.173283	0.304475	0.456656	5189.045745	23669.349123	3649.510020	9697.349091
84.584500	0.293963	0.175116	0.304538	0.457613	5167.941666	23711.088168	3648.104068	9682.582539
85.035500	0.295230	0.174788	0.309934	0.456349	5180.697248	23755.699481	3658.652150	9702.089135
85.566000	0.294601	0.176558	0.314121	0.458253	5167.930895	23749.337454	3662.306443	9672.718621
86.042000	0.292961	0.174644	0.300576	0.456304	5169.486470	23750.997830	3643.946598	9702.792813
86.537500	0.294327	0.174246	0.304102	0.458005	5167.797146	23651.028703	3646.802690	9676.528784
87.037000	0.294737	0.173412	0.301049	0.456005	5179.943572	23706.463715	3645.153903	9707.416085
87.537000	0.295069	0.173612	0.308554	0.456574	5178.746899	23688.921792	3656.094786	9698.610553
88.056500	0.292948	0.174350	0.306178	0.457555	5163.135557	23677.343492	3650.776678	9683.468687
88.535000	0.297269	0.175070	0.302204	0.459040	5177.403285	23640.979858	3642.216374	9660.599677
89.034500	0.297246	0.175311	0.315794	0.458673	5179.143599	23669.892053	3664.318424	9666.254565
89.535500	0.295590	0.173757	0.308080	0.457571	5176.344561	23648.435362	3653.759962	9683.229424
90.035500	0.296942	0.173748	0.303686	0.458062	5180.690529	23624.680150	3646.060536	9675.651182
90.538500	0.292612	0.172640	0.304293	0.458005	5159.194492	23574.835792	3647.102691	9676.528784
91.036500	0.296350	0.173099	0.310386	0.459170	5172.119842	23541.475603	3654.881697	9658.616429
91.537000	0.295948	0.173558	0.312581	0.460190	5164.970241	23515.014457	3656.749874	9642.959947
92.037000	0.294638	0.172838	0.307354	0.460257	5158.066547	23477.886389	3648.374238	9641.925354
92.537500	0.298538	0.172708	0.306114	0.460588	5175.997121	23456.161483	3645.909209	9636.860588
93.035000	0.295635	0.172467	0.314406	0.461539	5156.642644	23400.146243	3657.506298	9622.307340
93.535000	0.295560	0.173734	0.305079	0.463059	5148.682053	23388.266916	3640.436711	9599.121101
94.034500	0.300545	0.173760	0.307753	0.463090	5173.499029	23388.024116	3644.557653	9598.647873
94.535500	0.294809	0.171936	0.312336	0.462698	5146.738967	23320.973872	3652.380158	9604.617042
95.190000	0.299270	0.171757	0.311231	0.462940	5167.841317	23301.349330	3650.255187	9600.939896
95.535500	0.295110	0.171804	0.316454	0.462486	5149.298869	23324.740416	3659.264099	9607.859583
96.036500	0.299333	0.172365	0.309242	0.464206	5161.805235	23270.636389	3645.141957	9581.681225
96.556000	0.298075	0.172928	0.317799	0.465699	5148.060050	23227.300360	3656.286375	9559.046515
97.037000	0.297672	0.171674	0.308480	0.463568	5156.679800	23268.135315	3644.946168	9591.371852
97.597500	0.300202	0.172555	0.312381	0.466105	5156.643880	23191.067922	3647.082930	9552.891057
