sample name	sample
index	177
start time	 02-18-2021  11:01:29 AM


Wavelength (nm)	Absorbance
494.344910	0.064611
494.563924	0.064611
494.782919	0.064611
495.001897	-0.184186
495.220856	-0.083225
495.439797	-0.087160
495.658719	-0.084921
495.877624	-0.074374
496.096510	-0.061582
496.315378	-0.079920
496.534227	-0.050345
496.753059	-0.013654
496.971872	0.013748
497.190667	0.134355
497.409444	0.161315
497.628203	0.167375
497.846943	0.168284
498.065665	0.171478
498.284369	0.173155
498.503055	0.171772
498.721723	0.172725
498.940372	0.172931
499.159003	0.171823
499.377616	0.172074
499.596210	0.171982
499.814787	0.171283
500.033345	0.170937
500.251885	0.171055
500.470406	0.172509
500.688910	0.171852
500.907395	0.172330
501.125862	0.174105
501.344311	0.172531
501.562742	0.172177
501.781154	0.172845
501.999548	0.174224
502.217924	0.175269
502.436282	0.175724
502.654621	0.176891
502.872942	0.176527
503.091245	0.176632
503.309530	0.178077
503.527797	0.179631
503.746045	0.179476
503.964275	0.179162
504.182487	0.178864
504.400681	0.177818
504.618856	0.177395
504.837013	0.178630
505.055152	0.178093
505.273273	0.177543
505.491376	0.175758
505.709460	0.175929
505.927526	0.175637
506.145574	0.175693
506.363604	0.176234
506.581615	0.176741
506.799608	0.175637
507.017583	0.175007
507.235540	0.174730
507.453478	0.174624
507.671399	0.174811
507.889301	0.174941
508.107185	0.175485
508.325050	0.175271
508.542898	0.175071
508.760727	0.175787
508.978538	0.176939
509.196330	0.178405
509.414105	0.179639
509.631861	0.179879
509.849599	0.179433
510.067319	0.178956
510.285021	0.179799
510.502704	0.179280
510.720369	0.179239
510.938016	0.179095
511.155645	0.178809
511.373255	0.179196
511.590848	0.179130
511.808422	0.179785
512.025977	0.180592
512.243515	0.180872
512.461034	0.182497
512.678536	0.183147
512.896018	0.183892
513.113483	0.183007
513.330930	0.183558
513.548358	0.184224
513.765768	0.184543
513.983160	0.184745
514.200533	0.185089
514.417889	0.184183
514.635226	0.184297
514.852545	0.183098
515.069845	0.184031
515.287128	0.183038
515.504392	0.183488
515.721638	0.183490
515.938866	0.183628
516.156075	0.183386
516.373267	0.184117
516.590440	0.184672
516.807594	0.186697
517.024731	0.186777
517.241850	0.187020
517.458950	0.187149
517.676032	0.187890
517.893095	0.188667
518.110141	0.189069
518.327168	0.188830
518.544177	0.188640
518.761168	0.188223
518.978141	0.188697
519.195095	0.189693
519.412031	0.190613
519.628949	0.190345
519.845849	0.190146
520.062731	0.190196
520.279594	0.190899
520.496439	0.190676
520.713266	0.189965
520.930074	0.189352
521.146865	0.189822
521.363637	0.189518
521.580391	0.189534
521.797127	0.189464
522.013844	0.189762
522.230543	0.189530
522.447224	0.190115
522.663887	0.190286
522.880532	0.191588
523.097158	0.191488
523.313766	0.191581
523.530356	0.192049
523.746928	0.192581
523.963481	0.192717
524.180017	0.193272
524.396534	0.193324
524.613032	0.194006
524.829513	0.193856
525.045975	0.194391
525.262420	0.194286
525.478845	0.194727
525.695253	0.194960
525.911643	0.195942
526.128014	0.195762
526.344367	0.195805
526.560702	0.196495
526.777018	0.196845
526.993316	0.196641
527.209597	0.197297
527.425858	0.197761
527.642102	0.198550
527.858328	0.198586
528.074535	0.198987
528.290724	0.200101
528.506894	0.199655
528.723047	0.200074
528.939181	0.200278
529.155297	0.200094
529.371395	0.199907
529.587475	0.199414
529.803536	0.199369
530.019579	0.200080
530.235604	0.199897
530.451611	0.200912
530.667600	0.200894
530.883570	0.201149
531.099522	0.202331
531.315456	0.202795
531.531372	0.203039
531.747269	0.202426
531.963148	0.202825
532.179009	0.203304
532.394852	0.202933
532.610676	0.203656
532.826482	0.204202
533.042271	0.203898
533.258040	0.203795
533.473792	0.204178
533.689525	0.204964
533.905240	0.205006
534.120937	0.205096
534.336616	0.205741
534.552277	0.205409
534.767919	0.205442
534.983543	0.205740
535.199149	0.206681
535.414736	0.207233
535.630306	0.207997
535.845857	0.208479
536.061390	0.208897
536.276904	0.209239
536.492401	0.210032
536.707879	0.210252
536.923339	0.210305
537.138781	0.210347
537.354204	0.210450
537.569610	0.210305
537.784997	0.210250
538.000366	0.210723
538.215716	0.211166
538.431049	0.211101
538.646363	0.211138
538.861659	0.211833
539.076937	0.212265
539.292196	0.212723
539.507438	0.213291
539.722661	0.213711
539.937866	0.214455
540.153052	0.214855
540.368221	0.215343
540.583371	0.216333
540.798503	0.216453
541.013617	0.215985
541.228712	0.216240
541.443789	0.216217
541.658848	0.215850
541.873889	0.215599
542.088912	0.215884
542.303916	0.216549
542.518902	0.216260
542.733870	0.217362
542.948820	0.217926
543.163752	0.218679
543.378665	0.219119
543.593560	0.219949
543.808437	0.220475
544.023295	0.220676
544.238136	0.220687
544.452958	0.221789
544.667762	0.221856
544.882548	0.222393
545.097315	0.221730
545.312064	0.221604
545.526795	0.222023
545.741508	0.222437
545.956203	0.222783
546.170879	0.222822
546.385537	0.222754
546.600177	0.222440
546.814799	0.222538
547.029402	0.223016
547.243988	0.223630
547.458555	0.223805
547.673103	0.223583
547.887634	0.223720
548.102146	0.223836
548.316640	0.223895
548.531116	0.223858
548.745574	0.224562
548.960013	0.225090
549.174435	0.225984
549.388838	0.226311
549.603222	0.226797
549.817589	0.226988
550.031937	0.227920
550.246267	0.228463
550.460579	0.229048
550.674873	0.228868
550.889148	0.229576
551.103405	0.228730
551.317644	0.229324
551.531865	0.229331
551.746068	0.229349
551.960252	0.229449
552.174418	0.229663
552.388566	0.230396
552.602696	0.231045
552.816807	0.230300
553.030900	0.230979
553.244975	0.230646
553.459032	0.230655
553.673070	0.230876
553.887091	0.230376
554.101093	0.230741
554.315077	0.230694
554.529042	0.230350
554.742990	0.231339
554.956919	0.231824
555.170830	0.232281
555.384722	0.232830
555.598597	0.233385
555.812453	0.234373
556.026291	0.233976
556.240111	0.233731
556.453913	0.234690
556.667696	0.234668
556.881461	0.234689
557.095208	0.235270
557.308937	0.235664
557.522647	0.235907
557.736339	0.235495
557.950013	0.236286
558.163669	0.236960
558.377307	0.236708
558.590926	0.236778
558.804527	0.237509
559.018110	0.236772
559.231675	0.236704
559.445221	0.236860
559.658749	0.237583
559.872259	0.237531
560.085751	0.237759
560.299225	0.238347
560.512680	0.238945
560.726117	0.239051
560.939536	0.240128
561.152937	0.240284
561.366319	0.240459
561.579683	0.240591
561.793029	0.241116
562.006357	0.241152
562.219667	0.240855
562.432958	0.240597
562.646231	0.240383
562.859486	0.240230
563.072723	0.240174
563.285941	0.240157
563.499141	0.239824
563.712323	0.239614
563.925487	0.239651
564.138632	0.239737
564.351760	0.239935
564.564869	0.240417
564.777960	0.240660
564.991032	0.241068
565.204087	0.241685
565.417123	0.242442
565.630141	0.242586
565.843140	0.243329
566.056122	0.243985
566.269085	0.244490
566.482030	0.244546
566.694957	0.244763
566.907866	0.245253
567.120756	0.245520
567.333628	0.245506
567.546482	0.245776
567.759318	0.245829
567.972135	0.245549
568.184935	0.245498
568.397716	0.245762
568.610478	0.245954
568.823223	0.246149
569.035949	0.246445
569.248657	0.246877
569.461347	0.247320
569.674019	0.247242
569.886672	0.247933
570.099308	0.248539
570.311925	0.248762
570.524523	0.249031
570.737104	0.249216
570.949666	0.249123
571.162210	0.249084
571.374736	0.249286
571.587244	0.249733
571.799733	0.249660
572.012205	0.249330
572.224658	0.249907
572.437092	0.249899
572.649509	0.250196
572.861907	0.250196
573.074287	0.250593
573.286649	0.250253
573.498993	0.250239
573.711318	0.250405
573.923625	0.250834
574.135914	0.250622
574.348185	0.250755
574.560438	0.250442
574.772672	0.250342
574.984888	0.250391
575.197086	0.250714
575.409266	0.250238
575.621427	0.250695
575.833570	0.250755
576.045695	0.250747
576.257802	0.251315
576.469890	0.251682
576.681961	0.252326
576.894013	0.252592
577.106046	0.252744
577.318062	0.253519
577.530059	0.253416
577.742039	0.253037
577.954000	0.253316
578.165942	0.253240
578.377867	0.253330
578.589773	0.253616
578.801661	0.253591
579.013531	0.254030
579.225382	0.254261
579.437216	0.254215
579.649031	0.254879
579.860828	0.254774
580.072606	0.255146
580.284367	0.255443
580.496109	0.255390
580.707833	0.255623
580.919539	0.255652
581.131227	0.256197
581.342896	0.256896
581.554547	0.257404
581.766180	0.258160
581.977795	0.258099
582.189391	0.258406
582.400969	0.258465
582.612529	0.258735
582.824071	0.259095
583.035595	0.258979
583.247100	0.258851
583.458587	0.258655
583.670056	0.258541
583.881506	0.258947
584.092939	0.259081
584.304353	0.259736
584.515749	0.260407
584.727127	0.261041
584.938486	0.261117
585.149828	0.261516
585.361151	0.262225
585.572456	0.262453
585.783742	0.262613
585.995011	0.262751
586.206261	0.262826
586.417493	0.262590
586.628706	0.262391
586.839902	0.262528
587.051079	0.262967
587.262238	0.263061
587.473379	0.263422
587.684502	0.263842
587.895606	0.263674
588.106692	0.263444
588.317760	0.264048
588.528810	0.264364
588.739841	0.264874
588.950855	0.264713
589.161850	0.264399
589.372827	0.264392
589.583785	0.264110
589.794726	0.264912
590.005648	0.265680
590.216552	0.265258
590.427437	0.265101
590.638305	0.265821
590.849154	0.265904
591.059985	0.266491
591.270798	0.266771
591.481592	0.267425
591.692369	0.267588
591.903127	0.267486
592.113867	0.267695
592.324588	0.268346
592.535292	0.267848
592.745977	0.268110
592.956644	0.267885
593.167293	0.268062
593.377923	0.268023
593.588536	0.267973
593.799130	0.268338
594.009706	0.268543
594.220263	0.268633
594.430803	0.268467
594.641324	0.268940
594.851827	0.269219
595.062312	0.269158
595.272778	0.269317
595.483227	0.269263
595.693657	0.269350
595.904069	0.269707
596.114462	0.269676
596.324838	0.270412
596.535195	0.270495
596.745534	0.271003
596.955855	0.271548
597.166157	0.271794
597.376441	0.272253
597.586707	0.272650
597.796955	0.272966
598.007185	0.273431
598.217396	0.273762
598.427589	0.274149
598.637764	0.274210
598.847921	0.274461
599.058060	0.274882
599.268180	0.275057
599.478282	0.275002
599.688366	0.275472
599.898431	0.275446
600.108479	0.275467
600.318508	0.275644
600.528519	0.275977
600.738511	0.275864
600.948486	0.276148
601.158442	0.276584
601.368380	0.276849
601.578300	0.276977
601.788202	0.276951
601.998085	0.277016
602.207950	0.276986
602.417797	0.277092
602.627626	0.277542
602.837436	0.277464
603.047228	0.277219
603.257002	0.277150
603.466758	0.276957
603.676496	0.277660
603.886215	0.278014
604.095916	0.278077
604.305599	0.278399
604.515264	0.278472
604.724910	0.278702
604.934538	0.279098
605.144148	0.279764
605.353740	0.280166
605.563314	0.280079
605.772869	0.280200
605.982406	0.280393
606.191925	0.280829
606.401425	0.281312
606.610908	0.281543
606.820372	0.281502
607.029818	0.281453
607.239246	0.281360
607.448655	0.281577
607.658047	0.281680
607.867420	0.281944
608.076775	0.281721
608.286111	0.281323
608.495430	0.281516
608.704730	0.281595
608.914012	0.281529
609.123275	0.281762
609.332521	0.282056
609.541748	0.282315
609.750957	0.282293
609.960148	0.282310
610.169321	0.282918
610.378475	0.283106
610.587611	0.283866
610.796729	0.284062
611.005829	0.284211
611.214910	0.284070
611.423974	0.284168
611.633019	0.284549
611.842045	0.284704
612.051054	0.284596
612.260044	0.284597
612.469017	0.284657
612.677970	0.284780
612.886906	0.284822
613.095824	0.285089
613.304723	0.285129
613.513604	0.285046
613.722467	0.285295
613.931311	0.285689
614.140138	0.285852
614.348946	0.285821
614.557736	0.286235
614.766507	0.286516
614.975261	0.286617
615.183996	0.286815
615.392713	0.287200
615.601412	0.287310
615.810092	0.287076
616.018754	0.286966
616.227399	0.287305
616.436024	0.287341
616.644632	0.287562
616.853222	0.288072
617.061793	0.287709
617.270346	0.287669
617.478880	0.287940
617.687397	0.288312
617.895895	0.288704
618.104375	0.288785
618.312837	0.289084
618.521281	0.289202
618.729706	0.289521
618.938113	0.290038
619.146502	0.290320
619.354873	0.290395
619.563226	0.290464
619.771560	0.290590
619.979876	0.290650
620.188174	0.290595
620.396453	0.290736
620.604715	0.290386
620.812958	0.290617
621.021183	0.290848
621.229390	0.291176
621.437578	0.291555
621.645748	0.291754
621.853900	0.291750
622.062034	0.292145
622.270150	0.292339
622.478247	0.292558
622.686326	0.292505
622.894387	0.292745
623.102430	0.292880
623.310454	0.292638
623.518461	0.292945
623.726449	0.293447
623.934418	0.293398
624.142370	0.293592
624.350303	0.294048
624.558218	0.294550
624.766115	0.294541
624.973994	0.294776
625.181855	0.295165
625.389697	0.295220
625.597521	0.295612
625.805327	0.295653
626.013114	0.295840
626.220883	0.296003
626.428634	0.296097
626.636367	0.296202
626.844082	0.296458
627.051778	0.296821
627.259457	0.297115
627.467117	0.296871
627.674758	0.297226
627.882382	0.297410
628.089987	0.297411
628.297574	0.297470
628.505143	0.297937
628.712694	0.297859
628.920226	0.297825
629.127740	0.297796
629.335236	0.297709
629.542714	0.298138
629.750174	0.298321
629.957615	0.298250
630.165038	0.298627
630.372443	0.298394
630.579829	0.298772
630.787198	0.299013
630.994548	0.299314
631.201880	0.299802
631.409194	0.299411
631.616489	0.299356
631.823766	0.299964
632.031025	0.300051
632.238266	0.300591
632.445489	0.300444
632.652693	0.300741
632.859879	0.300551
633.067047	0.300756
633.274197	0.301185
633.481329	0.301163
633.688442	0.300711
633.895537	0.300855
634.102614	0.300875
634.309672	0.301121
634.516713	0.301318
634.723735	0.301720
634.930739	0.301821
635.137724	0.301962
635.344692	0.302604
635.551641	0.302876
635.758572	0.303335
635.965485	0.303756
636.172379	0.304042
636.379256	0.303881
636.586114	0.303990
636.792954	0.304324
636.999775	0.304584
637.206579	0.304793
637.413364	0.305344
637.620131	0.305519
637.826880	0.305466
638.033610	0.305506
638.240323	0.305856
638.447017	0.306170
638.653692	0.306204
638.860350	0.306238
639.066990	0.306399
639.273611	0.306274
639.480214	0.306145
639.686798	0.306169
639.893365	0.306437
640.099913	0.306465
640.306443	0.306510
640.512955	0.306573
640.719449	0.307057
640.925924	0.307089
641.132381	0.307645
641.338820	0.307966
641.545241	0.308323
641.751644	0.308513
641.958028	0.308768
642.164394	0.308955
642.370742	0.309228
642.577071	0.309123
642.783383	0.309051
642.989676	0.308870
643.195951	0.308878
643.402207	0.309140
643.608446	0.309197
643.814666	0.309655
644.020868	0.310014
644.227052	0.310252
644.433218	0.310577
644.639365	0.311267
644.845494	0.311550
645.051605	0.312011
645.257698	0.312035
645.463772	0.312545
645.669828	0.312619
645.875866	0.312781
646.081886	0.313108
646.287888	0.313402
646.493871	0.313257
646.699836	0.313524
646.905783	0.313682
647.111712	0.314148
647.317622	0.314227
647.523514	0.314119
647.729388	0.314310
647.935244	0.314295
648.141082	0.314337
648.346901	0.314885
648.552702	0.315057
648.758485	0.315173
648.964250	0.315198
649.169996	0.315470
649.375724	0.316037
649.581434	0.316394
649.787126	0.316684
649.992800	0.317149
650.198455	0.317223
650.404092	0.317760
650.609711	0.317862
650.815311	0.317941
651.020894	0.317933
651.226458	0.318136
651.432004	0.318035
651.637532	0.318205
651.843041	0.318207
652.048532	0.318299
652.254006	0.318351
652.459460	0.318637
652.664897	0.318932
652.870315	0.319313
653.075716	0.319364
653.281097	0.319683
653.486461	0.319987
653.691807	0.320034
653.897134	0.320453
654.102443	0.320651
654.307734	0.320748
654.513006	0.321013
654.718261	0.321170
654.923497	0.321406
655.128715	0.321817
655.333915	0.321962
655.539096	0.322217
655.744259	0.322148
655.949404	0.322183
656.154531	0.322530
656.359640	0.322793
656.564730	0.322915
656.769802	0.323490
656.974856	0.323695
657.179892	0.324057
657.384909	0.324294
657.589908	0.324341
657.794889	0.324871
657.999852	0.325143
658.204797	0.325376
658.409723	0.326039
658.614631	0.325937
658.819521	0.326130
659.024393	0.326108
659.229246	0.326469
659.434081	0.326945
659.638898	0.326946
659.843697	0.326978
660.048478	0.327045
660.253240	0.326870
660.457984	0.327234
660.662710	0.327294
660.867417	0.327428
661.072107	0.327701
661.276778	0.327897
661.481431	0.327958
661.686066	0.328366
661.890682	0.328665
662.095281	0.328975
662.299861	0.329188
662.504422	0.329578
662.708966	0.330078
662.913491	0.330387
663.117999	0.330797
663.322488	0.331097
663.526958	0.331243
663.731411	0.331559
663.935845	0.331564
664.140261	0.331730
664.344659	0.331667
664.549038	0.331995
664.753400	0.332090
664.957743	0.332236
665.162068	0.332721
665.366375	0.332886
665.570663	0.333154
665.774933	0.333874
665.979185	0.334103
666.183419	0.334449
666.387635	0.334741
666.591832	0.334947
666.796011	0.335176
667.000172	0.335196
667.204315	0.335413
667.408439	0.335339
667.612545	0.335298
667.816634	0.335512
668.020703	0.335641
668.224755	0.335297
668.428788	0.335489
668.632803	0.335732
668.836800	0.335724
669.040779	0.335946
669.244739	0.336193
669.448681	0.336273
669.652605	0.336303
669.856511	0.336434
670.060399	0.336939
670.264268	0.336847
670.468119	0.336726
670.671952	0.337198
670.875767	0.337590
671.079563	0.337974
671.283341	0.338206
671.487101	0.338597
671.690843	0.338833
671.894567	0.339039
672.098272	0.339677
672.301959	0.340289
672.505628	0.340659
672.709278	0.340643
672.912911	0.341081
673.116525	0.341229
673.320121	0.341375
673.523699	0.341974
673.727258	0.342166
673.930799	0.342194
674.134322	0.342451
674.337827	0.342752
674.541314	0.343311
674.744782	0.343415
674.948232	0.343942
675.151664	0.344461
675.355078	0.344485
675.558474	0.344853
675.761851	0.345344
675.965210	0.345403
676.168551	0.345558
676.371873	0.345616
676.575178	0.345887
676.778464	0.346122
676.981732	0.346303
677.184981	0.346469
677.388213	0.346706
677.591426	0.347161
677.794621	0.347454
677.997798	0.347597
678.200956	0.347864
678.404097	0.348020
678.607219	0.348025
678.810323	0.348109
679.013408	0.348504
679.216476	0.348930
679.419525	0.348772
679.622556	0.349225
679.825569	0.349694
680.028563	0.349970
680.231540	0.350106
680.434498	0.350359
680.637438	0.350483
680.840359	0.350793
681.043263	0.350887
681.246148	0.351203
681.449015	0.351441
681.651864	0.351276
681.854694	0.351526
682.057506	0.351654
682.260301	0.351845
682.463076	0.352322
682.665834	0.352516
682.868573	0.352832
683.071295	0.353117
683.273998	0.353255
683.476682	0.353718
683.679349	0.353809
683.881997	0.354199
684.084627	0.354618
684.287239	0.354550
684.489833	0.354734
684.692408	0.354750
684.894965	0.354863
685.097504	0.354954
685.300025	0.355157
685.502527	0.355424
685.705012	0.355685
685.907478	0.355739
686.109925	0.356009
686.312355	0.356206
686.514766	0.356506
686.717159	0.356802
686.919534	0.356915
687.121891	0.357194
687.324230	0.357494
687.526550	0.357747
687.728852	0.357851
687.931136	0.358212
688.133401	0.358394
688.335649	0.358620
688.537878	0.358950
688.740089	0.359505
688.942281	0.359721
689.144456	0.359759
689.346612	0.359931
689.548750	0.360581
689.750870	0.360792
689.952971	0.360996
690.155055	0.361328
690.357120	0.361287
690.559167	0.361378
690.761195	0.361449
690.963206	0.361843
691.165198	0.361889
691.367172	0.361905
691.569128	0.362043
691.771065	0.362520
691.972984	0.362371
692.174885	0.362762
692.376768	0.362893
692.578633	0.363066
692.780479	0.363145
692.982308	0.363281
693.184118	0.363588
693.385909	0.363726
