sample name	sample
index	1138
start time	 04-22-2021  02:40:06 PM


Wavelength (nm)	Absorbance
494.344910	-0.898273
494.563924	-0.898273
494.782919	-0.898273
495.001897	-0.231001
495.220856	-0.249677
495.439797	-0.202904
495.658719	-0.082392
495.877624	-0.108748
496.096510	-0.055105
496.315378	-0.063387
496.534227	0.049140
496.753059	-0.014707
496.971872	-0.020763
497.190667	0.136782
497.409444	0.131693
497.628203	0.130634
497.846943	0.134055
498.065665	0.134384
498.284369	0.135018
498.503055	0.133193
498.721723	0.132018
498.940372	0.131564
499.159003	0.130523
499.377616	0.130612
499.596210	0.131301
499.814787	0.129979
500.033345	0.130879
500.251885	0.130104
500.470406	0.129667
500.688910	0.130909
500.907395	0.131003
501.125862	0.132018
501.344311	0.133518
501.562742	0.132706
501.781154	0.132795
501.999548	0.130910
502.217924	0.131386
502.436282	0.132761
502.654621	0.133660
502.872942	0.134960
503.091245	0.135258
503.309530	0.135086
503.527797	0.135986
503.746045	0.137739
503.964275	0.138780
504.182487	0.139559
504.400681	0.139163
504.618856	0.138184
504.837013	0.138229
505.055152	0.137328
505.273273	0.137703
505.491376	0.137990
505.709460	0.137203
505.927526	0.138099
506.145574	0.137958
506.363604	0.138150
506.581615	0.138110
506.799608	0.138544
507.017583	0.139443
507.235540	0.139062
507.453478	0.139229
507.671399	0.139321
507.889301	0.138353
508.107185	0.139178
508.325050	0.138885
508.542898	0.139617
508.760727	0.138136
508.978538	0.137069
509.196330	0.137576
509.414105	0.136648
509.631861	0.136405
509.849599	0.136795
510.067319	0.136766
510.285021	0.138386
510.502704	0.138827
510.720369	0.139899
510.938016	0.140972
511.155645	0.141516
511.373255	0.142381
511.590848	0.143027
511.808422	0.143317
512.025977	0.142864
512.243515	0.142097
512.461034	0.143057
512.678536	0.144066
512.896018	0.145089
513.113483	0.144305
513.330930	0.144575
513.548358	0.145162
513.765768	0.145131
513.983160	0.145689
514.200533	0.145870
514.417889	0.145620
514.635226	0.145263
514.852545	0.144329
515.069845	0.145150
515.287128	0.145519
515.504392	0.146200
515.721638	0.146854
515.938866	0.146532
516.156075	0.148191
516.373267	0.148662
516.590440	0.148774
516.807594	0.148810
517.024731	0.149872
517.241850	0.149876
517.458950	0.150092
517.676032	0.150548
517.893095	0.151312
518.110141	0.150187
518.327168	0.150159
518.544177	0.151010
518.761168	0.151412
518.978141	0.150721
519.195095	0.151061
519.412031	0.150290
519.628949	0.150967
519.845849	0.151688
520.062731	0.151691
520.279594	0.151974
520.496439	0.151539
520.713266	0.152288
520.930074	0.152286
521.146865	0.151661
521.363637	0.152252
521.580391	0.151621
521.797127	0.151388
522.013844	0.152107
522.230543	0.152348
522.447224	0.153016
522.663887	0.152448
522.880532	0.153097
523.097158	0.154586
523.313766	0.155943
523.530356	0.156736
523.746928	0.156869
523.963481	0.157690
524.180017	0.157951
524.396534	0.158400
524.613032	0.159000
524.829513	0.159001
525.045975	0.158478
525.262420	0.158416
525.478845	0.158154
525.695253	0.158146
525.911643	0.158099
526.128014	0.159069
526.344367	0.159511
526.560702	0.159783
526.777018	0.160431
526.993316	0.160937
527.209597	0.160445
527.425858	0.160564
527.642102	0.161385
527.858328	0.161632
528.074535	0.161619
528.290724	0.161761
528.506894	0.162232
528.723047	0.162238
528.939181	0.162357
529.155297	0.162710
529.371395	0.163514
529.587475	0.163900
529.803536	0.164252
530.019579	0.164461
530.235604	0.164543
530.451611	0.165014
530.667600	0.165246
530.883570	0.165900
531.099522	0.166728
531.315456	0.166908
531.531372	0.167383
531.747269	0.168270
531.963148	0.168668
532.179009	0.168966
532.394852	0.169366
532.610676	0.170163
532.826482	0.170492
533.042271	0.170809
533.258040	0.171460
533.473792	0.171398
533.689525	0.170659
533.905240	0.170402
534.120937	0.170679
534.336616	0.171052
534.552277	0.171433
534.767919	0.171731
534.983543	0.171697
535.199149	0.171964
535.414736	0.172374
535.630306	0.172994
535.845857	0.173189
536.061390	0.172989
536.276904	0.173120
536.492401	0.173054
536.707879	0.173461
536.923339	0.173809
537.138781	0.173764
537.354204	0.174288
537.569610	0.174948
537.784997	0.174747
538.000366	0.175774
538.215716	0.175883
538.431049	0.175956
538.646363	0.176477
538.861659	0.176788
539.076937	0.177521
539.292196	0.177408
539.507438	0.177767
539.722661	0.178699
539.937866	0.178952
540.153052	0.179471
540.368221	0.179936
540.583371	0.180105
540.798503	0.180230
541.013617	0.179863
541.228712	0.179913
541.443789	0.180392
541.658848	0.180938
541.873889	0.180854
542.088912	0.181640
542.303916	0.182000
542.518902	0.182185
542.733870	0.182581
542.948820	0.183027
543.163752	0.183504
543.378665	0.183242
543.593560	0.183043
543.808437	0.183878
544.023295	0.183987
544.238136	0.183996
544.452958	0.184250
544.667762	0.184671
544.882548	0.185276
545.097315	0.185641
545.312064	0.186169
545.526795	0.186493
545.741508	0.186090
545.956203	0.186349
546.170879	0.186887
546.385537	0.187233
546.600177	0.187718
546.814799	0.187958
547.029402	0.187998
547.243988	0.188098
547.458555	0.188374
547.673103	0.188583
547.887634	0.188624
548.102146	0.188873
548.316640	0.189572
548.531116	0.189219
548.745574	0.189471
548.960013	0.189965
549.174435	0.189848
549.388838	0.190120
549.603222	0.191130
549.817589	0.191207
550.031937	0.191605
550.246267	0.191370
550.460579	0.191784
550.674873	0.191937
550.889148	0.192267
551.103405	0.192619
551.317644	0.192955
551.531865	0.192651
551.746068	0.192738
551.960252	0.192494
552.174418	0.192851
552.388566	0.192701
552.602696	0.192865
552.816807	0.192751
553.030900	0.193023
553.244975	0.193478
553.459032	0.193906
553.673070	0.194241
553.887091	0.194485
554.101093	0.194397
554.315077	0.194921
554.529042	0.194769
554.742990	0.195240
554.956919	0.195619
555.170830	0.195380
555.384722	0.195333
555.598597	0.195358
555.812453	0.195279
556.026291	0.194908
556.240111	0.195416
556.453913	0.195641
556.667696	0.195285
556.881461	0.195312
557.095208	0.195708
557.308937	0.195868
557.522647	0.195720
557.736339	0.196186
557.950013	0.196805
558.163669	0.196509
558.377307	0.196707
558.590926	0.197384
558.804527	0.197716
559.018110	0.197625
559.231675	0.197963
559.445221	0.198742
559.658749	0.198820
559.872259	0.198850
560.085751	0.198890
560.299225	0.199374
560.512680	0.199584
560.726117	0.199832
560.939536	0.199994
561.152937	0.199402
561.366319	0.199120
561.579683	0.199379
561.793029	0.200053
562.006357	0.200184
562.219667	0.199967
562.432958	0.199695
562.646231	0.199598
562.859486	0.200058
563.072723	0.200443
563.285941	0.200476
563.499141	0.200246
563.712323	0.200018
563.925487	0.200726
564.138632	0.201265
564.351760	0.201817
564.564869	0.201786
564.777960	0.201913
564.991032	0.201947
565.204087	0.202191
565.417123	0.202443
565.630141	0.202357
565.843140	0.202395
566.056122	0.202029
566.269085	0.201747
566.482030	0.201485
566.694957	0.201162
566.907866	0.201719
567.120756	0.202062
567.333628	0.202343
567.546482	0.202432
567.759318	0.202118
567.972135	0.202332
568.184935	0.202768
568.397716	0.203325
568.610478	0.203630
568.823223	0.203761
569.035949	0.203729
569.248657	0.203515
569.461347	0.203612
569.674019	0.203580
569.886672	0.203746
570.099308	0.204056
570.311925	0.203841
570.524523	0.204027
570.737104	0.204087
570.949666	0.203970
571.162210	0.204291
571.374736	0.204256
571.587244	0.205039
571.799733	0.205332
572.012205	0.204872
572.224658	0.205153
572.437092	0.205372
572.649509	0.205255
572.861907	0.205368
573.074287	0.205409
573.286649	0.205593
573.498993	0.205032
573.711318	0.204805
573.923625	0.205220
574.135914	0.205427
574.348185	0.205310
574.560438	0.205357
574.772672	0.205984
574.984888	0.206208
575.197086	0.206252
575.409266	0.206722
575.621427	0.207247
575.833570	0.207168
576.045695	0.207325
576.257802	0.207481
576.469890	0.207787
576.681961	0.208048
576.894013	0.207830
577.106046	0.208218
577.318062	0.208737
577.530059	0.208647
577.742039	0.208919
577.954000	0.208933
578.165942	0.208708
578.377867	0.208720
578.589773	0.208736
578.801661	0.209069
579.013531	0.209325
579.225382	0.208956
579.437216	0.209216
579.649031	0.209326
579.860828	0.209625
580.072606	0.210184
580.284367	0.210993
580.496109	0.210889
580.707833	0.211075
580.919539	0.211155
581.131227	0.211292
581.342896	0.210985
581.554547	0.211487
581.766180	0.211756
581.977795	0.211554
582.189391	0.210836
582.400969	0.210987
582.612529	0.211155
582.824071	0.211114
583.035595	0.211041
583.247100	0.211603
583.458587	0.211465
583.670056	0.211495
583.881506	0.211821
584.092939	0.211940
584.304353	0.211756
584.515749	0.211645
584.727127	0.211965
584.938486	0.212369
585.149828	0.212556
585.361151	0.212325
585.572456	0.212413
585.783742	0.212489
585.995011	0.212863
586.206261	0.213133
586.417493	0.213357
586.628706	0.213253
586.839902	0.213657
587.051079	0.213436
587.262238	0.213755
587.473379	0.213817
587.684502	0.214138
587.895606	0.214322
588.106692	0.214413
588.317760	0.214445
588.528810	0.214428
588.739841	0.214664
588.950855	0.214789
589.161850	0.215331
589.372827	0.215514
589.583785	0.216086
589.794726	0.215991
590.005648	0.216302
590.216552	0.216896
590.427437	0.217125
590.638305	0.217081
590.849154	0.217687
591.059985	0.217448
591.270798	0.217441
591.481592	0.217480
591.692369	0.217907
591.903127	0.218227
592.113867	0.218485
592.324588	0.218902
592.535292	0.219521
592.745977	0.219386
592.956644	0.219945
593.167293	0.220456
593.377923	0.220148
593.588536	0.220409
593.799130	0.220573
594.009706	0.220868
594.220263	0.220930
594.430803	0.220716
594.641324	0.220779
594.851827	0.220676
595.062312	0.220687
595.272778	0.221029
595.483227	0.220842
595.693657	0.221161
595.904069	0.221243
596.114462	0.221534
596.324838	0.221604
596.535195	0.221760
596.745534	0.221865
596.955855	0.222093
597.166157	0.222131
597.376441	0.222275
597.586707	0.221951
597.796955	0.221761
598.007185	0.221826
598.217396	0.222003
598.427589	0.221961
598.637764	0.222177
598.847921	0.222115
599.058060	0.221933
599.268180	0.221872
599.478282	0.221907
599.688366	0.221998
599.898431	0.222406
600.108479	0.222246
600.318508	0.222707
600.528519	0.222790
600.738511	0.222757
600.948486	0.223479
601.158442	0.223961
601.368380	0.224254
601.578300	0.224577
601.788202	0.224408
601.998085	0.224494
602.207950	0.224083
602.417797	0.224089
602.627626	0.224132
602.837436	0.224083
603.047228	0.224071
603.257002	0.224237
603.466758	0.224160
603.676496	0.224209
603.886215	0.224153
604.095916	0.224453
604.305599	0.224458
604.515264	0.225223
604.724910	0.225062
604.934538	0.225470
605.144148	0.225461
605.353740	0.225606
605.563314	0.225883
605.772869	0.226378
605.982406	0.226604
606.191925	0.226820
606.401425	0.226534
606.610908	0.226688
606.820372	0.226690
607.029818	0.226738
607.239246	0.226464
607.448655	0.226465
607.658047	0.226332
607.867420	0.226017
608.076775	0.226037
608.286111	0.226166
608.495430	0.226313
608.704730	0.226440
608.914012	0.226858
609.123275	0.227514
609.332521	0.227642
609.541748	0.228044
609.750957	0.228901
609.960148	0.229347
610.169321	0.229422
610.378475	0.229788
610.587611	0.229633
610.796729	0.230024
611.005829	0.230205
611.214910	0.230371
611.423974	0.230769
611.633019	0.231081
611.842045	0.231034
612.051054	0.231288
612.260044	0.231593
612.469017	0.232196
612.677970	0.231691
612.886906	0.231410
613.095824	0.231335
613.304723	0.231054
613.513604	0.230592
613.722467	0.230453
613.931311	0.230272
614.140138	0.230179
614.348946	0.230243
614.557736	0.230323
614.766507	0.230675
614.975261	0.230987
615.183996	0.231134
615.392713	0.231544
615.601412	0.231987
615.810092	0.232373
616.018754	0.232378
616.227399	0.232681
616.436024	0.233121
616.644632	0.233449
616.853222	0.233180
617.061793	0.233224
617.270346	0.232962
617.478880	0.232809
617.687397	0.232692
617.895895	0.232579
618.104375	0.232324
618.312837	0.232462
618.521281	0.232298
618.729706	0.232533
618.938113	0.232834
619.146502	0.233441
619.354873	0.233653
619.563226	0.233779
619.771560	0.234016
619.979876	0.234182
620.188174	0.234229
620.396453	0.234593
620.604715	0.234855
620.812958	0.235049
621.021183	0.235000
621.229390	0.235178
621.437578	0.235398
621.645748	0.235415
621.853900	0.235221
622.062034	0.235329
622.270150	0.235363
622.478247	0.235431
622.686326	0.235557
622.894387	0.235354
623.102430	0.235416
623.310454	0.235403
623.518461	0.235821
623.726449	0.236045
623.934418	0.236112
624.142370	0.236337
624.350303	0.236463
624.558218	0.236470
624.766115	0.237042
624.973994	0.237261
625.181855	0.237384
625.389697	0.237370
625.597521	0.237573
625.805327	0.237787
626.013114	0.238075
626.220883	0.238399
626.428634	0.238499
626.636367	0.238427
626.844082	0.238492
627.051778	0.238843
627.259457	0.239067
627.467117	0.239327
627.674758	0.239542
627.882382	0.239250
628.089987	0.239535
628.297574	0.239851
628.505143	0.239859
628.712694	0.239787
628.920226	0.240107
629.127740	0.240306
629.335236	0.240158
629.542714	0.240034
629.750174	0.240283
629.957615	0.240148
630.165038	0.239889
630.372443	0.240221
630.579829	0.240520
630.787198	0.240244
630.994548	0.240080
631.201880	0.240445
631.409194	0.240588
631.616489	0.240630
631.823766	0.240696
632.031025	0.241096
632.238266	0.241084
632.445489	0.241022
632.652693	0.241298
632.859879	0.241704
633.067047	0.241811
633.274197	0.242076
633.481329	0.242206
633.688442	0.242522
633.895537	0.242557
634.102614	0.242795
634.309672	0.243213
634.516713	0.243395
634.723735	0.243555
634.930739	0.243575
635.137724	0.243808
635.344692	0.243986
635.551641	0.244092
635.758572	0.244131
635.965485	0.244203
636.172379	0.244237
636.379256	0.244415
636.586114	0.244358
636.792954	0.244541
636.999775	0.244708
637.206579	0.244915
637.413364	0.245236
637.620131	0.245474
637.826880	0.245803
638.033610	0.246005
638.240323	0.246059
638.447017	0.246228
638.653692	0.246457
638.860350	0.246758
639.066990	0.246840
639.273611	0.246856
639.480214	0.246992
639.686798	0.247355
639.893365	0.247565
640.099913	0.247688
640.306443	0.247815
640.512955	0.248004
640.719449	0.247898
640.925924	0.248230
641.132381	0.248434
641.338820	0.248542
641.545241	0.248350
641.751644	0.248373
641.958028	0.248555
642.164394	0.248848
642.370742	0.248854
642.577071	0.249140
642.783383	0.249265
642.989676	0.249214
643.195951	0.249319
643.402207	0.249388
643.608446	0.249663
643.814666	0.249785
644.020868	0.249759
644.227052	0.250051
644.433218	0.249822
644.639365	0.249696
644.845494	0.249999
645.051605	0.250143
645.257698	0.250546
645.463772	0.250535
645.669828	0.250868
645.875866	0.251164
646.081886	0.251539
646.287888	0.251767
646.493871	0.252133
646.699836	0.252139
646.905783	0.252503
647.111712	0.252660
647.317622	0.252836
647.523514	0.253110
647.729388	0.253372
647.935244	0.253233
648.141082	0.253685
648.346901	0.254054
648.552702	0.254239
648.758485	0.254489
648.964250	0.254630
649.169996	0.254976
649.375724	0.255066
649.581434	0.255006
649.787126	0.255506
649.992800	0.255564
650.198455	0.255453
650.404092	0.255437
650.609711	0.255599
650.815311	0.255609
651.020894	0.255820
651.226458	0.255947
651.432004	0.256314
651.637532	0.256024
651.843041	0.256206
652.048532	0.256603
652.254006	0.257025
652.459460	0.256957
652.664897	0.257186
652.870315	0.257360
653.075716	0.257333
653.281097	0.257470
653.486461	0.257812
653.691807	0.257972
653.897134	0.257901
654.102443	0.257798
654.307734	0.257991
654.513006	0.258090
654.718261	0.258418
654.923497	0.258782
655.128715	0.258839
655.333915	0.259230
655.539096	0.259515
655.744259	0.259871
655.949404	0.260410
656.154531	0.260598
656.359640	0.260981
656.564730	0.261112
656.769802	0.261214
656.974856	0.261499
657.179892	0.261513
657.384909	0.261614
657.589908	0.261783
657.794889	0.262110
657.999852	0.262377
658.204797	0.262504
658.409723	0.262572
658.614631	0.262787
658.819521	0.262971
659.024393	0.263028
659.229246	0.263123
659.434081	0.263492
659.638898	0.263455
659.843697	0.263628
660.048478	0.263777
660.253240	0.263661
660.457984	0.263758
660.662710	0.263833
660.867417	0.264147
661.072107	0.264546
661.276778	0.264374
661.481431	0.264588
661.686066	0.264627
661.890682	0.264901
662.095281	0.265258
662.299861	0.265269
662.504422	0.265316
662.708966	0.265553
662.913491	0.265521
663.117999	0.265578
663.322488	0.265614
663.526958	0.265867
663.731411	0.265751
663.935845	0.265633
664.140261	0.265980
664.344659	0.266379
664.549038	0.266515
664.753400	0.266555
664.957743	0.266842
665.162068	0.267115
665.366375	0.267204
665.570663	0.267485
665.774933	0.268046
665.979185	0.268319
666.183419	0.268548
666.387635	0.268734
666.591832	0.269081
666.796011	0.269296
667.000172	0.269462
667.204315	0.270085
667.408439	0.270208
667.612545	0.270423
667.816634	0.270715
668.020703	0.270786
668.224755	0.270890
668.428788	0.271125
668.632803	0.271486
668.836800	0.271611
669.040779	0.271557
669.244739	0.271802
669.448681	0.271923
669.652605	0.271937
669.856511	0.272453
670.060399	0.272817
670.264268	0.273127
670.468119	0.273308
670.671952	0.273865
670.875767	0.274256
671.079563	0.274725
671.283341	0.275174
671.487101	0.275655
671.690843	0.275726
671.894567	0.275860
672.098272	0.276032
672.301959	0.276359
672.505628	0.276176
672.709278	0.276332
672.912911	0.276398
673.116525	0.276515
673.320121	0.276703
673.523699	0.276972
673.727258	0.277267
673.930799	0.277542
674.134322	0.277730
674.337827	0.278160
674.541314	0.278383
674.744782	0.278784
674.948232	0.279042
675.151664	0.279046
675.355078	0.279426
675.558474	0.279726
675.761851	0.279766
675.965210	0.279833
676.168551	0.279775
676.371873	0.279802
676.575178	0.279904
676.778464	0.279772
676.981732	0.279984
677.184981	0.279781
677.388213	0.279994
677.591426	0.280306
677.794621	0.280587
677.997798	0.280958
678.200956	0.281152
678.404097	0.281409
678.607219	0.281896
678.810323	0.281892
679.013408	0.282375
679.216476	0.282510
679.419525	0.282637
679.622556	0.282817
679.825569	0.283526
680.028563	0.283696
680.231540	0.283797
680.434498	0.284199
680.637438	0.284789
680.840359	0.285007
681.043263	0.285077
681.246148	0.285220
681.449015	0.285455
681.651864	0.285196
681.854694	0.285522
682.057506	0.285808
682.260301	0.285500
682.463076	0.285664
682.665834	0.285801
682.868573	0.286178
683.071295	0.286601
683.273998	0.286766
683.476682	0.287081
683.679349	0.287377
683.881997	0.287554
684.084627	0.288049
684.287239	0.288207
684.489833	0.288497
684.692408	0.288616
684.894965	0.288642
685.097504	0.288634
685.300025	0.288485
685.502527	0.288513
685.705012	0.288411
685.907478	0.288347
686.109925	0.288281
686.312355	0.288272
686.514766	0.288373
686.717159	0.288421
686.919534	0.288662
687.121891	0.288729
687.324230	0.289029
687.526550	0.289175
687.728852	0.289234
687.931136	0.289775
688.133401	0.289963
688.335649	0.289984
688.537878	0.290187
688.740089	0.290273
688.942281	0.290608
689.144456	0.290455
689.346612	0.290603
689.548750	0.290831
689.750870	0.290825
689.952971	0.290936
690.155055	0.291072
690.357120	0.291261
690.559167	0.291299
690.761195	0.291177
690.963206	0.291200
691.165198	0.291272
691.367172	0.291551
691.569128	0.291628
691.771065	0.291536
691.972984	0.291434
692.174885	0.291329
692.376768	0.291518
692.578633	0.292173
692.780479	0.292394
692.982308	0.292820
693.184118	0.292916
693.385909	0.292995
