sample name	sample
index	908
start time	 04-08-2021  04:17:40 PM


Wavelength (nm)	Absorbance
494.344910	0.153427
494.563924	0.153427
494.782919	0.153427
495.001897	-1.077166
495.220856	-0.299335
495.439797	-0.694188
495.658719	-1.090462
495.877624	NaN
496.096510	-1.587337
496.315378	-2.790004
496.534227	-1.091576
496.753059	-0.407559
496.971872	-0.142423
497.190667	0.162353
497.409444	0.170792
497.628203	0.168344
497.846943	0.169829
498.065665	0.171963
498.284369	0.173413
498.503055	0.172255
498.721723	0.172491
498.940372	0.173764
499.159003	0.175324
499.377616	0.175798
499.596210	0.176820
499.814787	0.178386
500.033345	0.179724
500.251885	0.178712
500.470406	0.178950
500.688910	0.179325
500.907395	0.179495
501.125862	0.177945
501.344311	0.178318
501.562742	0.179109
501.781154	0.178573
501.999548	0.177323
502.217924	0.177899
502.436282	0.178434
502.654621	0.178604
502.872942	0.178731
503.091245	0.179858
503.309530	0.180370
503.527797	0.180453
503.746045	0.180443
503.964275	0.181109
504.182487	0.180722
504.400681	0.181046
504.618856	0.181249
504.837013	0.181018
505.055152	0.181310
505.273273	0.182074
505.491376	0.182299
505.709460	0.182166
505.927526	0.182722
506.145574	0.182796
506.363604	0.182698
506.581615	0.183171
506.799608	0.182967
507.017583	0.182147
507.235540	0.180571
507.453478	0.179738
507.671399	0.179183
507.889301	0.178864
508.107185	0.179891
508.325050	0.180635
508.542898	0.180505
508.760727	0.180488
508.978538	0.182383
509.196330	0.183065
509.414105	0.184739
509.631861	0.185023
509.849599	0.185487
510.067319	0.185484
510.285021	0.185431
510.502704	0.186404
510.720369	0.187216
510.938016	0.185853
511.155645	0.186558
511.373255	0.185876
511.590848	0.185883
511.808422	0.186237
512.025977	0.186914
512.243515	0.187702
512.461034	0.186577
512.678536	0.186021
512.896018	0.186410
513.113483	0.187027
513.330930	0.187592
513.548358	0.188901
513.765768	0.189057
513.983160	0.188943
514.200533	0.188535
514.417889	0.189275
514.635226	0.190260
514.852545	0.190358
515.069845	0.189889
515.287128	0.189854
515.504392	0.189300
515.721638	0.189817
515.938866	0.190036
516.156075	0.189646
516.373267	0.189334
516.590440	0.189243
516.807594	0.190028
517.024731	0.190346
517.241850	0.190038
517.458950	0.191096
517.676032	0.191079
517.893095	0.191170
518.110141	0.192668
518.327168	0.193986
518.544177	0.193751
518.761168	0.194306
518.978141	0.193949
519.195095	0.194568
519.412031	0.194408
519.628949	0.194485
519.845849	0.194292
520.062731	0.193329
520.279594	0.192945
520.496439	0.194078
520.713266	0.193857
520.930074	0.194525
521.146865	0.195044
521.363637	0.195149
521.580391	0.194966
521.797127	0.195652
522.013844	0.196422
522.230543	0.197001
522.447224	0.196717
522.663887	0.196095
522.880532	0.196547
523.097158	0.196491
523.313766	0.197397
523.530356	0.197763
523.746928	0.198303
523.963481	0.199160
524.180017	0.199203
524.396534	0.200087
524.613032	0.201613
524.829513	0.202100
525.045975	0.202983
525.262420	0.203096
525.478845	0.203544
525.695253	0.203970
525.911643	0.203612
526.128014	0.204010
526.344367	0.204604
526.560702	0.204144
526.777018	0.204083
526.993316	0.203692
527.209597	0.203536
527.425858	0.204179
527.642102	0.205039
527.858328	0.205563
528.074535	0.205873
528.290724	0.205403
528.506894	0.205677
528.723047	0.206745
528.939181	0.207168
529.155297	0.207163
529.371395	0.206910
529.587475	0.206704
529.803536	0.206932
530.019579	0.207756
530.235604	0.208666
530.451611	0.209548
530.667600	0.208797
530.883570	0.209528
531.099522	0.210629
531.315456	0.211629
531.531372	0.212065
531.747269	0.212751
531.963148	0.211985
532.179009	0.212941
532.394852	0.213025
532.610676	0.214103
532.826482	0.214361
533.042271	0.214313
533.258040	0.214079
533.473792	0.214112
533.689525	0.214400
533.905240	0.215492
534.120937	0.215528
534.336616	0.215987
534.552277	0.216755
534.767919	0.217302
534.983543	0.217823
535.199149	0.218320
535.414736	0.218617
535.630306	0.218810
535.845857	0.219183
536.061390	0.218669
536.276904	0.219539
536.492401	0.219376
536.707879	0.219557
536.923339	0.219939
537.138781	0.220755
537.354204	0.221447
537.569610	0.221877
537.784997	0.222893
538.000366	0.223830
538.215716	0.223794
538.431049	0.223905
538.646363	0.224172
538.861659	0.224841
539.076937	0.225093
539.292196	0.225383
539.507438	0.225894
539.722661	0.225693
539.937866	0.225878
540.153052	0.226351
540.368221	0.227056
540.583371	0.227853
540.798503	0.228267
541.013617	0.228708
541.228712	0.229648
541.443789	0.229747
541.658848	0.229951
541.873889	0.230699
542.088912	0.230839
542.303916	0.231257
542.518902	0.231124
542.733870	0.231088
542.948820	0.231189
543.163752	0.230667
543.378665	0.231150
543.593560	0.231532
543.808437	0.231942
544.023295	0.232445
544.238136	0.232948
544.452958	0.233853
544.667762	0.233997
544.882548	0.234476
545.097315	0.235153
545.312064	0.235689
545.526795	0.236118
545.741508	0.236157
545.956203	0.236875
546.170879	0.236774
546.385537	0.236743
546.600177	0.237449
546.814799	0.237782
547.029402	0.237648
547.243988	0.237516
547.458555	0.237264
547.673103	0.237344
547.887634	0.236931
548.102146	0.237296
548.316640	0.237269
548.531116	0.237200
548.745574	0.237492
548.960013	0.237897
549.174435	0.238601
549.388838	0.238913
549.603222	0.239214
549.817589	0.239271
550.031937	0.239694
550.246267	0.239906
550.460579	0.240607
550.674873	0.240602
550.889148	0.240888
551.103405	0.240875
551.317644	0.241572
551.531865	0.241954
551.746068	0.242473
551.960252	0.242578
552.174418	0.243052
552.388566	0.243069
552.602696	0.243535
552.816807	0.243422
553.030900	0.243472
553.244975	0.243997
553.459032	0.243850
553.673070	0.244457
553.887091	0.244460
554.101093	0.245208
554.315077	0.245554
554.529042	0.245802
554.742990	0.246685
554.956919	0.247439
555.170830	0.247827
555.384722	0.248511
555.598597	0.248183
555.812453	0.248635
556.026291	0.248320
556.240111	0.248846
556.453913	0.248589
556.667696	0.248825
556.881461	0.249326
557.095208	0.248814
557.308937	0.248971
557.522647	0.249683
557.736339	0.249891
557.950013	0.250502
558.163669	0.250430
558.377307	0.250811
558.590926	0.250653
558.804527	0.250226
559.018110	0.250234
559.231675	0.250108
559.445221	0.250442
559.658749	0.250644
559.872259	0.250553
560.085751	0.250420
560.299225	0.250809
560.512680	0.251078
560.726117	0.251439
560.939536	0.252224
561.152937	0.252845
561.366319	0.252844
561.579683	0.253236
561.793029	0.253524
562.006357	0.253629
562.219667	0.253603
562.432958	0.254238
562.646231	0.254459
562.859486	0.253959
563.072723	0.253370
563.285941	0.253611
563.499141	0.253847
563.712323	0.254130
563.925487	0.254760
564.138632	0.254925
564.351760	0.254772
564.564869	0.254958
564.777960	0.255400
564.991032	0.256057
565.204087	0.256254
565.417123	0.256026
565.630141	0.256171
565.843140	0.256465
566.056122	0.257068
566.269085	0.257419
566.482030	0.257349
566.694957	0.257784
566.907866	0.257922
567.120756	0.257909
567.333628	0.258079
567.546482	0.258661
567.759318	0.258740
567.972135	0.258444
568.184935	0.258795
568.397716	0.259130
568.610478	0.258766
568.823223	0.259079
569.035949	0.259174
569.248657	0.259669
569.461347	0.259275
569.674019	0.258958
569.886672	0.259315
570.099308	0.259320
570.311925	0.259357
570.524523	0.260058
570.737104	0.260349
570.949666	0.260689
571.162210	0.260699
571.374736	0.260711
571.587244	0.261156
571.799733	0.261125
572.012205	0.260895
572.224658	0.261653
572.437092	0.261846
572.649509	0.261568
572.861907	0.261762
573.074287	0.261943
573.286649	0.262254
573.498993	0.262520
573.711318	0.262745
573.923625	0.263132
574.135914	0.263139
574.348185	0.263008
574.560438	0.263518
574.772672	0.263444
574.984888	0.263718
575.197086	0.263451
575.409266	0.263995
575.621427	0.264570
575.833570	0.265209
576.045695	0.265103
576.257802	0.265591
576.469890	0.265665
576.681961	0.266108
576.894013	0.265820
577.106046	0.266396
577.318062	0.266297
577.530059	0.266271
577.742039	0.266010
577.954000	0.266400
578.165942	0.266324
578.377867	0.266557
578.589773	0.266942
578.801661	0.267442
579.013531	0.267956
579.225382	0.268118
579.437216	0.268168
579.649031	0.268494
579.860828	0.268660
580.072606	0.268759
580.284367	0.268917
580.496109	0.268483
580.707833	0.268437
580.919539	0.268141
581.131227	0.268328
581.342896	0.268787
581.554547	0.268600
581.766180	0.268453
581.977795	0.268947
582.189391	0.269235
582.400969	0.269681
582.612529	0.270255
582.824071	0.270513
583.035595	0.270634
583.247100	0.270891
583.458587	0.271113
583.670056	0.271611
583.881506	0.272190
584.092939	0.272085
584.304353	0.272013
584.515749	0.272119
584.727127	0.272576
584.938486	0.272874
585.149828	0.272888
585.361151	0.273567
585.572456	0.273508
585.783742	0.273263
585.995011	0.273716
586.206261	0.274018
586.417493	0.274013
586.628706	0.274240
586.839902	0.274390
587.051079	0.274785
587.262238	0.274559
587.473379	0.274908
587.684502	0.275163
587.895606	0.275697
588.106692	0.276019
588.317760	0.276186
588.528810	0.276366
588.739841	0.276481
588.950855	0.276241
589.161850	0.276604
589.372827	0.276858
589.583785	0.277112
589.794726	0.276641
590.005648	0.276934
590.216552	0.277537
590.427437	0.277660
590.638305	0.278050
590.849154	0.278631
591.059985	0.278308
591.270798	0.278133
591.481592	0.277877
591.692369	0.278353
591.903127	0.278593
592.113867	0.278642
592.324588	0.278389
592.535292	0.278017
592.745977	0.277901
592.956644	0.278406
593.167293	0.278852
593.377923	0.279118
593.588536	0.279365
593.799130	0.279277
594.009706	0.278935
594.220263	0.279260
594.430803	0.279600
594.641324	0.279467
594.851827	0.279692
595.062312	0.279879
595.272778	0.280221
595.483227	0.280228
595.693657	0.280495
595.904069	0.280952
596.114462	0.280932
596.324838	0.281203
596.535195	0.281590
596.745534	0.282009
596.955855	0.281912
597.166157	0.281973
597.376441	0.282189
597.586707	0.282369
597.796955	0.282745
598.007185	0.283230
598.217396	0.283262
598.427589	0.283176
598.637764	0.283307
598.847921	0.283413
599.058060	0.283743
599.268180	0.283976
599.478282	0.284082
599.688366	0.283909
599.898431	0.283969
600.108479	0.284288
600.318508	0.284715
600.528519	0.284621
600.738511	0.284747
600.948486	0.284474
601.158442	0.284639
601.368380	0.284833
601.578300	0.285315
601.788202	0.285237
601.998085	0.285352
602.207950	0.285341
602.417797	0.285673
602.627626	0.286033
602.837436	0.286529
603.047228	0.286285
603.257002	0.286375
603.466758	0.286504
603.676496	0.287011
603.886215	0.287394
604.095916	0.288084
604.305599	0.287747
604.515264	0.287858
604.724910	0.287928
604.934538	0.288217
605.144148	0.288124
605.353740	0.287978
605.563314	0.287948
605.772869	0.288028
605.982406	0.287816
606.191925	0.288097
606.401425	0.288120
606.610908	0.288141
606.820372	0.288196
607.029818	0.288726
607.239246	0.289085
607.448655	0.289148
607.658047	0.289393
607.867420	0.289528
608.076775	0.290031
608.286111	0.290397
608.495430	0.290624
608.704730	0.290908
608.914012	0.290822
609.123275	0.291017
609.332521	0.291461
609.541748	0.291237
609.750957	0.291691
609.960148	0.291823
610.169321	0.291834
610.378475	0.291751
610.587611	0.292088
610.796729	0.292543
611.005829	0.292365
611.214910	0.292251
611.423974	0.292431
611.633019	0.292289
611.842045	0.292212
612.051054	0.292326
612.260044	0.292565
612.469017	0.292755
612.677970	0.292865
612.886906	0.293250
613.095824	0.293541
613.304723	0.293567
613.513604	0.293664
613.722467	0.293992
613.931311	0.294072
614.140138	0.294585
614.348946	0.294708
614.557736	0.294921
614.766507	0.295372
614.975261	0.295280
615.183996	0.295516
615.392713	0.295867
615.601412	0.296148
615.810092	0.296247
616.018754	0.296251
616.227399	0.296304
616.436024	0.296331
616.644632	0.296165
616.853222	0.296475
617.061793	0.296717
617.270346	0.296879
617.478880	0.296700
617.687397	0.297009
617.895895	0.297021
618.104375	0.296999
618.312837	0.297182
618.521281	0.297244
618.729706	0.297609
618.938113	0.297455
619.146502	0.297561
619.354873	0.297918
619.563226	0.298256
619.771560	0.298452
619.979876	0.298740
620.188174	0.298905
620.396453	0.299156
620.604715	0.298729
620.812958	0.299320
621.021183	0.299595
621.229390	0.299947
621.437578	0.300040
621.645748	0.300136
621.853900	0.300304
622.062034	0.300529
622.270150	0.300397
622.478247	0.300940
622.686326	0.300851
622.894387	0.300599
623.102430	0.300427
623.310454	0.300391
623.518461	0.300504
623.726449	0.300522
623.934418	0.300092
624.142370	0.300602
624.350303	0.301108
624.558218	0.301173
624.766115	0.301671
624.973994	0.301879
625.181855	0.302314
625.389697	0.302743
625.597521	0.302923
625.805327	0.303337
626.013114	0.303477
626.220883	0.303236
626.428634	0.303554
626.636367	0.303509
626.844082	0.303474
627.051778	0.303186
627.259457	0.303001
627.467117	0.303175
627.674758	0.303436
627.882382	0.303404
628.089987	0.303539
628.297574	0.303425
628.505143	0.303682
628.712694	0.304065
628.920226	0.304582
629.127740	0.304922
629.335236	0.304991
629.542714	0.305345
629.750174	0.305766
629.957615	0.305908
630.165038	0.305976
630.372443	0.306068
630.579829	0.306271
630.787198	0.306422
630.994548	0.306575
631.201880	0.306846
631.409194	0.306981
631.616489	0.306960
631.823766	0.307544
632.031025	0.308249
632.238266	0.308536
632.445489	0.308594
632.652693	0.308719
632.859879	0.308668
633.067047	0.308439
633.274197	0.308571
633.481329	0.308823
633.688442	0.308637
633.895537	0.308963
634.102614	0.309293
634.309672	0.309315
634.516713	0.309081
634.723735	0.309471
634.930739	0.310178
635.137724	0.310111
635.344692	0.310001
635.551641	0.310390
635.758572	0.310381
635.965485	0.310337
636.172379	0.310640
636.379256	0.311100
636.586114	0.311036
636.792954	0.311267
636.999775	0.311695
637.206579	0.312073
637.413364	0.311814
637.620131	0.311993
637.826880	0.311942
638.033610	0.312171
638.240323	0.312255
638.447017	0.312717
638.653692	0.312885
638.860350	0.313033
639.066990	0.313125
639.273611	0.313516
639.480214	0.313798
639.686798	0.314196
639.893365	0.314266
640.099913	0.314859
640.306443	0.315088
640.512955	0.315205
640.719449	0.315597
640.925924	0.315746
641.132381	0.316007
641.338820	0.315656
641.545241	0.315822
641.751644	0.316051
641.958028	0.315857
642.164394	0.315867
642.370742	0.315673
642.577071	0.315414
642.783383	0.315728
642.989676	0.316077
643.195951	0.316451
643.402207	0.316647
643.608446	0.316514
643.814666	0.316891
644.020868	0.316765
644.227052	0.317282
644.433218	0.317628
644.639365	0.317849
644.845494	0.317580
645.051605	0.317714
645.257698	0.317995
645.463772	0.318303
645.669828	0.318103
645.875866	0.318849
646.081886	0.318632
646.287888	0.318733
646.493871	0.318702
646.699836	0.318975
646.905783	0.319313
647.111712	0.319458
647.317622	0.320103
647.523514	0.320477
647.729388	0.320670
647.935244	0.321333
648.141082	0.321549
648.346901	0.322082
648.552702	0.322481
648.758485	0.322754
648.964250	0.323042
649.169996	0.322936
649.375724	0.323322
649.581434	0.323469
649.787126	0.323473
649.992800	0.323760
650.198455	0.323816
650.404092	0.323893
650.609711	0.323969
650.815311	0.323956
651.020894	0.324352
651.226458	0.324559
651.432004	0.324488
651.637532	0.324617
651.843041	0.324767
652.048532	0.324859
652.254006	0.325036
652.459460	0.325283
652.664897	0.325687
652.870315	0.325825
653.075716	0.325968
653.281097	0.326204
653.486461	0.326262
653.691807	0.326517
653.897134	0.326734
654.102443	0.327036
654.307734	0.327094
654.513006	0.327193
654.718261	0.327529
654.923497	0.327761
655.128715	0.328003
655.333915	0.328686
655.539096	0.329143
655.744259	0.329319
655.949404	0.329396
656.154531	0.329811
656.359640	0.329808
656.564730	0.329737
656.769802	0.329813
656.974856	0.330278
657.179892	0.330434
657.384909	0.330329
657.589908	0.330647
657.794889	0.331233
657.999852	0.331562
658.204797	0.331887
658.409723	0.332214
658.614631	0.332446
658.819521	0.332535
659.024393	0.332637
659.229246	0.333015
659.434081	0.333262
659.638898	0.333054
659.843697	0.333218
660.048478	0.333524
660.253240	0.334015
660.457984	0.334429
660.662710	0.334630
660.867417	0.335107
661.072107	0.335272
661.276778	0.335752
661.481431	0.336325
661.686066	0.336834
661.890682	0.336826
662.095281	0.336855
662.299861	0.337224
662.504422	0.337560
662.708966	0.337875
662.913491	0.338188
663.117999	0.337975
663.322488	0.338148
663.526958	0.337947
663.731411	0.338550
663.935845	0.338573
664.140261	0.338771
664.344659	0.339057
664.549038	0.338991
664.753400	0.339188
664.957743	0.339400
665.162068	0.339588
665.366375	0.339681
665.570663	0.340036
665.774933	0.340597
665.979185	0.340690
666.183419	0.340768
666.387635	0.340848
666.591832	0.341072
666.796011	0.341584
667.000172	0.341811
667.204315	0.342373
667.408439	0.342568
667.612545	0.342750
667.816634	0.342818
668.020703	0.343153
668.224755	0.343588
668.428788	0.343903
668.632803	0.344116
668.836800	0.344521
669.040779	0.344732
669.244739	0.344799
669.448681	0.345050
669.652605	0.345597
669.856511	0.346006
670.060399	0.346187
670.264268	0.346635
670.468119	0.347102
670.671952	0.347563
670.875767	0.347661
671.079563	0.348389
671.283341	0.348575
671.487101	0.348833
671.690843	0.348922
671.894567	0.349169
672.098272	0.349128
672.301959	0.349209
672.505628	0.349469
672.709278	0.349759
672.912911	0.349685
673.116525	0.349987
673.320121	0.350056
673.523699	0.350445
673.727258	0.350639
673.930799	0.350753
674.134322	0.350955
674.337827	0.350838
674.541314	0.351246
674.744782	0.351376
674.948232	0.351313
675.151664	0.351506
675.355078	0.351430
675.558474	0.351985
675.761851	0.352368
675.965210	0.352552
676.168551	0.352732
676.371873	0.353156
676.575178	0.353438
676.778464	0.354080
676.981732	0.354425
677.184981	0.354994
677.388213	0.355132
677.591426	0.355197
677.794621	0.355784
677.997798	0.356273
678.200956	0.356202
678.404097	0.356435
678.607219	0.356540
678.810323	0.356714
679.013408	0.357063
679.216476	0.357363
679.419525	0.357813
679.622556	0.357906
679.825569	0.357971
680.028563	0.358262
680.231540	0.358549
680.434498	0.359035
680.637438	0.359233
680.840359	0.359438
681.043263	0.359664
681.246148	0.359969
681.449015	0.360119
681.651864	0.360419
681.854694	0.360786
682.057506	0.361196
682.260301	0.361214
682.463076	0.361427
682.665834	0.361458
682.868573	0.361556
683.071295	0.361778
683.273998	0.361908
683.476682	0.362045
683.679349	0.362037
683.881997	0.362015
684.084627	0.362208
684.287239	0.362598
684.489833	0.362543
684.692408	0.362512
684.894965	0.362584
685.097504	0.362647
685.300025	0.363025
685.502527	0.363282
685.705012	0.363652
685.907478	0.363949
686.109925	0.364109
686.312355	0.364765
686.514766	0.365403
686.717159	0.365734
686.919534	0.366420
687.121891	0.366584
687.324230	0.366862
687.526550	0.366819
687.728852	0.366742
687.931136	0.366966
688.133401	0.367056
688.335649	0.367276
688.537878	0.367237
688.740089	0.367430
688.942281	0.367580
689.144456	0.367816
689.346612	0.367859
689.548750	0.368136
689.750870	0.368493
689.952971	0.368724
690.155055	0.368603
690.357120	0.368919
690.559167	0.369169
690.761195	0.369331
690.963206	0.369442
691.165198	0.369884
691.367172	0.370123
691.569128	0.370045
691.771065	0.370311
691.972984	0.370508
692.174885	0.370985
692.376768	0.370677
692.578633	0.370850
692.780479	0.371017
692.982308	0.371103
693.184118	0.371265
693.385909	0.371441
