sample name	sample
index	506
start time	 03-11-2021  02:59:22 PM
880	0.493105
Peak Time (s)	92.538
Peak Height 	0.4931
calc peak height	90,93
Baseline Time (s)	10.037
Baseline Value 	-0.006204
subtract baseline	10,4
Abs	0.315382
Peak Time (s)	92.538
Peak Height 	0.3154
calc peak height	90,93
Baseline Time (s)	10.537
Baseline Value 	0.002596
subtract baseline	10,3
PK_550	0.162277
Peak Time (s)	91.537
Peak Height 	0.1623
calc peak height	90,93
Baseline Time (s)	10.037
Baseline Value 	6.4111E-4
subtract baseline	10,2
PK_880	0.309367
Peak Time (s)	90.537
Peak Height 	0.3094
calc peak height	90,93
Baseline Time (s)	9.537
Baseline Value 	0.003319
subtract baseline	10,1


Time (s)	A880-A510	A880-A775	A880-A975	A880	I510	I775	I975	I880	
0.036500	-0.001388	-0.000812	-0.000258	0.002091	7058.533651	45453.479136	3983.107299	24179.377166
0.536500	-0.005147	-0.000593	-0.004805	0.006449	6981.515361	45050.401045	3960.388634	23966.913090
1.037000	-0.002484	-0.000258	-0.003054	0.003827	7031.493690	45337.892576	3971.488125	24094.470809
1.537500	-0.000523	-0.000891	-0.001616	0.000775	7079.464208	45574.532771	3982.999713	24243.927307
2.035000	-0.000665	-0.000171	-0.001248	0.000641	7079.389107	45658.485584	3984.294619	24250.541886
2.535000	-0.002681	-0.000156	-0.004402	0.004260	7025.504694	45305.727782	3966.956204	24073.377067
3.035500	-0.001224	-0.000947	-0.001918	-0.001878	7098.297129	45830.118640	3989.073884	24374.697574
3.536000	-0.002421	-0.000650	0.000328	0.000037	7068.321119	45670.715542	3989.934297	24280.238419
4.036000	-0.001490	-0.000041	-0.000578	0.000690	7070.986804	45666.362050	3985.895688	24248.099127
4.536500	-0.004333	-0.000967	-0.000607	0.004303	7009.432964	45222.485680	3976.526733	24071.252323
5.036500	-0.001079	0.000111	-0.002531	0.001596	7066.235243	45592.344410	3978.535855	24203.645527
5.537000	-0.001652	-0.000320	0.000744	0.000483	7071.423377	45659.349628	3989.854649	24258.305760
6.037500	0.000281	0.000223	0.002896	0.000616	7088.745042	45699.630923	3995.101836	24251.755070
6.534500	0.000510	-0.000136	0.001504	0.000707	7090.069090	45655.411660	3991.244988	24247.264364
7.038000	-0.001338	-0.000400	-0.002051	0.000844	7070.966695	45616.028265	3981.701795	24240.542247
7.535500	-0.000801	-0.000022	0.001100	0.000405	7080.348668	45696.270840	3990.980671	24262.113784
8.035500	0.001417	0.000206	0.003476	0.000332	7102.461569	45725.966293	3997.354912	24265.714134
8.536000	-0.000327	0.000442	0.001739	0.000420	7084.777840	45740.522752	3992.602552	24261.409144
9.036000	-0.000292	-0.000985	-0.001338	-0.001019	7098.997740	45741.629741	3988.350734	24332.261569
9.536500	0.000000	-0.000435	-0.001512	-0.000530	7097.097343	45747.688690	3986.638153	24308.169996
10.037000	-0.000815	0.000000	-0.003576	0.000000	7084.112901	45738.340851	3979.949175	24282.056428
10.537000	0.001151	0.000200	0.000000	-0.000006	7103.163367	45758.614177	3989.194398	24282.357839
11.035000	0.000322	-0.000078	0.001994	0.000721	7088.120025	45659.667428	3992.479870	24246.570103
11.537500	0.001588	0.000345	0.002974	0.000554	7101.974550	45717.811064	3995.468335	24254.806717
12.035500	0.000506	0.000270	0.006021	-0.000289	7099.658134	45793.405876	4005.647973	24296.280624
12.535500	0.000014	-0.000034	0.002695	-0.000113	7093.206477	45746.122523	3996.480590	24287.642523
13.036000	-0.001558	0.000183	0.001799	-0.000820	7084.865342	45837.273483	3995.985850	24322.476220
13.536000	-0.000947	-0.001193	0.000853	-0.001634	7098.612453	45781.793262	3995.640386	24362.627992
14.036500	-0.000579	-0.000855	0.005247	-0.000884	7094.917739	45741.116640	4005.178622	24325.597866
14.537000	-0.002417	-0.000005	-0.000122	0.002149	7048.129170	45526.716009	3983.307977	24176.506034
15.037000	-0.002454	-0.001352	0.000801	0.000130	7067.106610	45592.600833	3990.918752	24275.650670
15.582000	0.000695	-0.000300	0.005371	-0.000504	7103.573853	45758.494627	4004.508439	24306.905372
16.040000	0.001636	-0.000450	0.003759	-0.000994	7117.433664	45791.882117	4001.562715	24331.024052
16.535000	0.001272	0.000236	0.004185	-0.000278	7106.959369	45788.968357	4000.801315	24295.724735
17.035500	-0.000696	-0.000487	0.002757	0.000187	7083.468911	45672.065844	3995.857676	24272.869716
17.535500	0.002662	0.000627	0.003559	-0.002704	7144.100938	46067.634030	4005.526030	24415.585331
18.036000	-0.000343	0.000483	0.000807	0.000208	7086.662525	45765.448730	3990.731226	24271.826010
18.536000	-0.000909	0.000690	0.003092	0.001384	7069.906093	45670.084464	3993.615118	24214.052641
19.036500	-0.000643	-0.000145	0.003183	0.001013	7076.028047	45624.483588	3994.817310	24232.261198
19.536500	-0.001329	-0.000239	-0.000959	0.000838	7071.111956	45632.395394	3984.531894	24240.851083
20.037000	-0.001213	-0.000506	-0.000332	0.000906	7071.572294	45599.488413	3985.973598	24237.492190
20.543500	0.000340	0.000627	0.001036	0.001977	7076.208240	45605.655523	3986.744086	24184.968164
21.035000	0.000659	-0.000724	0.001319	0.000539	7093.136020	45614.162755	3991.200955	24255.528114
21.535500	-0.001047	-0.000151	0.000574	0.001079	7071.500652	45617.385142	3987.868524	24228.987885
22.035500	0.001426	-0.000527	-0.000324	0.000717	7098.824218	45616.000104	3986.482850	24246.768903
22.536000	-0.001900	-0.000235	0.001926	0.000767	7066.314296	45639.807739	3992.187821	24244.351685
23.036000	-0.000277	-0.000445	-0.001032	0.000733	7082.230439	45622.466758	3984.614158	24245.985366
23.536000	-0.002647	-0.000373	-0.000189	0.000576	7060.982284	45645.022675	3987.199167	24253.738830
24.036500	-0.000109	0.000817	0.000500	0.001524	7076.246532	45668.772156	3986.528157	24207.166826
24.537000	-0.001318	-0.000433	-0.001518	0.000490	7074.561209	45647.605616	3983.988162	24257.961035
25.040000	0.000682	0.000339	0.005918	0.001415	7084.910007	45632.466769	4000.907714	24212.505447
25.537500	-0.000596	0.000417	0.002495	0.001163	7075.031973	45665.012461	3992.636738	24224.900377
26.035000	-0.001252	-0.000787	-0.002806	0.000489	7075.203964	45612.844606	3980.673014	24257.993641
26.535000	-0.000942	-0.000040	0.001787	0.000823	7074.973325	45653.461902	3991.678276	24241.572839
27.035500	-0.000158	0.000419	0.007921	0.001438	7076.604792	45638.145459	4006.105756	24211.404735
27.536000	-0.000771	-0.000368	0.000460	-0.000828	7092.528099	45783.603694	3992.519151	24322.842781
28.036000	0.002161	0.000525	0.003434	-0.002293	7135.194570	46016.704856	4004.118271	24395.236626
28.536000	-0.002461	0.000278	-0.002890	0.005626	7014.632463	45214.960962	3967.326747	24006.887357
29.036500	0.001104	0.000594	0.003679	0.000101	7101.664957	45786.884986	3998.487234	24277.078265
29.540000	-0.000415	0.000478	0.000323	-0.000162	7089.539579	45801.408961	3990.435958	24290.052762
30.037000	-0.001306	-0.000225	0.001296	-0.000003	7079.412477	45716.404988	3992.548467	24282.181563
30.535000	-0.003404	-0.000224	0.001317	0.005366	7008.169689	45191.408101	3978.734657	24019.518724
31.040500	-0.000067	0.000037	0.003342	0.000081	7090.544547	45734.002905	3997.659958	24278.062924
31.536000	-0.001565	-0.000173	-0.002885	0.004029	7038.329991	45326.587215	3971.403743	24084.639344
32.035500	-0.001185	0.000421	0.002068	0.002098	7060.406824	45573.539765	3989.101374	24179.041346
32.542000	-0.000901	0.000485	-0.004645	0.004500	7040.164132	45344.815569	3965.730256	24061.687885
33.036000	-0.000749	0.000309	0.000002	0.002212	7063.489368	45551.345940	3983.465001	24173.420301
33.536500	-0.000840	-0.000197	0.000332	0.000432	7079.717179	45676.401886	3988.919476	24260.786509
34.040000	-0.000834	0.000931	-0.002019	0.001122	7073.147535	45719.601501	3981.069102	24226.918698
34.536500	-0.003433	0.000401	0.001246	0.006714	6995.163260	45121.165335	3975.098231	23954.068365
35.035000	0.000824	0.001455	0.004556	0.002337	7077.390288	45651.511705	3994.942334	24167.302863
35.535000	-0.000389	0.000018	-0.003856	0.002790	7061.403393	45466.262041	3972.088662	24145.161177
36.035000	0.000158	0.000721	0.001382	0.003363	7061.151311	45479.015868	3984.057430	24117.148504
36.536000	-0.001370	-0.000531	-0.001259	0.004052	7039.961557	45289.365122	3975.498400	24083.504765
37.035500	-0.000323	0.000123	0.003509	0.002879	7061.181203	45467.819785	3990.811838	24140.803152
37.535500	-0.001593	-0.000267	0.001579	0.002239	7055.152285	45492.330093	3987.470920	24172.126417
38.036500	0.001109	0.000430	0.006338	0.003034	7073.439983	45482.759303	3997.773775	24133.236642
38.540000	-0.000280	0.000395	0.001423	0.003015	7060.285823	45481.092647	3985.059771	24134.126311
39.037000	-0.000642	0.000197	-0.002803	0.003129	7055.738269	45450.637173	3973.912271	24128.590899
39.537500	-0.000752	0.000195	0.000605	0.002565	7060.084879	45505.654041	3984.112876	24156.172489
40.035000	-0.000226	0.000012	0.004028	0.002333	7067.348712	45510.365544	3993.578676	24167.507773
40.535000	0.000371	0.000987	0.000465	0.002411	7072.323649	45598.260370	3984.147062	24163.674507
41.035500	-0.000825	-0.000485	0.002541	0.001728	7067.398960	45520.913812	3991.285630	24197.139448
41.535500	0.000017	0.000468	0.002317	0.002565	7067.453507	45532.317428	3988.536900	24156.156007
42.036000	0.000300	-0.000259	0.001124	0.002188	7073.792265	45498.038319	3986.425150	24174.622296
42.536500	0.000438	-0.000069	-0.000960	0.001957	7077.339051	45539.282280	3981.644318	24185.944009
43.039000	-0.000159	-0.000235	0.000362	0.002323	7068.083465	45487.127004	3984.108813	24167.996375
43.537000	0.001460	0.000706	0.000644	0.002762	7079.423199	45536.335597	3983.701449	24146.497419
44.037500	-0.001000	0.000114	0.003124	0.002136	7061.819412	45539.679457	3991.741760	24177.170302
44.534500	-0.000706	-0.000228	-0.001125	0.002305	7063.013515	45489.559340	3980.324762	24168.874397
45.035000	0.000374	0.000485	0.000156	0.002340	7073.041010	45556.056326	3983.532771	24167.168945
45.535000	0.001089	0.000889	0.001952	0.000649	7096.226124	45761.991985	3992.560550	24250.116729
46.035500	0.001546	0.000317	0.003719	0.000309	7103.932607	45739.148645	3998.048696	24266.847062
46.538500	0.001076	-0.000049	0.000240	-0.000061	7102.972749	45739.558310	3989.959395	24285.068374
47.036500	0.001042	-0.000202	-0.001776	0.001697	7085.653950	45551.725393	3980.213268	24198.658879
47.539000	0.001021	0.000639	0.004464	0.000477	7097.232722	45754.369304	3999.557947	24258.609302
48.036000	0.002164	0.000542	0.000779	0.000870	7104.489490	45706.055664	3988.944127	24239.277051
48.542000	-0.001676	-0.000012	0.001722	0.001830	7058.268970	45557.298888	3988.899268	24192.147179
49.037000	-0.001023	-0.000053	0.003259	0.003490	7048.640350	45390.921381	3988.579883	24110.947411
49.535000	-0.001406	-0.000115	-0.000889	0.002356	7055.820238	45495.637478	3980.801101	24166.375028
50.047500	0.001927	0.000812	0.003766	0.000874	7102.151778	45732.200017	3996.698035	24239.074730
50.535500	-0.000943	0.000010	0.002818	0.001427	7069.162051	45599.060492	3992.790234	24211.939239
51.035500	-0.000440	0.000769	-0.003197	0.002514	7063.562147	45566.885426	3974.476366	24158.651526
51.536000	0.002628	0.000622	0.007321	-0.000966	7126.813414	45895.020547	4010.860147	24329.675025
52.039000	0.001376	0.000354	0.001283	-0.000845	7113.475059	45856.585975	3994.707624	24323.709163
52.536500	0.001234	0.000927	0.003471	0.001549	7088.932053	45677.170898	3994.171105	24205.936076
53.036500	-0.004706	-0.001786	0.002864	-0.007559	7119.602745	46310.575406	4016.514854	24657.416071
53.538500	-0.009026	-0.001631	0.002764	0.174173	5649.207558	31501.529999	3622.176929	17218.732194
54.034000	-0.036975	-0.018980	-0.000141	-0.014441	6880.004757	45293.668405	4026.853013	25004.912594
54.537500	-0.034189	-0.027535	0.001045	-0.135809	8197.171883	57847.447318	4406.051565	32130.984658
55.034500	0.003936	-0.039581	0.030380	-0.186022	9392.094099	62888.374267	4716.069388	35713.406710
55.535500	0.023903	-0.006066	0.042270	-0.095708	8421.218956	55542.822467	4410.046141	29552.984618
56.035000	0.031289	0.008063	0.060651	0.007992	7323.000345	45745.363655	4134.253681	23892.236907
56.538500	0.057210	0.021155	0.076364	0.019279	7474.587304	45923.499841	4147.269047	23353.776526
57.037000	0.089144	0.037863	0.097254	0.027446	7731.919072	46776.588617	4185.423247	22972.758359
57.536500	0.122591	0.059155	0.126372	0.042828	7937.152246	47376.666536	4227.892457	22274.347427
58.036500	0.159536	0.080335	0.164309	0.117719	7515.709563	42211.022096	4116.624870	19206.049779
58.534000	0.184122	0.096169	0.188190	0.159700	7334.477336	39918.235685	4065.480850	17703.851353
59.035000	0.205181	0.108767	0.211091	0.194114	7200.174540	38108.104657	4034.042379	16576.270719
59.534500	0.220939	0.119757	0.222608	0.240133	6910.733702	35385.331129	3944.669399	15201.516778
60.035000	0.230948	0.127995	0.238366	0.275504	6683.205260	33422.190323	3896.940005	14239.553161
60.536000	0.241705	0.134550	0.250337	0.299945	6565.862361	32193.632444	3867.698475	13619.188281
61.038500	0.253115	0.141625	0.258654	0.311781	6562.262856	31874.953781	3859.594904	13331.057170
61.535500	0.267630	0.149768	0.269069	0.327866	6549.050641	31351.227857	3846.680359	12951.903304
62.036000	0.274835	0.152085	0.277186	0.341179	6498.083204	30641.661602	3834.989060	12648.522668
62.536500	0.262927	0.150916	0.275844	0.407967	5901.710095	26633.652474	3693.979556	11259.329729
63.034000	0.267548	0.154732	0.279947	0.361561	6275.984109	29534.448753	3796.372343	12201.711580
63.534500	0.268470	0.152221	0.277096	0.403761	5969.865694	26935.826111	3704.480541	11340.666783
64.034500	0.286793	0.167188	0.283937	0.426495	5938.836495	26511.008722	3674.269049	10910.315425
64.534500	0.286706	0.163526	0.284766	0.414879	6020.596119	26946.158021	3697.832583	11127.390560
65.035000	0.291100	0.166302	0.282626	0.419412	6019.604442	26849.370119	3685.115342	11041.998214
65.588500	0.291235	0.167145	0.288888	0.422589	5997.822627	26721.381022	3690.970882	10982.675604
66.035500	0.293313	0.167180	0.285482	0.428796	5968.505628	26386.207221	3672.860395	10868.003112
66.536500	0.291066	0.168196	0.289046	0.436329	5900.175024	26037.484453	3665.500252	10731.039634
67.037000	0.295717	0.169667	0.289079	0.444325	5877.148807	25693.524364	3650.932876	10588.224814
67.537000	0.299423	0.171150	0.293550	0.447167	5883.081675	25622.531410	3653.892198	10538.096712
68.037000	0.297276	0.170047	0.293783	0.451944	5835.895813	25317.919340	3645.669387	10454.580406
68.534500	0.299262	0.170904	0.298226	0.458371	5806.026724	25033.136252	3642.105551	10343.643564
69.035000	0.296944	0.169487	0.290888	0.463952	5753.644476	24680.511935	3619.293347	10248.642053
69.535000	0.295417	0.170568	0.292213	0.466595	5726.370517	24602.537706	3617.004277	10204.067886
70.038500	0.298146	0.169233	0.292239	0.469443	5725.593173	24395.190238	3612.124346	10156.340216
70.536000	0.294141	0.168295	0.293930	0.473751	5672.020083	24137.975213	3607.629917	10084.750881
71.036500	0.294277	0.168469	0.294832	0.480114	5632.556910	23838.478176	3598.335187	9980.295625
71.536500	0.296317	0.168178	0.296309	0.479887	5646.855716	23835.390831	3601.221334	9983.987213
72.037000	0.295791	0.169907	0.295111	0.483247	5622.388354	23757.208171	3593.522647	9929.421976
72.537000	0.295979	0.169023	0.301593	0.486238	5604.868562	23572.552871	3599.412889	9881.189704
73.037500	0.297824	0.167705	0.297938	0.486780	5612.998772	23484.533806	3592.337359	9872.488402
73.535000	0.298236	0.167822	0.295740	0.488701	5603.584337	23399.460966	3585.460320	9841.721064
74.035000	0.294826	0.167859	0.299149	0.489646	5576.610830	23356.828012	3589.566165	9826.650038
74.538000	0.294615	0.168361	0.296988	0.492390	5558.460191	23251.864721	3581.416461	9783.041520
75.035500	0.299616	0.167568	0.297177	0.491661	5593.772263	23248.835512	3582.933011	9794.595279
75.536000	0.295229	0.166661	0.298201	0.491395	5568.329579	23218.941041	3585.073768	9798.817216
76.036000	0.295459	0.167079	0.300032	0.490705	5573.989416	23270.665869	3589.272327	9809.785123
76.536500	0.298927	0.168611	0.305874	0.492739	5582.833281	23247.227762	3595.661441	9777.510805
77.037000	0.299815	0.167579	0.305113	0.491568	5595.588123	23253.748798	3596.353572	9796.078163
77.537000	0.298671	0.166133	0.304482	0.490803	5593.230302	23221.916655	3596.578659	9808.218523
78.037500	0.300903	0.167005	0.304232	0.491595	5602.177876	23225.691309	3594.823939	9795.649333
78.535000	0.302198	0.167133	0.299350	0.491278	5612.223603	23246.428922	3587.179132	9800.675835
79.038000	0.300540	0.166799	0.301441	0.493494	5588.140540	23127.727532	3586.971913	9765.575294
79.535500	0.303207	0.168061	0.302266	0.490629	5622.603281	23320.182467	3593.141276	9810.992740
80.035500	0.301390	0.166858	0.301825	0.489364	5619.145331	23323.103423	3594.527621	9831.150910
80.536000	0.304467	0.167533	0.308403	0.489994	5634.506567	23325.199080	3604.604923	9821.104102
81.039000	0.300348	0.166045	0.301130	0.491292	5600.614346	23195.060676	3590.126508	9800.460071
81.536000	0.304380	0.167518	0.312434	0.489184	5639.066177	23362.516151	3612.907538	9834.020605
82.036500	0.304409	0.165932	0.300606	0.486996	5653.083355	23390.775534	3596.462363	9869.018091
82.537000	0.306788	0.165493	0.303567	0.486818	5669.341700	23378.490130	3601.777906	9871.877796
83.034500	0.304902	0.165792	0.299623	0.489652	5639.403686	23259.719618	3590.347843	9826.542531
83.537500	0.304909	0.165718	0.302340	0.486795	5657.526953	23390.159196	3599.734081	9872.241019
84.035500	0.307904	0.166921	0.306407	0.487634	5671.257365	23407.274187	3605.225067	9858.795128
84.535500	0.306295	0.165639	0.310139	0.486542	5667.961969	23398.353481	3613.507007	9876.310747
85.035500	0.306175	0.164887	0.303076	0.489699	5647.149153	23215.304632	3596.069114	9825.799176
85.536000	0.305828	0.164058	0.308344	0.485423	5672.118801	23376.673491	3612.341033	9894.307024
86.036500	0.306208	0.165266	0.308740	0.486896	5665.146429	23364.169440	3610.486077	9870.626080
86.536500	0.307301	0.164885	0.310348	0.487390	5668.964516	23323.149163	3612.404741	9862.705909
87.037000	0.303542	0.162948	0.307830	0.489262	5633.295813	23145.407517	3604.876006	9832.772830
87.537000	0.309784	0.164877	0.309720	0.488308	5678.960241	23279.805132	3609.743699	9848.008035
88.037500	0.306766	0.162930	0.315009	0.487195	5666.795880	23240.817267	3620.821775	9865.830388
88.534500	0.307364	0.164019	0.313675	0.488892	5659.803349	23212.473417	3615.555876	9838.676544
89.038500	0.309915	0.163762	0.303966	0.489072	5674.917691	23192.134428	3598.631367	9835.803030
89.535500	0.307982	0.162994	0.317520	0.489160	5662.029793	23152.305461	3621.774075	9834.399409
90.036000	0.306649	0.162180	0.310108	0.490105	5647.580834	23070.727233	3607.328176	9819.333645
90.536500	0.309367	0.161695	0.305899	0.490068	5665.067622	23050.019265	3600.220043	9819.928220
91.036500	0.308044	0.159999	0.312173	0.489929	5657.535699	22978.111748	3611.173922	9822.128889
91.537000	0.308651	0.162277	0.310150	0.492353	5646.021850	22971.427398	3603.560513	9783.619459
92.037000	0.308837	0.160192	0.308711	0.492569	5645.833060	22865.712033	3600.745286	9780.196524
92.537500	0.309300	0.160199	0.315382	0.493105	5645.374648	22841.529266	3611.232225	9771.726421
93.034500	0.306821	0.160884	0.307360	0.497531	5602.067300	22671.087044	3590.111549	9702.077556
93.538000	0.310186	0.160843	0.311681	0.495260	5637.365143	22772.528752	3601.220731	9737.722408
94.035500	0.309092	0.158550	0.311095	0.494629	5634.442139	22696.873717	3601.297590	9747.657859
94.536000	0.309281	0.159009	0.316473	0.495928	5627.464282	22658.751708	3608.256223	9727.213347
95.036000	0.308023	0.159610	0.311372	0.496814	5614.030568	22645.845719	3598.063209	9713.307105
95.536500	0.308971	0.159461	0.307224	0.498598	5608.813925	22558.501147	3588.102737	9685.394959
96.034000	0.310446	0.160223	0.311436	0.499948	5609.591516	22531.936564	3592.891229	9664.332173
96.556500	0.308505	0.158488	0.310335	0.499560	5599.922479	22471.402212	3591.696473	9670.384156
97.039500	0.309794	0.159171	0.308638	0.500763	5600.453521	22448.089385	3586.851175	9651.665702
97.535000	0.309777	0.157365	0.311734	0.500991	5598.933371	22357.088463	3591.643059	9648.123407
98.035000	0.307063	0.156097	0.311882	0.501535	5578.756689	22276.346904	3590.977832	9639.672917
