sample name	sample
index	111
start time	 02-15-2021  11:47:09 AM
880	0.373144
Peak Time (s)	92.535
Peak Height 	0.3731
calc peak height	90,93
Baseline Time (s)	10.036
Baseline Value 	-0.001166
subtract baseline	10,4
Abs	0.303665
Peak Time (s)	92.037
Peak Height 	0.3037
calc peak height	90,93
Baseline Time (s)	11.037
Baseline Value 	0.006698
subtract baseline	10,3
PK_550	0.154732
Peak Time (s)	92.037
Peak Height 	0.1547
calc peak height	90,93
Baseline Time (s)	10.036
Baseline Value 	0.001275
subtract baseline	10,2
PK_880	0.292390
Peak Time (s)	90.536
Peak Height 	0.2924
calc peak height	90,93
Baseline Time (s)	11.534
Baseline Value 	0.001741
subtract baseline	10,1


Time (s)	A880-A510	A880-A775	A880-A975	A880	I510	I775	I975	I880	
0.036500	-0.003629	-0.000839	-0.010189	0.004080	4184.785804	15271.617035	3225.279403	8744.314034
0.536000	-0.004324	0.000067	0.000285	0.004320	4182.237415	15290.387165	3231.856286	8741.132014
1.037000	-0.006925	-0.000994	0.017112	0.003177	4178.274067	15292.689733	3243.785307	8756.303872
1.538500	0.001605	-0.000191	-0.006644	0.001175	4207.194514	15372.076100	3229.406060	8782.981479
2.037500	-0.001905	-0.002043	-0.028356	0.000417	4199.570938	15341.061656	3216.220519	8793.113416
2.542000	0.002928	-0.001384	0.003390	-0.000672	4216.036551	15390.622748	3237.169660	8807.693557
3.035000	-0.000393	0.000826	0.009266	-0.000518	4206.346269	15449.250190	3240.985419	8805.634328
3.535500	-0.000291	0.000934	-0.001597	0.000916	4202.652740	15411.417289	3232.846835	8786.435003
4.035500	-0.004112	-0.000149	-0.000499	0.001013	4191.852843	15377.850281	3233.500717	8785.140095
4.536500	-0.000115	0.000826	-0.002935	0.001003	4202.899585	15405.862268	3231.918944	8785.274013
5.036500	0.000802	-0.001188	0.014361	-0.000406	4209.359888	15388.656291	3244.349850	8804.135108
5.536500	0.001062	-0.002739	0.009930	-0.001393	4212.835971	15372.656897	3242.020293	8817.381534
6.037000	-0.000167	0.000369	0.002012	0.000750	4203.456863	15400.074812	3235.321176	8788.658867
6.540500	-0.000114	-0.003552	-0.004783	-0.001803	4210.697573	15361.185000	3232.542771	8822.886800
7.035000	-0.002780	-0.001833	-0.023115	-0.001554	4202.598243	15402.949497	3220.686701	8819.534735
7.535500	-0.003804	-0.001041	-0.009814	0.000256	4194.778417	15374.011868	3227.958933	8795.259156
8.035500	-0.002333	0.000685	0.013781	-0.000181	4200.039725	15435.600147	3243.803416	8801.117601
8.538500	-0.000470	-0.000647	0.007659	-0.000525	4206.150562	15407.424444	3239.913500	8805.724086
9.036000	-0.002970	0.001284	0.000367	0.000414	4196.639188	15435.713838	3234.460677	8793.149451
9.536500	-0.001311	-0.000459	-0.008420	-0.000781	4204.526951	15420.075328	3229.521995	8809.154903
10.036000	0.000706	0.000000	-0.000660	0.000000	4207.960147	15410.904736	3234.058650	8798.691325
10.537000	0.002243	0.000274	0.008107	0.000142	4211.847901	15414.668661	3239.767218	8796.792036
11.037000	0.002215	0.001349	0.000000	0.000230	4211.521360	15442.819608	3234.340542	8795.609387
11.534500	0.000000	-0.000584	-0.006870	-0.000023	4206.063850	15394.956758	3230.033416	8799.003352
12.035000	0.001963	-0.000353	-0.009090	-0.000276	4212.230618	15408.699929	3228.765329	8802.382882
12.535000	-0.001945	-0.001135	-0.000998	-0.001131	4203.741999	15410.803331	3234.579159	8813.860807
13.035500	-0.002470	-0.001428	-0.000892	-0.003681	4209.364088	15475.232640	3236.327648	8848.191107
13.538500	-0.000752	-0.000166	-0.001631	-0.001289	4207.491261	15442.937748	3234.267435	8815.979868
14.044500	0.000369	-0.002226	-0.009446	-0.001018	4209.855406	15376.535373	3229.013345	8812.335839
14.536000	-0.000470	-0.001362	-0.004605	0.001078	4201.708199	15341.611947	3230.785951	8784.272689
15.037000	-0.000279	-0.001940	-0.009445	-0.001263	4208.734279	15391.635329	3229.171953	8815.629278
15.542000	-0.001423	0.001149	0.001071	-0.000477	4203.375388	15457.299088	3235.508927	8805.080753
16.040000	0.001362	-0.000277	-0.013112	0.000263	4209.053951	15395.544109	3225.847337	8795.169276
16.535000	0.000488	-0.002469	0.003587	-0.003359	4216.725503	15436.267278	3239.086516	8843.842950
17.035000	-0.001423	0.000424	0.016941	-0.000563	4203.614180	15439.048468	3246.213361	8806.234135
17.623000	0.002061	0.000750	-0.005858	0.001161	4208.501812	15399.212050	3229.922370	8783.170174
18.035500	-0.005046	-0.000360	-0.006112	-0.001319	4195.694993	15438.238331	3231.363490	8816.385022
18.535500	-0.006024	-0.000917	-0.009744	-0.000541	4190.871591	15400.207436	3228.515816	8805.944608
19.035500	-0.003776	-0.000045	0.007519	0.001074	4192.607755	15379.072281	3238.752552	8784.327405
19.536000	-0.001552	-0.001621	-0.007308	-0.000772	4203.835282	15386.727554	3230.234318	8809.034641
20.036500	0.002061	0.000192	-0.005802	0.000266	4210.991603	15408.777731	3230.536661	8795.123946
20.535000	-0.000699	-0.000997	0.013916	-0.000619	4205.777282	15400.137563	3244.191397	8806.982661
21.037500	-0.002675	-0.000586	0.011560	-0.000167	4199.056744	15398.987506	3242.292650	8800.932755
21.535000	-0.002398	0.000122	-0.007399	0.001006	4196.583357	15385.743447	3229.028597	8785.233855
22.035500	-0.000720	0.001153	-0.005169	0.000721	4202.003958	15423.199734	3230.652062	8789.037220
22.536000	-0.001123	0.001449	0.008676	0.001056	4199.963834	15422.101551	3239.536484	8784.569404
23.039000	-0.000537	0.000663	0.000163	0.000646	4202.719590	15411.393503	3234.174877	8790.046426
23.535500	0.000990	-0.000510	0.010247	0.000051	4208.608435	15394.940736	3241.261683	8798.004075
24.036500	-0.000916	-0.000181	-0.000616	0.000214	4202.866136	15399.663225	3233.947896	8795.830267
24.536500	-0.002160	0.000147	0.005073	0.000389	4198.941869	15404.013256	3237.582515	8793.484613
25.037000	-0.000498	-0.000167	-0.005062	0.000065	4204.436386	15404.305000	3231.146355	8797.819168
25.537000	-0.004132	0.000805	0.002225	0.003349	4185.405584	15338.674328	3233.755033	8754.019487
26.035000	-0.006238	0.001345	-0.001595	0.000343	4187.863951	15439.458902	3233.222198	8794.096059
26.536000	-0.005681	-0.000143	-0.000607	0.000014	4190.288819	15406.422062	3234.084195	8798.497306
27.035500	-0.003051	-0.000333	-0.007521	-0.001046	4200.446406	15431.244146	3230.274220	8812.720119
27.536000	-0.001815	-0.001832	-0.008698	-0.001206	4204.308171	15393.079126	3229.616585	8814.861169
28.036000	-0.003432	0.000511	-0.005921	-0.003484	4206.141718	15525.185397	3232.896496	8845.530294
28.536000	-0.003800	-0.000469	-0.012326	-0.002998	4203.773225	15483.120825	3228.434825	8838.974762
29.036500	-0.006202	-0.000716	-0.001587	-0.002611	4196.069805	15464.988273	3235.164600	8833.765820
29.536000	-0.000806	0.000504	-0.001422	0.004506	4191.338847	15297.440530	3230.627188	8738.653251
30.039500	0.000574	0.001035	-0.007513	-0.001065	4210.557105	15470.848239	3230.290900	8812.969366
30.537000	0.004345	0.001208	0.005970	-0.001130	4221.295587	15477.673581	3239.189523	8813.840804
31.035000	0.003286	-0.000106	0.005249	-0.001637	4219.744211	15454.576492	3239.046391	8820.654336
31.540500	0.002802	-0.001053	0.007005	0.002196	4207.685387	15318.746451	3237.665313	8769.363558
32.035000	-0.003244	-0.001555	-0.006045	0.000066	4196.843048	15364.827177	3230.508861	8797.805481
32.564000	-0.001154	-0.000956	-0.019649	-0.002093	4208.607595	15443.320698	3223.199739	8826.785521
33.035500	0.000087	-0.000535	-0.004527	-0.001799	4211.248922	15446.967251	3232.707162	8822.837950
33.536500	-0.006338	0.000699	0.001682	0.003101	4180.072782	15342.676933	3233.561636	8757.308893
34.036500	-0.003105	0.000549	-0.017742	-0.001185	4200.679317	15460.388594	3223.830400	8814.581509
34.537000	-0.002765	0.000451	0.004857	-0.001330	4202.021547	15461.729961	3238.580724	8816.530312
35.037000	0.003113	0.000709	0.008073	-0.002108	4220.581684	15491.384764	3241.251768	8826.984894
35.535000	-0.003187	0.000889	-0.001124	0.002942	4189.100348	15352.563106	3231.835698	8759.424646
36.035000	-0.007272	-0.002286	0.005689	-0.001051	4188.850094	15375.786393	3238.949925	8812.788613
36.535500	0.000722	0.000106	-0.001987	0.000877	4205.567987	15388.966071	3232.618425	8786.957325
37.035500	-0.003242	0.001363	-0.006702	0.001331	4193.368102	15411.797254	3229.267593	8780.887927
37.536000	0.000566	-0.001445	0.002085	0.001512	4203.376475	15326.986695	3234.867904	8778.480454
38.036500	0.003887	-0.000365	0.012856	0.000366	4215.815597	15390.104318	3242.807307	8793.791554
38.536500	0.000915	0.000149	0.000987	0.000830	4206.235891	15391.534144	3234.594342	8787.585589
39.036500	-0.001740	-0.001158	0.003993	-0.000553	4202.710153	15393.699620	3237.490628	8806.107526
39.539500	0.001091	-0.000364	-0.010508	0.000193	4208.496822	15395.059114	3227.554943	8796.111011
40.034500	-0.000284	0.000151	-0.000869	0.001354	4201.459329	15376.695628	3233.036169	8780.586310
40.535000	-0.001850	-0.001034	-0.002694	0.000474	4199.562390	15368.018417	3232.419933	8792.345246
41.035000	-0.000659	-0.001467	0.007770	-0.000283	4204.954730	15377.218691	3239.825676	8802.476252
41.535500	-0.004657	-0.001508	-0.009356	-0.000298	4193.957545	15376.497452	3228.608374	8802.685133
42.035500	-0.004874	-0.001448	-0.003373	0.000374	4191.517064	15359.137152	3232.043141	8793.687415
42.536000	-0.001720	-0.001696	-0.002405	-0.000891	4203.701484	15388.018860	3233.499959	8810.639322
43.036500	0.000527	0.001428	0.004560	0.001931	4202.107370	15396.586756	3236.222317	8772.889517
43.536500	0.002754	-0.001182	-0.012171	-0.000533	4215.161775	15392.444697	3226.955164	8805.837161
44.037000	-0.003203	-0.001337	-0.023345	-0.000086	4197.377301	15375.342048	3219.628983	8799.847715
44.537500	-0.004754	-0.000904	-0.004102	-0.000703	4194.803417	15405.179738	3232.269588	8808.112488
45.037500	-0.000969	-0.000948	0.005898	-0.002079	4209.084980	15443.175860	3239.775256	8826.605548
45.535000	0.001129	-0.000287	-0.004803	-0.002420	4215.893267	15471.798746	3232.931578	8831.188814
46.035000	-0.002620	0.000146	-0.002794	0.003705	4188.566490	15309.983033	3230.258521	8749.289913
46.544000	0.002277	0.000770	0.013460	-0.000995	4215.118196	15461.283876	3244.137983	8812.034611
47.036000	-0.005266	-0.000049	0.003280	-0.001639	4195.971235	15456.285427	3237.738644	8820.686253
47.536500	-0.001832	0.000028	0.003610	0.004324	4189.027965	15289.164250	3234.023258	8741.076305
48.036500	-0.004862	0.000449	0.002515	0.004198	4181.106110	15304.606450	3233.389292	8742.749420
48.545500	-0.002975	0.000134	-0.002310	-0.001818	4202.790985	15466.613199	3234.168559	8823.088610
49.040000	0.005224	0.000074	-0.000556	0.001238	4217.114792	15377.795349	3233.316185	8782.129325
49.537500	-0.003206	-0.001114	0.001111	0.002140	4191.247442	15318.585134	3233.817399	8770.108143
50.054500	-0.000926	-0.000507	0.005597	0.002988	4195.178230	15311.772188	3236.208340	8758.807633
50.535000	-0.000173	-0.000321	-0.002727	-0.001743	4210.365943	15451.457908	3233.846852	8822.080549
51.041000	0.003743	0.002457	0.003191	0.000281	4215.651116	15473.052277	3236.407813	8794.933594
51.535500	-0.005118	-0.001220	-0.011226	0.002585	4184.800034	15303.037060	3225.570471	8764.179431
52.036000	-0.008418	-0.002497	-0.003658	-0.007795	4204.270867	15562.701725	3237.219166	8904.020059
52.536500	-0.002283	-0.002137	0.002343	-0.008522	4223.445349	15594.085239	3241.711651	8913.938906
53.039000	-0.027574	-0.023786	0.037466	0.190303	3730.312583	10597.445687	3149.937281	6735.199572
53.537500	-0.062157	-0.038148	0.006490	0.065481	3898.939035	12785.391947	3198.291483	7984.693172
54.039500	-0.017602	-0.021165	0.020955	-0.146263	4621.780489	19539.652683	3368.353543	11127.612525
54.537500	0.008111	-0.012838	0.006494	-0.117920	4611.991736	18796.565674	3329.037793	10613.028848
55.034500	-0.001070	-0.017486	0.013132	-0.047033	4340.613145	16281.620763	3276.841615	9463.912017
55.535000	-0.005177	-0.010883	0.008682	-0.030328	4277.893809	15977.248874	3261.277527	9219.354949
56.035500	0.022053	-0.000902	0.016942	-0.069697	4489.652357	17533.764170	3297.418405	9811.120671
56.535500	0.037329	-0.000144	0.022085	-0.063197	4520.059306	17343.440030	3296.332732	9709.683500
57.036500	0.047594	0.001800	0.047325	-0.027671	4434.174620	16279.337129	3288.214959	9181.315318
57.536500	0.062230	0.008190	0.050084	0.006793	4370.177878	15450.747985	3264.366228	8708.428506
58.035500	0.078342	0.014400	0.060828	0.047773	4293.932484	14496.096284	3243.189436	8192.855389
58.540000	0.101150	0.022675	0.104819	0.090281	4236.557265	13627.950124	3244.193584	7707.055808
59.037500	0.126092	0.030392	0.116242	0.120893	4220.519380	13084.394138	3231.455377	7385.518833
59.535000	0.140842	0.042998	0.139234	0.168710	4131.054607	12302.401551	3215.789108	6926.496332
60.034500	0.160542	0.054307	0.164855	0.201148	4098.366617	11862.672971	3211.641639	6642.657876
60.535500	0.184657	0.070097	0.199467	0.233572	4077.555283	11531.253995	3212.965774	6379.359341
61.035500	0.200275	0.083658	0.228505	0.269853	4027.494392	11098.583852	3208.607713	6107.130322
61.535500	0.211513	0.091414	0.221570	0.291893	4002.257494	10837.960550	3191.882900	5952.528138
62.036500	0.226634	0.100876	0.229622	0.300279	4017.918343	10857.282436	3191.696802	5895.729536
62.537000	0.238513	0.107098	0.238263	0.321769	3995.645013	10587.352054	3184.635387	5755.097817
63.039500	0.246374	0.113580	0.235448	0.318447	4021.610093	10759.598811	3184.910066	5776.386479
63.537000	0.254440	0.124194	0.274360	0.303557	4077.052651	11226.319804	3215.960109	5873.826717
64.038000	0.257015	0.123818	0.261383	0.299526	4093.558335	11295.504505	3210.527116	5900.788497
64.535000	0.254551	0.132318	0.249149	0.296299	4095.481312	11521.363134	3205.168746	5922.547919
65.035000	0.256814	0.135640	0.256977	0.308956	4069.577449	11341.071781	3202.341057	5838.108017
65.553000	0.266038	0.139128	0.261601	0.315167	4077.025526	11289.209128	3201.419173	5797.565136
66.035500	0.265592	0.138894	0.253701	0.320736	4062.212823	11179.754393	3193.725376	5761.697808
66.545000	0.265834	0.137709	0.264169	0.323933	4055.010997	11098.066172	3197.848951	5741.317551
67.036500	0.265143	0.142221	0.282508	0.329794	4039.214423	11073.081014	3205.088805	5704.337390
67.536500	0.273933	0.140295	0.271356	0.330306	4059.210271	11028.115682	3198.314550	5701.129653
68.037000	0.271634	0.142484	0.279381	0.333726	4045.356536	11005.526384	3200.967708	5679.807210
68.537500	0.274214	0.145547	0.285566	0.335109	4048.242335	11036.389124	3203.764136	5671.234983
69.035000	0.277361	0.146545	0.281998	0.336157	4053.318807	11035.460937	3201.075070	5664.753299
69.535000	0.276602	0.144416	0.265002	0.334326	4055.921743	11029.976120	3192.441211	5676.084131
70.035000	0.283615	0.148778	0.274193	0.340353	4058.321067	10999.422373	3194.217569	5638.962681
70.535500	0.284510	0.147447	0.296667	0.335876	4071.490149	11057.260990	3209.886764	5666.487508
71.035500	0.276800	0.144194	0.271328	0.333477	4058.471219	11041.534882	3196.488978	5681.356663
71.536000	0.283629	0.149364	0.289284	0.340805	4057.254487	11001.879904	3202.608301	5636.204679
72.036500	0.284894	0.149247	0.268284	0.335673	4072.941769	11094.317134	3193.526350	5667.747075
72.539500	0.283779	0.148724	0.275835	0.334046	4074.205538	11114.803487	3198.738680	5677.820745
73.037000	0.277743	0.148502	0.295904	0.333205	4061.434145	11126.324200	3211.033666	5683.046383
73.537000	0.277100	0.150482	0.288531	0.338099	4047.990254	11072.268276	3203.748885	5652.786833
74.035000	0.278408	0.150485	0.297993	0.334982	4058.719299	11130.145657	3211.221727	5672.017650
74.535000	0.276693	0.151940	0.289856	0.335428	4053.465748	11148.962369	3206.099184	5669.256791
75.035500	0.281051	0.151543	0.282632	0.335091	4064.916206	11147.854335	3202.062228	5671.344958
75.535500	0.275204	0.150193	0.270718	0.336165	4048.081462	11102.734901	3194.619751	5664.702043
76.036000	0.279267	0.151626	0.287134	0.334282	4062.526764	11164.516503	3205.169796	5676.357712
76.536500	0.285999	0.154148	0.297666	0.338828	4067.888025	11126.747433	3208.718535	5648.309241
77.036500	0.279465	0.153514	0.291119	0.338767	4052.092736	11116.096001	3204.875423	5648.681430
77.536500	0.278108	0.153916	0.284644	0.342637	4039.506131	11051.878365	3198.863996	5625.030266
78.034000	0.284481	0.154871	0.284499	0.343789	4052.078951	11048.257886	3198.120705	5618.034745
78.534500	0.284116	0.155440	0.302363	0.343347	4052.263393	11066.908282	3208.825071	5620.715591
79.037500	0.286379	0.152766	0.296449	0.342150	4060.678295	11039.663293	3206.023375	5627.995767
79.535000	0.281333	0.152633	0.294420	0.347159	4036.408418	10945.529267	3201.899196	5597.661376
80.035500	0.280983	0.153112	0.290755	0.345531	4039.462256	10983.971822	3200.718039	5607.480897
80.535500	0.285133	0.154453	0.280746	0.346481	4047.147197	10991.127525	3194.457546	5601.746295
81.036000	0.286401	0.153404	0.311130	0.346641	4049.824048	10969.026427	3212.114071	5600.784137
81.536500	0.285504	0.155142	0.296924	0.350059	4039.446939	10938.427031	3201.669066	5580.259765
82.039500	0.287451	0.158257	0.307208	0.352478	4038.317907	10951.088352	3206.278225	5565.832072
82.537000	0.288537	0.154971	0.301197	0.350742	4045.084543	10922.917721	3203.762863	5576.180078
83.035000	0.282277	0.153396	0.301884	0.350907	4029.739414	10891.410995	3204.068200	5575.192081
83.539500	0.291147	0.153403	0.288111	0.352375	4047.438164	10865.052627	3195.288730	5566.444304
84.035500	0.288514	0.155183	0.313103	0.353490	4038.438365	10877.048209	3209.182102	5559.821210
84.538500	0.281720	0.153208	0.297908	0.353826	4021.532324	10835.466727	3200.058305	5557.827406
85.035500	0.284245	0.154655	0.289893	0.356266	4021.732082	10817.669498	3194.098261	5543.401279
85.536000	0.283093	0.153919	0.293967	0.355865	4019.966224	10811.660868	3196.631353	5545.763751
86.036500	0.284564	0.151919	0.287852	0.356010	4023.085479	10773.391220	3193.094491	5544.909191
86.537000	0.286332	0.155132	0.299232	0.359190	4019.764490	10773.988002	3197.738284	5526.216607
87.034000	0.284644	0.151086	0.287836	0.356490	4022.144347	10750.056403	3192.816799	5542.080740
87.537000	0.288265	0.154159	0.292894	0.360583	4021.033842	10731.969719	3193.358051	5518.071645
88.037500	0.283013	0.150217	0.310661	0.361483	4006.673819	10646.715951	3203.016043	5512.820200
88.535000	0.289996	0.155681	0.310401	0.364652	4015.552913	10687.027074	3201.022172	5494.429867
89.035500	0.286971	0.152446	0.309607	0.363810	4010.460829	10645.012014	3201.049525	5499.300041
89.535500	0.287340	0.154788	0.301703	0.367764	4002.155861	10616.839223	3194.273772	5476.491704
90.036000	0.287996	0.153208	0.302160	0.368486	4002.003683	10576.802668	3194.124477	5472.351558
90.536000	0.292390	0.153837	0.296040	0.367975	4013.383091	10596.606253	3190.985064	5475.284508
91.036500	0.288707	0.153647	0.294347	0.369411	4001.510191	10568.380690	3189.251379	5467.054180
91.538500	0.285391	0.153625	0.289662	0.371526	3989.064597	10531.436717	3185.525786	5454.982131
92.037000	0.290442	0.154732	0.303665	0.372853	3997.581182	10527.633369	3192.517468	5447.440466
92.534500	0.289737	0.154093	0.295743	0.373144	3995.298264	10511.637582	3187.964512	5445.792349
93.037500	0.287390	0.152726	0.290896	0.373307	3989.562832	10485.372726	3185.229313	5444.867249
93.535500	0.287704	0.151964	0.274786	0.373790	3989.179027	10464.065194	3176.391764	5442.132740
94.035500	0.284480	0.154042	0.302448	0.375633	3977.705594	10468.069318	3190.290919	5431.712840
94.535000	0.288574	0.153386	0.305395	0.375791	3986.605983	10454.184789	3191.842172	5430.824889
95.035500	0.293616	0.154282	0.305782	0.377949	3993.176319	10432.659286	3190.855909	5418.687417
95.536000	0.289279	0.152249	0.308223	0.377485	3984.361012	10406.010621	3192.475622	5421.291948
96.041500	0.288142	0.153656	0.298069	0.378403	3979.715629	10414.321673	3186.359225	5416.145002
96.539500	0.293388	0.152728	0.292127	0.377987	3992.570275	10405.636863	3183.364597	5418.479138
97.040000	0.286708	0.152152	0.304378	0.378005	3977.381030	10395.565404	3190.045760	5418.374549
97.534000	0.286050	0.153733	0.293015	0.382517	3965.818810	10346.113389	3181.411299	5393.204763
98.035000	0.288300	0.155299	0.288299	0.383654	3968.295705	10353.338910	3178.306142	5386.900646
