sample name	sample
index	214
start time	 02-22-2021  10:09:39 AM
880	-0.013659
Peak Time (s)	91.537
Peak Height 	-0.01366
calc peak height	90,93
Baseline Time (s)	9.536
Baseline Value 	-0.003863
subtract baseline	10,4
Abs	-0.004421
Peak Time (s)	90.035
Peak Height 	-0.004421
calc peak height	90,93
Baseline Time (s)	11.037
Baseline Value 	0.003799
subtract baseline	10,3
PK_550	-0.000787
Peak Time (s)	91.537
Peak Height 	-7.8746E-4
calc peak height	90,93
Baseline Time (s)	10.036
Baseline Value 	6.7069E-4
subtract baseline	10,2
PK_880	-0.004987
Peak Time (s)	91.537
Peak Height 	-0.004987
calc peak height	90,93
Baseline Time (s)	11.037
Baseline Value 	0.001132
subtract baseline	10,1


Time (s)	A880-A510	A880-A775	A880-A975	A880	I510	I775	I975	I880	
0.039000	-0.000470	-0.000502	-0.005147	0.001236	6871.002439	47175.824011	3910.187154	24699.377550
0.536500	-0.001851	-0.000223	-0.007224	0.004597	6826.882272	46862.143119	3896.087166	24530.496095
1.037000	-0.001859	-0.001175	0.001449	0.002657	6844.804348	46962.497832	3923.770591	24627.843565
1.539500	-0.006897	-0.000592	-0.007843	0.006208	6765.735113	46661.790698	3890.356581	24450.000998
2.037500	0.000373	-0.000296	-0.000825	-0.000134	6891.761251	47337.011668	3925.134473	24768.600089
2.535000	0.000997	-0.000258	-0.002517	-0.000594	6901.968000	47388.169378	3921.881982	24791.899007
3.035500	0.001406	0.000226	-0.001864	-0.001121	6910.804751	47492.137629	3924.998863	24818.640801
3.535500	-0.001329	-0.000239	-0.003216	0.001112	6864.134269	47215.343893	3915.561534	24705.657425
4.036000	0.000188	0.000083	-0.005280	0.000850	6880.785460	47275.146972	3910.847044	24718.895214
4.536000	-0.001023	-0.000139	0.002378	0.000467	6873.017513	47291.576008	3932.033304	24738.202406
5.036000	0.000259	-0.000780	-0.000042	0.000343	6886.211892	47238.750598	3925.946963	24744.512212
5.536500	-0.000164	-0.000665	0.002712	0.000292	6882.716096	47255.698175	3933.388992	24747.076525
6.039500	0.001092	-0.000823	-0.004715	0.000053	6896.760794	47263.874753	3914.406301	24759.136842
6.533500	-0.001705	-0.000818	-0.002196	-0.000310	6873.909434	47301.558734	3921.980342	24777.510334
7.035000	-0.000670	0.000226	0.001507	0.000772	6873.471082	47297.756851	3928.911019	24722.799892
7.535000	0.001196	-0.000879	0.000202	0.000018	6898.078715	47261.857960	3927.453288	24760.953079
8.035000	-0.000880	-0.000553	-0.004532	0.000329	6875.664126	47263.373571	3914.165497	24745.222956
8.536000	0.000090	0.000327	0.002309	0.000660	6881.646106	47319.490601	3931.337265	24728.452946
9.036500	-0.001031	0.000150	-0.002868	0.000080	6876.569684	47360.874327	3919.185859	24757.792328
9.536000	0.000711	-0.000127	-0.001377	0.000000	6893.684574	47340.697644	3923.323257	24761.840755
10.036000	0.001020	0.000000	0.000282	-0.000199	6898.465089	47374.139571	3928.239475	24771.917228
10.540000	-0.000650	-0.000319	-0.001559	-0.000387	6884.535216	47360.757212	3923.866162	24781.454232
11.037500	0.000000	-0.000130	0.000000	-0.000043	6887.398090	47344.786308	3927.076961	24764.002381
11.535000	-0.000728	0.000102	0.002130	0.000877	6871.944707	47274.327697	3930.286692	24717.507990
12.035500	0.000414	-0.000140	0.002885	-0.000132	6892.128406	47352.863057	3934.978270	24768.504489
12.535500	-0.000205	0.000296	-0.000905	-0.000126	6886.248701	47397.025026	3924.903068	24768.209127
13.036000	0.001286	-0.000180	0.000644	-0.002312	6920.938375	47572.946096	3934.818165	24879.128975
13.535500	-0.001403	-0.000476	-0.003361	-0.000447	6878.027826	47350.787945	3919.273081	24784.472158
14.036500	-0.000475	-0.000298	-0.002628	-0.001670	6898.241763	47494.665602	3924.430034	24846.511169
14.536500	-0.001664	0.000081	-0.001547	0.001890	6853.747624	47168.623446	3917.900713	24666.438933
15.037000	0.001890	0.000113	-0.001462	-0.000431	6908.863641	47409.584229	3924.239202	24783.680044
15.619500	0.000222	0.000736	0.003837	-0.001140	6899.808011	47546.564162	3940.217040	24819.590449
16.037500	0.001685	-0.000214	0.001095	-0.001873	6920.557140	47524.158538	3934.849873	24856.797418
16.537000	0.001546	-0.000349	0.000069	-0.002034	6920.763420	47526.799176	3932.545483	24864.981843
17.035500	0.001016	0.000533	0.002245	-0.001214	6907.994942	47533.183963	3936.157551	24823.333744
17.536000	0.000497	-0.000984	-0.001715	-0.003307	6922.890058	47592.573367	3931.186180	24929.807978
18.035500	0.000416	0.000611	0.002595	-0.002290	6912.488838	47652.182480	3939.970831	24878.003539
18.536000	0.000390	0.000048	0.000533	0.000598	6885.039775	47297.331439	3926.791901	24731.584459
19.036500	-0.000400	-0.000581	-0.005427	0.000490	6878.640046	47244.000233	3911.401293	24737.038798
19.536500	-0.001083	-0.000443	-0.000659	0.000540	6871.784871	47253.053105	3923.792608	24734.539039
20.037000	-0.000413	-0.000352	-0.000479	0.000214	6881.112495	47295.642682	3925.129894	24750.997295
20.534500	-0.001615	-0.000584	-0.000040	0.000073	6871.174380	47286.404706	3926.666051	24758.165748
21.034500	0.002952	-0.000174	0.001692	0.000664	6908.545698	47267.827827	3929.688031	24728.270207
21.535000	-0.000994	-0.000503	0.001098	0.000128	6876.472695	47289.091469	3929.536567	24755.377485
22.035500	-0.001348	-0.001015	-0.003425	-0.000140	6875.665213	47264.014775	3918.298609	24768.911903
22.535500	-0.000663	-0.000810	-0.001743	0.000125	6879.599361	47257.968094	3922.028712	24755.528397
23.036000	0.000574	-0.000262	-0.001173	0.000630	6886.471533	47262.302708	3922.197924	24729.976799
23.536000	-0.001539	-0.000271	0.000529	0.000476	6868.111945	47277.214870	3927.103401	24737.779144
24.036500	-0.001704	0.000157	-0.002884	0.000896	6862.647173	47277.934607	3916.998522	24716.533375
24.539500	-0.000532	-0.000337	-0.000751	0.000718	6875.272910	47245.649787	3923.082298	24725.552211
25.037000	-0.002018	-0.001225	-0.002716	0.000141	6866.764972	47213.827970	3919.423650	24754.717005
25.534500	-0.000250	-0.000248	0.001802	0.000683	6878.236676	47258.243084	3929.928903	24727.286809
26.034500	0.000306	0.000426	-0.000460	0.000817	6882.199481	47313.644825	3923.588556	24720.539756
26.535000	-0.000603	0.000100	0.000158	0.000581	6875.884784	47304.352888	3925.843353	24732.452048
27.035500	-0.001825	0.000120	-0.000243	0.002254	6848.861721	47135.397896	3920.372576	24648.118148
27.535500	-0.002916	-0.000619	-0.001212	0.000465	6855.361748	47242.685544	3922.531957	24738.333529
28.036000	0.002517	0.000322	0.000766	-0.001677	6926.578152	47559.154749	3933.449326	24846.836158
28.536500	0.001868	-0.000362	-0.001037	-0.001976	6923.261709	47519.475930	3929.452048	24862.027477
29.043000	-0.004617	-0.000587	0.003200	0.004100	6805.932001	46875.581986	3924.583976	24555.366065
29.537000	0.000642	-0.000052	-0.003607	-0.000449	6897.265452	47394.472188	3918.633331	24784.592031
30.037000	-0.000004	-0.000123	-0.001847	-0.001586	6901.879806	47503.990846	3926.272217	24842.221791
30.534500	-0.000774	-0.000916	0.000260	-0.002524	6903.465817	47518.956163	3934.357369	24889.909332
31.035500	-0.002607	0.000116	-0.004624	0.003060	6834.112557	47052.772827	3906.797539	24607.566813
31.535000	-0.001143	-0.000433	0.000061	0.000683	6869.873801	47239.359630	3925.317576	24727.289337
32.036000	-0.000586	-0.000514	-0.000808	0.001660	6865.945977	47131.234634	3920.445528	24677.989354
32.550000	0.002127	0.000551	0.002171	-0.000921	6915.731466	47504.930019	3935.180377	24808.507694
33.036000	-0.002862	-0.000653	-0.002342	0.003019	6832.127078	46978.695916	3912.856459	24609.623215
33.539000	0.000113	-0.000284	-0.001192	-0.001509	6902.260646	47479.541458	3927.803864	24838.312965
34.036500	0.003907	0.001264	0.006417	-0.000853	6931.962290	47571.420230	3946.374905	24805.058586
34.534500	0.001422	-0.000043	0.000070	-0.002127	6920.477444	47567.942996	3932.797630	24869.735489
35.037500	-0.000473	0.000107	0.001786	0.002440	6859.722687	47115.122280	3925.232746	24638.729772
35.537500	-0.000822	-0.000134	-0.005257	0.001193	6868.110167	47217.848464	3910.012469	24701.551388
36.035000	-0.000650	-0.000068	0.001259	0.001173	6869.910907	47226.619023	3927.192430	24702.588838
36.535500	-0.001138	-0.000273	-0.003936	0.001433	6862.922773	47179.131926	3912.835424	24689.466829
37.035500	-0.002668	0.000613	-0.002368	0.003342	6830.933963	47074.730059	3911.943148	24593.390359
37.536000	0.000771	-0.000541	-0.004050	0.001393	6881.158148	47155.813808	3912.640082	24691.454797
38.036000	0.000152	-0.000657	-0.002028	0.001353	6875.726430	47148.019850	3918.045635	24693.469956
38.536500	0.000265	0.000579	-0.000455	0.001921	6871.473252	47216.340909	3920.691134	24664.872363
39.036500	0.000088	0.000448	-0.003988	0.002000	6869.073928	47194.888137	3911.217450	24660.887344
39.537000	-0.001886	-0.000066	-0.002346	0.001765	6852.844783	47166.344188	3916.129916	24672.736252
40.034500	-0.000532	0.000328	-0.002477	0.001710	6865.992174	47212.214579	3915.932008	24675.511462
40.535000	-0.001381	-0.000292	0.001770	0.001284	6862.040684	47192.291042	3928.250974	24696.953832
41.035500	0.000844	0.000005	0.002392	0.001697	6878.997023	47180.536905	3928.806583	24676.158614
41.535500	-0.000221	0.000334	0.002681	0.001862	6867.474675	47197.288795	3929.131906	24667.812325
42.036000	-0.000389	0.000182	0.003535	0.001477	6869.509513	47221.128108	3932.426466	24687.246065
42.536000	-0.002036	0.000263	0.003359	0.001628	6852.723337	47213.921025	3931.555312	24679.622128
43.036500	-0.000526	0.000170	-0.003483	0.001508	6867.931506	47216.683282	3913.824923	24685.667673
43.536000	-0.001159	0.000454	-0.000700	0.001889	6858.470083	47206.837136	3920.130275	24666.491152
44.037000	-0.000877	-0.000117	-0.003730	0.001086	6868.593282	47230.467763	3914.282103	24706.938829
44.537500	0.001731	0.000525	-0.002520	-0.000078	6904.025467	47415.617762	3920.516156	24765.785622
45.034500	-0.001038	-0.000430	0.001020	0.003189	6847.482928	46984.122487	3921.233591	24601.067356
45.535000	-0.001117	0.000680	-0.001021	0.002769	6850.655050	47139.916624	3916.972443	24622.167255
46.041000	0.001166	-0.000104	0.003536	-0.001369	6910.882421	47483.674178	3940.026656	24831.238089
46.536000	0.002219	0.000342	0.004805	-0.000963	6916.994741	47487.785950	3942.338706	24810.629941
47.036000	-0.001203	0.000375	-0.003530	0.004656	6832.335631	46916.926215	3905.493097	24527.553246
47.538500	-0.001898	-0.000036	0.000513	0.002401	6846.809837	47104.486431	3921.974248	24640.692231
48.039000	-0.000068	-0.000292	-0.001424	-0.001485	6900.324082	47476.249069	3927.124368	24837.089104
48.536500	-0.000373	-0.000123	-0.002704	0.001835	6866.311551	47153.324691	3915.008938	24669.198050
49.037000	-0.002903	0.000204	0.000498	0.003771	6824.783697	46989.433408	3918.330920	24571.868841
49.538000	-0.000005	-0.000350	0.000002	0.001819	6869.905620	47131.831031	3922.164340	24670.011580
50.035000	0.000044	-0.000107	0.005850	-0.001246	6899.129188	47470.598064	3945.905175	24824.948171
50.535500	0.001301	0.000456	0.002180	-0.001069	6909.317161	47510.380155	3935.598569	24815.993888
51.035500	-0.001960	-0.000133	-0.003374	0.002849	6842.076409	47049.015952	3910.605035	24618.191470
51.538500	0.000183	0.000171	0.000954	0.000980	6879.515762	47270.795329	3926.894374	24712.298025
52.039000	0.000982	0.000515	0.006542	0.000649	6890.122225	47339.979041	3942.673944	24729.023125
52.539000	-0.012375	-0.015107	0.010919	0.168678	5496.277134	31985.984113	3576.716018	17689.702266
53.036500	-0.024135	-0.018476	-0.000159	0.076533	6042.986350	38602.217875	3740.822923	21211.673652
53.541500	-0.029931	-0.027191	0.001547	-0.072082	7302.784087	52203.834698	4139.413784	28728.925782
54.037000	-0.016390	-0.032395	-0.001201	-0.145141	8294.769930	60555.956443	4378.830880	33481.174364
54.534500	-0.020288	-0.019802	-0.005771	-0.109808	7820.819749	57610.384476	4238.218085	31083.005786
55.035000	-0.017434	-0.013351	-0.006733	-0.101670	7760.200075	57397.910605	4207.919888	30557.754467
55.534500	-0.008708	-0.011009	-0.006468	-0.100102	7842.507293	57495.306990	4203.635312	30457.692437
56.035500	-0.011142	-0.013819	-0.009089	-0.110080	7930.729444	58405.249891	4228.007118	31100.728513
56.536000	-0.001370	-0.012608	-0.006766	-0.112597	8077.757485	58884.494637	4244.266711	31265.283441
57.036500	-0.002170	-0.011367	-0.009888	-0.115736	8106.233107	59452.827442	4244.325462	31471.868685
57.536500	0.002110	-0.009976	-0.001462	-0.105301	8031.653223	58285.574611	4237.554288	30790.887486
58.037000	0.000360	-0.007824	-0.001177	-0.082730	7747.144435	55737.901011	4164.498154	29372.755629
58.537000	-0.001544	-0.003364	-0.007191	-0.051172	7380.847662	52536.611118	4049.512772	27509.554865
59.034500	-0.004884	-0.006512	-0.008579	-0.037850	7208.713655	50686.397119	4007.137033	26762.784960
59.537500	-0.002505	-0.003368	-0.004483	-0.028515	7138.777671	50008.807003	3992.388654	26252.969097
60.034500	-0.006948	-0.005779	-0.003547	-0.019573	7007.328312	48791.116309	3970.190654	25774.793958
60.535500	-0.006985	-0.003259	-0.006169	-0.012361	6937.813239	48297.013419	3943.476966	25396.232146
61.036000	-0.006525	-0.003625	-0.005492	0.001723	6810.253857	46808.633238	3908.019871	24674.861088
61.536000	-0.006832	-0.003296	-0.001641	0.003439	6791.648561	46668.243234	3913.590350	24588.509592
62.036000	-0.007004	-0.004087	-0.009446	-0.004788	6866.233930	47425.630407	3914.696835	25005.423758
62.537000	-0.008051	-0.005222	-0.007012	-0.014330	6946.404578	48297.656637	3946.504507	25498.961185
63.034000	-0.011716	-0.005999	-0.015462	-0.025078	7014.459533	49353.973398	3952.707454	26067.990859
63.537000	-0.006508	-0.000893	-0.016980	-0.037827	7192.057078	51307.205363	3983.507003	26761.502204
64.034500	-0.008686	-0.001983	-0.009037	-0.036292	7154.722470	51014.977134	4001.438070	26676.897641
64.535500	-0.008553	-0.001491	-0.008779	-0.033427	7127.461950	50752.306058	3994.110616	26519.841715
65.066500	-0.007777	-0.001361	-0.009463	-0.030311	7104.255640	50423.919733	3983.510394	26350.215010
65.536000	-0.008043	-0.001315	-0.005642	-0.034523	7143.463815	50892.911542	4006.031823	26579.801702
66.039500	-0.006162	-0.001449	-0.004121	-0.034848	7165.553099	50914.149164	4011.267064	26597.637199
66.535500	-0.004068	-0.000999	-0.008600	-0.035283	7190.999836	51012.117189	3999.826999	26621.463975
67.036500	-0.007024	-0.001451	-0.002735	-0.036530	7173.783164	51100.483901	4020.017907	26690.008400
67.537000	-0.004454	-0.001581	-0.007378	-0.037304	7207.537734	51172.207872	4008.995053	26732.674550
68.036000	-0.005512	-0.001330	-0.005695	-0.037850	7202.354935	51260.951344	4015.330908	26762.764506
68.537500	-0.004693	-0.001358	-0.009524	-0.038456	7216.796581	51325.491834	4006.177503	26796.252483
69.037500	-0.009281	-0.002377	-0.012893	-0.034649	7132.379227	50789.411988	3986.035137	26586.705601
69.535000	-0.006549	-0.002418	-0.009186	-0.039008	7203.572113	51268.783077	4008.696480	26826.758154
70.035500	-0.005646	-0.001789	-0.010518	-0.039352	7216.209757	51377.468636	4005.899518	26845.805416
70.538000	-0.006537	-0.002298	-0.010818	-0.039834	7212.065821	51374.440416	4006.415001	26872.527719
71.036500	-0.005679	-0.002290	-0.006008	-0.039313	7215.487554	51317.050282	4018.615329	26843.652818
71.536500	-0.006687	-0.002445	-0.008911	-0.037979	7191.786270	51151.127722	4006.563384	26769.900926
72.036500	-0.004893	-0.002124	-0.008334	-0.038490	7215.113828	51243.771807	4009.645854	26798.122206
72.537000	-0.006049	-0.002540	-0.010112	-0.037504	7193.422579	51087.668751	4001.827704	26743.676811
73.037500	-0.008267	-0.002123	-0.009142	-0.033019	7126.254654	50637.583468	3991.952801	26497.552844
73.537500	-0.007386	-0.002635	-0.008596	-0.035296	7157.773294	50832.382610	3999.877710	26622.206185
74.035000	-0.004695	-0.002086	-0.007227	-0.034741	7179.221009	50831.810365	4002.169414	26591.762149
74.535000	-0.006614	-0.002921	-0.007003	-0.034889	7161.428086	50755.895061	4003.222243	26599.885634
75.038500	-0.006182	-0.002018	-0.001921	-0.033160	7148.442063	50664.709695	4012.723658	26505.252761
75.535500	-0.008383	-0.003207	-0.010025	-0.031712	7112.125467	50375.132157	3985.842653	26426.341167
76.035500	-0.007321	-0.002926	-0.008456	-0.031738	7122.916520	50408.689185	3990.289520	26427.728367
76.536500	-0.006186	-0.003227	-0.006722	-0.031253	7129.385371	50322.602830	3993.782659	26401.335957
77.037000	-0.006162	-0.003067	-0.005376	-0.029933	7116.513481	50195.951200	3993.859518	26329.714223
77.537000	-0.006273	-0.002966	-0.006674	-0.027859	7094.888390	49981.185803	3984.446754	26217.567145
78.037000	-0.007292	-0.003203	-0.005779	-0.027926	7085.502217	49962.827095	3987.124562	26221.187169
78.534500	-0.006889	-0.003385	-0.002188	-0.027124	7081.567723	49856.042350	3994.921591	26177.947525
79.035000	-0.006570	-0.002501	-0.006634	-0.023740	7051.511376	49586.040081	3973.160718	25996.383988
79.535500	-0.006546	-0.002491	-0.009103	-0.024133	7055.592811	49629.479785	3967.456126	26017.407097
80.035500	-0.006518	-0.003493	-0.005843	-0.025110	7065.431565	49626.821184	3979.126993	26069.736379
80.536000	-0.006825	-0.003026	-0.009911	-0.023914	7050.716641	49548.200606	3964.645496	26005.689817
81.036500	-0.008384	-0.002365	-0.008023	-0.020251	7000.004547	49226.308089	3959.799975	25810.690134
81.536500	-0.007276	-0.002499	-0.006136	-0.021800	7025.731874	49377.754392	3969.195371	25892.970488
82.036500	-0.005711	-0.002300	-0.007564	-0.021771	7040.676844	49396.005488	3965.203137	25891.432071
82.537000	-0.006184	-0.002683	-0.005786	-0.021390	7032.366885	49314.152324	3969.032116	25871.173252
83.037500	-0.006544	-0.002629	-0.005259	-0.019602	7011.511380	49128.796164	3965.574661	25776.311227
83.535000	-0.007290	-0.003216	-0.009780	-0.020166	7009.758615	49126.382524	3954.796139	25806.215459
84.035000	-0.007074	-0.002489	-0.008631	-0.019920	7009.461918	49177.693202	3957.245762	25793.151473
84.535500	-0.004287	-0.002246	-0.005047	-0.019263	7030.121271	49133.495948	3965.226272	25758.363922
85.036000	-0.005993	-0.002751	-0.005380	-0.019195	7012.914333	49072.489565	3964.129410	25754.785982
85.536000	-0.006855	-0.002734	-0.005505	-0.018250	6995.450768	48973.746814	3961.209456	25704.886789
86.036500	-0.005519	-0.002645	-0.006592	-0.018541	7011.166608	49014.102359	3959.040452	25720.238230
86.537000	-0.008046	-0.002118	-0.002370	-0.018030	6981.864777	49015.793937	3969.183425	25693.250581
87.037000	-0.005324	-0.001950	-0.005786	-0.015944	6987.986336	48812.326539	3954.178698	25583.534348
87.537500	-0.005949	-0.002471	-0.007651	-0.016885	6991.022683	48856.733486	3951.675438	25632.948636
88.037500	-0.006741	-0.002414	-0.006374	-0.017213	6986.563669	48897.640988	3956.025305	25650.227190
88.535500	-0.004533	-0.002604	-0.004889	-0.017013	7005.918096	48856.180742	3959.516344	25639.668140
89.038500	-0.005467	-0.001894	-0.005700	-0.014866	6976.245900	48704.095176	3951.491284	25527.004667
89.535500	-0.005106	-0.001960	-0.004254	-0.015575	6986.528787	48772.121434	3957.332467	25564.141186
90.035000	-0.005857	-0.002271	-0.004421	-0.016318	6986.454279	48817.830088	3958.899127	25603.159549
90.535500	-0.005560	-0.001681	-0.004437	-0.015560	6982.022292	48800.132213	3956.796241	25563.379126
91.036500	-0.005191	-0.001919	-0.008836	-0.015477	6984.763324	48766.018302	3944.681190	25558.994812
91.537000	-0.004987	-0.000787	-0.006345	-0.013659	6969.266956	48693.478187	3946.493387	25463.879898
92.037500	-0.005341	-0.001388	-0.005115	-0.014750	6976.341110	48745.334779	3952.759148	25520.927205
92.535000	-0.005766	-0.002071	-0.005431	-0.014823	6972.972096	48680.906314	3952.103165	25524.762274
93.035000	-0.004321	-0.002048	-0.007762	-0.014000	6978.938710	48596.461530	3943.600114	25481.725981
93.537500	-0.004104	-0.000984	-0.001513	-0.013041	6971.808033	48607.561646	3957.895134	25431.637222
94.035000	-0.004454	-0.001918	-0.002416	-0.014454	6982.013596	48658.005166	3959.281548	25505.416945
94.535500	-0.005955	-0.002211	-0.002231	-0.014580	6968.825047	48640.535424	3960.131151	25512.055736
95.035500	-0.005952	-0.001961	-0.006109	-0.013111	6954.793293	48511.987211	3945.652201	25435.277554
95.536000	-0.005722	-0.002255	-0.003728	-0.013162	6957.486400	48486.471995	3952.216087	25437.967903
