sample name	sample
index	183
start time	 02-18-2021  11:23:44 AM
880	0.447674
Peak Time (s)	91.535
Peak Height 	0.4477
calc peak height	90,93
Baseline Time (s)	9.038
Baseline Value 	-0.004002
subtract baseline	10,4
Abs	0.307613
Peak Time (s)	92.069
Peak Height 	0.3076
calc peak height	90,93
Baseline Time (s)	10.539
Baseline Value 	0.002371
subtract baseline	10,3
PK_550	0.154715
Peak Time (s)	90.035
Peak Height 	0.1547
calc peak height	90,93
Baseline Time (s)	10.539
Baseline Value 	9.8136E-6
subtract baseline	10,2
PK_880	0.303164
Peak Time (s)	92.069
Peak Height 	0.3032
calc peak height	90,93
Baseline Time (s)	8.537
Baseline Value 	8.8812E-4
subtract baseline	10,1


Time (s)	A880-A510	A880-A775	A880-A975	A880	I510	I775	I975	I880	
0.040500	-0.002788	-0.000444	-0.001117	0.007817	6597.397948	42811.081943	3855.636925	22600.922605
0.540500	-0.002175	-0.000465	-0.003082	0.005852	6619.755519	42990.256106	3855.634359	22690.555326
1.036000	-0.002565	-0.000768	-0.003646	0.004095	6631.664142	43124.822142	3858.516599	22771.082913
1.537000	0.001202	0.000538	-0.000903	0.002154	6681.792129	43426.925210	3869.904213	22860.384261
2.036000	-0.002024	-0.000111	-0.003218	0.007302	6608.484364	42889.256418	3851.818755	22624.403603
2.536000	-0.000993	0.000307	-0.003770	0.001074	6671.948088	43506.269280	3865.545412	22910.240859
3.037000	0.002389	0.000679	-0.005714	-0.000633	6717.086316	43701.309810	3864.968612	22989.328003
3.537000	0.002238	0.000723	-0.004188	0.001395	6697.694783	43515.162556	3863.748156	22895.427144
4.034500	-0.001349	-0.000142	-0.004723	0.000570	6673.253657	43511.447649	3864.455005	22933.579636
4.538000	-0.000083	-0.000820	0.002723	-0.000478	6693.720565	43546.082554	3885.313980	22982.154647
5.035500	-0.000005	0.000652	0.000401	0.001068	6680.727179	43539.236741	3875.764934	22910.552222
5.535500	0.000839	0.000355	0.001233	0.000433	6693.818146	43570.869591	3879.377157	22939.923607
6.035500	-0.001423	0.000401	0.002932	0.000431	6673.830550	43575.343586	3883.580071	22940.035659
6.539000	0.000133	0.000439	-0.000098	0.000362	6688.192895	43585.377251	3876.273360	22943.208957
7.036500	0.000445	0.000098	-0.004934	0.000112	6693.166894	43576.808971	3865.054716	22954.781306
7.537000	0.000781	-0.000112	-0.000221	0.000108	6696.190938	43557.549067	3876.595980	22954.994542
8.037000	0.000510	0.000417	-0.004008	-0.000085	6695.493142	43625.198454	3867.789312	22963.904488
8.537000	0.000000	-0.000222	-0.003737	-0.000116	6691.245201	43568.166202	3868.528093	22965.335154
9.038000	0.001016	0.000424	-0.004114	0.000000	6699.230941	43617.867023	3867.324317	22959.979088
9.535500	0.000930	0.001004	0.000712	0.000538	6693.690376	43621.825554	3877.831688	22935.039356
10.035500	-0.000827	-0.000081	0.001269	-0.000761	6689.635968	43641.959079	3882.414544	22995.286013
10.538500	-0.000202	0.000000	0.000000	0.000005	6688.384254	43577.648223	3877.391859	22959.732546
11.038500	-0.002473	0.000344	-0.004422	0.004701	6627.182351	43171.723352	3855.179210	22743.265312
11.536000	0.000538	-0.000292	0.002182	-0.000806	6702.145793	43626.359846	3884.787531	22997.377341
12.037000	0.000255	0.001179	0.004523	0.000698	6686.304059	43623.264883	3886.864648	22927.671141
12.536500	0.000144	0.000231	-0.001992	-0.000458	6695.556632	43642.767916	3873.633800	22981.197088
13.037000	-0.003267	0.000112	-0.004615	0.004893	6618.602869	43132.447039	3854.253885	22734.468679
13.534500	0.002404	0.000406	-0.000053	-0.000325	6714.473795	43646.675305	3878.074505	22975.039735
14.035000	-0.000961	0.000184	0.001608	0.002828	6656.801038	43331.037131	3874.406681	22829.335339
14.535000	-0.002322	0.000481	-0.001779	0.002109	6651.159383	43425.751697	3867.876689	22862.451554
15.471500	-0.001113	0.000123	0.001302	-0.000478	6684.596602	43634.542705	3881.796053	22982.146284
16.001000	0.000579	0.000577	0.000873	-0.000401	6698.916110	43669.914761	3880.544871	22978.564884
16.091500	0.001868	0.000773	-0.003775	-0.000353	6709.952921	43683.872679	3869.014881	22976.347099
16.536500	-0.001140	0.000253	0.001841	-0.001264	6691.316893	43720.575208	3885.074313	23018.636973
17.036500	-0.001801	-0.000743	-0.001555	0.003636	6642.350745	43169.742979	3864.701885	22792.153971
17.537000	0.003005	0.000733	-0.000607	-0.000376	6720.293764	43682.203405	3876.835871	22977.420737
18.037500	0.002875	0.000902	-0.001022	-0.003519	6747.292568	43994.702653	3883.568659	23123.733120
18.537500	-0.000560	0.000120	0.000445	-0.000413	6688.919397	43628.096210	3879.519153	22979.112320
19.038000	-0.002454	0.000476	-0.004566	0.003094	6641.383328	43333.488930	3858.712922	22817.084134
19.535000	0.000127	0.000301	0.002361	0.000943	6683.005601	43518.038084	3880.903399	22916.340401
20.035500	0.000186	0.000448	-0.002679	0.000603	6686.533216	43563.657656	3869.355369	22932.060053
20.536000	0.000115	0.000693	-0.003174	0.001396	6678.890568	43512.319879	3866.215664	22895.393783
21.036500	-0.000611	0.000321	-0.004858	0.000766	6678.041929	43536.456191	3863.648764	22924.514386
21.536500	0.000097	0.000470	-0.001566	0.000943	6682.732718	43533.742805	3871.245562	22916.298799
22.036500	-0.001418	0.000581	-0.000384	0.000667	6671.785139	43570.039037	3874.820294	22929.067538
22.537000	-0.000873	0.000541	-0.000833	0.000932	6674.260898	43541.508345	3873.067071	22916.810437
23.037000	-0.000684	-0.000423	0.000595	0.000244	6682.012046	43515.678991	3878.269020	22948.688805
23.535000	-0.002123	-0.000330	-0.001142	0.000355	6668.336083	43513.989318	3873.726892	22943.555575
24.037500	-0.001110	0.000903	0.000451	0.001000	6671.580538	43569.109276	3876.056225	22913.705487
24.535000	-0.001714	0.000137	-0.008412	0.000313	6672.305509	43561.632897	3856.141065	22945.465907
25.036000	-0.001146	0.000426	0.000097	0.001526	6666.621956	43475.196333	3873.892403	22889.380966
25.536000	0.000997	0.000297	0.005867	0.000671	6693.114718	43543.094123	3890.272062	22928.906460
26.036500	-0.002021	0.000122	0.004000	0.000340	6669.363779	43557.741695	3886.454272	22944.250196
26.536500	0.000698	-0.000033	0.003770	0.000385	6692.994755	43538.930568	3885.770042	22942.121755
27.039500	-0.002251	0.000032	-0.001465	0.002168	6651.272183	43378.415132	3868.499466	22859.765505
27.537000	-0.003309	-0.000063	0.000368	0.000453	6657.032467	43529.810934	3877.195088	22938.980313
28.037500	-0.000779	0.001080	0.003601	-0.000048	6683.750087	43684.088562	3886.426471	22962.215250
28.535000	0.003124	0.001065	-0.002475	-0.002622	6741.466521	43925.291852	3877.766328	23081.880920
29.035000	-0.004185	-0.000216	-0.004836	0.004319	6615.610644	43155.287138	3855.103780	22760.814048
29.536000	0.000560	0.000850	0.004364	-0.000709	6701.480804	43724.535075	3889.966190	22992.846294
30.035500	-0.000756	0.000206	0.004558	-0.000996	6692.349134	43690.946589	3891.164251	23006.182630
30.536000	0.000366	0.000854	0.003227	-0.000865	6701.142307	43739.608041	3887.523780	23000.090855
31.037000	-0.000731	-0.000910	-0.005061	0.003276	6654.883397	43187.666808	3857.079163	22808.736187
31.536500	-0.000914	0.000099	0.002030	0.002558	6659.585056	43348.236186	3876.105284	22841.762430
32.037000	-0.002044	0.000114	-0.001717	0.001112	6662.358154	43484.625911	3870.462301	22908.484692
32.537000	0.001101	0.000307	0.002769	-0.000938	6708.331237	43695.045288	3886.568846	23003.499378
33.038000	-0.000368	-0.000403	-0.001554	-0.001186	6697.476546	43651.561986	3876.498154	23015.014032
33.535000	-0.001895	0.000563	0.001246	0.003030	6646.836736	43347.575335	3873.022746	22820.035315
34.035500	-0.001801	0.000064	0.003251	-0.000973	6682.892357	43675.509131	3887.855197	23005.127339
34.535500	0.002995	0.000656	0.002033	-0.002394	6738.262926	43865.021100	3888.357977	23071.221459
35.036000	-0.001326	-0.000210	0.000521	0.002199	6659.122247	43352.964077	3873.283069	22858.324643
35.536500	-0.000930	0.000382	0.001151	0.002058	6663.845003	43421.319872	3875.175293	22864.828706
36.036500	-0.000918	0.000451	-0.004385	0.001411	6669.647433	43488.280906	3863.232965	22894.711704
36.536500	0.000701	-0.000188	0.001167	0.000945	6688.060332	43472.140574	3877.952649	22916.251209
37.037000	-0.001893	0.000010	0.002283	0.001419	6660.987910	43446.285932	3879.533355	22894.303121
37.537500	-0.001384	-0.000058	-0.004187	0.002073	6659.715148	43378.820567	3862.105153	22864.117061
38.035000	-0.001205	0.000214	-0.001489	0.001063	6670.187517	43498.728320	3871.142331	22910.794641
38.535500	-0.000133	0.000246	0.000591	0.001437	6676.340153	43466.741487	3875.325483	22893.507669
39.035500	-0.000888	-0.000134	-0.001885	0.001740	6667.010454	43402.939301	3868.519004	22879.517438
39.538500	0.000947	-0.000111	0.002381	0.001238	6687.648760	43451.864940	3880.223524	22902.687974
40.035500	-0.000031	-0.000040	0.001505	0.000888	6682.088778	43491.301124	3878.924934	22918.879685
40.536000	-0.002281	0.000261	0.002313	0.001109	6660.302664	43498.708050	3880.371459	22908.634611
41.037000	-0.001272	-0.000454	0.000583	0.001152	6668.807835	43427.870681	3876.003930	22906.655280
41.537000	-0.001628	0.000049	-0.003215	0.000991	6667.086593	43489.893857	3867.099591	22914.097527
42.037000	-0.002230	-0.000502	0.001813	0.000632	6664.950072	43471.952157	3880.316237	22930.711568
42.535000	0.000324	0.000504	-0.004771	0.001104	6683.316034	43521.894624	3863.039431	22908.859768
43.035000	-0.001000	0.000293	-0.001501	0.002601	6658.449402	43362.370327	3867.353167	22839.786552
43.538000	-0.000296	-0.000160	0.001456	0.000718	6681.247895	43496.002940	3879.223438	22926.743994
44.035500	-0.000153	0.000452	0.001733	0.001343	6676.986021	43494.703871	3878.364368	22897.811002
44.535500	-0.000564	-0.000303	-0.002443	0.000716	6678.900154	43482.799897	3869.656283	22926.838777
45.036500	-0.001494	0.000280	-0.001954	0.003693	6644.541368	43259.505220	3863.594282	22789.552869
45.536500	-0.002808	0.000566	-0.003408	0.004564	6625.466000	43205.100185	3857.960921	22749.576014
46.037000	0.000088	0.000610	0.001621	-0.001039	6700.220642	43732.951706	3883.972872	23008.175953
46.537000	0.001590	0.000557	0.001889	-0.001251	6715.475798	43747.946559	3885.164323	23018.048715
47.037000	-0.002564	-0.000764	-0.003202	0.003202	6639.478138	43208.047947	3861.757143	22812.127685
47.538000	-0.003316	0.000367	-0.002935	0.004318	6623.179228	43209.457650	3859.697911	22760.858866
48.040500	0.000282	0.000894	0.001332	-0.001060	6702.133391	43761.773410	3883.309815	23009.186450
48.535500	-0.003550	-0.000287	0.001989	0.001266	6647.793926	43432.842635	3879.188047	22901.399833
49.038500	-0.000838	0.000455	-0.001960	0.003788	6649.447528	43266.909857	3863.347024	22785.160405
49.536000	-0.002934	0.000686	0.002498	0.004332	6626.378030	43237.758855	3872.898927	22760.182653
50.036500	0.000566	0.000959	0.004171	-0.000743	6701.835903	43737.987253	3889.570015	22994.446852
50.536500	0.002290	0.001107	0.002446	-0.002387	6731.883752	43907.013272	3889.368442	23070.908292
51.037000	-0.002528	-0.000375	-0.004484	0.003811	6634.469702	43187.707640	3857.178486	22784.141332
51.534500	-0.003041	-0.000870	-0.002317	-0.005168	6709.109865	43983.015533	3884.445304	23200.931385
52.037500	-0.013364	-0.011476	0.005202	0.212775	5128.437533	27159.661191	3471.194267	15163.633566
52.535000	-0.038952	-0.026198	-0.003259	-0.036994	6672.920199	44602.826028	3963.763136	24749.704611
53.038000	-0.031990	-0.022906	-0.002742	-0.034880	6715.906689	44716.136278	3959.520251	24643.240244
53.535500	-0.012881	-0.009715	-0.006444	-0.062200	7152.955673	48807.560196	4023.863498	26059.448083
54.036000	0.000694	-0.016330	0.022831	-0.101049	7705.979832	52346.880520	4230.304364	28232.994507
54.535500	0.009005	-0.012423	0.025720	-0.067197	7428.196424	49050.267488	4132.450728	26328.202881
55.036500	0.015704	-0.004720	0.042326	-0.005103	6879.050384	43614.058585	4000.775254	23197.885476
55.537000	0.034647	0.010529	0.048593	-0.026652	7273.510419	47216.970357	4079.653790	24233.918190
56.042500	0.073556	0.031363	0.084455	-0.017591	7588.757144	48435.633055	4160.582624	23792.026669
56.534500	0.111054	0.051490	0.114149	0.032025	7458.144171	45444.196794	4099.950477	21529.099000
57.035000	0.142189	0.068768	0.141977	0.086270	7218.957904	41970.134026	4023.722465	19333.693314
57.535000	0.161176	0.081813	0.162750	0.143875	6846.598171	38157.218529	3924.894203	17283.820658
58.035500	0.186156	0.095483	0.187672	0.178415	6759.417205	36501.492059	3900.435915	16178.933477
58.538500	0.204392	0.106681	0.204242	0.214497	6601.728796	34628.635661	3852.455889	15114.836955
59.035500	0.218312	0.114829	0.219410	0.244890	6461.814238	33042.865540	3816.486305	14284.640081
59.536000	0.224317	0.124613	0.227895	0.300648	6070.048100	30011.942246	3712.505153	12904.701959
60.039000	0.240607	0.130216	0.241768	0.292395	6257.696954	30891.902218	3759.766625	13097.955014
60.536500	0.253445	0.136435	0.250149	0.317327	6163.900146	29710.007967	3724.185935	12525.167640
61.039500	0.255748	0.137149	0.254261	0.335287	6046.291874	28665.023977	3695.441797	12132.481196
61.537500	0.264177	0.144825	0.267842	0.307440	6325.401652	30863.728749	3784.236704	12748.388517
62.035000	0.266689	0.146497	0.274169	0.342489	6073.997614	28792.837090	3721.780792	11979.520843
62.535500	0.270979	0.150391	0.278609	0.367496	5923.462759	27562.715496	3679.529233	11467.660004
63.038500	0.272901	0.157289	0.275878	0.396213	5739.118688	26352.699394	3618.671620	10915.083897
63.535500	0.279538	0.160321	0.283249	0.369467	5970.552274	28019.366512	3684.899034	11428.545384
64.036500	0.281833	0.160633	0.283126	0.377995	5925.989210	27548.081584	3667.611934	11261.394616
64.548500	0.280496	0.160153	0.285904	0.383204	5879.857971	27226.944877	3662.815696	11160.893522
65.040000	0.281844	0.160746	0.284957	0.389388	5846.223316	26915.329467	3648.896934	11043.120404
65.537000	0.279421	0.160224	0.278964	0.398923	5764.645416	26364.894178	3619.374785	10864.813301
66.037500	0.286273	0.161439	0.282874	0.397385	5821.647404	26514.305450	3629.613037	10893.310726
66.537500	0.285219	0.161400	0.291831	0.399135	5802.469859	26417.067178	3643.355598	10860.879355
67.035000	0.284998	0.162024	0.289945	0.400662	5790.584014	26368.173510	3636.818170	10832.701778
67.535500	0.284762	0.160822	0.288087	0.407043	5746.005139	25961.427131	3621.247851	10716.001938
68.038500	0.288908	0.161988	0.296293	0.401960	5808.371056	26296.155506	3646.510417	10808.831627
68.536000	0.289888	0.161586	0.290243	0.401222	5820.125080	26314.273721	3636.320124	10822.399644
69.036500	0.287802	0.162432	0.292625	0.407692	5762.032944	26012.588302	3628.559967	10704.228651
69.536500	0.287850	0.160946	0.288638	0.405128	5779.648293	26070.115637	3625.878647	10750.854737
70.036500	0.293384	0.162438	0.297105	0.400002	5852.637571	26426.412509	3651.873832	10844.880945
70.537000	0.291216	0.162880	0.298497	0.400541	5833.927479	26421.083973	3653.529694	10834.926873
71.037500	0.291788	0.162340	0.289317	0.405925	5800.962111	26102.042210	3625.655574	10736.325463
71.535000	0.294020	0.162191	0.291726	0.405086	5821.958381	26138.937091	3631.790596	10751.609640
72.035000	0.295757	0.162089	0.296855	0.400324	5866.881039	26390.000699	3650.762098	10838.931207
72.538000	0.294939	0.162253	0.290037	0.401290	5854.482384	26346.607138	3635.795018	10821.135448
73.035500	0.291664	0.160968	0.293023	0.407655	5788.363054	25936.694183	3629.382975	10704.906399
73.536000	0.292886	0.161402	0.289990	0.406770	5802.686861	26006.843418	3625.330698	10720.957723
74.036500	0.297401	0.163176	0.301130	0.405129	5844.948183	26189.504483	3649.734057	10750.831305
74.536000	0.295841	0.162162	0.301207	0.407002	5821.305102	26034.955912	3646.261885	10716.748570
75.037000	0.292448	0.161837	0.298311	0.413292	5755.628621	25684.783267	3628.723308	10603.368458
75.537000	0.291933	0.162340	0.295917	0.414710	5742.692450	25636.779755	3621.554909	10578.039305
76.034500	0.297288	0.161525	0.302456	0.410890	5804.615075	25794.876825	3641.185544	10646.477185
76.538000	0.299013	0.161596	0.295934	0.412716	5803.920936	25702.367451	3625.328064	10613.681477
77.035500	0.298355	0.162020	0.300103	0.414102	5790.013494	25651.852098	3630.580588	10588.884032
77.535500	0.294541	0.160242	0.297654	0.419993	5724.882186	25253.101022	3614.939641	10484.372440
78.035500	0.299480	0.161830	0.302010	0.417394	5775.348176	25469.956767	3627.963716	10530.314072
78.536000	0.297959	0.160968	0.300579	0.418566	5757.222043	25364.353335	3623.064850	10509.571463
79.036500	0.302174	0.161111	0.302715	0.420633	5771.671496	25264.898556	3623.193557	10473.106613
79.536000	0.299340	0.160092	0.300642	0.423730	5731.937367	25053.625956	3613.549835	10418.806509
80.037000	0.297204	0.158668	0.300641	0.421141	5734.957162	25113.234868	3618.363959	10464.180939
80.537500	0.297258	0.158805	0.298964	0.423761	5717.915989	24986.399637	3610.387580	10418.264366
81.035000	0.297552	0.158135	0.305565	0.424010	5718.218567	24939.720609	3622.205934	10413.928934
81.535000	0.297644	0.157946	0.304522	0.425173	5711.129244	24871.062010	3618.081377	10393.636272
82.035500	0.296088	0.158048	0.295506	0.426766	5690.403634	24795.651862	3598.539325	10365.957311
82.535500	0.297113	0.159193	0.301089	0.428556	5685.395000	24763.136802	3605.472480	10334.971468
83.035500	0.295424	0.157555	0.302570	0.428756	5673.053313	24670.674706	3607.826240	10331.510452
83.536500	0.296766	0.157214	0.301016	0.429812	5674.918086	24600.598312	3603.036164	10313.292088
84.037000	0.296685	0.157051	0.307440	0.430903	5667.283838	24537.964714	3612.855982	10294.523913
84.534000	0.300276	0.156627	0.299701	0.432927	5677.497751	24416.200259	3594.971582	10259.829427
85.037000	0.292549	0.153010	0.296779	0.436530	5604.493304	24060.947243	3583.240381	10198.462841
85.534500	0.299812	0.155576	0.297742	0.434330	5665.332105	24294.769332	3588.903418	10235.867770
86.035000	0.298451	0.156631	0.304856	0.435147	5651.218235	24306.548336	3600.305991	10221.962399
86.535500	0.298507	0.155152	0.299879	0.435693	5648.051499	24206.773193	3590.296305	10212.671457
87.038000	0.293687	0.154927	0.299161	0.442768	5572.250831	23851.109816	3576.389334	10093.404472
87.535500	0.299544	0.154107	0.299378	0.440935	5621.011686	23900.130999	3580.022903	10124.112976
88.036500	0.298249	0.153223	0.300688	0.438028	5631.342450	23998.321610	3587.552980	10173.086252
88.536500	0.302029	0.154846	0.298106	0.440447	5640.102569	23959.625616	3578.632495	10132.318458
89.039500	0.300918	0.154738	0.302093	0.441556	5625.836768	23900.609567	3583.752783	10113.690939
89.537000	0.301767	0.154096	0.305650	0.441830	5629.523132	23856.294082	3589.636639	10109.096215
90.034500	0.300620	0.154715	0.303462	0.442925	5615.170817	23833.302004	3583.752404	10090.772268
90.535000	0.300302	0.153468	0.301114	0.443426	5609.949381	23749.101246	3578.683586	10082.403417
91.035000	0.301076	0.152441	0.296332	0.443730	5612.950105	23685.221387	3569.714868	10077.338261
91.535000	0.299549	0.153721	0.301237	0.447674	5578.266211	23557.912531	3571.401215	10011.828910
92.069000	0.303164	0.153900	0.307613	0.447144	5604.498937	23591.702545	3583.632114	10020.601051
92.539000	0.301735	0.152349	0.302081	0.447147	5595.412476	23517.694665	3573.813569	10020.554698
93.039500	0.299411	0.152160	0.305206	0.447514	5578.404950	23491.248094	3578.690196	10014.475043
93.537000	0.302619	0.150971	0.298588	0.450233	5581.483591	23306.536507	3562.304908	9969.652019
94.071000	0.302301	0.152884	0.306609	0.449943	5581.307252	23410.437888	3576.872818	9974.412188
94.534000	0.302261	0.152504	0.308652	0.451060	5574.021531	23339.784139	3578.512739	9956.066826
95.037500	0.304166	0.152693	0.307574	0.452513	5576.870669	23280.330209	3574.038364	9932.282315
95.535000	0.303308	0.151562	0.311315	0.453941	5562.515488	23160.376570	3578.126703	9908.970880
96.035000	0.304604	0.151687	0.309238	0.454162	5569.252380	23155.880767	3574.063841	9905.357898
96.536000	0.301409	0.149162	0.314038	0.452806	5557.734183	23101.356969	3584.997045	9927.488365
97.036000	0.301695	0.151245	0.305344	0.460420	5512.304248	22845.357480	3556.371390	9804.174877
