sample name	sample
index	592
start time	 03-16-2021  04:35:17 PM


Wavelength (nm)	Absorbance
494.344910	-0.127996
494.563924	-0.127996
494.782919	-0.127996
495.001897	0.375771
495.220856	-0.042483
495.439797	-0.017825
495.658719	0.114161
495.877624	0.095234
496.096510	0.043212
496.315378	0.216447
496.534227	0.275545
496.753059	0.236006
496.971872	0.203040
497.190667	0.166031
497.409444	0.171609
497.628203	0.159184
497.846943	0.163407
498.065665	0.165567
498.284369	0.162586
498.503055	0.162402
498.721723	0.162278
498.940372	0.162923
499.159003	0.162780
499.377616	0.161487
499.596210	0.164040
499.814787	0.164061
500.033345	0.164869
500.251885	0.165310
500.470406	0.167153
500.688910	0.167949
500.907395	0.167301
501.125862	0.168694
501.344311	0.168715
501.562742	0.166621
501.781154	0.166549
501.999548	0.164829
502.217924	0.164993
502.436282	0.162956
502.654621	0.162376
502.872942	0.161948
503.091245	0.160902
503.309530	0.161230
503.527797	0.162550
503.746045	0.161303
503.964275	0.161668
504.182487	0.161863
504.400681	0.162072
504.618856	0.162515
504.837013	0.163260
505.055152	0.163837
505.273273	0.162514
505.491376	0.162899
505.709460	0.163721
505.927526	0.164048
506.145574	0.165164
506.363604	0.166214
506.581615	0.166513
506.799608	0.167352
507.017583	0.167676
507.235540	0.169099
507.453478	0.169524
507.671399	0.169930
507.889301	0.170625
508.107185	0.169581
508.325050	0.169605
508.542898	0.170061
508.760727	0.168931
508.978538	0.168694
509.196330	0.168051
509.414105	0.167407
509.631861	0.167858
509.849599	0.167879
510.067319	0.167481
510.285021	0.167529
510.502704	0.167464
510.720369	0.167854
510.938016	0.168551
511.155645	0.169124
511.373255	0.169244
511.590848	0.169150
511.808422	0.167898
512.025977	0.168815
512.243515	0.168818
512.461034	0.168206
512.678536	0.168402
512.896018	0.167774
513.113483	0.167875
513.330930	0.169132
513.548358	0.168736
513.765768	0.170769
513.983160	0.170318
514.200533	0.169448
514.417889	0.169995
514.635226	0.170720
514.852545	0.171378
515.069845	0.170740
515.287128	0.170225
515.504392	0.171301
515.721638	0.170896
515.938866	0.170919
516.156075	0.171159
516.373267	0.171648
516.590440	0.171170
516.807594	0.171367
517.024731	0.172138
517.241850	0.172078
517.458950	0.171540
517.676032	0.171412
517.893095	0.170986
518.110141	0.171399
518.327168	0.172070
518.544177	0.172313
518.761168	0.172475
518.978141	0.172857
519.195095	0.173044
519.412031	0.173644
519.628949	0.173601
519.845849	0.174376
520.062731	0.174700
520.279594	0.173666
520.496439	0.174065
520.713266	0.174285
520.930074	0.174607
521.146865	0.174487
521.363637	0.174348
521.580391	0.174883
521.797127	0.174923
522.013844	0.175092
522.230543	0.175667
522.447224	0.175491
522.663887	0.175593
522.880532	0.175411
523.097158	0.174945
523.313766	0.175158
523.530356	0.174958
523.746928	0.175664
523.963481	0.175910
524.180017	0.176581
524.396534	0.177424
524.613032	0.178120
524.829513	0.179064
525.045975	0.180246
525.262420	0.180197
525.478845	0.180627
525.695253	0.180064
525.911643	0.180462
526.128014	0.180840
526.344367	0.180091
526.560702	0.179216
526.777018	0.178434
526.993316	0.179012
527.209597	0.180088
527.425858	0.179945
527.642102	0.180818
527.858328	0.181200
528.074535	0.181354
528.290724	0.182328
528.506894	0.182876
528.723047	0.183994
528.939181	0.183899
529.155297	0.182953
529.371395	0.183736
529.587475	0.184234
529.803536	0.184460
530.019579	0.184367
530.235604	0.184792
530.451611	0.185276
530.667600	0.184993
530.883570	0.185510
531.099522	0.186262
531.315456	0.186481
531.531372	0.186031
531.747269	0.186376
531.963148	0.186333
532.179009	0.186155
532.394852	0.186419
532.610676	0.186944
532.826482	0.186768
533.042271	0.187179
533.258040	0.187908
533.473792	0.188391
533.689525	0.188868
533.905240	0.189555
534.120937	0.190203
534.336616	0.191202
534.552277	0.191555
534.767919	0.191761
534.983543	0.191942
535.199149	0.192332
535.414736	0.192763
535.630306	0.192869
535.845857	0.193199
536.061390	0.193143
536.276904	0.192066
536.492401	0.192765
536.707879	0.193164
536.923339	0.193235
537.138781	0.192687
537.354204	0.193205
537.569610	0.193004
537.784997	0.193196
538.000366	0.193196
538.215716	0.193792
538.431049	0.193078
538.646363	0.193079
538.861659	0.194168
539.076937	0.194177
539.292196	0.194431
539.507438	0.194679
539.722661	0.194607
539.937866	0.195342
540.153052	0.196209
540.368221	0.197115
540.583371	0.197635
540.798503	0.196806
541.013617	0.197737
541.228712	0.198102
541.443789	0.198616
541.658848	0.198922
541.873889	0.199774
542.088912	0.199348
542.303916	0.198726
542.518902	0.199062
542.733870	0.198914
542.948820	0.198899
543.163752	0.199006
543.378665	0.199835
543.593560	0.200811
543.808437	0.199784
544.023295	0.200758
544.238136	0.202006
544.452958	0.201768
544.667762	0.202836
544.882548	0.202450
545.097315	0.202570
545.312064	0.201868
545.526795	0.201476
545.741508	0.202201
545.956203	0.202404
546.170879	0.202404
546.385537	0.203173
546.600177	0.202944
546.814799	0.204087
547.029402	0.204443
547.243988	0.204977
547.458555	0.204765
547.673103	0.205451
547.887634	0.205123
548.102146	0.205538
548.316640	0.205876
548.531116	0.206136
548.745574	0.205538
548.960013	0.205281
549.174435	0.205677
549.388838	0.206686
549.603222	0.206600
549.817589	0.206844
550.031937	0.206758
550.246267	0.206561
550.460579	0.207068
550.674873	0.207831
550.889148	0.208240
551.103405	0.208415
551.317644	0.208352
551.531865	0.208804
551.746068	0.209133
551.960252	0.209016
552.174418	0.209371
552.388566	0.209976
552.602696	0.209762
552.816807	0.210103
553.030900	0.209731
553.244975	0.209722
553.459032	0.209734
553.673070	0.209590
553.887091	0.209852
554.101093	0.209715
554.315077	0.209360
554.529042	0.209839
554.742990	0.210369
554.956919	0.211133
555.170830	0.211366
555.384722	0.210989
555.598597	0.211199
555.812453	0.211935
556.026291	0.212265
556.240111	0.212532
556.453913	0.212621
556.667696	0.211768
556.881461	0.211758
557.095208	0.211861
557.308937	0.212365
557.522647	0.212872
557.736339	0.212533
557.950013	0.212692
558.163669	0.212910
558.377307	0.213064
558.590926	0.214045
558.804527	0.214236
559.018110	0.214459
559.231675	0.214712
559.445221	0.215054
559.658749	0.215733
559.872259	0.215773
560.085751	0.215778
560.299225	0.215656
560.512680	0.216002
560.726117	0.216100
560.939536	0.216241
561.152937	0.216512
561.366319	0.216703
561.579683	0.215934
561.793029	0.215870
562.006357	0.216115
562.219667	0.216547
562.432958	0.215988
562.646231	0.216364
562.859486	0.216657
563.072723	0.216776
563.285941	0.216398
563.499141	0.216796
563.712323	0.217055
563.925487	0.217281
564.138632	0.217279
564.351760	0.217882
564.564869	0.217789
564.777960	0.217483
564.991032	0.217152
565.204087	0.217686
565.417123	0.218187
565.630141	0.218757
565.843140	0.218626
566.056122	0.219599
566.269085	0.219857
566.482030	0.220178
566.694957	0.220453
566.907866	0.220360
567.120756	0.220566
567.333628	0.220446
567.546482	0.220207
567.759318	0.220748
567.972135	0.220332
568.184935	0.219849
568.397716	0.219381
568.610478	0.219796
568.823223	0.220183
569.035949	0.220164
569.248657	0.220026
569.461347	0.220462
569.674019	0.220523
569.886672	0.220703
570.099308	0.221185
570.311925	0.221256
570.524523	0.221325
570.737104	0.221723
570.949666	0.221477
571.162210	0.222211
571.374736	0.222204
571.587244	0.222607
571.799733	0.222435
572.012205	0.222559
572.224658	0.223137
572.437092	0.223313
572.649509	0.223440
572.861907	0.223722
573.074287	0.223334
573.286649	0.223199
573.498993	0.222951
573.711318	0.222537
573.923625	0.222232
574.135914	0.222043
574.348185	0.221780
574.560438	0.221816
574.772672	0.221830
574.984888	0.222559
575.197086	0.223650
575.409266	0.223502
575.621427	0.224324
575.833570	0.224643
576.045695	0.225162
576.257802	0.225981
576.469890	0.226193
576.681961	0.226861
576.894013	0.226773
577.106046	0.226642
577.318062	0.227051
577.530059	0.227267
577.742039	0.227542
577.954000	0.227810
578.165942	0.227499
578.377867	0.227451
578.589773	0.227465
578.801661	0.227516
579.013531	0.226919
579.225382	0.227166
579.437216	0.227197
579.649031	0.227448
579.860828	0.227229
580.072606	0.227353
580.284367	0.227970
580.496109	0.228206
580.707833	0.228539
580.919539	0.229031
581.131227	0.228999
581.342896	0.229241
581.554547	0.229203
581.766180	0.229362
581.977795	0.229539
582.189391	0.229857
582.400969	0.229838
582.612529	0.229496
582.824071	0.229433
583.035595	0.229474
583.247100	0.229332
583.458587	0.229020
583.670056	0.229160
583.881506	0.229221
584.092939	0.229336
584.304353	0.229018
584.515749	0.229535
584.727127	0.229670
584.938486	0.229750
585.149828	0.229871
585.361151	0.230332
585.572456	0.230331
585.783742	0.230542
585.995011	0.230956
586.206261	0.231607
586.417493	0.231735
586.628706	0.231954
586.839902	0.232079
587.051079	0.232179
587.262238	0.232642
587.473379	0.232785
587.684502	0.233002
587.895606	0.232111
588.106692	0.231817
588.317760	0.232083
588.528810	0.232682
588.739841	0.233058
588.950855	0.233281
589.161850	0.233562
589.372827	0.233877
589.583785	0.234121
589.794726	0.234542
590.005648	0.234861
590.216552	0.234722
590.427437	0.234242
590.638305	0.234128
590.849154	0.234537
591.059985	0.234254
591.270798	0.234087
591.481592	0.233918
591.692369	0.233870
591.903127	0.233567
592.113867	0.233974
592.324588	0.234284
592.535292	0.234845
592.745977	0.234594
592.956644	0.235087
593.167293	0.235856
593.377923	0.236222
593.588536	0.236742
593.799130	0.237214
594.009706	0.236790
594.220263	0.236904
594.430803	0.236923
594.641324	0.237383
594.851827	0.237511
595.062312	0.237199
595.272778	0.237189
595.483227	0.236733
595.693657	0.237112
595.904069	0.237991
596.114462	0.238277
596.324838	0.238523
596.535195	0.238651
596.745534	0.238901
596.955855	0.238838
597.166157	0.238838
597.376441	0.239869
597.586707	0.239905
597.796955	0.239699
598.007185	0.239783
598.217396	0.239862
598.427589	0.239958
598.637764	0.239604
598.847921	0.239934
599.058060	0.240207
599.268180	0.239436
599.478282	0.239561
599.688366	0.239518
599.898431	0.239332
600.108479	0.239578
600.318508	0.239777
600.528519	0.240500
600.738511	0.240622
600.948486	0.240673
601.158442	0.241413
601.368380	0.241210
601.578300	0.241465
601.788202	0.241741
601.998085	0.241531
602.207950	0.241507
602.417797	0.241231
602.627626	0.241704
602.837436	0.241942
603.047228	0.241851
603.257002	0.242335
603.466758	0.242499
603.676496	0.242519
603.886215	0.242847
604.095916	0.243114
604.305599	0.243066
604.515264	0.243038
604.724910	0.243161
604.934538	0.243093
605.144148	0.243208
605.353740	0.243031
605.563314	0.243475
605.772869	0.243367
605.982406	0.243523
606.191925	0.243852
606.401425	0.243847
606.610908	0.244232
606.820372	0.244561
607.029818	0.244602
607.239246	0.244764
607.448655	0.244554
607.658047	0.244642
607.867420	0.244642
608.076775	0.244422
608.286111	0.244590
608.495430	0.244068
608.704730	0.244171
608.914012	0.244252
609.123275	0.244527
609.332521	0.244808
609.541748	0.245001
609.750957	0.244931
609.960148	0.245192
610.169321	0.245266
610.378475	0.245712
610.587611	0.245886
610.796729	0.245900
611.005829	0.245714
611.214910	0.245665
611.423974	0.245799
611.633019	0.246329
611.842045	0.246522
612.051054	0.246923
612.260044	0.247253
612.469017	0.247237
612.677970	0.247390
612.886906	0.248173
613.095824	0.248611
613.304723	0.248635
613.513604	0.248758
613.722467	0.248971
613.931311	0.248828
614.140138	0.248983
614.348946	0.249123
614.557736	0.249220
614.766507	0.248839
614.975261	0.249029
615.183996	0.249225
615.392713	0.248669
615.601412	0.248452
615.810092	0.248650
616.018754	0.248340
616.227399	0.248288
616.436024	0.248727
616.644632	0.248807
616.853222	0.249240
617.061793	0.249795
617.270346	0.250075
617.478880	0.250214
617.687397	0.250312
617.895895	0.250782
618.104375	0.251186
618.312837	0.251164
618.521281	0.251360
618.729706	0.250600
618.938113	0.250238
619.146502	0.250659
619.354873	0.251031
619.563226	0.250969
619.771560	0.250954
619.979876	0.250934
620.188174	0.250701
620.396453	0.250867
620.604715	0.251491
620.812958	0.251667
621.021183	0.251754
621.229390	0.251912
621.437578	0.252362
621.645748	0.252411
621.853900	0.252537
622.062034	0.253175
622.270150	0.253453
622.478247	0.253565
622.686326	0.253347
622.894387	0.253059
623.102430	0.253226
623.310454	0.253631
623.518461	0.253846
623.726449	0.254240
623.934418	0.253938
624.142370	0.253847
624.350303	0.253893
624.558218	0.254633
624.766115	0.255089
624.973994	0.254950
625.181855	0.254486
625.389697	0.254705
625.597521	0.254659
625.805327	0.255273
626.013114	0.255298
626.220883	0.255304
626.428634	0.255194
626.636367	0.255060
626.844082	0.255345
627.051778	0.255678
627.259457	0.255553
627.467117	0.255464
627.674758	0.255241
627.882382	0.255564
628.089987	0.256004
628.297574	0.256097
628.505143	0.256690
628.712694	0.256936
628.920226	0.256849
629.127740	0.257050
629.335236	0.257537
629.542714	0.257500
629.750174	0.257651
629.957615	0.257334
630.165038	0.257782
630.372443	0.257659
630.579829	0.257826
630.787198	0.257892
630.994548	0.258265
631.201880	0.258207
631.409194	0.258680
631.616489	0.258892
631.823766	0.259214
632.031025	0.259135
632.238266	0.259463
632.445489	0.259381
632.652693	0.260124
632.859879	0.260091
633.067047	0.260191
633.274197	0.260156
633.481329	0.260258
633.688442	0.260619
633.895537	0.260768
634.102614	0.261118
634.309672	0.261571
634.516713	0.261447
634.723735	0.261606
634.930739	0.261719
635.137724	0.261979
635.344692	0.262046
635.551641	0.261958
635.758572	0.262127
635.965485	0.261934
636.172379	0.261925
636.379256	0.262071
636.586114	0.262279
636.792954	0.262522
636.999775	0.262635
637.206579	0.262787
637.413364	0.263306
637.620131	0.263316
637.826880	0.263211
638.033610	0.263322
638.240323	0.263121
638.447017	0.263035
638.653692	0.262861
638.860350	0.262893
639.066990	0.263104
639.273611	0.262834
639.480214	0.263116
639.686798	0.263567
639.893365	0.263575
640.099913	0.263950
640.306443	0.264113
640.512955	0.264539
640.719449	0.264848
640.925924	0.265079
641.132381	0.265252
641.338820	0.265524
641.545241	0.266067
641.751644	0.266553
641.958028	0.266911
642.164394	0.267094
642.370742	0.267327
642.577071	0.267391
642.783383	0.267504
642.989676	0.267680
643.195951	0.267943
643.402207	0.267634
643.608446	0.267601
643.814666	0.267529
644.020868	0.267725
644.227052	0.267806
644.433218	0.268173
644.639365	0.268333
644.845494	0.268597
645.051605	0.268516
645.257698	0.268683
645.463772	0.269013
645.669828	0.269224
645.875866	0.269566
646.081886	0.269849
646.287888	0.269782
646.493871	0.270060
646.699836	0.270055
646.905783	0.270391
647.111712	0.270522
647.317622	0.270452
647.523514	0.270540
647.729388	0.270735
647.935244	0.271009
648.141082	0.271089
648.346901	0.271303
648.552702	0.271795
648.758485	0.271975
648.964250	0.272271
649.169996	0.272560
649.375724	0.272853
649.581434	0.272765
649.787126	0.272877
649.992800	0.273262
650.198455	0.272997
650.404092	0.272754
650.609711	0.272756
650.815311	0.272720
651.020894	0.272862
651.226458	0.272925
651.432004	0.273308
651.637532	0.273140
651.843041	0.273241
652.048532	0.273648
652.254006	0.274086
652.459460	0.274248
652.664897	0.274440
652.870315	0.274575
653.075716	0.274728
653.281097	0.274769
653.486461	0.275219
653.691807	0.275504
653.897134	0.275564
654.102443	0.275536
654.307734	0.275496
654.513006	0.275532
654.718261	0.275543
654.923497	0.275849
655.128715	0.275841
655.333915	0.276028
655.539096	0.276007
655.744259	0.276458
655.949404	0.276969
656.154531	0.277048
656.359640	0.277632
656.564730	0.277890
656.769802	0.278016
656.974856	0.278534
657.179892	0.278751
657.384909	0.278938
657.589908	0.278730
657.794889	0.278574
657.999852	0.279029
658.204797	0.279000
658.409723	0.278941
658.614631	0.279212
658.819521	0.279126
659.024393	0.278804
659.229246	0.278977
659.434081	0.279264
659.638898	0.279608
659.843697	0.279638
660.048478	0.279871
660.253240	0.280056
660.457984	0.280057
660.662710	0.280432
660.867417	0.280883
661.072107	0.281154
661.276778	0.281443
661.481431	0.281815
661.686066	0.282165
661.890682	0.282087
662.095281	0.282218
662.299861	0.282529
662.504422	0.282535
662.708966	0.282829
662.913491	0.283013
663.117999	0.283084
663.322488	0.282906
663.526958	0.283052
663.731411	0.283221
663.935845	0.283865
664.140261	0.283962
664.344659	0.284133
664.549038	0.284338
664.753400	0.284452
664.957743	0.284501
665.162068	0.284697
665.366375	0.284842
665.570663	0.285360
665.774933	0.285351
665.979185	0.285510
666.183419	0.285820
666.387635	0.285850
666.591832	0.286123
666.796011	0.286410
667.000172	0.286636
667.204315	0.286697
667.408439	0.286819
667.612545	0.287126
667.816634	0.287235
668.020703	0.287222
668.224755	0.287638
668.428788	0.287503
668.632803	0.287827
668.836800	0.287902
669.040779	0.288189
669.244739	0.288338
669.448681	0.288403
669.652605	0.288718
669.856511	0.288966
670.060399	0.289030
670.264268	0.289759
670.468119	0.289755
670.671952	0.290159
670.875767	0.290333
671.079563	0.290517
671.283341	0.290641
671.487101	0.290964
671.690843	0.291312
671.894567	0.291371
672.098272	0.291411
672.301959	0.291790
672.505628	0.291877
672.709278	0.292393
672.912911	0.292632
673.116525	0.292838
673.320121	0.292783
673.523699	0.292962
673.727258	0.293093
673.930799	0.293275
674.134322	0.293448
674.337827	0.293690
674.541314	0.293503
674.744782	0.293782
674.948232	0.293997
675.151664	0.294542
675.355078	0.294726
675.558474	0.295302
675.761851	0.295234
675.965210	0.295441
676.168551	0.295846
676.371873	0.296200
676.575178	0.296197
676.778464	0.296434
676.981732	0.296692
677.184981	0.296884
677.388213	0.296832
677.591426	0.297308
677.794621	0.297300
677.997798	0.297226
678.200956	0.297381
678.404097	0.297752
678.607219	0.298076
678.810323	0.297907
679.013408	0.298241
679.216476	0.298738
679.419525	0.298857
679.622556	0.298984
679.825569	0.299243
680.028563	0.299249
680.231540	0.299349
680.434498	0.299321
680.637438	0.299590
680.840359	0.299571
681.043263	0.299298
681.246148	0.299474
681.449015	0.300128
681.651864	0.300240
681.854694	0.300594
682.057506	0.300926
682.260301	0.301261
682.463076	0.301464
682.665834	0.301743
682.868573	0.302046
683.071295	0.302294
683.273998	0.302268
683.476682	0.302652
683.679349	0.302775
683.881997	0.302788
684.084627	0.302931
684.287239	0.303035
684.489833	0.302900
684.692408	0.303107
684.894965	0.303295
685.097504	0.303526
685.300025	0.303540
685.502527	0.304071
685.705012	0.304235
685.907478	0.304428
686.109925	0.304371
686.312355	0.304672
686.514766	0.304904
686.717159	0.304918
686.919534	0.304995
687.121891	0.305311
687.324230	0.305076
687.526550	0.305341
687.728852	0.305624
687.931136	0.305757
688.133401	0.306002
688.335649	0.306170
688.537878	0.306395
688.740089	0.306417
688.942281	0.306295
689.144456	0.306790
689.346612	0.306749
689.548750	0.306882
689.750870	0.307449
689.952971	0.307506
690.155055	0.307871
690.357120	0.308026
690.559167	0.308343
690.761195	0.308746
690.963206	0.308526
691.165198	0.308737
691.367172	0.308768
691.569128	0.308737
691.771065	0.309071
691.972984	0.308919
692.174885	0.309298
692.376768	0.309515
692.578633	0.309549
692.780479	0.309496
692.982308	0.309576
693.184118	0.309719
693.385909	0.309850
