sample name	sample
index	660
start time	 03-22-2021  10:26:00 AM


Wavelength (nm)	Absorbance
494.344910	0.144687
494.563924	0.144687
494.782919	0.144687
495.001897	-0.002955
495.220856	0.020463
495.439797	-0.003375
495.658719	-0.018035
495.877624	-0.028119
496.096510	-0.025145
496.315378	-0.038699
496.534227	-0.043469
496.753059	-0.049515
496.971872	-0.052901
497.190667	0.018463
497.409444	0.039835
497.628203	0.048330
497.846943	0.051199
498.065665	0.054110
498.284369	0.056493
498.503055	0.057841
498.721723	0.058633
498.940372	0.059849
499.159003	0.060746
499.377616	0.061094
499.596210	0.060573
499.814787	0.060950
500.033345	0.060066
500.251885	0.060506
500.470406	0.061026
500.688910	0.061115
500.907395	0.060907
501.125862	0.060946
501.344311	0.061269
501.562742	0.061220
501.781154	0.061497
501.999548	0.062393
502.217924	0.061900
502.436282	0.061974
502.654621	0.062202
502.872942	0.062414
503.091245	0.062143
503.309530	0.062716
503.527797	0.062174
503.746045	0.061840
503.964275	0.061446
504.182487	0.062323
504.400681	0.062291
504.618856	0.062827
504.837013	0.062557
505.055152	0.062941
505.273273	0.062418
505.491376	0.063646
505.709460	0.063755
505.927526	0.064056
506.145574	0.063519
506.363604	0.063097
506.581615	0.063099
506.799608	0.063393
507.017583	0.063330
507.235540	0.062924
507.453478	0.063147
507.671399	0.062987
507.889301	0.062853
508.107185	0.063313
508.325050	0.064166
508.542898	0.063324
508.760727	0.062463
508.978538	0.061738
509.196330	0.062787
509.414105	0.062865
509.631861	0.062815
509.849599	0.062001
510.067319	0.062154
510.285021	0.061905
510.502704	0.062149
510.720369	0.062492
510.938016	0.063104
511.155645	0.062870
511.373255	0.062488
511.590848	0.062650
511.808422	0.062648
512.025977	0.062287
512.243515	0.062348
512.461034	0.062257
512.678536	0.062223
512.896018	0.062073
513.113483	0.061282
513.330930	0.060896
513.548358	0.061001
513.765768	0.061622
513.983160	0.061289
514.200533	0.061259
514.417889	0.061414
514.635226	0.061700
514.852545	0.062316
515.069845	0.062827
515.287128	0.063366
515.504392	0.063325
515.721638	0.063595
515.938866	0.063830
516.156075	0.063613
516.373267	0.063457
516.590440	0.063540
516.807594	0.063208
517.024731	0.062928
517.241850	0.062861
517.458950	0.063460
517.676032	0.062987
517.893095	0.063009
518.110141	0.063122
518.327168	0.063711
518.544177	0.063971
518.761168	0.064106
518.978141	0.064177
519.195095	0.064029
519.412031	0.063346
519.628949	0.063280
519.845849	0.063169
520.062731	0.062763
520.279594	0.062573
520.496439	0.062843
520.713266	0.062616
520.930074	0.062741
521.146865	0.062603
521.363637	0.062857
521.580391	0.062942
521.797127	0.063586
522.013844	0.063782
522.230543	0.063857
522.447224	0.063412
522.663887	0.063938
522.880532	0.064056
523.097158	0.064214
523.313766	0.064168
523.530356	0.064500
523.746928	0.064207
523.963481	0.064719
524.180017	0.064992
524.396534	0.065255
524.613032	0.065040
524.829513	0.065373
525.045975	0.065448
525.262420	0.065674
525.478845	0.065523
525.695253	0.065468
525.911643	0.065232
526.128014	0.064948
526.344367	0.064542
526.560702	0.063972
526.777018	0.063485
526.993316	0.064262
527.209597	0.063983
527.425858	0.063879
527.642102	0.064126
527.858328	0.064503
528.074535	0.064816
528.290724	0.065403
528.506894	0.065816
528.723047	0.066209
528.939181	0.065579
529.155297	0.065921
529.371395	0.066236
529.587475	0.066176
529.803536	0.066104
530.019579	0.066128
530.235604	0.065771
530.451611	0.065555
530.667600	0.065871
530.883570	0.065994
531.099522	0.065841
531.315456	0.066030
531.531372	0.065565
531.747269	0.065725
531.963148	0.066162
532.179009	0.066330
532.394852	0.066862
532.610676	0.066812
532.826482	0.067121
533.042271	0.067183
533.258040	0.067308
533.473792	0.067898
533.689525	0.067760
533.905240	0.067388
534.120937	0.067560
534.336616	0.067683
534.552277	0.067871
534.767919	0.067899
534.983543	0.067818
535.199149	0.067999
535.414736	0.068172
535.630306	0.068835
535.845857	0.068550
536.061390	0.068650
536.276904	0.068586
536.492401	0.068141
536.707879	0.068101
536.923339	0.068494
537.138781	0.068586
537.354204	0.068769
537.569610	0.068392
537.784997	0.068428
538.000366	0.068216
538.215716	0.068222
538.431049	0.068142
538.646363	0.068354
538.861659	0.068481
539.076937	0.068750
539.292196	0.068898
539.507438	0.069024
539.722661	0.069441
539.937866	0.069734
540.153052	0.069738
540.368221	0.069836
540.583371	0.069229
540.798503	0.069193
541.013617	0.068887
541.228712	0.068809
541.443789	0.068724
541.658848	0.068852
541.873889	0.068716
542.088912	0.068508
542.303916	0.068815
542.518902	0.069457
542.733870	0.069369
542.948820	0.069032
543.163752	0.068928
543.378665	0.068954
543.593560	0.069216
543.808437	0.069564
544.023295	0.069976
544.238136	0.069885
544.452958	0.069933
544.667762	0.070396
544.882548	0.071059
545.097315	0.071310
545.312064	0.071026
545.526795	0.070916
545.741508	0.070812
545.956203	0.071090
546.170879	0.071408
546.385537	0.071360
546.600177	0.071298
546.814799	0.071282
547.029402	0.071145
547.243988	0.071697
547.458555	0.071717
547.673103	0.071569
547.887634	0.071248
548.102146	0.071302
548.316640	0.071138
548.531116	0.070557
548.745574	0.070346
548.960013	0.070189
549.174435	0.069744
549.388838	0.069572
549.603222	0.069746
549.817589	0.069754
550.031937	0.069819
550.246267	0.070045
550.460579	0.070371
550.674873	0.070174
550.889148	0.070542
551.103405	0.070888
551.317644	0.071153
551.531865	0.071242
551.746068	0.071426
551.960252	0.071484
552.174418	0.071776
552.388566	0.071861
552.602696	0.072306
552.816807	0.072504
553.030900	0.072397
553.244975	0.072152
553.459032	0.072208
553.673070	0.071986
553.887091	0.071841
554.101093	0.071604
554.315077	0.071664
554.529042	0.071504
554.742990	0.071291
554.956919	0.071305
555.170830	0.071185
555.384722	0.071049
555.598597	0.071187
555.812453	0.071060
556.026291	0.070866
556.240111	0.070796
556.453913	0.070851
556.667696	0.070756
556.881461	0.070870
557.095208	0.071332
557.308937	0.071593
557.522647	0.071973
557.736339	0.072237
557.950013	0.072644
558.163669	0.072970
558.377307	0.073079
558.590926	0.073289
558.804527	0.073346
559.018110	0.073192
559.231675	0.073175
559.445221	0.072786
559.658749	0.072826
559.872259	0.072463
560.085751	0.072298
560.299225	0.072237
560.512680	0.072001
560.726117	0.072103
560.939536	0.072164
561.152937	0.072335
561.366319	0.072506
561.579683	0.072596
561.793029	0.072965
562.006357	0.072834
562.219667	0.072972
562.432958	0.073069
562.646231	0.072886
562.859486	0.073029
563.072723	0.072832
563.285941	0.072855
563.499141	0.072713
563.712323	0.072385
563.925487	0.072691
564.138632	0.073021
564.351760	0.073099
564.564869	0.073059
564.777960	0.072967
564.991032	0.072911
565.204087	0.072802
565.417123	0.072811
565.630141	0.073518
565.843140	0.073461
566.056122	0.073048
566.269085	0.072726
566.482030	0.072744
566.694957	0.072739
566.907866	0.072887
567.120756	0.073254
567.333628	0.073316
567.546482	0.072778
567.759318	0.072916
567.972135	0.072765
568.184935	0.073338
568.397716	0.073664
568.610478	0.073941
568.823223	0.074085
569.035949	0.073866
569.248657	0.074189
569.461347	0.074386
569.674019	0.074290
569.886672	0.074643
570.099308	0.074503
570.311925	0.074516
570.524523	0.074489
570.737104	0.074294
570.949666	0.074398
571.162210	0.073878
571.374736	0.073709
571.587244	0.073717
571.799733	0.073558
572.012205	0.073799
572.224658	0.073621
572.437092	0.073749
572.649509	0.074001
572.861907	0.074023
573.074287	0.074395
573.286649	0.074875
573.498993	0.074958
573.711318	0.075111
573.923625	0.074957
574.135914	0.075176
574.348185	0.074993
574.560438	0.074654
574.772672	0.074773
574.984888	0.074822
575.197086	0.074683
575.409266	0.074652
575.621427	0.074912
575.833570	0.074860
576.045695	0.075030
576.257802	0.075382
576.469890	0.076123
576.681961	0.075785
576.894013	0.075682
577.106046	0.075674
577.318062	0.075895
577.530059	0.075628
577.742039	0.075649
577.954000	0.075473
578.165942	0.075181
578.377867	0.074970
578.589773	0.075352
578.801661	0.075467
579.013531	0.075494
579.225382	0.075412
579.437216	0.075624
579.649031	0.075557
579.860828	0.075272
580.072606	0.075164
580.284367	0.074952
580.496109	0.074876
580.707833	0.074630
580.919539	0.074505
581.131227	0.074537
581.342896	0.074330
581.554547	0.074131
581.766180	0.074337
581.977795	0.074694
582.189391	0.074432
582.400969	0.074407
582.612529	0.074744
582.824071	0.074659
583.035595	0.074733
583.247100	0.075117
583.458587	0.075240
583.670056	0.075521
583.881506	0.075492
584.092939	0.076010
584.304353	0.076063
584.515749	0.075944
584.727127	0.076170
584.938486	0.076295
585.149828	0.076148
585.361151	0.076579
585.572456	0.076665
585.783742	0.076673
585.995011	0.076524
586.206261	0.076833
586.417493	0.077195
586.628706	0.077104
586.839902	0.076754
587.051079	0.076862
587.262238	0.076755
587.473379	0.076623
587.684502	0.076249
587.895606	0.076135
588.106692	0.076000
588.317760	0.075557
588.528810	0.075922
588.739841	0.075942
588.950855	0.076038
589.161850	0.076101
589.372827	0.075924
589.583785	0.076065
589.794726	0.076260
590.005648	0.075987
590.216552	0.076445
590.427437	0.076393
590.638305	0.076638
590.849154	0.076396
591.059985	0.076558
591.270798	0.076717
591.481592	0.076945
591.692369	0.077126
591.903127	0.077411
592.113867	0.077365
592.324588	0.077633
592.535292	0.077874
592.745977	0.078194
592.956644	0.078187
593.167293	0.078357
593.377923	0.078083
593.588536	0.077980
593.799130	0.078299
594.009706	0.078564
594.220263	0.078274
594.430803	0.078429
594.641324	0.078511
594.851827	0.078738
595.062312	0.078988
595.272778	0.079305
595.483227	0.079225
595.693657	0.079112
595.904069	0.078806
596.114462	0.078848
596.324838	0.078640
596.535195	0.078355
596.745534	0.078039
596.955855	0.077691
597.166157	0.077620
597.376441	0.077808
597.586707	0.077953
597.796955	0.078037
598.007185	0.077692
598.217396	0.077640
598.427589	0.077950
598.637764	0.078223
598.847921	0.078481
599.058060	0.078596
599.268180	0.078418
599.478282	0.078213
599.688366	0.078470
599.898431	0.078776
600.108479	0.078668
600.318508	0.078406
600.528519	0.078189
600.738511	0.077970
600.948486	0.077927
601.158442	0.078134
601.368380	0.078014
601.578300	0.077824
601.788202	0.077912
601.998085	0.077862
602.207950	0.077925
602.417797	0.077997
602.627626	0.078077
602.837436	0.078226
603.047228	0.078214
603.257002	0.078355
603.466758	0.078574
603.676496	0.078642
603.886215	0.078872
604.095916	0.078961
604.305599	0.078691
604.515264	0.078941
604.724910	0.078828
604.934538	0.078953
605.144148	0.078933
605.353740	0.078948
605.563314	0.078874
605.772869	0.078955
605.982406	0.078717
606.191925	0.079025
606.401425	0.078971
606.610908	0.079042
606.820372	0.079185
607.029818	0.079135
607.239246	0.078979
607.448655	0.079115
607.658047	0.078908
607.867420	0.079110
608.076775	0.079077
608.286111	0.078977
608.495430	0.078906
608.704730	0.078550
608.914012	0.078547
609.123275	0.078683
609.332521	0.078487
609.541748	0.078518
609.750957	0.078597
609.960148	0.078606
610.169321	0.078659
610.378475	0.078779
610.587611	0.078949
610.796729	0.079095
611.005829	0.078681
611.214910	0.078925
611.423974	0.078984
611.633019	0.078936
611.842045	0.079195
612.051054	0.079345
612.260044	0.079092
612.469017	0.079459
612.677970	0.079574
612.886906	0.080048
613.095824	0.080339
613.304723	0.080610
613.513604	0.080515
613.722467	0.080552
613.931311	0.080319
614.140138	0.080569
614.348946	0.080328
614.557736	0.080189
614.766507	0.080157
614.975261	0.079694
615.183996	0.079501
615.392713	0.079760
615.601412	0.079624
615.810092	0.079758
616.018754	0.079824
616.227399	0.079778
616.436024	0.079743
616.644632	0.079607
616.853222	0.079463
617.061793	0.079633
617.270346	0.079513
617.478880	0.079461
617.687397	0.079375
617.895895	0.079382
618.104375	0.079431
618.312837	0.079654
618.521281	0.079829
618.729706	0.080076
618.938113	0.080057
619.146502	0.080118
619.354873	0.080220
619.563226	0.080295
619.771560	0.080141
619.979876	0.080114
620.188174	0.080069
620.396453	0.079959
620.604715	0.080177
620.812958	0.080221
621.021183	0.080374
621.229390	0.080195
621.437578	0.080437
621.645748	0.080644
621.853900	0.080835
622.062034	0.080703
622.270150	0.080746
622.478247	0.080671
622.686326	0.080517
622.894387	0.080354
623.102430	0.080426
623.310454	0.080156
623.518461	0.080214
623.726449	0.079963
623.934418	0.080018
624.142370	0.079904
624.350303	0.079804
624.558218	0.080069
624.766115	0.080003
624.973994	0.080082
625.181855	0.080071
625.389697	0.079958
625.597521	0.079975
625.805327	0.080038
626.013114	0.080229
626.220883	0.080192
626.428634	0.080221
626.636367	0.080579
626.844082	0.080817
627.051778	0.080981
627.259457	0.081177
627.467117	0.081311
627.674758	0.081276
627.882382	0.081249
628.089987	0.081317
628.297574	0.081206
628.505143	0.080994
628.712694	0.080773
628.920226	0.080749
629.127740	0.080512
629.335236	0.080441
629.542714	0.080527
629.750174	0.080398
629.957615	0.080399
630.165038	0.080360
630.372443	0.080348
630.579829	0.080437
630.787198	0.080372
630.994548	0.080597
631.201880	0.080665
631.409194	0.080596
631.616489	0.080634
631.823766	0.080651
632.031025	0.080663
632.238266	0.080677
632.445489	0.080782
632.652693	0.080709
632.859879	0.080805
633.067047	0.080778
633.274197	0.080914
633.481329	0.080999
633.688442	0.081050
633.895537	0.081171
634.102614	0.081036
634.309672	0.080966
634.516713	0.081084
634.723735	0.080828
634.930739	0.080994
635.137724	0.081031
635.344692	0.081007
635.551641	0.080896
635.758572	0.080858
635.965485	0.081002
636.172379	0.080902
636.379256	0.081068
636.586114	0.081131
636.792954	0.080732
636.999775	0.080681
637.206579	0.080798
637.413364	0.080919
637.620131	0.080942
637.826880	0.081081
638.033610	0.081159
638.240323	0.081407
638.447017	0.081555
638.653692	0.081932
638.860350	0.082108
639.066990	0.082020
639.273611	0.082065
639.480214	0.082188
639.686798	0.082268
639.893365	0.082423
640.099913	0.082227
640.306443	0.082215
640.512955	0.082192
640.719449	0.082184
640.925924	0.082412
641.132381	0.082461
641.338820	0.082358
641.545241	0.082555
641.751644	0.082605
641.958028	0.082448
642.164394	0.082589
642.370742	0.082845
642.577071	0.082796
642.783383	0.082707
642.989676	0.082677
643.195951	0.082770
643.402207	0.082478
643.608446	0.082353
643.814666	0.082503
644.020868	0.082405
644.227052	0.082047
644.433218	0.081876
644.639365	0.081821
644.845494	0.081808
645.051605	0.081616
645.257698	0.081534
645.463772	0.081716
645.669828	0.081790
645.875866	0.081801
646.081886	0.081893
646.287888	0.082107
646.493871	0.082127
646.699836	0.082391
646.905783	0.082671
647.111712	0.082769
647.317622	0.082710
647.523514	0.082636
647.729388	0.082528
647.935244	0.082490
648.141082	0.082653
648.346901	0.082849
648.552702	0.082710
648.758485	0.082518
648.964250	0.082494
649.169996	0.082589
649.375724	0.082587
649.581434	0.082692
649.787126	0.082884
649.992800	0.082624
650.198455	0.082539
650.404092	0.082464
650.609711	0.082625
650.815311	0.082615
651.020894	0.082647
651.226458	0.082682
651.432004	0.082920
651.637532	0.082874
651.843041	0.083036
652.048532	0.083036
652.254006	0.083125
652.459460	0.083152
652.664897	0.083317
652.870315	0.083018
653.075716	0.083119
653.281097	0.082915
653.486461	0.082908
653.691807	0.082883
653.897134	0.082663
654.102443	0.082824
654.307734	0.082855
654.513006	0.082810
654.718261	0.083053
654.923497	0.082942
655.128715	0.082898
655.333915	0.082997
655.539096	0.083000
655.744259	0.083156
655.949404	0.083128
656.154531	0.083024
656.359640	0.083140
656.564730	0.083191
656.769802	0.083369
656.974856	0.083539
657.179892	0.083756
657.384909	0.083838
657.589908	0.083852
657.794889	0.083866
657.999852	0.083974
658.204797	0.084169
658.409723	0.083926
658.614631	0.083914
658.819521	0.084012
659.024393	0.083971
659.229246	0.084071
659.434081	0.084151
659.638898	0.084342
659.843697	0.084336
660.048478	0.084392
660.253240	0.084712
660.457984	0.084867
660.662710	0.084745
660.867417	0.084804
661.072107	0.084879
661.276778	0.085006
661.481431	0.084926
661.686066	0.084950
661.890682	0.084785
662.095281	0.084727
662.299861	0.084462
662.504422	0.084503
662.708966	0.084468
662.913491	0.084353
663.117999	0.084332
663.322488	0.084127
663.526958	0.084127
663.731411	0.084063
663.935845	0.084071
664.140261	0.084159
664.344659	0.084026
664.549038	0.083777
664.753400	0.083726
664.957743	0.083791
665.162068	0.083955
665.366375	0.083990
665.570663	0.083940
665.774933	0.083953
665.979185	0.084004
666.183419	0.084111
666.387635	0.084311
666.591832	0.084321
666.796011	0.084317
667.000172	0.084404
667.204315	0.084502
667.408439	0.084616
667.612545	0.084748
667.816634	0.084916
668.020703	0.084864
668.224755	0.084903
668.428788	0.084999
668.632803	0.085007
668.836800	0.084699
669.040779	0.084586
669.244739	0.084734
669.448681	0.084703
669.652605	0.084670
669.856511	0.084855
670.060399	0.084706
670.264268	0.084608
670.468119	0.084592
670.671952	0.084717
670.875767	0.084780
671.079563	0.084677
671.283341	0.084717
671.487101	0.084790
671.690843	0.084922
671.894567	0.085260
672.098272	0.085571
672.301959	0.085534
672.505628	0.085660
672.709278	0.085761
672.912911	0.085778
673.116525	0.085844
673.320121	0.085698
673.523699	0.085739
673.727258	0.085641
673.930799	0.085433
674.134322	0.085685
674.337827	0.085773
674.541314	0.085933
674.744782	0.085958
674.948232	0.085880
675.151664	0.086046
675.355078	0.086006
675.558474	0.085943
675.761851	0.086057
675.965210	0.086051
676.168551	0.086037
676.371873	0.085875
676.575178	0.085959
676.778464	0.085955
676.981732	0.085836
677.184981	0.085821
677.388213	0.085677
677.591426	0.085663
677.794621	0.085633
677.997798	0.085541
678.200956	0.085684
678.404097	0.085763
678.607219	0.085834
678.810323	0.086002
679.013408	0.085774
679.216476	0.085998
679.419525	0.085895
679.622556	0.085985
679.825569	0.086125
680.028563	0.086014
680.231540	0.086004
680.434498	0.086002
680.637438	0.085988
680.840359	0.086162
681.043263	0.086075
681.246148	0.086181
681.449015	0.086053
681.651864	0.085990
681.854694	0.086111
682.057506	0.086101
682.260301	0.086084
682.463076	0.086014
682.665834	0.086208
682.868573	0.086236
683.071295	0.086174
683.273998	0.086241
683.476682	0.086286
683.679349	0.086251
683.881997	0.086196
684.084627	0.086327
684.287239	0.086154
684.489833	0.086205
684.692408	0.086270
684.894965	0.086393
685.097504	0.086347
685.300025	0.086358
685.502527	0.086324
685.705012	0.086415
685.907478	0.086397
686.109925	0.086612
686.312355	0.086516
686.514766	0.086519
686.717159	0.086513
686.919534	0.086565
687.121891	0.086683
687.324230	0.086765
687.526550	0.086738
687.728852	0.086689
687.931136	0.086666
688.133401	0.086810
688.335649	0.086805
688.537878	0.086949
688.740089	0.087166
688.942281	0.087256
689.144456	0.087488
689.346612	0.087490
689.548750	0.087644
689.750870	0.087894
689.952971	0.087674
690.155055	0.088007
690.357120	0.088123
690.559167	0.088095
690.761195	0.087942
690.963206	0.087692
691.165198	0.087911
691.367172	0.087759
691.569128	0.087640
691.771065	0.087828
691.972984	0.087667
692.174885	0.087631
692.376768	0.087398
692.578633	0.087459
692.780479	0.087587
692.982308	0.087615
693.184118	0.087723
693.385909	0.087709
