sample name	sample
index	106
start time	 02-15-2021  11:26:53 AM


Wavelength (nm)	Absorbance
494.344910	NaN
494.563924	NaN
494.782919	NaN
495.001897	-0.231527
495.220856	0.186663
495.439797	0.037043
495.658719	0.003089
495.877624	-0.056831
496.096510	-0.040950
496.315378	-0.025406
496.534227	-0.017940
496.753059	-0.024829
496.971872	0.004668
497.190667	0.047492
497.409444	0.080591
497.628203	0.090232
497.846943	0.091638
498.065665	0.094971
498.284369	0.095771
498.503055	0.097400
498.721723	0.099624
498.940372	0.100897
499.159003	0.103990
499.377616	0.105110
499.596210	0.106106
499.814787	0.107462
500.033345	0.105858
500.251885	0.108035
500.470406	0.107522
500.688910	0.106940
500.907395	0.104642
501.125862	0.105207
501.344311	0.105813
501.562742	0.105297
501.781154	0.103819
501.999548	0.104959
502.217924	0.103368
502.436282	0.104701
502.654621	0.103294
502.872942	0.104435
503.091245	0.104182
503.309530	0.104539
503.527797	0.102335
503.746045	0.103146
503.964275	0.104694
504.182487	0.105288
504.400681	0.106792
504.618856	0.107282
504.837013	0.106966
505.055152	0.106245
505.273273	0.106394
505.491376	0.107214
505.709460	0.106621
505.927526	0.104904
506.145574	0.103122
506.363604	0.101117
506.581615	0.103270
506.799608	0.105871
507.017583	0.106003
507.235540	0.106185
507.453478	0.108156
507.671399	0.110614
507.889301	0.110575
508.107185	0.112759
508.325050	0.112754
508.542898	0.111875
508.760727	0.111617
508.978538	0.112324
509.196330	0.112216
509.414105	0.110438
509.631861	0.109718
509.849599	0.109527
510.067319	0.108899
510.285021	0.110039
510.502704	0.109200
510.720369	0.107073
510.938016	0.106776
511.155645	0.105515
511.373255	0.106304
511.590848	0.104823
511.808422	0.106592
512.025977	0.108983
512.243515	0.107252
512.461034	0.110387
512.678536	0.113556
512.896018	0.115748
513.113483	0.115196
513.330930	0.116108
513.548358	0.118749
513.765768	0.117413
513.983160	0.115699
514.200533	0.117900
514.417889	0.117571
514.635226	0.116421
514.852545	0.115097
515.069845	0.116142
515.287128	0.115015
515.504392	0.114024
515.721638	0.115613
515.938866	0.117686
516.156075	0.117885
516.373267	0.117472
516.590440	0.117986
516.807594	0.118271
517.024731	0.119133
517.241850	0.120490
517.458950	0.121218
517.676032	0.121682
517.893095	0.121634
518.110141	0.120236
518.327168	0.118755
518.544177	0.117646
518.761168	0.117500
518.978141	0.117113
519.195095	0.117326
519.412031	0.116636
519.628949	0.117481
519.845849	0.116707
520.062731	0.117406
520.279594	0.118039
520.496439	0.119261
520.713266	0.120979
520.930074	0.122016
521.146865	0.122157
521.363637	0.124084
521.580391	0.123600
521.797127	0.123082
522.013844	0.123669
522.230543	0.124259
522.447224	0.123485
522.663887	0.122640
522.880532	0.123437
523.097158	0.124832
523.313766	0.124345
523.530356	0.124553
523.746928	0.126072
523.963481	0.127454
524.180017	0.129120
524.396534	0.130598
524.613032	0.130577
524.829513	0.131449
525.045975	0.130386
525.262420	0.131273
525.478845	0.132831
525.695253	0.132423
525.911643	0.133180
526.128014	0.132681
526.344367	0.131854
526.560702	0.133590
526.777018	0.134089
526.993316	0.134765
527.209597	0.135566
527.425858	0.135492
527.642102	0.136371
527.858328	0.134595
528.074535	0.133097
528.290724	0.134451
528.506894	0.134574
528.723047	0.133596
528.939181	0.133009
529.155297	0.132505
529.371395	0.131686
529.587475	0.130595
529.803536	0.132006
530.019579	0.134367
530.235604	0.134281
530.451611	0.133450
530.667600	0.135170
530.883570	0.135526
531.099522	0.136659
531.315456	0.137070
531.531372	0.140036
531.747269	0.140369
531.963148	0.139363
532.179009	0.138996
532.394852	0.139031
532.610676	0.138200
532.826482	0.139195
533.042271	0.139274
533.258040	0.139036
533.473792	0.137131
533.689525	0.136854
533.905240	0.137897
534.120937	0.138822
534.336616	0.139574
534.552277	0.139455
534.767919	0.140814
534.983543	0.141023
535.199149	0.141896
535.414736	0.142794
535.630306	0.143091
535.845857	0.143635
536.061390	0.143461
536.276904	0.142811
536.492401	0.143941
536.707879	0.144219
536.923339	0.144528
537.138781	0.144563
537.354204	0.143577
537.569610	0.144124
537.784997	0.144078
538.000366	0.145105
538.215716	0.145822
538.431049	0.145710
538.646363	0.145717
538.861659	0.144764
539.076937	0.146090
539.292196	0.148117
539.507438	0.148061
539.722661	0.149470
539.937866	0.150605
540.153052	0.151264
540.368221	0.151295
540.583371	0.150604
540.798503	0.150984
541.013617	0.151116
541.228712	0.150732
541.443789	0.151266
541.658848	0.150098
541.873889	0.148869
542.088912	0.148537
542.303916	0.148252
542.518902	0.149058
542.733870	0.149943
542.948820	0.148727
543.163752	0.150572
543.378665	0.150988
543.593560	0.153048
543.808437	0.154019
544.023295	0.153224
544.238136	0.154338
544.452958	0.154855
544.667762	0.154629
544.882548	0.155959
545.097315	0.154773
545.312064	0.154730
545.526795	0.153140
545.741508	0.153957
545.956203	0.155039
546.170879	0.154117
546.385537	0.153443
546.600177	0.154820
546.814799	0.154451
547.029402	0.154651
547.243988	0.156293
547.458555	0.157495
547.673103	0.157217
547.887634	0.158905
548.102146	0.159708
548.316640	0.160816
548.531116	0.160775
548.745574	0.161513
548.960013	0.162548
549.174435	0.162167
549.388838	0.161329
549.603222	0.162627
549.817589	0.163043
550.031937	0.163286
550.246267	0.163682
550.460579	0.163431
550.674873	0.164308
550.889148	0.163995
551.103405	0.163577
551.317644	0.164570
551.531865	0.164432
551.746068	0.164595
551.960252	0.165294
552.174418	0.164097
552.388566	0.164925
552.602696	0.164565
552.816807	0.164925
553.030900	0.166055
553.244975	0.166577
553.459032	0.166018
553.673070	0.165982
553.887091	0.167412
554.101093	0.168767
554.315077	0.169487
554.529042	0.170117
554.742990	0.168935
554.956919	0.168412
555.170830	0.167831
555.384722	0.168081
555.598597	0.167938
555.812453	0.167696
556.026291	0.168168
556.240111	0.167734
556.453913	0.167643
556.667696	0.168968
556.881461	0.169988
557.095208	0.170973
557.308937	0.171451
557.522647	0.171515
557.736339	0.171567
557.950013	0.171049
558.163669	0.171644
558.377307	0.172072
558.590926	0.172534
558.804527	0.172254
559.018110	0.173031
559.231675	0.172688
559.445221	0.172840
559.658749	0.172425
559.872259	0.172619
560.085751	0.173340
560.299225	0.173126
560.512680	0.173210
560.726117	0.173361
560.939536	0.172719
561.152937	0.173207
561.366319	0.173828
561.579683	0.173528
561.793029	0.174979
562.006357	0.174225
562.219667	0.175290
562.432958	0.175132
562.646231	0.176005
562.859486	0.176413
563.072723	0.177470
563.285941	0.177359
563.499141	0.178663
563.712323	0.177860
563.925487	0.178676
564.138632	0.177740
564.351760	0.178479
564.564869	0.177805
564.777960	0.177771
564.991032	0.177652
565.204087	0.178062
565.417123	0.177981
565.630141	0.177964
565.843140	0.177170
566.056122	0.178419
566.269085	0.178636
566.482030	0.179285
566.694957	0.179143
566.907866	0.179120
567.120756	0.178927
567.333628	0.179023
567.546482	0.179199
567.759318	0.180715
567.972135	0.179795
568.184935	0.180268
568.397716	0.180282
568.610478	0.181284
568.823223	0.182046
569.035949	0.182946
569.248657	0.184317
569.461347	0.184619
569.674019	0.183781
569.886672	0.184244
570.099308	0.183837
570.311925	0.183537
570.524523	0.183393
570.737104	0.182779
570.949666	0.183467
571.162210	0.182732
571.374736	0.183692
571.587244	0.184268
571.799733	0.184571
572.012205	0.184670
572.224658	0.185324
572.437092	0.185506
572.649509	0.185190
572.861907	0.184492
573.074287	0.184629
573.286649	0.184291
573.498993	0.184571
573.711318	0.185826
573.923625	0.186530
574.135914	0.186947
574.348185	0.187485
574.560438	0.187815
574.772672	0.188347
574.984888	0.188501
575.197086	0.188400
575.409266	0.188186
575.621427	0.187431
575.833570	0.187318
576.045695	0.187388
576.257802	0.187956
576.469890	0.189629
576.681961	0.190070
576.894013	0.190043
577.106046	0.191012
577.318062	0.191270
577.530059	0.191693
577.742039	0.192007
577.954000	0.192153
578.165942	0.192759
578.377867	0.192577
578.589773	0.192969
578.801661	0.193203
579.013531	0.193057
579.225382	0.192816
579.437216	0.192958
579.649031	0.193618
579.860828	0.193635
580.072606	0.193219
580.284367	0.192852
580.496109	0.192260
580.707833	0.192987
580.919539	0.193579
581.131227	0.194704
581.342896	0.194492
581.554547	0.194626
581.766180	0.195046
581.977795	0.195103
582.189391	0.195275
582.400969	0.196094
582.612529	0.196607
582.824071	0.196119
583.035595	0.196192
583.247100	0.195854
583.458587	0.194881
583.670056	0.194726
583.881506	0.194664
584.092939	0.195302
584.304353	0.195243
584.515749	0.194358
584.727127	0.195046
584.938486	0.195008
585.149828	0.196357
585.361151	0.197363
585.572456	0.197751
585.783742	0.197283
585.995011	0.197391
586.206261	0.197599
586.417493	0.198206
586.628706	0.197967
586.839902	0.197614
587.051079	0.197441
587.262238	0.197852
587.473379	0.197342
587.684502	0.198111
587.895606	0.197520
588.106692	0.197354
588.317760	0.198110
588.528810	0.197934
588.739841	0.198709
588.950855	0.198928
589.161850	0.198154
589.372827	0.198313
589.583785	0.198742
589.794726	0.199431
590.005648	0.199765
590.216552	0.199512
590.427437	0.200181
590.638305	0.200134
590.849154	0.200362
591.059985	0.201015
591.270798	0.201775
591.481592	0.202725
591.692369	0.202452
591.903127	0.202861
592.113867	0.202592
592.324588	0.202349
592.535292	0.203269
592.745977	0.203597
592.956644	0.204348
593.167293	0.203881
593.377923	0.203276
593.588536	0.203488
593.799130	0.203061
594.009706	0.203062
594.220263	0.203370
594.430803	0.203371
594.641324	0.203633
594.851827	0.203530
595.062312	0.205552
595.272778	0.205770
595.483227	0.206376
595.693657	0.207022
595.904069	0.206981
596.114462	0.207585
596.324838	0.207854
596.535195	0.207731
596.745534	0.207776
596.955855	0.206653
597.166157	0.206915
597.376441	0.207463
597.586707	0.207595
597.796955	0.209047
598.007185	0.208409
598.217396	0.208254
598.427589	0.208502
598.637764	0.209444
598.847921	0.209682
599.058060	0.210163
599.268180	0.209640
599.478282	0.210380
599.688366	0.210422
599.898431	0.211215
600.108479	0.211031
600.318508	0.211473
600.528519	0.210670
600.738511	0.211258
600.948486	0.211284
601.158442	0.211612
601.368380	0.212151
601.578300	0.211360
601.788202	0.211327
601.998085	0.211633
602.207950	0.211928
602.417797	0.213473
602.627626	0.212813
602.837436	0.212952
603.047228	0.213393
603.257002	0.212638
603.466758	0.213163
603.676496	0.213258
603.886215	0.213606
604.095916	0.213286
604.305599	0.212847
604.515264	0.213382
604.724910	0.213594
604.934538	0.213177
605.144148	0.213140
605.353740	0.213308
605.563314	0.213153
605.772869	0.213091
605.982406	0.213324
606.191925	0.213296
606.401425	0.213653
606.610908	0.213302
606.820372	0.214456
607.029818	0.215122
607.239246	0.215348
607.448655	0.216195
607.658047	0.216332
607.867420	0.217097
608.076775	0.217356
608.286111	0.217813
608.495430	0.218497
608.704730	0.217851
608.914012	0.217548
609.123275	0.217720
609.332521	0.218715
609.541748	0.219073
609.750957	0.218425
609.960148	0.218801
610.169321	0.219177
610.378475	0.219582
610.587611	0.220219
610.796729	0.220867
611.005829	0.221757
611.214910	0.221045
611.423974	0.220925
611.633019	0.221256
611.842045	0.220698
612.051054	0.220842
612.260044	0.220921
612.469017	0.220903
612.677970	0.221105
612.886906	0.220661
613.095824	0.221250
613.304723	0.222226
613.513604	0.222591
613.722467	0.222672
613.931311	0.222625
614.140138	0.222664
614.348946	0.222908
614.557736	0.223211
614.766507	0.223769
614.975261	0.223572
615.183996	0.223727
615.392713	0.224330
615.601412	0.224605
615.810092	0.224784
616.018754	0.224811
616.227399	0.224807
616.436024	0.224461
616.644632	0.224439
616.853222	0.224647
617.061793	0.223894
617.270346	0.223192
617.478880	0.223538
617.687397	0.223411
617.895895	0.223272
618.104375	0.223069
618.312837	0.223125
618.521281	0.223264
618.729706	0.223344
618.938113	0.223544
619.146502	0.224626
619.354873	0.224549
619.563226	0.224837
619.771560	0.225119
619.979876	0.225620
620.188174	0.226052
620.396453	0.226403
620.604715	0.226446
620.812958	0.226583
621.021183	0.226473
621.229390	0.226879
621.437578	0.227420
621.645748	0.227904
621.853900	0.228370
622.062034	0.228646
622.270150	0.228710
622.478247	0.229344
622.686326	0.229536
622.894387	0.229521
623.102430	0.229988
623.310454	0.230369
623.518461	0.230399
623.726449	0.230407
623.934418	0.230297
624.142370	0.230172
624.350303	0.230635
624.558218	0.231404
624.766115	0.231762
624.973994	0.232509
625.181855	0.232151
625.389697	0.232344
625.597521	0.233273
625.805327	0.234405
626.013114	0.234403
626.220883	0.233849
626.428634	0.234003
626.636367	0.234164
626.844082	0.233611
627.051778	0.234431
627.259457	0.235116
627.467117	0.234706
627.674758	0.234127
627.882382	0.234509
628.089987	0.235200
628.297574	0.234817
628.505143	0.234906
628.712694	0.235657
628.920226	0.235354
629.127740	0.234516
629.335236	0.234824
629.542714	0.235538
629.750174	0.235564
629.957615	0.235212
630.165038	0.235907
630.372443	0.235766
630.579829	0.235108
630.787198	0.235270
630.994548	0.236576
631.201880	0.236887
631.409194	0.236260
631.616489	0.236918
631.823766	0.237829
632.031025	0.237738
632.238266	0.237878
632.445489	0.238856
632.652693	0.238793
632.859879	0.238297
633.067047	0.238021
633.274197	0.238869
633.481329	0.238737
633.688442	0.238287
633.895537	0.238280
634.102614	0.238852
634.309672	0.238377
634.516713	0.238813
634.723735	0.239285
634.930739	0.239714
635.137724	0.239638
635.344692	0.239835
635.551641	0.239976
635.758572	0.240478
635.965485	0.241006
636.172379	0.241653
636.379256	0.241751
636.586114	0.241867
636.792954	0.242056
636.999775	0.242181
637.206579	0.242855
637.413364	0.243386
637.620131	0.244079
637.826880	0.243773
638.033610	0.243962
638.240323	0.244236
638.447017	0.244467
638.653692	0.244897
638.860350	0.245500
639.066990	0.245297
639.273611	0.245766
639.480214	0.245680
639.686798	0.246074
639.893365	0.245924
640.099913	0.246202
640.306443	0.246797
640.512955	0.246629
640.719449	0.246574
640.925924	0.247077
641.132381	0.247240
641.338820	0.247500
641.545241	0.248066
641.751644	0.248831
641.958028	0.249218
642.164394	0.248613
642.370742	0.249489
642.577071	0.249309
642.783383	0.249437
642.989676	0.249263
643.195951	0.249247
643.402207	0.249189
643.608446	0.249245
643.814666	0.249321
644.020868	0.250142
644.227052	0.249836
644.433218	0.250486
644.639365	0.250663
644.845494	0.251119
645.051605	0.252026
645.257698	0.252210
645.463772	0.252603
645.669828	0.252563
645.875866	0.252974
646.081886	0.252944
646.287888	0.252967
646.493871	0.253229
646.699836	0.253483
646.905783	0.252486
647.111712	0.252770
647.317622	0.252510
647.523514	0.252682
647.729388	0.252149
647.935244	0.252234
648.141082	0.252078
648.346901	0.252150
648.552702	0.252536
648.758485	0.252990
648.964250	0.253278
649.169996	0.253274
649.375724	0.253873
649.581434	0.254119
649.787126	0.254500
649.992800	0.254769
650.198455	0.255051
650.404092	0.254852
650.609711	0.255932
650.815311	0.256123
651.020894	0.256789
651.226458	0.256551
651.432004	0.256865
651.637532	0.257421
651.843041	0.258146
652.048532	0.258410
652.254006	0.258513
652.459460	0.258387
652.664897	0.258616
652.870315	0.258693
653.075716	0.259135
653.281097	0.259763
653.486461	0.259839
653.691807	0.259950
653.897134	0.260374
654.102443	0.260804
654.307734	0.261374
654.513006	0.261753
654.718261	0.261910
654.923497	0.261859
655.128715	0.262371
655.333915	0.262734
655.539096	0.263105
655.744259	0.263226
655.949404	0.263587
656.154531	0.263024
656.359640	0.262980
656.564730	0.263679
656.769802	0.264499
656.974856	0.264341
657.179892	0.264632
657.384909	0.264637
657.589908	0.265038
657.794889	0.265031
657.999852	0.265592
658.204797	0.265947
658.409723	0.265928
658.614631	0.265904
658.819521	0.266446
659.024393	0.266357
659.229246	0.267154
659.434081	0.267154
659.638898	0.267985
659.843697	0.268298
660.048478	0.268508
660.253240	0.268819
660.457984	0.269671
660.662710	0.269491
660.867417	0.269918
661.072107	0.269730
661.276778	0.270099
661.481431	0.270193
661.686066	0.270653
661.890682	0.270872
662.095281	0.271062
662.299861	0.270791
662.504422	0.271650
662.708966	0.271982
662.913491	0.271860
663.117999	0.271911
663.322488	0.271834
663.526958	0.272157
663.731411	0.272391
663.935845	0.272867
664.140261	0.273254
664.344659	0.272862
664.549038	0.273104
664.753400	0.273770
664.957743	0.274694
665.162068	0.275201
665.366375	0.275252
665.570663	0.275482
665.774933	0.275576
665.979185	0.275302
666.183419	0.275984
666.387635	0.276710
666.591832	0.277052
666.796011	0.276567
667.000172	0.276919
667.204315	0.277125
667.408439	0.277211
667.612545	0.277147
667.816634	0.277771
668.020703	0.277492
668.224755	0.277497
668.428788	0.277154
668.632803	0.277775
668.836800	0.278124
669.040779	0.278200
669.244739	0.278521
669.448681	0.278596
669.652605	0.279098
669.856511	0.279633
670.060399	0.279724
670.264268	0.280427
670.468119	0.280309
670.671952	0.280327
670.875767	0.280352
671.079563	0.280817
671.283341	0.281360
671.487101	0.281217
671.690843	0.281469
671.894567	0.281395
672.098272	0.281765
672.301959	0.282750
672.505628	0.282923
672.709278	0.283538
672.912911	0.283806
673.116525	0.284527
673.320121	0.285264
673.523699	0.284977
673.727258	0.285407
673.930799	0.285526
674.134322	0.284958
674.337827	0.284538
674.541314	0.284586
674.744782	0.284913
674.948232	0.284685
675.151664	0.284424
675.355078	0.285176
675.558474	0.285386
675.761851	0.286010
675.965210	0.286224
676.168551	0.287718
676.371873	0.288243
676.575178	0.287970
676.778464	0.287877
676.981732	0.288199
677.184981	0.287970
677.388213	0.288417
677.591426	0.288647
677.794621	0.288901
677.997798	0.288931
678.200956	0.288954
678.404097	0.289435
678.607219	0.289795
678.810323	0.290046
679.013408	0.290594
679.216476	0.291263
679.419525	0.291326
679.622556	0.292326
679.825569	0.291843
680.028563	0.292100
680.231540	0.292417
680.434498	0.293113
680.637438	0.293267
680.840359	0.294104
681.043263	0.293704
681.246148	0.294133
681.449015	0.293923
681.651864	0.294804
681.854694	0.295090
682.057506	0.295563
682.260301	0.295420
682.463076	0.295902
682.665834	0.295741
682.868573	0.296295
683.071295	0.296906
683.273998	0.297090
683.476682	0.296836
683.679349	0.296977
683.881997	0.297025
684.084627	0.297801
684.287239	0.297590
684.489833	0.297876
684.692408	0.297995
684.894965	0.297516
685.097504	0.297715
685.300025	0.298332
685.502527	0.298604
685.705012	0.298440
685.907478	0.297766
686.109925	0.298261
686.312355	0.298723
686.514766	0.298550
686.717159	0.299118
686.919534	0.299611
687.121891	0.299964
687.324230	0.300340
687.526550	0.300703
687.728852	0.301853
687.931136	0.302072
688.133401	0.302117
688.335649	0.302478
688.537878	0.302619
688.740089	0.302818
688.942281	0.302267
689.144456	0.302007
689.346612	0.302412
689.548750	0.302210
689.750870	0.302651
689.952971	0.302354
690.155055	0.303253
690.357120	0.303678
690.559167	0.303852
690.761195	0.304615
690.963206	0.305380
691.165198	0.305581
691.367172	0.305962
691.569128	0.306052
691.771065	0.306565
691.972984	0.306193
692.174885	0.306185
692.376768	0.306210
692.578633	0.306667
692.780479	0.307082
692.982308	0.307103
693.184118	0.307387
693.385909	0.307675
693.587683	0.308030
