sample name	sample
index	327
start time	 02-25-2021  03:40:22 PM


Wavelength (nm)	Absorbance
494.344910	-0.455648
494.563924	-0.455648
494.782919	-0.455648
495.001897	-0.577156
495.220856	-0.138420
495.439797	-0.051131
495.658719	0.019451
495.877624	-0.039873
496.096510	0.042579
496.315378	-0.044851
496.534227	-0.115681
496.753059	-0.151224
496.971872	-0.086246
497.190667	0.129257
497.409444	0.142527
497.628203	0.147394
497.846943	0.150607
498.065665	0.152069
498.284369	0.153251
498.503055	0.153879
498.721723	0.153715
498.940372	0.155052
499.159003	0.155344
499.377616	0.156627
499.596210	0.157825
499.814787	0.158296
500.033345	0.157599
500.251885	0.157967
500.470406	0.157871
500.688910	0.158894
500.907395	0.159093
501.125862	0.159284
501.344311	0.158550
501.562742	0.157455
501.781154	0.157433
501.999548	0.158891
502.217924	0.159836
502.436282	0.160558
502.654621	0.159163
502.872942	0.158032
503.091245	0.157568
503.309530	0.157792
503.527797	0.158172
503.746045	0.157979
503.964275	0.156785
504.182487	0.155818
504.400681	0.155788
504.618856	0.157492
504.837013	0.157769
505.055152	0.158352
505.273273	0.159532
505.491376	0.159886
505.709460	0.161153
505.927526	0.162387
506.145574	0.163038
506.363604	0.163329
506.581615	0.163361
506.799608	0.163930
507.017583	0.164530
507.235540	0.164005
507.453478	0.164421
507.671399	0.165471
507.889301	0.164740
508.107185	0.165668
508.325050	0.166814
508.542898	0.166252
508.760727	0.166901
508.978538	0.167191
509.196330	0.167277
509.414105	0.167537
509.631861	0.167006
509.849599	0.168118
510.067319	0.167268
510.285021	0.166533
510.502704	0.166810
510.720369	0.166586
510.938016	0.166752
511.155645	0.167106
511.373255	0.167161
511.590848	0.167624
511.808422	0.167394
512.025977	0.167136
512.243515	0.167600
512.461034	0.168554
512.678536	0.169101
512.896018	0.170107
513.113483	0.170373
513.330930	0.170596
513.548358	0.169733
513.765768	0.169898
513.983160	0.170976
514.200533	0.170616
514.417889	0.169796
514.635226	0.169519
514.852545	0.169120
515.069845	0.169380
515.287128	0.170174
515.504392	0.170753
515.721638	0.171950
515.938866	0.171382
516.156075	0.171518
516.373267	0.172563
516.590440	0.173295
516.807594	0.173034
517.024731	0.173960
517.241850	0.174102
517.458950	0.174635
517.676032	0.174398
517.893095	0.175259
518.110141	0.176821
518.327168	0.177363
518.544177	0.177387
518.761168	0.177997
518.978141	0.178118
519.195095	0.178319
519.412031	0.178726
519.628949	0.178645
519.845849	0.178270
520.062731	0.177777
520.279594	0.177343
520.496439	0.177241
520.713266	0.177592
520.930074	0.177390
521.146865	0.176552
521.363637	0.176330
521.580391	0.176968
521.797127	0.177590
522.013844	0.177404
522.230543	0.178204
522.447224	0.178277
522.663887	0.177843
522.880532	0.178693
523.097158	0.179247
523.313766	0.178898
523.530356	0.179198
523.746928	0.179101
523.963481	0.179876
524.180017	0.180076
524.396534	0.180153
524.613032	0.180771
524.829513	0.180504
525.045975	0.181146
525.262420	0.181871
525.478845	0.182273
525.695253	0.183024
525.911643	0.183807
526.128014	0.183134
526.344367	0.183387
526.560702	0.184171
526.777018	0.184207
526.993316	0.184955
527.209597	0.185186
527.425858	0.185360
527.642102	0.185618
527.858328	0.184985
528.074535	0.186151
528.290724	0.186675
528.506894	0.186372
528.723047	0.186425
528.939181	0.186235
529.155297	0.187036
529.371395	0.187463
529.587475	0.188221
529.803536	0.189552
530.019579	0.190234
530.235604	0.190521
530.451611	0.190995
530.667600	0.191702
530.883570	0.191915
531.099522	0.191631
531.315456	0.191873
531.531372	0.191506
531.747269	0.191658
531.963148	0.191698
532.179009	0.192101
532.394852	0.192242
532.610676	0.192652
532.826482	0.193342
533.042271	0.194238
533.258040	0.193825
533.473792	0.194519
533.689525	0.194463
533.905240	0.194550
534.120937	0.195070
534.336616	0.196070
534.552277	0.197163
534.767919	0.197278
534.983543	0.197326
535.199149	0.198398
535.414736	0.198514
535.630306	0.199023
535.845857	0.199614
536.061390	0.200132
536.276904	0.199969
536.492401	0.199111
536.707879	0.199486
536.923339	0.200134
537.138781	0.199938
537.354204	0.200351
537.569610	0.200609
537.784997	0.200937
538.000366	0.201359
538.215716	0.201988
538.431049	0.202437
538.646363	0.202279
538.861659	0.202535
539.076937	0.203105
539.292196	0.204178
539.507438	0.204399
539.722661	0.204780
539.937866	0.204825
540.153052	0.205473
540.368221	0.206019
540.583371	0.206629
540.798503	0.206725
541.013617	0.207379
541.228712	0.206969
541.443789	0.207266
541.658848	0.207101
541.873889	0.207266
542.088912	0.207179
542.303916	0.207242
542.518902	0.207893
542.733870	0.208435
542.948820	0.208769
543.163752	0.209110
543.378665	0.209255
543.593560	0.210110
543.808437	0.210404
544.023295	0.210391
544.238136	0.210979
544.452958	0.211261
544.667762	0.211687
544.882548	0.211755
545.097315	0.211814
545.312064	0.212028
545.526795	0.211577
545.741508	0.211871
545.956203	0.212593
546.170879	0.213240
546.385537	0.213069
546.600177	0.213389
546.814799	0.213749
547.029402	0.214506
547.243988	0.215333
547.458555	0.216276
547.673103	0.216684
547.887634	0.216636
548.102146	0.216519
548.316640	0.216934
548.531116	0.217020
548.745574	0.217000
548.960013	0.217116
549.174435	0.217043
549.388838	0.217275
549.603222	0.217565
549.817589	0.217668
550.031937	0.217561
550.246267	0.217883
550.460579	0.218572
550.674873	0.219006
550.889148	0.219329
551.103405	0.219984
551.317644	0.220415
551.531865	0.220854
551.746068	0.220975
551.960252	0.221360
552.174418	0.221362
552.388566	0.221770
552.602696	0.222115
552.816807	0.222129
553.030900	0.221973
553.244975	0.221595
553.459032	0.221149
553.673070	0.221464
553.887091	0.222239
554.101093	0.222830
554.315077	0.222275
554.529042	0.222481
554.742990	0.223005
554.956919	0.223813
555.170830	0.223976
555.384722	0.224357
555.598597	0.224961
555.812453	0.224679
556.026291	0.224759
556.240111	0.224894
556.453913	0.225376
556.667696	0.225761
556.881461	0.225699
557.095208	0.226223
557.308937	0.226655
557.522647	0.226675
557.736339	0.226937
557.950013	0.226834
558.163669	0.227261
558.377307	0.227061
558.590926	0.227179
558.804527	0.227313
559.018110	0.227663
559.231675	0.227708
559.445221	0.228170
559.658749	0.228493
559.872259	0.229085
560.085751	0.229284
560.299225	0.229267
560.512680	0.229531
560.726117	0.229573
560.939536	0.229940
561.152937	0.230605
561.366319	0.230948
561.579683	0.231058
561.793029	0.231212
562.006357	0.231307
562.219667	0.231809
562.432958	0.231972
562.646231	0.232065
562.859486	0.231739
563.072723	0.231548
563.285941	0.231430
563.499141	0.231747
563.712323	0.231623
563.925487	0.231994
564.138632	0.232364
564.351760	0.232326
564.564869	0.232175
564.777960	0.232814
564.991032	0.233047
565.204087	0.233360
565.417123	0.233725
565.630141	0.234016
565.843140	0.233650
566.056122	0.233729
566.269085	0.233893
566.482030	0.234607
566.694957	0.234527
566.907866	0.234668
567.120756	0.235269
567.333628	0.235274
567.546482	0.235512
567.759318	0.236745
567.972135	0.236694
568.184935	0.237196
568.397716	0.237262
568.610478	0.237614
568.823223	0.237551
569.035949	0.237408
569.248657	0.237644
569.461347	0.238260
569.674019	0.237449
569.886672	0.238023
570.099308	0.237699
570.311925	0.238185
570.524523	0.238183
570.737104	0.238940
570.949666	0.238613
571.162210	0.238828
571.374736	0.238625
571.587244	0.239143
571.799733	0.239147
572.012205	0.239695
572.224658	0.239760
572.437092	0.240094
572.649509	0.240486
572.861907	0.240737
573.074287	0.240925
573.286649	0.241124
573.498993	0.241247
573.711318	0.241215
573.923625	0.241295
574.135914	0.241199
574.348185	0.241119
574.560438	0.240821
574.772672	0.241070
574.984888	0.241086
575.197086	0.241671
575.409266	0.242237
575.621427	0.242451
575.833570	0.242688
576.045695	0.242764
576.257802	0.243124
576.469890	0.243400
576.681961	0.243798
576.894013	0.244295
577.106046	0.244448
577.318062	0.244483
577.530059	0.244918
577.742039	0.244706
577.954000	0.245482
578.165942	0.245984
578.377867	0.246433
578.589773	0.246757
578.801661	0.246833
579.013531	0.246664
579.225382	0.246790
579.437216	0.246874
579.649031	0.247708
579.860828	0.247477
580.072606	0.247687
580.284367	0.248208
580.496109	0.248458
580.707833	0.248848
580.919539	0.249358
581.131227	0.249488
581.342896	0.249637
581.554547	0.249683
581.766180	0.249913
581.977795	0.249656
582.189391	0.249374
582.400969	0.249370
582.612529	0.249123
582.824071	0.249421
583.035595	0.249719
583.247100	0.249997
583.458587	0.249887
583.670056	0.250153
583.881506	0.250399
584.092939	0.250738
584.304353	0.250948
584.515749	0.251381
584.727127	0.251189
584.938486	0.251493
585.149828	0.251830
585.361151	0.252008
585.572456	0.252042
585.783742	0.252235
585.995011	0.252444
586.206261	0.252744
586.417493	0.252700
586.628706	0.253515
586.839902	0.253785
587.051079	0.253880
587.262238	0.254552
587.473379	0.254814
587.684502	0.255217
587.895606	0.255243
588.106692	0.255292
588.317760	0.256053
588.528810	0.255653
588.739841	0.255966
588.950855	0.256604
589.161850	0.256635
589.372827	0.257288
589.583785	0.257732
589.794726	0.257989
590.005648	0.258579
590.216552	0.258560
590.427437	0.259151
590.638305	0.258943
590.849154	0.258433
591.059985	0.258605
591.270798	0.258430
591.481592	0.258374
591.692369	0.258416
591.903127	0.258261
592.113867	0.258409
592.324588	0.258470
592.535292	0.258668
592.745977	0.258621
592.956644	0.258703
593.167293	0.258773
593.377923	0.259043
593.588536	0.259502
593.799130	0.259767
594.009706	0.259748
594.220263	0.259997
594.430803	0.260309
594.641324	0.261122
594.851827	0.261384
595.062312	0.262051
595.272778	0.262362
595.483227	0.262481
595.693657	0.262770
595.904069	0.262990
596.114462	0.263177
596.324838	0.263553
596.535195	0.263738
596.745534	0.264276
596.955855	0.264439
597.166157	0.264595
597.376441	0.265032
597.586707	0.264951
597.796955	0.265197
598.007185	0.265640
598.217396	0.265813
598.427589	0.265604
598.637764	0.265280
598.847921	0.265194
599.058060	0.265481
599.268180	0.265311
599.478282	0.265736
599.688366	0.265606
599.898431	0.265594
600.108479	0.265756
600.318508	0.266490
600.528519	0.266876
600.738511	0.267340
600.948486	0.267130
601.158442	0.267260
601.368380	0.267198
601.578300	0.267925
601.788202	0.268221
601.998085	0.268056
602.207950	0.268044
602.417797	0.268145
602.627626	0.267830
602.837436	0.268054
603.047228	0.268106
603.257002	0.268531
603.466758	0.268517
603.676496	0.268505
603.886215	0.268774
604.095916	0.269021
604.305599	0.269352
604.515264	0.269888
604.724910	0.269977
604.934538	0.270710
605.144148	0.270703
605.353740	0.271078
605.563314	0.271317
605.772869	0.271937
605.982406	0.271917
606.191925	0.272015
606.401425	0.271954
606.610908	0.272123
606.820372	0.271934
607.029818	0.272348
607.239246	0.272425
607.448655	0.272697
607.658047	0.272593
607.867420	0.273079
608.076775	0.273171
608.286111	0.273375
608.495430	0.273558
608.704730	0.273796
608.914012	0.273702
609.123275	0.273501
609.332521	0.273213
609.541748	0.273462
609.750957	0.273516
609.960148	0.273577
610.169321	0.273537
610.378475	0.273733
610.587611	0.274075
610.796729	0.274204
611.005829	0.274692
611.214910	0.275293
611.423974	0.275172
611.633019	0.275326
611.842045	0.275697
612.051054	0.276049
612.260044	0.276452
612.469017	0.276248
612.677970	0.276604
612.886906	0.276512
613.095824	0.276398
613.304723	0.276789
613.513604	0.276780
613.722467	0.276851
613.931311	0.276849
614.140138	0.276855
614.348946	0.277165
614.557736	0.277228
614.766507	0.277378
614.975261	0.277546
615.183996	0.277581
615.392713	0.277869
615.601412	0.277887
615.810092	0.278227
616.018754	0.278481
616.227399	0.278513
616.436024	0.279028
616.644632	0.279561
616.853222	0.279501
617.061793	0.279410
617.270346	0.279407
617.478880	0.279733
617.687397	0.279791
617.895895	0.279937
618.104375	0.279955
618.312837	0.280016
618.521281	0.279850
618.729706	0.280638
618.938113	0.281052
619.146502	0.281279
619.354873	0.281414
619.563226	0.281445
619.771560	0.281600
619.979876	0.281832
620.188174	0.281776
620.396453	0.282063
620.604715	0.281693
620.812958	0.281823
621.021183	0.281848
621.229390	0.281961
621.437578	0.282173
621.645748	0.282255
621.853900	0.282753
622.062034	0.282970
622.270150	0.283209
622.478247	0.283794
622.686326	0.284152
622.894387	0.284263
623.102430	0.284482
623.310454	0.284860
623.518461	0.285033
623.726449	0.285162
623.934418	0.285232
624.142370	0.285393
624.350303	0.285365
624.558218	0.285465
624.766115	0.285657
624.973994	0.285531
625.181855	0.285684
625.389697	0.285989
625.597521	0.285849
625.805327	0.286094
626.013114	0.286465
626.220883	0.286462
626.428634	0.286631
626.636367	0.286730
626.844082	0.287079
627.051778	0.287632
627.259457	0.287656
627.467117	0.287908
627.674758	0.288292
627.882382	0.288126
628.089987	0.288279
628.297574	0.288206
628.505143	0.288445
628.712694	0.288502
628.920226	0.288445
629.127740	0.288722
629.335236	0.289053
629.542714	0.289055
629.750174	0.289308
629.957615	0.289574
630.165038	0.289980
630.372443	0.290254
630.579829	0.290354
630.787198	0.290502
630.994548	0.290741
631.201880	0.290955
631.409194	0.290786
631.616489	0.290824
631.823766	0.290815
632.031025	0.290845
632.238266	0.291117
632.445489	0.291551
632.652693	0.291611
632.859879	0.291862
633.067047	0.291888
633.274197	0.292333
633.481329	0.292674
633.688442	0.292996
633.895537	0.293012
634.102614	0.293143
634.309672	0.293257
634.516713	0.293406
634.723735	0.293354
634.930739	0.293793
635.137724	0.294108
635.344692	0.294269
635.551641	0.294368
635.758572	0.294837
635.965485	0.295106
636.172379	0.295387
636.379256	0.295548
636.586114	0.295923
636.792954	0.295699
636.999775	0.295787
637.206579	0.295946
637.413364	0.296398
637.620131	0.296511
637.826880	0.296634
638.033610	0.296614
638.240323	0.296470
638.447017	0.296496
638.653692	0.296656
638.860350	0.296658
639.066990	0.296586
639.273611	0.296616
639.480214	0.296674
639.686798	0.296895
639.893365	0.297376
640.099913	0.297687
640.306443	0.297874
640.512955	0.298211
640.719449	0.298719
640.925924	0.299095
641.132381	0.299148
641.338820	0.299577
641.545241	0.299591
641.751644	0.299750
641.958028	0.300201
642.164394	0.300437
642.370742	0.300801
642.577071	0.300718
642.783383	0.300699
642.989676	0.301019
643.195951	0.301241
643.402207	0.301292
643.608446	0.301492
643.814666	0.301839
644.020868	0.301921
644.227052	0.301713
644.433218	0.301983
644.639365	0.302308
644.845494	0.302694
645.051605	0.302956
645.257698	0.303321
645.463772	0.303421
645.669828	0.303301
645.875866	0.303727
646.081886	0.304104
646.287888	0.304485
646.493871	0.304933
646.699836	0.304892
646.905783	0.304721
647.111712	0.304847
647.317622	0.305011
647.523514	0.305532
647.729388	0.305468
647.935244	0.305822
648.141082	0.305884
648.346901	0.305717
648.552702	0.305984
648.758485	0.306418
648.964250	0.306581
649.169996	0.306775
649.375724	0.306704
649.581434	0.307075
649.787126	0.307050
649.992800	0.307214
650.198455	0.307618
650.404092	0.307723
650.609711	0.307810
650.815311	0.308160
651.020894	0.308539
651.226458	0.308892
651.432004	0.309016
651.637532	0.309328
651.843041	0.309571
652.048532	0.309929
652.254006	0.310264
652.459460	0.310569
652.664897	0.310659
652.870315	0.310804
653.075716	0.310877
653.281097	0.310923
653.486461	0.311419
653.691807	0.311413
653.897134	0.311285
654.102443	0.311474
654.307734	0.311738
654.513006	0.311873
654.718261	0.311936
654.923497	0.312097
655.128715	0.312339
655.333915	0.312321
655.539096	0.312663
655.744259	0.313019
655.949404	0.313111
656.154531	0.313316
656.359640	0.313560
656.564730	0.313794
656.769802	0.314042
656.974856	0.314287
657.179892	0.314624
657.384909	0.314698
657.589908	0.314977
657.794889	0.315307
657.999852	0.315326
658.204797	0.315641
658.409723	0.315835
658.614631	0.315794
658.819521	0.316027
659.024393	0.316255
659.229246	0.316687
659.434081	0.316892
659.638898	0.317232
659.843697	0.317705
660.048478	0.317773
660.253240	0.318274
660.457984	0.318819
660.662710	0.319002
660.867417	0.318962
661.072107	0.319200
661.276778	0.319302
661.481431	0.319328
661.686066	0.319446
661.890682	0.319886
662.095281	0.319897
662.299861	0.319969
662.504422	0.320236
662.708966	0.320255
662.913491	0.320300
663.117999	0.320731
663.322488	0.321020
663.526958	0.321242
663.731411	0.321409
663.935845	0.321533
664.140261	0.321834
664.344659	0.322020
664.549038	0.322589
664.753400	0.322802
664.957743	0.323093
665.162068	0.323261
665.366375	0.323489
665.570663	0.323617
665.774933	0.323894
665.979185	0.323935
666.183419	0.324326
666.387635	0.324615
666.591832	0.324821
666.796011	0.324738
667.000172	0.324938
667.204315	0.325010
667.408439	0.325389
667.612545	0.325712
667.816634	0.325976
668.020703	0.326208
668.224755	0.326435
668.428788	0.326696
668.632803	0.327065
668.836800	0.327308
669.040779	0.327441
669.244739	0.327545
669.448681	0.327529
669.652605	0.327779
669.856511	0.327792
670.060399	0.327793
670.264268	0.328161
670.468119	0.328498
670.671952	0.328671
670.875767	0.329045
671.079563	0.329319
671.283341	0.329681
671.487101	0.330134
671.690843	0.330353
671.894567	0.330602
672.098272	0.330756
672.301959	0.330828
672.505628	0.331039
672.709278	0.331364
672.912911	0.331375
673.116525	0.331481
673.320121	0.331592
673.523699	0.331910
673.727258	0.332206
673.930799	0.332676
674.134322	0.332967
674.337827	0.333208
674.541314	0.333276
674.744782	0.333723
674.948232	0.333690
675.151664	0.333806
675.355078	0.333834
675.558474	0.333724
675.761851	0.333554
675.965210	0.333770
676.168551	0.333976
676.371873	0.334285
676.575178	0.334709
676.778464	0.335545
676.981732	0.335984
677.184981	0.336453
677.388213	0.336979
677.591426	0.337274
677.794621	0.337703
677.997798	0.337762
678.200956	0.337782
678.404097	0.337935
678.607219	0.338026
678.810323	0.338298
679.013408	0.338398
679.216476	0.338636
679.419525	0.338881
679.622556	0.339227
679.825569	0.339747
680.028563	0.340346
680.231540	0.340483
680.434498	0.340887
680.637438	0.340985
680.840359	0.341211
681.043263	0.341335
681.246148	0.341483
681.449015	0.341242
681.651864	0.341385
681.854694	0.341304
682.057506	0.341391
682.260301	0.341328
682.463076	0.341544
682.665834	0.341865
682.868573	0.342231
683.071295	0.342650
683.273998	0.343108
683.476682	0.343323
683.679349	0.343920
683.881997	0.344258
684.084627	0.344335
684.287239	0.344411
684.489833	0.344732
684.692408	0.344683
684.894965	0.344746
685.097504	0.344820
685.300025	0.345019
685.502527	0.344865
685.705012	0.345057
685.907478	0.345388
686.109925	0.345786
686.312355	0.345949
686.514766	0.346311
686.717159	0.346514
686.919534	0.346675
687.121891	0.346906
687.324230	0.347092
687.526550	0.347345
687.728852	0.347660
687.931136	0.347590
688.133401	0.347592
688.335649	0.347948
688.537878	0.347973
688.740089	0.348094
688.942281	0.348273
689.144456	0.348677
689.346612	0.348681
689.548750	0.348536
689.750870	0.349032
689.952971	0.349016
690.155055	0.349182
690.357120	0.349446
690.559167	0.349472
690.761195	0.349725
690.963206	0.349829
691.165198	0.350156
691.367172	0.350637
691.569128	0.350766
691.771065	0.351290
691.972984	0.351209
692.174885	0.351681
692.376768	0.351995
692.578633	0.352100
692.780479	0.352500
692.982308	0.352675
693.184118	0.352827
693.385909	0.352985
