sample name	sample
index	639
start time	 03-19-2021  03:30:29 PM


Wavelength (nm)	Absorbance
494.344910	-1.289021
494.563924	-1.289021
494.782919	-1.289021
495.001897	NaN
495.220856	-0.063527
495.439797	0.160031
495.658719	0.314978
495.877624	1.060193
496.096510	0.277704
496.315378	0.384158
496.534227	0.204647
496.753059	0.171056
496.971872	0.056251
497.190667	0.113175
497.409444	0.115090
497.628203	0.116673
497.846943	0.118304
498.065665	0.118329
498.284369	0.117661
498.503055	0.116339
498.721723	0.117321
498.940372	0.117313
499.159003	0.117122
499.377616	0.116778
499.596210	0.116366
499.814787	0.114065
500.033345	0.114426
500.251885	0.114389
500.470406	0.114645
500.688910	0.112683
500.907395	0.112210
501.125862	0.112099
501.344311	0.111782
501.562742	0.112059
501.781154	0.112783
501.999548	0.112560
502.217924	0.112134
502.436282	0.111835
502.654621	0.112184
502.872942	0.112094
503.091245	0.113191
503.309530	0.113477
503.527797	0.112124
503.746045	0.112005
503.964275	0.111759
504.182487	0.111274
504.400681	0.112754
504.618856	0.112493
504.837013	0.113274
505.055152	0.112858
505.273273	0.113512
505.491376	0.113491
505.709460	0.113866
505.927526	0.113875
506.145574	0.114743
506.363604	0.113600
506.581615	0.115059
506.799608	0.114888
507.017583	0.114869
507.235540	0.114924
507.453478	0.115963
507.671399	0.115865
507.889301	0.116363
508.107185	0.116391
508.325050	0.116294
508.542898	0.115793
508.760727	0.115699
508.978538	0.116038
509.196330	0.115870
509.414105	0.116434
509.631861	0.115923
509.849599	0.116451
510.067319	0.116597
510.285021	0.117489
510.502704	0.117751
510.720369	0.118205
510.938016	0.117747
511.155645	0.117069
511.373255	0.117052
511.590848	0.117487
511.808422	0.116477
512.025977	0.117050
512.243515	0.117451
512.461034	0.117815
512.678536	0.118090
512.896018	0.118629
513.113483	0.118801
513.330930	0.118673
513.548358	0.118750
513.765768	0.119048
513.983160	0.118569
514.200533	0.117829
514.417889	0.117823
514.635226	0.117074
514.852545	0.116852
515.069845	0.117996
515.287128	0.117911
515.504392	0.118943
515.721638	0.119790
515.938866	0.120218
516.156075	0.120552
516.373267	0.120469
516.590440	0.121136
516.807594	0.121449
517.024731	0.120864
517.241850	0.120454
517.458950	0.119624
517.676032	0.119282
517.893095	0.119500
518.110141	0.119439
518.327168	0.119107
518.544177	0.118703
518.761168	0.118160
518.978141	0.118509
519.195095	0.119223
519.412031	0.119441
519.628949	0.120488
519.845849	0.120472
520.062731	0.121320
520.279594	0.121678
520.496439	0.122261
520.713266	0.123196
520.930074	0.123350
521.146865	0.123418
521.363637	0.122801
521.580391	0.122089
521.797127	0.122472
522.013844	0.122124
522.230543	0.122231
522.447224	0.122056
522.663887	0.122136
522.880532	0.122072
523.097158	0.121968
523.313766	0.123211
523.530356	0.123050
523.746928	0.122606
523.963481	0.123190
524.180017	0.123917
524.396534	0.124395
524.613032	0.124337
524.829513	0.124231
525.045975	0.124681
525.262420	0.124983
525.478845	0.125660
525.695253	0.125777
525.911643	0.125545
526.128014	0.125130
526.344367	0.125327
526.560702	0.125194
526.777018	0.126170
526.993316	0.126092
527.209597	0.126072
527.425858	0.126182
527.642102	0.126517
527.858328	0.126803
528.074535	0.126940
528.290724	0.127150
528.506894	0.127703
528.723047	0.127425
528.939181	0.127836
529.155297	0.127518
529.371395	0.127496
529.587475	0.127970
529.803536	0.128243
530.019579	0.128316
530.235604	0.128752
530.451611	0.128614
530.667600	0.129214
530.883570	0.129414
531.099522	0.130090
531.315456	0.130656
531.531372	0.130626
531.747269	0.130534
531.963148	0.131280
532.179009	0.131123
532.394852	0.131404
532.610676	0.131130
532.826482	0.130883
533.042271	0.131299
533.258040	0.131142
533.473792	0.131220
533.689525	0.131739
533.905240	0.131728
534.120937	0.132056
534.336616	0.132211
534.552277	0.132632
534.767919	0.133151
534.983543	0.133133
535.199149	0.133321
535.414736	0.133645
535.630306	0.133917
535.845857	0.133901
536.061390	0.133875
536.276904	0.133817
536.492401	0.134178
536.707879	0.134705
536.923339	0.135586
537.138781	0.135890
537.354204	0.136154
537.569610	0.136133
537.784997	0.136571
538.000366	0.137106
538.215716	0.137528
538.431049	0.137366
538.646363	0.136616
538.861659	0.136389
539.076937	0.136554
539.292196	0.136453
539.507438	0.136480
539.722661	0.136568
539.937866	0.136443
540.153052	0.136380
540.368221	0.136403
540.583371	0.136990
540.798503	0.136835
541.013617	0.136852
541.228712	0.137014
541.443789	0.137458
541.658848	0.137873
541.873889	0.137628
542.088912	0.138223
542.303916	0.138555
542.518902	0.138843
542.733870	0.139484
542.948820	0.139981
543.163752	0.140696
543.378665	0.141181
543.593560	0.141302
543.808437	0.141747
544.023295	0.141912
544.238136	0.142175
544.452958	0.142327
544.667762	0.141976
544.882548	0.142174
545.097315	0.142060
545.312064	0.141932
545.526795	0.141984
545.741508	0.142313
545.956203	0.142131
546.170879	0.142046
546.385537	0.141841
546.600177	0.141940
546.814799	0.142077
547.029402	0.142027
547.243988	0.142271
547.458555	0.142454
547.673103	0.142469
547.887634	0.142908
548.102146	0.143253
548.316640	0.144142
548.531116	0.144238
548.745574	0.144788
548.960013	0.144850
549.174435	0.144961
549.388838	0.145190
549.603222	0.145522
549.817589	0.145436
550.031937	0.146102
550.246267	0.146001
550.460579	0.146336
550.674873	0.145926
550.889148	0.146565
551.103405	0.146286
551.317644	0.146186
551.531865	0.146671
551.746068	0.146606
551.960252	0.146910
552.174418	0.146752
552.388566	0.146922
552.602696	0.147314
552.816807	0.147401
553.030900	0.147858
553.244975	0.148295
553.459032	0.148229
553.673070	0.149178
553.887091	0.148721
554.101093	0.149151
554.315077	0.148938
554.529042	0.148825
554.742990	0.149004
554.956919	0.149509
555.170830	0.149350
555.384722	0.149408
555.598597	0.149102
555.812453	0.149160
556.026291	0.149723
556.240111	0.150290
556.453913	0.150515
556.667696	0.150629
556.881461	0.150554
557.095208	0.150806
557.308937	0.151126
557.522647	0.151177
557.736339	0.151120
557.950013	0.150929
558.163669	0.151305
558.377307	0.151718
558.590926	0.151579
558.804527	0.151531
559.018110	0.151731
559.231675	0.151785
559.445221	0.152229
559.658749	0.152961
559.872259	0.153025
560.085751	0.153145
560.299225	0.152870
560.512680	0.153119
560.726117	0.153321
560.939536	0.153652
561.152937	0.153849
561.366319	0.154155
561.579683	0.153875
561.793029	0.154279
562.006357	0.154087
562.219667	0.154073
562.432958	0.154400
562.646231	0.154697
562.859486	0.154915
563.072723	0.154870
563.285941	0.154843
563.499141	0.155265
563.712323	0.155193
563.925487	0.155789
564.138632	0.156398
564.351760	0.156677
564.564869	0.157071
564.777960	0.156998
564.991032	0.157310
565.204087	0.157630
565.417123	0.157655
565.630141	0.157544
565.843140	0.157191
566.056122	0.157196
566.269085	0.156753
566.482030	0.156488
566.694957	0.156397
566.907866	0.156328
567.120756	0.156286
567.333628	0.156052
567.546482	0.156384
567.759318	0.156738
567.972135	0.156682
568.184935	0.157261
568.397716	0.157087
568.610478	0.157205
568.823223	0.157574
569.035949	0.157541
569.248657	0.157747
569.461347	0.157964
569.674019	0.158042
569.886672	0.158306
570.099308	0.158160
570.311925	0.158526
570.524523	0.158715
570.737104	0.158731
570.949666	0.158801
571.162210	0.159099
571.374736	0.159209
571.587244	0.159004
571.799733	0.159082
572.012205	0.159445
572.224658	0.159695
572.437092	0.160129
572.649509	0.160361
572.861907	0.160808
573.074287	0.161110
573.286649	0.161015
573.498993	0.161827
573.711318	0.162297
573.923625	0.162474
574.135914	0.162811
574.348185	0.162926
574.560438	0.163175
574.772672	0.163281
574.984888	0.163593
575.197086	0.164345
575.409266	0.164331
575.621427	0.164763
575.833570	0.164879
576.045695	0.164914
576.257802	0.164713
576.469890	0.164702
576.681961	0.164854
576.894013	0.164711
577.106046	0.164385
577.318062	0.164636
577.530059	0.164793
577.742039	0.164685
577.954000	0.165037
578.165942	0.165473
578.377867	0.165567
578.589773	0.165928
578.801661	0.166513
579.013531	0.167026
579.225382	0.166759
579.437216	0.166673
579.649031	0.167011
579.860828	0.166928
580.072606	0.167034
580.284367	0.167349
580.496109	0.167350
580.707833	0.167618
580.919539	0.167837
581.131227	0.168222
581.342896	0.168227
581.554547	0.168574
581.766180	0.168933
581.977795	0.168944
582.189391	0.168816
582.400969	0.169073
582.612529	0.168528
582.824071	0.168285
583.035595	0.168388
583.247100	0.168380
583.458587	0.168408
583.670056	0.168412
583.881506	0.168947
584.092939	0.169061
584.304353	0.168976
584.515749	0.169072
584.727127	0.169426
584.938486	0.169566
585.149828	0.169966
585.361151	0.170308
585.572456	0.170360
585.783742	0.170248
585.995011	0.170499
586.206261	0.170486
586.417493	0.170939
586.628706	0.171260
586.839902	0.171293
587.051079	0.171444
587.262238	0.171347
587.473379	0.171342
587.684502	0.171627
587.895606	0.171832
588.106692	0.172313
588.317760	0.172633
588.528810	0.172593
588.739841	0.173204
588.950855	0.173479
589.161850	0.173527
589.372827	0.173727
589.583785	0.174023
589.794726	0.173968
590.005648	0.174042
590.216552	0.174043
590.427437	0.174357
590.638305	0.174450
590.849154	0.174618
591.059985	0.174880
591.270798	0.174938
591.481592	0.175072
591.692369	0.175577
591.903127	0.175699
592.113867	0.175874
592.324588	0.175897
592.535292	0.175701
592.745977	0.175566
592.956644	0.175905
593.167293	0.176003
593.377923	0.176012
593.588536	0.176070
593.799130	0.176132
594.009706	0.175978
594.220263	0.176136
594.430803	0.176461
594.641324	0.176914
594.851827	0.177072
595.062312	0.177458
595.272778	0.177350
595.483227	0.177551
595.693657	0.177761
595.904069	0.178223
596.114462	0.178210
596.324838	0.178167
596.535195	0.178314
596.745534	0.178457
596.955855	0.178604
597.166157	0.178998
597.376441	0.179213
597.586707	0.179135
597.796955	0.179058
598.007185	0.179039
598.217396	0.179131
598.427589	0.179234
598.637764	0.179341
598.847921	0.179242
599.058060	0.179117
599.268180	0.178726
599.478282	0.178953
599.688366	0.179263
599.898431	0.179718
600.108479	0.179728
600.318508	0.179336
600.528519	0.179117
600.738511	0.179338
600.948486	0.179656
601.158442	0.179978
601.368380	0.180290
601.578300	0.180268
601.788202	0.180235
601.998085	0.180491
602.207950	0.181017
602.417797	0.181014
602.627626	0.181023
602.837436	0.181051
603.047228	0.181194
603.257002	0.181157
603.466758	0.181262
603.676496	0.181555
603.886215	0.181586
604.095916	0.181508
604.305599	0.181875
604.515264	0.182117
604.724910	0.182382
604.934538	0.182755
605.144148	0.182612
605.353740	0.182740
605.563314	0.182570
605.772869	0.182688
605.982406	0.182755
606.191925	0.182965
606.401425	0.183213
606.610908	0.182981
606.820372	0.182961
607.029818	0.183516
607.239246	0.183526
607.448655	0.183826
607.658047	0.184110
607.867420	0.184377
608.076775	0.184411
608.286111	0.184502
608.495430	0.184874
608.704730	0.184980
608.914012	0.184916
609.123275	0.185271
609.332521	0.185326
609.541748	0.185486
609.750957	0.185517
609.960148	0.185490
610.169321	0.185539
610.378475	0.185344
610.587611	0.185331
610.796729	0.185591
611.005829	0.185905
611.214910	0.186048
611.423974	0.185837
611.633019	0.185928
611.842045	0.186115
612.051054	0.186370
612.260044	0.186603
612.469017	0.186967
612.677970	0.186944
612.886906	0.186612
613.095824	0.186509
613.304723	0.186792
613.513604	0.186849
613.722467	0.187003
613.931311	0.186992
614.140138	0.187269
614.348946	0.187282
614.557736	0.187462
614.766507	0.187704
614.975261	0.187918
615.183996	0.188077
615.392713	0.188382
615.601412	0.188675
615.810092	0.188778
616.018754	0.188857
616.227399	0.188856
616.436024	0.188879
616.644632	0.189013
616.853222	0.189156
617.061793	0.189329
617.270346	0.189306
617.478880	0.189327
617.687397	0.189262
617.895895	0.189376
618.104375	0.189425
618.312837	0.189601
618.521281	0.189679
618.729706	0.189773
618.938113	0.189722
619.146502	0.189728
619.354873	0.189804
619.563226	0.189983
619.771560	0.190072
619.979876	0.190305
620.188174	0.190367
620.396453	0.190308
620.604715	0.190518
620.812958	0.190682
621.021183	0.190675
621.229390	0.190686
621.437578	0.190824
621.645748	0.190909
621.853900	0.190951
622.062034	0.191135
622.270150	0.191325
622.478247	0.191389
622.686326	0.191531
622.894387	0.191652
623.102430	0.191821
623.310454	0.191922
623.518461	0.192247
623.726449	0.192327
623.934418	0.192364
624.142370	0.192558
624.350303	0.192491
624.558218	0.192624
624.766115	0.192806
624.973994	0.192875
625.181855	0.192743
625.389697	0.192606
625.597521	0.192775
625.805327	0.192907
626.013114	0.192923
626.220883	0.193195
626.428634	0.193270
626.636367	0.193340
626.844082	0.193376
627.051778	0.193883
627.259457	0.194170
627.467117	0.194347
627.674758	0.194391
627.882382	0.194982
628.089987	0.195113
628.297574	0.195177
628.505143	0.195504
628.712694	0.195647
628.920226	0.195575
629.127740	0.195720
629.335236	0.195540
629.542714	0.195620
629.750174	0.195561
629.957615	0.195741
630.165038	0.196092
630.372443	0.196343
630.579829	0.196749
630.787198	0.196942
630.994548	0.196705
631.201880	0.197196
631.409194	0.197368
631.616489	0.197432
631.823766	0.197235
632.031025	0.197068
632.238266	0.197215
632.445489	0.197290
632.652693	0.197374
632.859879	0.197701
633.067047	0.197758
633.274197	0.197826
633.481329	0.197745
633.688442	0.198093
633.895537	0.198403
634.102614	0.198310
634.309672	0.198398
634.516713	0.198359
634.723735	0.198314
634.930739	0.198462
635.137724	0.198611
635.344692	0.198778
635.551641	0.198919
635.758572	0.199065
635.965485	0.199184
636.172379	0.199140
636.379256	0.199440
636.586114	0.199952
636.792954	0.199750
636.999775	0.199561
637.206579	0.199836
637.413364	0.199842
637.620131	0.199906
637.826880	0.200027
638.033610	0.200309
638.240323	0.200384
638.447017	0.200123
638.653692	0.200419
638.860350	0.200982
639.066990	0.200991
639.273611	0.201313
639.480214	0.201577
639.686798	0.201852
639.893365	0.201987
640.099913	0.202094
640.306443	0.202403
640.512955	0.202624
640.719449	0.202518
640.925924	0.202478
641.132381	0.202425
641.338820	0.202327
641.545241	0.201992
641.751644	0.201877
641.958028	0.202172
642.164394	0.202120
642.370742	0.202078
642.577071	0.202466
642.783383	0.202725
642.989676	0.203065
643.195951	0.203215
643.402207	0.203509
643.608446	0.203789
643.814666	0.203743
644.020868	0.204227
644.227052	0.204360
644.433218	0.204510
644.639365	0.204596
644.845494	0.204646
645.051605	0.204901
645.257698	0.205200
645.463772	0.205436
645.669828	0.205535
645.875866	0.205481
646.081886	0.205903
646.287888	0.205912
646.493871	0.206082
646.699836	0.206121
646.905783	0.206078
647.111712	0.205995
647.317622	0.205944
647.523514	0.206172
647.729388	0.206118
647.935244	0.206089
648.141082	0.206184
648.346901	0.206152
648.552702	0.206435
648.758485	0.206556
648.964250	0.206765
649.169996	0.207097
649.375724	0.207301
649.581434	0.207400
649.787126	0.207643
649.992800	0.207697
650.198455	0.207994
650.404092	0.207979
650.609711	0.208158
650.815311	0.208391
651.020894	0.208217
651.226458	0.208260
651.432004	0.208310
651.637532	0.208372
651.843041	0.208685
652.048532	0.208579
652.254006	0.208724
652.459460	0.208751
652.664897	0.208806
652.870315	0.209162
653.075716	0.209139
653.281097	0.209414
653.486461	0.209553
653.691807	0.209545
653.897134	0.209724
654.102443	0.209631
654.307734	0.209955
654.513006	0.210063
654.718261	0.210128
654.923497	0.210266
655.128715	0.210648
655.333915	0.210525
655.539096	0.210852
655.744259	0.211085
655.949404	0.211482
656.154531	0.211274
656.359640	0.211458
656.564730	0.211696
656.769802	0.211960
656.974856	0.211932
657.179892	0.212433
657.384909	0.212450
657.589908	0.212697
657.794889	0.212969
657.999852	0.213378
658.204797	0.213723
658.409723	0.213965
658.614631	0.214197
658.819521	0.214437
659.024393	0.214338
659.229246	0.214249
659.434081	0.214665
659.638898	0.214754
659.843697	0.215014
660.048478	0.214829
660.253240	0.214690
660.457984	0.214878
660.662710	0.214727
660.867417	0.214920
661.072107	0.215387
661.276778	0.215148
661.481431	0.215205
661.686066	0.215150
661.890682	0.215550
662.095281	0.215715
662.299861	0.215689
662.504422	0.216160
662.708966	0.216449
662.913491	0.216539
663.117999	0.216505
663.322488	0.216621
663.526958	0.216730
663.731411	0.216575
663.935845	0.216693
664.140261	0.216985
664.344659	0.216918
664.549038	0.217006
664.753400	0.216996
664.957743	0.217411
665.162068	0.217368
665.366375	0.217706
665.570663	0.218015
665.774933	0.217980
665.979185	0.217921
666.183419	0.217980
666.387635	0.218012
666.591832	0.218232
666.796011	0.218424
667.000172	0.218724
667.204315	0.218743
667.408439	0.218957
667.612545	0.219308
667.816634	0.219526
668.020703	0.219907
668.224755	0.220022
668.428788	0.220155
668.632803	0.220115
668.836800	0.220142
669.040779	0.220134
669.244739	0.220016
669.448681	0.220176
669.652605	0.220287
669.856511	0.220385
670.060399	0.220640
670.264268	0.220824
670.468119	0.220917
670.671952	0.221333
670.875767	0.221708
671.079563	0.221998
671.283341	0.222189
671.487101	0.222573
671.690843	0.222635
671.894567	0.222647
672.098272	0.222632
672.301959	0.223032
672.505628	0.223002
672.709278	0.223209
672.912911	0.223657
673.116525	0.223777
673.320121	0.223608
673.523699	0.223784
673.727258	0.223988
673.930799	0.224117
674.134322	0.224368
674.337827	0.224566
674.541314	0.224553
674.744782	0.224422
674.948232	0.224228
675.151664	0.224579
675.355078	0.224530
675.558474	0.224644
675.761851	0.225075
675.965210	0.224984
676.168551	0.224936
676.371873	0.225103
676.575178	0.225409
676.778464	0.225700
676.981732	0.225666
677.184981	0.226067
677.388213	0.226195
677.591426	0.225954
677.794621	0.226144
677.997798	0.226251
678.200956	0.226423
678.404097	0.226630
678.607219	0.227082
678.810323	0.227275
679.013408	0.227563
679.216476	0.227704
679.419525	0.228107
679.622556	0.228199
679.825569	0.228636
680.028563	0.228881
680.231540	0.228967
680.434498	0.228951
680.637438	0.229354
680.840359	0.229483
681.043263	0.229659
681.246148	0.229788
681.449015	0.230181
681.651864	0.230279
681.854694	0.230283
682.057506	0.230018
682.260301	0.230065
682.463076	0.229932
682.665834	0.229916
682.868573	0.230141
683.071295	0.230242
683.273998	0.230135
683.476682	0.230351
683.679349	0.230462
683.881997	0.230884
684.084627	0.231057
684.287239	0.231210
684.489833	0.231396
684.692408	0.231284
684.894965	0.231283
685.097504	0.231461
685.300025	0.231479
685.502527	0.231392
685.705012	0.231377
685.907478	0.231524
686.109925	0.231691
686.312355	0.231700
686.514766	0.232103
686.717159	0.232429
686.919534	0.232595
687.121891	0.232666
687.324230	0.233079
687.526550	0.233220
687.728852	0.233325
687.931136	0.233411
688.133401	0.233476
688.335649	0.233474
688.537878	0.233578
688.740089	0.233756
688.942281	0.233865
689.144456	0.233846
689.346612	0.233916
689.548750	0.234045
689.750870	0.234333
689.952971	0.234448
690.155055	0.234357
690.357120	0.234341
690.559167	0.234536
690.761195	0.234907
690.963206	0.235063
691.165198	0.235392
691.367172	0.235620
691.569128	0.235447
691.771065	0.235757
691.972984	0.236220
692.174885	0.236618
692.376768	0.236516
692.578633	0.236254
692.780479	0.236356
692.982308	0.236531
693.184118	0.236612
693.385909	0.236834
