sample name	sample
index	994
start time	 04-14-2021  04:23:12 PM


Wavelength (nm)	Absorbance
494.344910	NaN
494.563924	NaN
494.782919	NaN
495.001897	0.138104
495.220856	0.657066
495.439797	0.207572
495.658719	0.218483
495.877624	0.110436
496.096510	0.247901
496.315378	0.070665
496.534227	-0.084722
496.753059	-0.205367
496.971872	-0.235345
497.190667	0.143534
497.409444	0.166253
497.628203	0.168521
497.846943	0.171051
498.065665	0.172225
498.284369	0.176534
498.503055	0.176382
498.721723	0.177479
498.940372	0.178329
499.159003	0.178032
499.377616	0.179529
499.596210	0.179826
499.814787	0.179525
500.033345	0.179526
500.251885	0.178397
500.470406	0.179509
500.688910	0.179216
500.907395	0.179346
501.125862	0.180024
501.344311	0.179127
501.562742	0.178378
501.781154	0.178896
501.999548	0.180128
502.217924	0.181939
502.436282	0.181263
502.654621	0.181642
502.872942	0.179665
503.091245	0.179190
503.309530	0.179516
503.527797	0.181421
503.746045	0.182734
503.964275	0.182398
504.182487	0.181357
504.400681	0.182606
504.618856	0.183028
504.837013	0.185081
505.055152	0.184923
505.273273	0.184323
505.491376	0.183821
505.709460	0.183502
505.927526	0.183025
506.145574	0.183215
506.363604	0.182586
506.581615	0.182274
506.799608	0.181967
507.017583	0.181842
507.235540	0.182793
507.453478	0.182569
507.671399	0.183129
507.889301	0.184429
508.107185	0.185383
508.325050	0.185564
508.542898	0.185272
508.760727	0.186086
508.978538	0.186699
509.196330	0.187831
509.414105	0.187982
509.631861	0.187447
509.849599	0.186862
510.067319	0.186190
510.285021	0.186183
510.502704	0.186355
510.720369	0.186778
510.938016	0.187707
511.155645	0.188663
511.373255	0.189110
511.590848	0.189770
511.808422	0.190030
512.025977	0.190545
512.243515	0.190317
512.461034	0.191189
512.678536	0.191724
512.896018	0.191608
513.113483	0.190244
513.330930	0.190585
513.548358	0.190702
513.765768	0.190486
513.983160	0.191159
514.200533	0.192340
514.417889	0.192767
514.635226	0.191874
514.852545	0.192526
515.069845	0.193690
515.287128	0.194772
515.504392	0.194696
515.721638	0.195742
515.938866	0.195494
516.156075	0.195239
516.373267	0.194805
516.590440	0.195182
516.807594	0.194771
517.024731	0.194990
517.241850	0.193967
517.458950	0.193549
517.676032	0.193728
517.893095	0.194254
518.110141	0.194864
518.327168	0.196246
518.544177	0.197367
518.761168	0.197541
518.978141	0.197190
519.195095	0.197758
519.412031	0.199282
519.628949	0.198604
519.845849	0.198660
520.062731	0.199309
520.279594	0.200086
520.496439	0.199987
520.713266	0.200730
520.930074	0.201117
521.146865	0.201401
521.363637	0.201250
521.580391	0.201940
521.797127	0.201441
522.013844	0.202225
522.230543	0.201624
522.447224	0.201974
522.663887	0.202770
522.880532	0.202191
523.097158	0.202357
523.313766	0.202646
523.530356	0.203543
523.746928	0.203846
523.963481	0.203946
524.180017	0.204953
524.396534	0.204713
524.613032	0.204607
524.829513	0.205785
525.045975	0.205779
525.262420	0.206167
525.478845	0.206310
525.695253	0.207771
525.911643	0.207473
526.128014	0.206703
526.344367	0.207493
526.560702	0.207797
526.777018	0.208614
526.993316	0.209999
527.209597	0.209959
527.425858	0.209890
527.642102	0.209799
527.858328	0.210885
528.074535	0.211357
528.290724	0.211696
528.506894	0.212008
528.723047	0.212191
528.939181	0.212592
529.155297	0.213595
529.371395	0.214124
529.587475	0.215421
529.803536	0.215228
530.019579	0.215320
530.235604	0.215860
530.451611	0.216373
530.667600	0.216423
530.883570	0.215891
531.099522	0.215626
531.315456	0.215722
531.531372	0.215238
531.747269	0.215750
531.963148	0.216664
532.179009	0.217190
532.394852	0.217274
532.610676	0.217655
532.826482	0.218198
533.042271	0.218866
533.258040	0.219721
533.473792	0.220321
533.689525	0.220819
533.905240	0.221019
534.120937	0.220923
534.336616	0.221170
534.552277	0.221994
534.767919	0.222715
534.983543	0.223005
535.199149	0.222924
535.414736	0.223234
535.630306	0.223691
535.845857	0.224385
536.061390	0.224651
536.276904	0.225125
536.492401	0.224805
536.707879	0.224849
536.923339	0.225564
537.138781	0.226064
537.354204	0.226135
537.569610	0.225631
537.784997	0.225766
538.000366	0.226215
538.215716	0.226733
538.431049	0.227672
538.646363	0.228504
538.861659	0.228595
539.076937	0.229018
539.292196	0.229291
539.507438	0.230155
539.722661	0.230160
539.937866	0.230356
540.153052	0.230685
540.368221	0.230239
540.583371	0.230232
540.798503	0.231291
541.013617	0.231712
541.228712	0.232120
541.443789	0.232234
541.658848	0.232275
541.873889	0.233036
542.088912	0.233205
542.303916	0.234325
542.518902	0.235294
542.733870	0.234978
542.948820	0.235233
543.163752	0.235775
543.378665	0.235942
543.593560	0.237128
543.808437	0.237934
544.023295	0.238264
544.238136	0.238855
544.452958	0.238383
544.667762	0.238907
544.882548	0.239132
545.097315	0.239278
545.312064	0.239810
545.526795	0.240611
545.741508	0.240322
545.956203	0.240728
546.170879	0.240511
546.385537	0.241147
546.600177	0.241460
546.814799	0.241805
547.029402	0.241951
547.243988	0.242571
547.458555	0.242270
547.673103	0.242311
547.887634	0.242458
548.102146	0.242744
548.316640	0.242882
548.531116	0.242425
548.745574	0.243305
548.960013	0.243689
549.174435	0.243935
549.388838	0.243821
549.603222	0.244019
549.817589	0.244266
550.031937	0.244758
550.246267	0.245350
550.460579	0.246251
550.674873	0.246233
550.889148	0.246574
551.103405	0.247023
551.317644	0.247353
551.531865	0.248558
551.746068	0.249458
551.960252	0.249435
552.174418	0.249291
552.388566	0.249662
552.602696	0.249616
552.816807	0.250143
553.030900	0.250193
553.244975	0.250428
553.459032	0.250199
553.673070	0.250258
553.887091	0.250560
554.101093	0.251144
554.315077	0.251235
554.529042	0.251366
554.742990	0.252089
554.956919	0.252747
555.170830	0.252519
555.384722	0.253106
555.598597	0.253137
555.812453	0.253586
556.026291	0.253615
556.240111	0.253727
556.453913	0.253890
556.667696	0.253396
556.881461	0.253174
557.095208	0.254358
557.308937	0.254204
557.522647	0.254397
557.736339	0.254406
557.950013	0.254709
558.163669	0.255400
558.377307	0.255727
558.590926	0.256323
558.804527	0.256760
559.018110	0.256492
559.231675	0.256915
559.445221	0.257101
559.658749	0.257755
559.872259	0.257903
560.085751	0.257712
560.299225	0.258737
560.512680	0.258451
560.726117	0.258373
560.939536	0.259111
561.152937	0.258929
561.366319	0.259270
561.579683	0.259104
561.793029	0.259455
562.006357	0.259557
562.219667	0.259033
562.432958	0.259734
562.646231	0.259920
562.859486	0.259714
563.072723	0.260552
563.285941	0.260753
563.499141	0.260945
563.712323	0.261083
563.925487	0.261480
564.138632	0.261559
564.351760	0.261704
564.564869	0.261894
564.777960	0.262558
564.991032	0.262408
565.204087	0.263012
565.417123	0.263101
565.630141	0.263595
565.843140	0.264245
566.056122	0.264543
566.269085	0.264416
566.482030	0.264904
566.694957	0.264864
566.907866	0.264990
567.120756	0.264760
567.333628	0.264857
567.546482	0.264843
567.759318	0.264484
567.972135	0.264774
568.184935	0.265078
568.397716	0.265306
568.610478	0.265740
568.823223	0.266033
569.035949	0.266413
569.248657	0.266810
569.461347	0.267445
569.674019	0.267537
569.886672	0.267776
570.099308	0.267771
570.311925	0.267657
570.524523	0.267911
570.737104	0.268180
570.949666	0.268674
571.162210	0.268422
571.374736	0.267973
571.587244	0.268506
571.799733	0.268503
572.012205	0.268736
572.224658	0.268833
572.437092	0.268414
572.649509	0.268169
572.861907	0.268006
573.074287	0.268806
573.286649	0.269495
573.498993	0.269839
573.711318	0.270186
573.923625	0.270536
574.135914	0.271098
574.348185	0.271735
574.560438	0.272242
574.772672	0.272568
574.984888	0.272590
575.197086	0.272427
575.409266	0.272283
575.621427	0.272527
575.833570	0.272700
576.045695	0.272871
576.257802	0.273009
576.469890	0.273267
576.681961	0.273384
576.894013	0.273554
577.106046	0.273591
577.318062	0.273883
577.530059	0.273920
577.742039	0.273855
577.954000	0.274158
578.165942	0.274392
578.377867	0.274373
578.589773	0.274412
578.801661	0.274702
579.013531	0.274817
579.225382	0.274692
579.437216	0.274526
579.649031	0.275094
579.860828	0.275241
580.072606	0.275234
580.284367	0.275735
580.496109	0.276110
580.707833	0.276311
580.919539	0.276364
581.131227	0.277418
581.342896	0.278255
581.554547	0.278145
581.766180	0.278320
581.977795	0.278473
582.189391	0.278523
582.400969	0.278629
582.612529	0.278792
582.824071	0.279365
583.035595	0.279138
583.247100	0.279263
583.458587	0.280337
583.670056	0.280616
583.881506	0.280842
584.092939	0.280867
584.304353	0.281298
584.515749	0.281499
584.727127	0.281484
584.938486	0.281504
585.149828	0.281662
585.361151	0.281347
585.572456	0.281398
585.783742	0.281580
585.995011	0.281696
586.206261	0.281989
586.417493	0.281987
586.628706	0.282514
586.839902	0.283024
587.051079	0.283604
587.262238	0.283849
587.473379	0.284082
587.684502	0.284459
587.895606	0.284753
588.106692	0.284459
588.317760	0.285038
588.528810	0.284906
588.739841	0.284670
588.950855	0.284317
589.161850	0.284025
589.372827	0.284315
589.583785	0.284662
589.794726	0.284883
590.005648	0.285417
590.216552	0.285289
590.427437	0.285946
590.638305	0.286483
590.849154	0.287148
591.059985	0.287505
591.270798	0.287909
591.481592	0.287854
591.692369	0.288041
591.903127	0.287736
592.113867	0.288144
592.324588	0.288174
592.535292	0.288460
592.745977	0.288210
592.956644	0.288661
593.167293	0.288419
593.377923	0.288504
593.588536	0.288890
593.799130	0.289419
594.009706	0.289582
594.220263	0.289539
594.430803	0.289702
594.641324	0.289891
594.851827	0.290071
595.062312	0.290422
595.272778	0.290610
595.483227	0.290504
595.693657	0.290366
595.904069	0.290880
596.114462	0.291247
596.324838	0.290710
596.535195	0.291173
596.745534	0.291398
596.955855	0.291542
597.166157	0.291642
597.376441	0.292148
597.586707	0.292460
597.796955	0.292351
598.007185	0.292973
598.217396	0.293613
598.427589	0.293864
598.637764	0.294192
598.847921	0.294389
599.058060	0.294584
599.268180	0.294717
599.478282	0.294955
599.688366	0.295229
599.898431	0.294968
600.108479	0.295229
600.318508	0.294939
600.528519	0.294719
600.738511	0.294778
600.948486	0.294981
601.158442	0.295079
601.368380	0.295198
601.578300	0.295180
601.788202	0.295422
601.998085	0.295689
602.207950	0.296005
602.417797	0.296084
602.627626	0.296332
602.837436	0.296930
603.047228	0.296974
603.257002	0.297013
603.466758	0.297144
603.676496	0.297347
603.886215	0.297482
604.095916	0.297791
604.305599	0.298303
604.515264	0.298399
604.724910	0.298417
604.934538	0.298898
605.144148	0.299343
605.353740	0.299824
605.563314	0.299585
605.772869	0.299639
605.982406	0.299664
606.191925	0.299892
606.401425	0.300026
606.610908	0.300047
606.820372	0.300180
607.029818	0.300393
607.239246	0.300315
607.448655	0.300972
607.658047	0.301072
607.867420	0.301067
608.076775	0.301293
608.286111	0.301579
608.495430	0.301880
608.704730	0.301749
608.914012	0.301807
609.123275	0.301903
609.332521	0.301792
609.541748	0.301957
609.750957	0.302473
609.960148	0.302245
610.169321	0.302266
610.378475	0.302399
610.587611	0.303054
610.796729	0.303191
611.005829	0.303301
611.214910	0.303794
611.423974	0.303884
611.633019	0.304004
611.842045	0.304356
612.051054	0.304763
612.260044	0.304641
612.469017	0.304589
612.677970	0.304727
612.886906	0.304781
613.095824	0.304753
613.304723	0.304862
613.513604	0.305304
613.722467	0.305215
613.931311	0.305209
614.140138	0.305461
614.348946	0.305492
614.557736	0.305612
614.766507	0.305912
614.975261	0.305836
615.183996	0.305849
615.392713	0.305796
615.601412	0.306231
615.810092	0.306406
616.018754	0.306782
616.227399	0.306700
616.436024	0.306942
616.644632	0.307317
616.853222	0.307786
617.061793	0.308550
617.270346	0.308527
617.478880	0.308562
617.687397	0.308998
617.895895	0.309304
618.104375	0.309608
618.312837	0.309918
618.521281	0.309875
618.729706	0.310035
618.938113	0.310047
619.146502	0.310292
619.354873	0.310676
619.563226	0.310731
619.771560	0.311077
619.979876	0.311468
620.188174	0.311560
620.396453	0.311836
620.604715	0.312138
620.812958	0.312224
621.021183	0.312511
621.229390	0.312288
621.437578	0.312677
621.645748	0.312585
621.853900	0.312481
622.062034	0.312565
622.270150	0.312737
622.478247	0.312673
622.686326	0.312773
622.894387	0.312924
623.102430	0.313414
623.310454	0.313351
623.518461	0.313114
623.726449	0.313670
623.934418	0.314025
624.142370	0.314055
624.350303	0.314416
624.558218	0.314587
624.766115	0.315015
624.973994	0.315193
625.181855	0.315381
625.389697	0.316176
625.597521	0.316199
625.805327	0.316150
626.013114	0.316388
626.220883	0.316345
626.428634	0.316625
626.636367	0.316578
626.844082	0.316719
627.051778	0.316901
627.259457	0.316658
627.467117	0.316878
627.674758	0.317114
627.882382	0.317264
628.089987	0.317626
628.297574	0.317772
628.505143	0.317824
628.712694	0.318087
628.920226	0.318100
629.127740	0.318328
629.335236	0.318647
629.542714	0.318708
629.750174	0.319417
629.957615	0.319353
630.165038	0.319534
630.372443	0.319772
630.579829	0.319634
630.787198	0.319640
630.994548	0.319963
631.201880	0.319799
631.409194	0.320096
631.616489	0.320190
631.823766	0.320487
632.031025	0.320429
632.238266	0.320668
632.445489	0.321400
632.652693	0.321799
632.859879	0.321639
633.067047	0.322001
633.274197	0.322239
633.481329	0.322113
633.688442	0.322193
633.895537	0.322554
634.102614	0.322503
634.309672	0.322376
634.516713	0.322710
634.723735	0.323101
634.930739	0.323072
635.137724	0.323170
635.344692	0.323380
635.551641	0.323815
635.758572	0.324026
635.965485	0.324202
636.172379	0.324382
636.379256	0.324199
636.586114	0.324513
636.792954	0.324695
636.999775	0.324855
637.206579	0.324883
637.413364	0.324619
637.620131	0.324876
637.826880	0.325172
638.033610	0.325323
638.240323	0.325845
638.447017	0.326080
638.653692	0.326345
638.860350	0.326377
639.066990	0.326723
639.273611	0.327394
639.480214	0.327630
639.686798	0.327810
639.893365	0.328031
640.099913	0.328352
640.306443	0.328279
640.512955	0.328544
640.719449	0.329021
640.925924	0.329226
641.132381	0.329132
641.338820	0.329082
641.545241	0.329449
641.751644	0.329449
641.958028	0.329450
642.164394	0.329689
642.370742	0.329558
642.577071	0.329660
642.783383	0.330010
642.989676	0.330223
643.195951	0.330649
643.402207	0.331077
643.608446	0.331339
643.814666	0.331507
644.020868	0.331764
644.227052	0.332388
644.433218	0.332579
644.639365	0.332736
644.845494	0.332817
645.051605	0.333219
645.257698	0.333145
645.463772	0.333190
645.669828	0.333441
645.875866	0.333545
646.081886	0.333741
646.287888	0.333752
646.493871	0.334030
646.699836	0.334479
646.905783	0.334417
647.111712	0.334595
647.317622	0.335040
647.523514	0.335140
647.729388	0.335733
647.935244	0.335859
648.141082	0.336263
648.346901	0.336427
648.552702	0.336558
648.758485	0.336595
648.964250	0.336793
649.169996	0.337056
649.375724	0.337358
649.581434	0.337257
649.787126	0.337776
649.992800	0.338018
650.198455	0.338236
650.404092	0.338486
650.609711	0.338964
650.815311	0.339215
651.020894	0.339359
651.226458	0.339458
651.432004	0.339697
651.637532	0.339410
651.843041	0.339802
652.048532	0.339661
652.254006	0.340053
652.459460	0.340267
652.664897	0.340540
652.870315	0.340658
653.075716	0.340833
653.281097	0.341056
653.486461	0.341393
653.691807	0.341537
653.897134	0.342009
654.102443	0.342140
654.307734	0.342249
654.513006	0.342386
654.718261	0.342475
654.923497	0.342569
655.128715	0.342837
655.333915	0.343285
655.539096	0.343602
655.744259	0.343883
655.949404	0.343730
656.154531	0.344029
656.359640	0.344093
656.564730	0.344727
656.769802	0.345281
656.974856	0.345532
657.179892	0.345374
657.384909	0.345265
657.589908	0.345254
657.794889	0.345975
657.999852	0.346301
658.204797	0.346810
658.409723	0.346833
658.614631	0.346949
658.819521	0.347517
659.024393	0.348125
659.229246	0.348662
659.434081	0.349005
659.638898	0.348901
659.843697	0.349037
660.048478	0.349307
660.253240	0.349525
660.457984	0.349939
660.662710	0.350004
660.867417	0.350211
661.072107	0.350449
661.276778	0.350670
661.481431	0.351121
661.686066	0.351383
661.890682	0.351619
662.095281	0.352001
662.299861	0.352244
662.504422	0.352406
662.708966	0.352518
662.913491	0.352633
663.117999	0.352898
663.322488	0.352897
663.526958	0.352997
663.731411	0.353013
663.935845	0.353001
664.140261	0.353147
664.344659	0.353229
664.549038	0.353634
664.753400	0.353907
664.957743	0.354317
665.162068	0.354623
665.366375	0.355209
665.570663	0.355358
665.774933	0.355965
665.979185	0.356188
666.183419	0.356515
666.387635	0.356960
666.591832	0.357166
666.796011	0.357200
667.000172	0.357555
667.204315	0.357555
667.408439	0.357935
667.612545	0.358310
667.816634	0.358617
668.020703	0.358940
668.224755	0.358919
668.428788	0.359279
668.632803	0.359528
668.836800	0.359921
669.040779	0.360337
669.244739	0.360764
669.448681	0.360776
669.652605	0.360861
669.856511	0.360870
670.060399	0.361021
670.264268	0.361093
670.468119	0.361349
670.671952	0.361442
670.875767	0.361344
671.079563	0.361026
671.283341	0.361283
671.487101	0.361590
671.690843	0.362031
671.894567	0.362084
672.098272	0.362529
672.301959	0.362796
672.505628	0.363212
672.709278	0.363571
672.912911	0.364362
673.116525	0.364540
673.320121	0.364967
673.523699	0.365011
673.727258	0.365679
673.930799	0.365931
674.134322	0.366233
674.337827	0.366426
674.541314	0.366659
674.744782	0.366772
674.948232	0.366972
675.151664	0.367235
675.355078	0.367639
675.558474	0.367897
675.761851	0.368324
675.965210	0.368362
676.168551	0.368391
676.371873	0.368730
676.575178	0.369031
676.778464	0.369187
676.981732	0.369196
677.184981	0.369578
677.388213	0.369443
677.591426	0.369335
677.794621	0.369846
677.997798	0.370215
678.200956	0.370422
678.404097	0.370929
678.607219	0.371407
678.810323	0.371887
679.013408	0.371737
679.216476	0.372209
679.419525	0.372259
679.622556	0.372406
679.825569	0.372697
680.028563	0.372914
680.231540	0.372940
680.434498	0.373200
680.637438	0.373437
680.840359	0.373611
681.043263	0.373850
681.246148	0.374359
681.449015	0.374574
681.651864	0.374467
681.854694	0.374789
682.057506	0.375168
682.260301	0.375283
682.463076	0.375371
682.665834	0.375694
682.868573	0.376024
683.071295	0.376223
683.273998	0.376504
683.476682	0.377226
683.679349	0.377450
683.881997	0.377809
684.084627	0.378021
684.287239	0.378184
684.489833	0.378629
684.692408	0.378648
684.894965	0.379003
685.097504	0.379311
685.300025	0.379490
685.502527	0.379664
685.705012	0.379537
685.907478	0.379909
686.109925	0.380104
686.312355	0.380325
686.514766	0.380821
686.717159	0.380738
686.919534	0.381174
687.121891	0.381290
687.324230	0.381298
687.526550	0.381582
687.728852	0.381780
687.931136	0.381937
688.133401	0.382162
688.335649	0.382268
688.537878	0.382647
688.740089	0.382662
688.942281	0.382785
689.144456	0.383252
689.346612	0.383279
689.548750	0.383188
689.750870	0.383313
689.952971	0.383472
690.155055	0.383393
690.357120	0.383354
690.559167	0.383291
690.761195	0.383601
690.963206	0.383710
691.165198	0.384212
691.367172	0.384642
691.569128	0.385233
691.771065	0.385584
691.972984	0.386168
692.174885	0.386563
692.376768	0.387025
692.578633	0.387212
692.780479	0.387458
692.982308	0.387338
693.184118	0.387720
693.385909	0.387837
693.587683	0.387872
