sample name	sample
index	724
start time	 03-25-2021  11:53:36 AM
880	0.262210
Peak Time (s)	92.037
Peak Height 	0.2622
calc peak height	90,93
Baseline Time (s)	8.536
Baseline Value 	-0.002568
subtract baseline	10,4
Abs	0.167115
Peak Time (s)	91.537
Peak Height 	0.1671
calc peak height	90,93
Baseline Time (s)	10.537
Baseline Value 	0.004392
subtract baseline	10,3
PK_550	0.094039
Peak Time (s)	91.039
Peak Height 	0.09404
calc peak height	90,93
Baseline Time (s)	10.537
Baseline Value 	0.001093
subtract baseline	10,2
PK_880	0.157068
Peak Time (s)	90.536
Peak Height 	0.1571
calc peak height	90,93
Baseline Time (s)	11.537
Baseline Value 	0.003796
subtract baseline	10,1


Time (s)	A880-A510	A880-A775	A880-A975	A880	I510	I775	I975	I880	
0.036000	-0.001950	-0.000149	-0.006171	0.001197	7177.524767	44130.876532	3930.769125	23464.800422
0.536500	-0.005238	-0.000850	-0.001950	0.005702	7100.758312	43640.110854	3930.049125	23252.260933
1.037000	-0.004527	-0.001241	-0.006762	0.002198	7142.107652	43932.828216	3926.729243	23417.387789
1.537000	-0.002650	-0.001232	-0.005512	-0.000113	7183.591779	44152.408809	3935.786921	23527.044220
2.040000	-0.002478	-0.000524	-0.000522	-0.000240	7186.563105	44231.687089	3948.931287	23533.064377
2.535000	-0.004408	-0.001011	-0.006487	0.004146	7124.110080	43771.014407	3922.499957	23325.415065
3.035500	-0.001936	-0.001590	-0.001426	-0.003347	7223.065328	44426.188352	3954.639786	23681.463934
3.535500	-0.002081	0.000591	-0.000510	0.000225	7185.886308	44293.520858	3947.762076	23510.956770
4.036000	-0.001340	0.000160	-0.004419	0.000015	7195.376140	44272.513841	3938.255100	23520.960082
4.536500	-0.000605	-0.000036	-0.004195	-0.000072	7203.591678	44262.170120	3939.052253	23525.103780
5.036500	-0.000000	-0.000496	-0.002579	-0.000339	7212.306143	44243.793853	3943.884640	23537.778943
5.537000	-0.001106	-0.000562	0.001003	-0.000227	7200.121970	44226.828588	3952.847351	23532.463005
6.037000	-0.000127	-0.001274	-0.003283	-0.001080	7218.460757	44240.259325	3943.978025	23573.073119
6.538000	-0.001661	-0.000737	-0.000957	-0.000721	7199.513999	44257.173209	3949.053384	23555.987920
7.035000	-0.000003	-0.000288	0.002547	-0.000195	7210.833920	44249.869043	3956.773261	23530.932019
7.535000	-0.000526	-0.000708	-0.000607	-0.000291	7206.564585	44219.120214	3948.844960	23535.520341
8.035500	-0.000044	-0.000348	0.000438	-0.000341	7211.892150	44257.995999	3951.675885	23537.869547
8.536000	0.000200	-0.000105	0.002832	0.000000	7210.923695	44248.723509	3957.010449	23521.669053
9.036000	-0.001476	0.000129	0.000381	-0.000162	7195.784352	44286.473170	3951.067688	23529.390119
9.536500	-0.001716	-0.000950	-0.005575	-0.000669	7198.441983	44231.983758	3937.046969	23553.499350
10.036500	-0.001569	-0.000413	0.001548	-0.000441	7197.635786	44261.386698	3954.817105	23542.653691
10.537000	0.000081	0.000000	0.000000	0.000175	7207.981471	44242.128405	3949.210942	23513.370590
11.037000	0.000113	0.000290	-0.000918	0.000114	7208.907089	44275.474769	3946.998284	23516.254751
11.537500	0.000000	0.000047	-0.006315	0.000245	7206.461074	44239.886134	3932.824896	23509.999064
12.035000	-0.000878	0.000072	0.001412	-0.000035	7200.484480	44268.942233	3953.411067	23523.344696
12.535000	-0.001625	0.000087	-0.001059	0.000077	7191.912706	44259.674137	3946.730351	23518.025146
13.035500	0.002293	-0.000181	-0.000386	-0.000013	7232.066461	44242.734983	3948.696956	23522.284983
13.536000	-0.000032	0.000309	0.003101	0.000762	7200.983653	44215.682951	3955.728454	23485.484014
14.036500	-0.003294	-0.000288	-0.003682	0.003218	7144.204596	43926.536026	3931.960489	23369.180996
14.537000	-0.002160	0.000342	0.001476	0.002656	7160.973825	44039.227942	3946.614727	23395.758703
15.045000	0.000874	0.000126	-0.000525	0.000374	7213.921800	44235.065592	3947.337809	23503.868811
15.537000	-0.000445	-0.000690	0.001486	-0.000567	7210.141757	44246.996647	3954.982615	23548.642443
16.040000	-0.000832	0.000326	0.000502	0.000444	7196.156101	44247.501271	3949.812287	23500.560906
16.535000	-0.004452	-0.000318	-0.004154	0.005468	7110.732594	43711.997021	3925.055582	23263.265721
17.035500	0.001949	0.000649	-0.001178	-0.002181	7250.459943	44528.796303	3952.258089	23625.644667
17.535500	-0.001042	-0.000627	-0.003908	0.001469	7183.850828	44059.884512	3935.845672	23451.937404
18.036000	-0.002677	-0.000184	-0.003082	0.002081	7161.547951	44043.849155	3936.392192	23422.952644
18.536000	0.000934	-0.000237	0.003291	0.002598	7192.290632	43989.954291	3951.456650	23398.495709
19.036000	-0.000372	-0.000118	0.003728	0.001775	7187.472270	44079.020379	3954.722584	23437.402417
19.536500	-0.000980	0.000053	-0.001436	0.002002	7179.167351	44073.783671	3940.809383	23426.697413
20.037000	0.000595	0.000532	-0.004636	0.002253	7192.354072	44095.359492	3931.990476	23414.819956
20.539500	-0.001297	-0.000086	-0.000442	0.002426	7171.806875	44020.451275	3942.270109	23406.608364
21.034500	-0.001364	0.000815	0.003621	0.002463	7170.776561	44102.276277	3952.660719	23404.888116
21.534500	-0.000357	0.000832	0.000327	0.002368	7181.713961	44112.806510	3944.395390	23409.345309
22.035500	-0.000828	0.000459	0.000748	0.002463	7176.088463	44068.540720	3945.236196	23404.859598
22.535000	-0.001303	0.000192	-0.001512	0.002537	7170.644245	44036.291477	3939.240692	23401.386790
23.036000	0.000286	-0.000197	-0.003529	0.001979	7191.994576	44052.196023	3935.507284	23427.748672
23.536000	0.000252	0.000443	0.000156	0.002792	7183.565247	44035.836017	3942.867186	23389.304033
24.036000	-0.000906	-0.000449	-0.003364	0.002334	7176.596234	43994.809075	3935.023198	23410.949662
24.537000	0.002954	0.001518	0.001077	0.003875	7199.711484	44035.145814	3942.449081	23338.199843
25.039500	-0.000998	-0.000077	0.002882	0.002550	7173.551092	44009.578743	3950.521099	23400.774710
25.537500	-0.000434	0.000412	0.000203	0.002612	7178.531711	44049.974260	3943.451266	23397.833725
26.035000	-0.000120	0.000476	-0.002799	0.003128	7176.520985	44007.205917	3934.438670	23373.423564
26.535000	0.000558	0.000470	-0.000155	0.003421	7180.340851	43978.928718	3940.452284	23359.595982
27.035500	0.000693	-0.000203	0.000657	0.000332	7212.529914	44207.899320	3950.502543	23505.884969
27.536000	0.001474	0.000026	0.001194	0.000439	7219.286817	44219.410273	3951.615929	23500.798032
28.036000	0.000516	0.000066	-0.000029	0.001606	7198.012130	44112.496145	3945.441161	23445.418212
28.536000	0.000902	0.001301	-0.000529	0.004948	7168.606097	43913.274407	3935.589772	23287.706472
29.037000	0.002136	0.001195	0.001448	0.002167	7208.606389	44166.354075	3947.804302	23418.868207
29.537000	0.001719	0.000816	0.005983	0.001856	7207.540451	44159.920582	3960.384727	23433.584732
30.037500	0.001223	0.000365	0.001337	0.001850	7202.644321	44117.687551	3948.336086	23433.861986
30.537000	0.001326	0.001759	-0.005084	0.006476	7157.657283	43812.447901	3920.164307	23215.966194
31.035000	-0.000086	0.000944	-0.000585	0.004361	7164.626691	43934.920174	3936.945546	23315.303551
31.535000	0.002527	0.001121	0.004018	0.002959	7204.595114	44084.287336	3952.404595	23381.421164
32.036000	0.000739	-0.000039	0.001990	0.002084	7195.474166	44057.260079	3949.419728	23422.807865
32.535500	0.000067	0.000603	-0.004376	0.008058	7129.645704	43555.579735	3917.966229	23141.968898
33.036500	0.001901	0.001273	0.000415	0.002785	7200.068016	44115.067165	3943.549471	23389.625477
33.536000	0.001384	0.000959	0.005827	0.003698	7185.811059	43998.959007	3955.180367	23346.550525
34.036000	0.000355	0.001301	0.000283	0.005280	7159.890594	43881.937548	3936.816615	23272.105486
34.537000	-0.001211	0.001080	-0.001206	0.005653	7140.746944	43826.059712	3932.067336	23254.584812
35.037000	-0.000079	0.000582	0.001848	0.004389	7164.416211	43898.205579	3943.111226	23314.007498
35.534500	0.000373	0.000581	0.002077	0.004873	7164.095945	43852.387171	3942.454038	23291.190707
36.035000	0.001048	0.000805	0.003189	0.005190	7167.644015	43843.688940	3944.500721	23276.321345
36.534500	0.000339	0.000658	-0.000773	0.004954	7162.958908	43852.072393	3934.949799	23287.404763
37.035500	0.000623	0.000920	-0.002773	0.005350	7161.851220	43839.465857	3928.851511	23268.793037
37.535500	0.001174	0.000521	0.004701	0.004736	7173.405189	43859.740721	3949.572620	23297.662859
38.036000	-0.000744	0.000953	0.007205	0.005501	7146.838759	43828.259868	3954.075399	23261.682395
38.536500	0.000396	0.002200	-0.003130	0.005892	7154.240985	43908.958708	3926.572890	23243.342752
39.040000	-0.000301	0.000862	-0.001727	0.004967	7156.497370	43870.106250	3932.485819	23286.814940
39.537000	0.001545	0.001063	-0.005479	0.005538	7169.123354	43835.211169	3921.534351	23259.980463
40.034500	0.001377	0.000779	0.007796	0.005288	7169.930639	43831.940479	3956.164083	23271.689289
40.535000	0.001118	0.000958	0.000730	0.005211	7168.140867	43856.167796	3938.136016	23275.343575
41.035500	0.000627	0.001376	0.002372	0.005730	7158.131851	43846.661935	3941.014571	23250.968851
41.535500	-0.000341	0.001009	0.002265	0.005327	7152.545138	43849.974447	3941.772356	23269.875488
42.035500	0.002194	0.001336	0.000324	0.005819	7172.777208	43834.467664	3935.542968	23246.794802
42.536000	0.000074	0.001271	0.002323	0.005604	7153.908416	43848.632970	3941.210671	23256.877468
43.036000	0.000057	0.001254	0.002981	0.005728	7152.504475	43835.224444	3942.581386	23251.029043
43.539500	0.003155	0.001162	0.003692	0.001550	7225.021606	44221.807269	3955.214554	23448.090123
44.040000	0.002796	0.001794	0.002470	0.003384	7203.032029	44107.729802	3947.300093	23361.342135
44.537500	0.002968	0.001044	-0.001205	0.003907	7199.523683	43987.277819	3936.521123	23336.678755
45.037500	0.004581	0.001458	0.000345	0.003642	7218.328194	44051.476651	3941.169495	23349.196963
45.534500	0.002475	0.002208	0.003572	0.004045	7193.226477	44084.360597	3948.440901	23330.202005
46.035500	0.004587	0.001827	0.007063	0.004246	7212.332626	44029.194295	3956.968603	23320.700134
46.536000	0.001901	0.001447	0.003799	0.005247	7175.544970	43898.850390	3945.925384	23273.640589
47.035500	-0.000747	0.000689	0.002400	0.006146	7140.455928	43742.849287	3940.018238	23231.446284
47.536000	0.000384	0.001142	0.004176	0.005864	7154.394843	43811.915537	3945.305843	23244.666239
48.037000	0.002463	0.001335	0.005450	0.003505	7198.489762	44052.770941	3954.701394	23355.626093
48.536500	0.003883	0.001800	0.000938	0.004750	7200.250185	43979.048268	3939.850094	23297.022321
49.037000	0.002444	0.001062	0.000724	0.003905	7194.313562	43989.216920	3941.466191	23336.800705
49.534500	0.003244	0.001461	0.004540	0.001432	7227.100615	44261.524559	3957.729469	23453.698566
50.037500	0.004660	0.001719	0.003186	0.003443	7221.114386	44095.064727	3948.997560	23358.566566
50.535000	0.000976	0.002125	0.002581	0.006792	7151.083686	43817.132414	3938.825358	23201.181351
51.035000	-0.057619	-0.013680	0.012655	0.196520	5282.798332	28406.709139	3562.042621	16004.244199
51.535500	-0.040233	-0.009135	-0.003436	0.036850	6501.798028	40107.779954	3850.173205	21841.428772
52.035500	-0.043028	-0.016157	-0.002915	-0.102044	7841.788993	53293.155213	4237.605310	28992.228830
52.536000	-0.008843	-0.014942	0.024582	-0.113740	8396.789342	54812.370687	4370.859769	29705.333756
53.036500	-0.009516	-0.007916	0.029762	-0.041236	7538.377074	47553.302803	4149.110696	25578.905630
53.537000	0.016922	0.003401	0.028240	-0.054598	7987.273069	50161.587587	4185.659696	26288.498376
54.037000	0.056201	0.012459	0.053895	-0.075842	8753.856023	53573.760940	4340.633628	27462.655405
54.537500	0.084424	0.025650	0.069037	-0.050535	8793.547759	52180.791241	4305.609460	26070.401792
55.035000	0.105507	0.038864	0.092334	-0.007624	8502.739443	48926.516342	4240.302793	23887.442299
55.535500	0.114316	0.048584	0.106732	0.037053	8055.518839	45370.325566	4145.100043	21832.575443
56.035500	0.114523	0.054622	0.114995	0.079357	7575.627292	41971.431099	4045.701747	20072.332632
56.535500	0.120105	0.059537	0.121825	0.114542	7264.973577	39343.885404	3968.654274	18733.442718
57.035500	0.133664	0.067581	0.130212	0.118251	7365.997112	39708.951094	3981.020112	18598.498584
57.539000	0.129268	0.068349	0.137507	0.164675	6868.496392	36040.244935	3881.562239	17003.689151
58.036000	0.134257	0.073277	0.143009	0.197295	6621.476514	33995.830424	3817.707141	15980.828326
58.537000	0.134421	0.074971	0.147588	0.221051	6422.645638	32457.812942	3774.897270	15282.790661
59.037500	0.133867	0.075278	0.141930	0.237241	6287.932357	31397.917010	3728.373976	14828.476897
59.534500	0.131782	0.075974	0.152838	0.244486	6215.095406	30972.027293	3736.011123	14630.588357
60.035000	0.129963	0.078220	0.149566	0.249246	6164.665631	30810.271932	3719.346197	14502.363094
60.535500	0.128774	0.075636	0.144075	0.250213	6148.313460	30583.369796	3706.172379	14476.502507
61.035500	0.126252	0.075155	0.145250	0.247570	6149.222229	30721.282401	3713.937476	14547.359050
61.535500	0.138462	0.081558	0.144058	0.241048	6294.155451	31560.403535	3724.894660	14724.086736
62.038500	0.143557	0.082104	0.141371	0.231714	6410.136900	32218.815449	3738.746030	14981.659964
62.536500	0.142054	0.080913	0.140945	0.232452	6391.871189	32089.092551	3736.305496	14961.102895
63.047500	0.143707	0.082791	0.146465	0.232278	6406.762600	32227.194471	3748.311532	14965.956825
63.537500	0.141711	0.082438	0.146741	0.233434	6381.112152	32125.540304	3746.445095	14933.778045
64.037500	0.143797	0.082127	0.147428	0.234405	6390.165016	32039.517176	3745.844403	14906.829233
64.537500	0.142806	0.083286	0.142681	0.237500	6357.112738	31910.111437	3729.394202	14821.330579
65.035500	0.144795	0.084494	0.143850	0.238042	6368.783360	31954.576191	3730.699178	14806.429452
65.535500	0.144442	0.084873	0.142835	0.239010	6358.130108	31915.232202	3726.579509	14779.840159
66.036000	0.143496	0.085135	0.150093	0.239452	6346.971011	31903.261962	3740.816226	14767.728945
66.535500	0.143527	0.084729	0.143069	0.239930	6343.383364	31844.381943	3725.158754	14754.630635
67.036500	0.143066	0.085457	0.148657	0.239542	6342.803556	31918.780426	3737.609577	14765.277707
67.537000	0.145422	0.086819	0.146820	0.241303	6347.577005	31892.168968	3730.093907	14717.127464
68.037000	0.146869	0.086652	0.150841	0.241104	6360.807700	31894.229103	3738.914174	14722.546340
68.537500	0.144990	0.086077	0.151813	0.242495	6334.560151	31763.543575	3738.037149	14684.652962
69.035000	0.148448	0.087246	0.150655	0.242182	6364.854795	31861.990205	3736.262668	14693.156304
69.535000	0.147656	0.088819	0.159300	0.243766	6345.732884	31861.268618	3751.174526	14650.109358
70.035000	0.147948	0.088657	0.151519	0.243877	6347.185641	31843.141504	3734.525007	14647.098229
70.535500	0.148384	0.087969	0.153583	0.244388	6346.580239	31763.414247	3737.777342	14633.234132
71.035500	0.148398	0.088523	0.151596	0.244083	6349.147503	31820.553653	3734.255577	14641.522453
71.536500	0.150614	0.089003	0.151441	0.244524	6363.440429	31823.094662	3733.012364	14629.575271
72.036500	0.152718	0.090360	0.146230	0.245774	6370.331179	31830.242784	3719.627195	14595.759503
72.536500	0.150180	0.090690	0.150990	0.247120	6339.080481	31762.728384	3726.673652	14559.465269
73.037000	0.151741	0.090860	0.151768	0.246379	6357.570062	31823.250230	3729.827713	14579.433782
73.537500	0.150153	0.090332	0.159558	0.246492	6343.905216	31780.682498	3745.934706	14576.393355
74.035000	0.150785	0.089950	0.151703	0.246392	6349.777608	31761.925314	3729.666111	14579.080426
74.534500	0.150279	0.090616	0.150369	0.247212	6339.139722	31751.744009	3725.199327	14557.001697
75.035500	0.151196	0.090489	0.156902	0.247454	6344.547576	31727.242564	3738.308232	14550.476907
75.536000	0.149633	0.091974	0.156459	0.248226	6325.868315	31774.552175	3735.762057	14529.729607
76.036000	0.153034	0.091674	0.153663	0.248943	6347.343155	31707.074157	3728.436410	14510.478727
76.536500	0.155230	0.092496	0.156846	0.249937	6357.011994	31695.663345	3732.994255	14483.865162
77.037000	0.153264	0.092777	0.156346	0.249745	6342.758990	31727.047628	3732.350443	14489.006785
77.537000	0.154137	0.092919	0.156742	0.250137	6346.616060	31710.435027	3732.359532	14478.517337
78.034500	0.153622	0.093124	0.157742	0.250968	6335.833753	31669.092079	3732.712431	14456.336845
78.535000	0.153624	0.091918	0.157490	0.250643	6338.452055	31610.841709	3732.864653	14465.005328
79.037500	0.153893	0.092177	0.154194	0.250323	6343.163101	31649.050309	3726.676130	14473.542062
79.535000	0.153726	0.092529	0.153797	0.251294	6334.062015	31608.223777	3723.846342	14447.641225
80.035500	0.154859	0.093044	0.159777	0.251857	6338.617771	31605.000713	3735.105851	14432.626060
80.538500	0.155924	0.093670	0.153841	0.252224	6344.213130	31622.124456	3722.017533	14422.865678
81.039000	0.155192	0.092515	0.155812	0.252283	6337.876595	31542.073191	3725.968455	14421.297604
81.536500	0.153221	0.092538	0.152365	0.252459	6320.724648	31531.955113	3718.496973	14416.608548
82.037000	0.155520	0.093159	0.155024	0.254208	6325.111130	31457.835245	3720.368144	14370.195522
82.537500	0.153438	0.091465	0.156983	0.252891	6319.012793	31433.120223	3727.133311	14405.125269
83.037000	0.153952	0.092791	0.154712	0.253146	6321.076980	31503.399647	3721.910240	14398.346810
83.534500	0.155078	0.092001	0.151334	0.252786	6332.937528	31475.154546	3715.712560	14407.911997
84.037500	0.154548	0.092752	0.157064	0.255872	6304.146630	31322.176189	3721.141938	14326.209704
84.535500	0.154218	0.092304	0.157015	0.254206	6314.756502	31401.862321	3724.476779	14370.238269
85.039000	0.156950	0.093392	0.160153	0.254787	6331.911216	31435.151116	3729.779859	14354.871277
85.539000	0.156494	0.093478	0.155570	0.255346	6323.803091	31404.111916	3719.148824	14340.089114
86.036500	0.157109	0.092600	0.158049	0.257284	6313.266640	31220.122576	3720.261987	14289.000451
86.536000	0.155181	0.093975	0.155125	0.256569	6303.640589	31356.596822	3715.728482	14307.835463
87.037000	0.154915	0.092726	0.159165	0.255679	6308.585238	31333.049107	3725.877549	14331.285598
87.534500	0.156606	0.093115	0.154363	0.256503	6315.477372	31304.655287	3714.304645	14309.563928
88.036500	0.153914	0.092632	0.153306	0.259137	6273.379543	31101.851596	3706.793572	14240.391628
88.534500	0.154762	0.092268	0.156503	0.256809	6298.419005	31229.485576	3718.060604	14301.508365
89.035000	0.158454	0.094110	0.159942	0.257382	6323.200753	31312.244990	3723.963843	14286.432916
89.535500	0.155681	0.092983	0.156199	0.256889	6305.066863	31270.862436	3717.273814	14299.399622
90.036000	0.155052	0.092715	0.151832	0.260138	6274.449927	31042.426853	3701.791096	14214.200034
90.536000	0.157068	0.093284	0.156900	0.257789	6308.932679	31231.868839	3716.866898	14275.744669
91.039000	0.156116	0.094039	0.158530	0.258505	6295.721205	31234.393442	3718.741529	14256.950832
91.536500	0.155514	0.092230	0.167115	0.257016	6302.731572	31213.531390	3739.674437	14296.047015
92.037000	0.154783	0.093198	0.155870	0.262210	6256.100369	30939.769335	3705.762226	14160.190237
92.537500	0.154534	0.092309	0.158006	0.258382	6284.197078	31129.934153	3717.918987	14260.181855
93.037500	0.155381	0.092820	0.154447	0.258351	6291.119598	31165.048449	3710.705350	14260.979652
93.535000	0.157066	0.093368	0.158526	0.259258	6297.267491	31141.733627	3717.185611	14237.204132
94.038000	0.156580	0.092652	0.157309	0.262746	6265.973364	30870.148785	3707.592687	14146.271088
94.535500	0.155612	0.093393	0.162687	0.260172	6278.591690	31084.116660	3723.870750	14213.322280
95.040000	0.156992	0.093371	0.162733	0.259617	6293.846253	31118.627034	3725.112776	14227.810073
95.536500	0.157334	0.092752	0.157460	0.259211	6299.770079	31104.885786	3715.100456	14238.451907
96.036500	0.154720	0.092483	0.156569	0.263933	6242.168866	30783.064626	3703.690980	14115.479173
