sample name	sample
index	759
start time	 03-31-2021  12:18:17 PM


Wavelength (nm)	Absorbance
494.344910	0.058477
494.563924	0.058477
494.782919	0.058477
495.001897	-0.008918
495.220856	-0.004796
495.439797	-0.011919
495.658719	-0.014849
495.877624	-0.019791
496.096510	-0.021360
496.315378	0.013344
496.534227	0.015929
496.753059	0.020937
496.971872	-0.014027
497.190667	0.048557
497.409444	0.060028
497.628203	0.060206
497.846943	0.060836
498.065665	0.062328
498.284369	0.061786
498.503055	0.062472
498.721723	0.062602
498.940372	0.063376
499.159003	0.063767
499.377616	0.063238
499.596210	0.064312
499.814787	0.063599
500.033345	0.063421
500.251885	0.063222
500.470406	0.062150
500.688910	0.062742
500.907395	0.062876
501.125862	0.063539
501.344311	0.064313
501.562742	0.063726
501.781154	0.064518
501.999548	0.064971
502.217924	0.065725
502.436282	0.066802
502.654621	0.066529
502.872942	0.066212
503.091245	0.065253
503.309530	0.064438
503.527797	0.064854
503.746045	0.065546
503.964275	0.065338
504.182487	0.064749
504.400681	0.065018
504.618856	0.065983
504.837013	0.066465
505.055152	0.066704
505.273273	0.067410
505.491376	0.067895
505.709460	0.067314
505.927526	0.067123
506.145574	0.067573
506.363604	0.067257
506.581615	0.066917
506.799608	0.067099
507.017583	0.066604
507.235540	0.066897
507.453478	0.065896
507.671399	0.066639
507.889301	0.066405
508.107185	0.065935
508.325050	0.066323
508.542898	0.065623
508.760727	0.065513
508.978538	0.066467
509.196330	0.066209
509.414105	0.066914
509.631861	0.066539
509.849599	0.067362
510.067319	0.068536
510.285021	0.068248
510.502704	0.068677
510.720369	0.068049
510.938016	0.067856
511.155645	0.067762
511.373255	0.067794
511.590848	0.068190
511.808422	0.068629
512.025977	0.067923
512.243515	0.068480
512.461034	0.067937
512.678536	0.068630
512.896018	0.068868
513.113483	0.068455
513.330930	0.068704
513.548358	0.068487
513.765768	0.067465
513.983160	0.067676
514.200533	0.067322
514.417889	0.068247
514.635226	0.068867
514.852545	0.068682
515.069845	0.068508
515.287128	0.068557
515.504392	0.068429
515.721638	0.069185
515.938866	0.069551
516.156075	0.069792
516.373267	0.069992
516.590440	0.069130
516.807594	0.069708
517.024731	0.070612
517.241850	0.070621
517.458950	0.070873
517.676032	0.070077
517.893095	0.069947
518.110141	0.069874
518.327168	0.069907
518.544177	0.070790
518.761168	0.070790
518.978141	0.070160
519.195095	0.069817
519.412031	0.069646
519.628949	0.070001
519.845849	0.069691
520.062731	0.070578
520.279594	0.069870
520.496439	0.069913
520.713266	0.069712
520.930074	0.070432
521.146865	0.070527
521.363637	0.070325
521.580391	0.071138
521.797127	0.071203
522.013844	0.070850
522.230543	0.071495
522.447224	0.070959
522.663887	0.070788
522.880532	0.070041
523.097158	0.070437
523.313766	0.070795
523.530356	0.070161
523.746928	0.070775
523.963481	0.070808
524.180017	0.071511
524.396534	0.072568
524.613032	0.072892
524.829513	0.073461
525.045975	0.073256
525.262420	0.073108
525.478845	0.073502
525.695253	0.073736
525.911643	0.074019
526.128014	0.073246
526.344367	0.072575
526.560702	0.072735
526.777018	0.073389
526.993316	0.074013
527.209597	0.074632
527.425858	0.074488
527.642102	0.074131
527.858328	0.074103
528.074535	0.074924
528.290724	0.074963
528.506894	0.075423
528.723047	0.075470
528.939181	0.075100
529.155297	0.074905
529.371395	0.075424
529.587475	0.076313
529.803536	0.076610
530.019579	0.076352
530.235604	0.076638
530.451611	0.076451
530.667600	0.076369
530.883570	0.077547
531.099522	0.077584
531.315456	0.077468
531.531372	0.077386
531.747269	0.077085
531.963148	0.077496
532.179009	0.077580
532.394852	0.077407
532.610676	0.077418
532.826482	0.077004
533.042271	0.078078
533.258040	0.078746
533.473792	0.078459
533.689525	0.079491
533.905240	0.079079
534.120937	0.079970
534.336616	0.080259
534.552277	0.080965
534.767919	0.081367
534.983543	0.081477
535.199149	0.081325
535.414736	0.082079
535.630306	0.081543
535.845857	0.081940
536.061390	0.081801
536.276904	0.082302
536.492401	0.081870
536.707879	0.081448
536.923339	0.081493
537.138781	0.081728
537.354204	0.081374
537.569610	0.081658
537.784997	0.081883
538.000366	0.082013
538.215716	0.082045
538.431049	0.082609
538.646363	0.083211
538.861659	0.083347
539.076937	0.083304
539.292196	0.083740
539.507438	0.084312
539.722661	0.084648
539.937866	0.084957
540.153052	0.085065
540.368221	0.085156
540.583371	0.084821
540.798503	0.084453
541.013617	0.084922
541.228712	0.084823
541.443789	0.084487
541.658848	0.084406
541.873889	0.084353
542.088912	0.084644
542.303916	0.084738
542.518902	0.085356
542.733870	0.085781
542.948820	0.085793
543.163752	0.086051
543.378665	0.086428
543.593560	0.087025
543.808437	0.087229
544.023295	0.087463
544.238136	0.087619
544.452958	0.087229
544.667762	0.087454
544.882548	0.088097
545.097315	0.088265
545.312064	0.088318
545.526795	0.088293
545.741508	0.088276
545.956203	0.088291
546.170879	0.088294
546.385537	0.088711
546.600177	0.088591
546.814799	0.087669
547.029402	0.087673
547.243988	0.087893
547.458555	0.087922
547.673103	0.088216
547.887634	0.088332
548.102146	0.088561
548.316640	0.088669
548.531116	0.088725
548.745574	0.089635
548.960013	0.090435
549.174435	0.090838
549.388838	0.090885
549.603222	0.091036
549.817589	0.091273
550.031937	0.091721
550.246267	0.092022
550.460579	0.092557
550.674873	0.092087
550.889148	0.091602
551.103405	0.091655
551.317644	0.091830
551.531865	0.092019
551.746068	0.092347
551.960252	0.092602
552.174418	0.092971
552.388566	0.092959
552.602696	0.093251
552.816807	0.093776
553.030900	0.093698
553.244975	0.093854
553.459032	0.093404
553.673070	0.093345
553.887091	0.092879
554.101093	0.092565
554.315077	0.092756
554.529042	0.093177
554.742990	0.092922
554.956919	0.093072
555.170830	0.093189
555.384722	0.093562
555.598597	0.093763
555.812453	0.094325
556.026291	0.094610
556.240111	0.094792
556.453913	0.094832
556.667696	0.095126
556.881461	0.095058
557.095208	0.095219
557.308937	0.095488
557.522647	0.095645
557.736339	0.095486
557.950013	0.095617
558.163669	0.095721
558.377307	0.095811
558.590926	0.095966
558.804527	0.096261
559.018110	0.096272
559.231675	0.096624
559.445221	0.097143
559.658749	0.097507
559.872259	0.097808
560.085751	0.097912
560.299225	0.097825
560.512680	0.097868
560.726117	0.097670
560.939536	0.097918
561.152937	0.097845
561.366319	0.097307
561.579683	0.097326
561.793029	0.097327
562.006357	0.097755
562.219667	0.097974
562.432958	0.097972
562.646231	0.098392
562.859486	0.099019
563.072723	0.099064
563.285941	0.099525
563.499141	0.099847
563.712323	0.100235
563.925487	0.099952
564.138632	0.100135
564.351760	0.100221
564.564869	0.100498
564.777960	0.100275
564.991032	0.100322
565.204087	0.100314
565.417123	0.100516
565.630141	0.100037
565.843140	0.099964
566.056122	0.100037
566.269085	0.100373
566.482030	0.100067
566.694957	0.099817
566.907866	0.100236
567.120756	0.100391
567.333628	0.100090
567.546482	0.100364
567.759318	0.100848
567.972135	0.101252
568.184935	0.101257
568.397716	0.101705
568.610478	0.102023
568.823223	0.101872
569.035949	0.101894
569.248657	0.102032
569.461347	0.102388
569.674019	0.102320
569.886672	0.102185
570.099308	0.102576
570.311925	0.102447
570.524523	0.102617
570.737104	0.102975
570.949666	0.102966
571.162210	0.103116
571.374736	0.103100
571.587244	0.103000
571.799733	0.103527
572.012205	0.103470
572.224658	0.103596
572.437092	0.103679
572.649509	0.103819
572.861907	0.104110
573.074287	0.104082
573.286649	0.103980
573.498993	0.104244
573.711318	0.104198
573.923625	0.104256
574.135914	0.104513
574.348185	0.104334
574.560438	0.104620
574.772672	0.104544
574.984888	0.105250
575.197086	0.105306
575.409266	0.105400
575.621427	0.105161
575.833570	0.105120
576.045695	0.104621
576.257802	0.104970
576.469890	0.104858
576.681961	0.105327
576.894013	0.105181
577.106046	0.105777
577.318062	0.106041
577.530059	0.106455
577.742039	0.106902
577.954000	0.107978
578.165942	0.108274
578.377867	0.108199
578.589773	0.108273
578.801661	0.108305
579.013531	0.108561
579.225382	0.108523
579.437216	0.108193
579.649031	0.108327
579.860828	0.108333
580.072606	0.108384
580.284367	0.108630
580.496109	0.108516
580.707833	0.108478
580.919539	0.108238
581.131227	0.108374
581.342896	0.108967
581.554547	0.108843
581.766180	0.108524
581.977795	0.108367
582.189391	0.108595
582.400969	0.108554
582.612529	0.108481
582.824071	0.108666
583.035595	0.108660
583.247100	0.108329
583.458587	0.108355
583.670056	0.108352
583.881506	0.108801
584.092939	0.108773
584.304353	0.108928
584.515749	0.109108
584.727127	0.109309
584.938486	0.109619
585.149828	0.110181
585.361151	0.110429
585.572456	0.110651
585.783742	0.110571
585.995011	0.110982
586.206261	0.111420
586.417493	0.111773
586.628706	0.111647
586.839902	0.111774
587.051079	0.111958
587.262238	0.112205
587.473379	0.112431
587.684502	0.112609
587.895606	0.112461
588.106692	0.112689
588.317760	0.112914
588.528810	0.113027
588.739841	0.113169
588.950855	0.112861
589.161850	0.112629
589.372827	0.112538
589.583785	0.112664
589.794726	0.112972
590.005648	0.113032
590.216552	0.113177
590.427437	0.113368
590.638305	0.113372
590.849154	0.113835
591.059985	0.113965
591.270798	0.114245
591.481592	0.114255
591.692369	0.113849
591.903127	0.113794
592.113867	0.113447
592.324588	0.113627
592.535292	0.114221
592.745977	0.114080
592.956644	0.114276
593.167293	0.114626
593.377923	0.114847
593.588536	0.115182
593.799130	0.115236
594.009706	0.115773
594.220263	0.115659
594.430803	0.115336
594.641324	0.115606
594.851827	0.115706
595.062312	0.115509
595.272778	0.115513
595.483227	0.115594
595.693657	0.115654
595.904069	0.115772
596.114462	0.115934
596.324838	0.116152
596.535195	0.116336
596.745534	0.116431
596.955855	0.116859
597.166157	0.116902
597.376441	0.116749
597.586707	0.117071
597.796955	0.117007
598.007185	0.117447
598.217396	0.117577
598.427589	0.117144
598.637764	0.117475
598.847921	0.117519
599.058060	0.117480
599.268180	0.117851
599.478282	0.117732
599.688366	0.117833
599.898431	0.117621
600.108479	0.117746
600.318508	0.118134
600.528519	0.117875
600.738511	0.117700
600.948486	0.117950
601.158442	0.118299
601.368380	0.118521
601.578300	0.118627
601.788202	0.118608
601.998085	0.118481
602.207950	0.118834
602.417797	0.119224
602.627626	0.119319
602.837436	0.119605
603.047228	0.119466
603.257002	0.119585
603.466758	0.119879
603.676496	0.120288
603.886215	0.120698
604.095916	0.120570
604.305599	0.120846
604.515264	0.121052
604.724910	0.121060
604.934538	0.121355
605.144148	0.121410
605.353740	0.121174
605.563314	0.121326
605.772869	0.121218
605.982406	0.121445
606.191925	0.121269
606.401425	0.121413
606.610908	0.121520
606.820372	0.121289
607.029818	0.121383
607.239246	0.121438
607.448655	0.121576
607.658047	0.121489
607.867420	0.121460
608.076775	0.121657
608.286111	0.121761
608.495430	0.121774
608.704730	0.122054
608.914012	0.122292
609.123275	0.122609
609.332521	0.122360
609.541748	0.122614
609.750957	0.122616
609.960148	0.122700
610.169321	0.122815
610.378475	0.123093
610.587611	0.122988
610.796729	0.122963
611.005829	0.122881
611.214910	0.123170
611.423974	0.123189
611.633019	0.123313
611.842045	0.123278
612.051054	0.123295
612.260044	0.123182
612.469017	0.123294
612.677970	0.123424
612.886906	0.123547
613.095824	0.123460
613.304723	0.123789
613.513604	0.124010
613.722467	0.123979
613.931311	0.123961
614.140138	0.123940
614.348946	0.124004
614.557736	0.124218
614.766507	0.124261
614.975261	0.124360
615.183996	0.124179
615.392713	0.124295
615.601412	0.124444
615.810092	0.124785
616.018754	0.125271
616.227399	0.125554
616.436024	0.125282
616.644632	0.125783
616.853222	0.125984
617.061793	0.126210
617.270346	0.126478
617.478880	0.126786
617.687397	0.126683
617.895895	0.126583
618.104375	0.126824
618.312837	0.127229
618.521281	0.127244
618.729706	0.127246
618.938113	0.127247
619.146502	0.127292
619.354873	0.127433
619.563226	0.127472
619.771560	0.127670
619.979876	0.127720
620.188174	0.127769
620.396453	0.127776
620.604715	0.128049
620.812958	0.128061
621.021183	0.127937
621.229390	0.127840
621.437578	0.127969
621.645748	0.127944
621.853900	0.127897
622.062034	0.127935
622.270150	0.128002
622.478247	0.128094
622.686326	0.128393
622.894387	0.128374
623.102430	0.128512
623.310454	0.128790
623.518461	0.128865
623.726449	0.128958
623.934418	0.129086
624.142370	0.129111
624.350303	0.129133
624.558218	0.129165
624.766115	0.129588
624.973994	0.129886
625.181855	0.129970
625.389697	0.130282
625.597521	0.130333
625.805327	0.130456
626.013114	0.130641
626.220883	0.130676
626.428634	0.131029
626.636367	0.131052
626.844082	0.131033
627.051778	0.130968
627.259457	0.130726
627.467117	0.130826
627.674758	0.130960
627.882382	0.131179
628.089987	0.131311
628.297574	0.131235
628.505143	0.130971
628.712694	0.131161
628.920226	0.131247
629.127740	0.131371
629.335236	0.131608
629.542714	0.131614
629.750174	0.131556
629.957615	0.131524
630.165038	0.131275
630.372443	0.131695
630.579829	0.131818
630.787198	0.132029
630.994548	0.132308
631.201880	0.132236
631.409194	0.132297
631.616489	0.132315
631.823766	0.132514
632.031025	0.132965
632.238266	0.133210
632.445489	0.133255
632.652693	0.133313
632.859879	0.133410
633.067047	0.133501
633.274197	0.133520
633.481329	0.133590
633.688442	0.133678
633.895537	0.133992
634.102614	0.133835
634.309672	0.133751
634.516713	0.133798
634.723735	0.133929
634.930739	0.134179
635.137724	0.134184
635.344692	0.134369
635.551641	0.134430
635.758572	0.134339
635.965485	0.134585
636.172379	0.134638
636.379256	0.134863
636.586114	0.134812
636.792954	0.134842
636.999775	0.135043
637.206579	0.135296
637.413364	0.135494
637.620131	0.135557
637.826880	0.135649
638.033610	0.135834
638.240323	0.135973
638.447017	0.136097
638.653692	0.136215
638.860350	0.136357
639.066990	0.136141
639.273611	0.136551
639.480214	0.136670
639.686798	0.136771
639.893365	0.136845
640.099913	0.136787
640.306443	0.136986
640.512955	0.137048
640.719449	0.137259
640.925924	0.137660
641.132381	0.137523
641.338820	0.137578
641.545241	0.137783
641.751644	0.137700
641.958028	0.137873
642.164394	0.138181
642.370742	0.138502
642.577071	0.138813
642.783383	0.138996
642.989676	0.139147
643.195951	0.139289
643.402207	0.139363
643.608446	0.139565
643.814666	0.139770
644.020868	0.139696
644.227052	0.139778
644.433218	0.139502
644.639365	0.139517
644.845494	0.139668
645.051605	0.139665
645.257698	0.139837
645.463772	0.140089
645.669828	0.140187
645.875866	0.140255
646.081886	0.140216
646.287888	0.140396
646.493871	0.140330
646.699836	0.140433
646.905783	0.140723
647.111712	0.140683
647.317622	0.140697
647.523514	0.140819
647.729388	0.141010
647.935244	0.141308
648.141082	0.141533
648.346901	0.141669
648.552702	0.141680
648.758485	0.141858
648.964250	0.142209
649.169996	0.142313
649.375724	0.142557
649.581434	0.142618
649.787126	0.142603
649.992800	0.142510
650.198455	0.142660
650.404092	0.142694
650.609711	0.142619
650.815311	0.142490
651.020894	0.142751
651.226458	0.142833
651.432004	0.143000
651.637532	0.143353
651.843041	0.143640
652.048532	0.143939
652.254006	0.144240
652.459460	0.144398
652.664897	0.144602
652.870315	0.144936
653.075716	0.145043
653.281097	0.145077
653.486461	0.145107
653.691807	0.145271
653.897134	0.145078
654.102443	0.145076
654.307734	0.145158
654.513006	0.145226
654.718261	0.145029
654.923497	0.144994
655.128715	0.145130
655.333915	0.145014
655.539096	0.145167
655.744259	0.145261
655.949404	0.145319
656.154531	0.145500
656.359640	0.145545
656.564730	0.145635
656.769802	0.145725
656.974856	0.145911
657.179892	0.146246
657.384909	0.146394
657.589908	0.146893
657.794889	0.147208
657.999852	0.147453
658.204797	0.147697
658.409723	0.147827
658.614631	0.147940
658.819521	0.148030
659.024393	0.148113
659.229246	0.148113
659.434081	0.148006
659.638898	0.148100
659.843697	0.148234
660.048478	0.148705
660.253240	0.148927
660.457984	0.149164
660.662710	0.149228
660.867417	0.149256
661.072107	0.149430
661.276778	0.149845
661.481431	0.149972
661.686066	0.149841
661.890682	0.149769
662.095281	0.150121
662.299861	0.150360
662.504422	0.150556
662.708966	0.150776
662.913491	0.150970
663.117999	0.150733
663.322488	0.150908
663.526958	0.151469
663.731411	0.151454
663.935845	0.151418
664.140261	0.151481
664.344659	0.151501
664.549038	0.151595
664.753400	0.151698
664.957743	0.151935
665.162068	0.151940
665.366375	0.151895
665.570663	0.151949
665.774933	0.152233
665.979185	0.152420
666.183419	0.152627
666.387635	0.152878
666.591832	0.153060
666.796011	0.153380
667.000172	0.153430
667.204315	0.153613
667.408439	0.153885
667.612545	0.153902
667.816634	0.153771
668.020703	0.153895
668.224755	0.154064
668.428788	0.154143
668.632803	0.154178
668.836800	0.154379
669.040779	0.154272
669.244739	0.154166
669.448681	0.154059
669.652605	0.154441
669.856511	0.154762
670.060399	0.154658
670.264268	0.154528
670.468119	0.154572
670.671952	0.154525
670.875767	0.154934
671.079563	0.155114
671.283341	0.155386
671.487101	0.155609
671.690843	0.155583
671.894567	0.155677
672.098272	0.156035
672.301959	0.156089
672.505628	0.156390
672.709278	0.156314
672.912911	0.156278
673.116525	0.156463
673.320121	0.156361
673.523699	0.156373
673.727258	0.156478
673.930799	0.156546
674.134322	0.157040
674.337827	0.157076
674.541314	0.157214
674.744782	0.157478
674.948232	0.157689
675.151664	0.157850
675.355078	0.158048
675.558474	0.158220
675.761851	0.158224
675.965210	0.158169
676.168551	0.158449
676.371873	0.158459
676.575178	0.158696
676.778464	0.158778
676.981732	0.158836
677.184981	0.159003
677.388213	0.159186
677.591426	0.159414
677.794621	0.159355
677.997798	0.159344
678.200956	0.159473
678.404097	0.159740
678.607219	0.159663
678.810323	0.159956
679.013408	0.160126
679.216476	0.160164
679.419525	0.160530
679.622556	0.160556
679.825569	0.160639
680.028563	0.160792
680.231540	0.160716
680.434498	0.161072
680.637438	0.161105
680.840359	0.161328
681.043263	0.161426
681.246148	0.161293
681.449015	0.161383
681.651864	0.161665
681.854694	0.161864
682.057506	0.162242
682.260301	0.162370
682.463076	0.162449
682.665834	0.162202
682.868573	0.162331
683.071295	0.162550
683.273998	0.162782
683.476682	0.162813
683.679349	0.162638
683.881997	0.162556
684.084627	0.162536
684.287239	0.162616
684.489833	0.162764
684.692408	0.162830
684.894965	0.162832
685.097504	0.163064
685.300025	0.163111
685.502527	0.163613
685.705012	0.163419
685.907478	0.163557
686.109925	0.163739
686.312355	0.163934
686.514766	0.164241
686.717159	0.164327
686.919534	0.164390
687.121891	0.164770
687.324230	0.164748
687.526550	0.165058
687.728852	0.165238
687.931136	0.165199
688.133401	0.165338
688.335649	0.165507
688.537878	0.165660
688.740089	0.165821
688.942281	0.165847
689.144456	0.166015
689.346612	0.166264
689.548750	0.166267
689.750870	0.166593
689.952971	0.166856
690.155055	0.166685
690.357120	0.166900
690.559167	0.167012
690.761195	0.167146
690.963206	0.167131
691.165198	0.167362
691.367172	0.167474
691.569128	0.167751
691.771065	0.167783
691.972984	0.168108
692.174885	0.168411
692.376768	0.168562
692.578633	0.168460
692.780479	0.168884
692.982308	0.168911
693.184118	0.169069
693.385909	0.168862
