sample name	sample
index	730
start time	 03-25-2021  02:43:33 PM


Wavelength (nm)	Absorbance
494.344910	0.028735
494.563924	0.028735
494.782919	0.028735
495.001897	0.124990
495.220856	0.040668
495.439797	0.040424
495.658719	0.057284
495.877624	0.051162
496.096510	0.045666
496.315378	0.056750
496.534227	0.090586
496.753059	0.063231
496.971872	0.084534
497.190667	0.093917
497.409444	0.088314
497.628203	0.086921
497.846943	0.086586
498.065665	0.085750
498.284369	0.085230
498.503055	0.083866
498.721723	0.084604
498.940372	0.084305
499.159003	0.084030
499.377616	0.084146
499.596210	0.083430
499.814787	0.082763
500.033345	0.082009
500.251885	0.081253
500.470406	0.081301
500.688910	0.080215
500.907395	0.079611
501.125862	0.079235
501.344311	0.078839
501.562742	0.079043
501.781154	0.079337
501.999548	0.079141
502.217924	0.079521
502.436282	0.079146
502.654621	0.080012
502.872942	0.079846
503.091245	0.079916
503.309530	0.080372
503.527797	0.080805
503.746045	0.080952
503.964275	0.082024
504.182487	0.082343
504.400681	0.082221
504.618856	0.082537
504.837013	0.082786
505.055152	0.082776
505.273273	0.081871
505.491376	0.081850
505.709460	0.081510
505.927526	0.081784
506.145574	0.081634
506.363604	0.082508
506.581615	0.081741
506.799608	0.082082
507.017583	0.082365
507.235540	0.083553
507.453478	0.082741
507.671399	0.082901
507.889301	0.082864
508.107185	0.083575
508.325050	0.083252
508.542898	0.083931
508.760727	0.084106
508.978538	0.083469
509.196330	0.082981
509.414105	0.082969
509.631861	0.083508
509.849599	0.082756
510.067319	0.081834
510.285021	0.082165
510.502704	0.081835
510.720369	0.081710
510.938016	0.082302
511.155645	0.082580
511.373255	0.082074
511.590848	0.081927
511.808422	0.082583
512.025977	0.082426
512.243515	0.082040
512.461034	0.082170
512.678536	0.081864
512.896018	0.081755
513.113483	0.081280
513.330930	0.081899
513.548358	0.081298
513.765768	0.081132
513.983160	0.081920
514.200533	0.082775
514.417889	0.082311
514.635226	0.082787
514.852545	0.083195
515.069845	0.083300
515.287128	0.083328
515.504392	0.083284
515.721638	0.083630
515.938866	0.083354
516.156075	0.083405
516.373267	0.083562
516.590440	0.083609
516.807594	0.083429
517.024731	0.083223
517.241850	0.083847
517.458950	0.084888
517.676032	0.084160
517.893095	0.084457
518.110141	0.083533
518.327168	0.083410
518.544177	0.083297
518.761168	0.083116
518.978141	0.084390
519.195095	0.084368
519.412031	0.084705
519.628949	0.085487
519.845849	0.084953
520.062731	0.085839
520.279594	0.086508
520.496439	0.086650
520.713266	0.087201
520.930074	0.086731
521.146865	0.086870
521.363637	0.086411
521.580391	0.086476
521.797127	0.087199
522.013844	0.087369
522.230543	0.087068
522.447224	0.086878
522.663887	0.086419
522.880532	0.086355
523.097158	0.086394
523.313766	0.085720
523.530356	0.085275
523.746928	0.084863
523.963481	0.084742
524.180017	0.084415
524.396534	0.084833
524.613032	0.084957
524.829513	0.085067
525.045975	0.085195
525.262420	0.085934
525.478845	0.086221
525.695253	0.086875
525.911643	0.086595
526.128014	0.087582
526.344367	0.087777
526.560702	0.088477
526.777018	0.088514
526.993316	0.088447
527.209597	0.088355
527.425858	0.088330
527.642102	0.088309
527.858328	0.088767
528.074535	0.088770
528.290724	0.088618
528.506894	0.088273
528.723047	0.087868
528.939181	0.087598
529.155297	0.087671
529.371395	0.087930
529.587475	0.087668
529.803536	0.087317
530.019579	0.087197
530.235604	0.087252
530.451611	0.087230
530.667600	0.086934
530.883570	0.087168
531.099522	0.087140
531.315456	0.087163
531.531372	0.087608
531.747269	0.087961
531.963148	0.087985
532.179009	0.087805
532.394852	0.087525
532.610676	0.088576
532.826482	0.089096
533.042271	0.089594
533.258040	0.090083
533.473792	0.090208
533.689525	0.090511
533.905240	0.090615
534.120937	0.091308
534.336616	0.091772
534.552277	0.091467
534.767919	0.091340
534.983543	0.091070
535.199149	0.090822
535.414736	0.090559
535.630306	0.090464
535.845857	0.090373
536.061390	0.090302
536.276904	0.090853
536.492401	0.090909
536.707879	0.091200
536.923339	0.091494
537.138781	0.091139
537.354204	0.091624
537.569610	0.092155
537.784997	0.092016
538.000366	0.091685
538.215716	0.091718
538.431049	0.091923
538.646363	0.091762
538.861659	0.092104
539.076937	0.092450
539.292196	0.092385
539.507438	0.092435
539.722661	0.092671
539.937866	0.093110
540.153052	0.092860
540.368221	0.093010
540.583371	0.093013
540.798503	0.092625
541.013617	0.092872
541.228712	0.092612
541.443789	0.092412
541.658848	0.092371
541.873889	0.092343
542.088912	0.092415
542.303916	0.092661
542.518902	0.093142
542.733870	0.093610
542.948820	0.093572
543.163752	0.093779
543.378665	0.093640
543.593560	0.093847
543.808437	0.093813
544.023295	0.093726
544.238136	0.093504
544.452958	0.093216
544.667762	0.092902
544.882548	0.093033
545.097315	0.092812
545.312064	0.093033
545.526795	0.092975
545.741508	0.092750
545.956203	0.093185
546.170879	0.093594
546.385537	0.093670
546.600177	0.094123
546.814799	0.094300
547.029402	0.095214
547.243988	0.095254
547.458555	0.095621
547.673103	0.096013
547.887634	0.095898
548.102146	0.095898
548.316640	0.095836
548.531116	0.095967
548.745574	0.095580
548.960013	0.095226
549.174435	0.095350
549.388838	0.095487
549.603222	0.095771
549.817589	0.096013
550.031937	0.096147
550.246267	0.096497
550.460579	0.096383
550.674873	0.096953
550.889148	0.097174
551.103405	0.096972
551.317644	0.096961
551.531865	0.096625
551.746068	0.096287
551.960252	0.096196
552.174418	0.096093
552.388566	0.096340
552.602696	0.095922
552.816807	0.095799
553.030900	0.095983
553.244975	0.095914
553.459032	0.096234
553.673070	0.096499
553.887091	0.096577
554.101093	0.096673
554.315077	0.096487
554.529042	0.097066
554.742990	0.097316
554.956919	0.097345
555.170830	0.097591
555.384722	0.097377
555.598597	0.097640
555.812453	0.097909
556.026291	0.097696
556.240111	0.097929
556.453913	0.098093
556.667696	0.097889
556.881461	0.098065
557.095208	0.098031
557.308937	0.097963
557.522647	0.097713
557.736339	0.097320
557.950013	0.097573
558.163669	0.097663
558.377307	0.097424
558.590926	0.097547
558.804527	0.097744
559.018110	0.097948
559.231675	0.098213
559.445221	0.098013
559.658749	0.098263
559.872259	0.098252
560.085751	0.098182
560.299225	0.098183
560.512680	0.098157
560.726117	0.098030
560.939536	0.097947
561.152937	0.098106
561.366319	0.098456
561.579683	0.098473
561.793029	0.098633
562.006357	0.098305
562.219667	0.098490
562.432958	0.098651
562.646231	0.098832
562.859486	0.098854
563.072723	0.098963
563.285941	0.099117
563.499141	0.099309
563.712323	0.099095
563.925487	0.099477
564.138632	0.099509
564.351760	0.099051
564.564869	0.099271
564.777960	0.098982
564.991032	0.098708
565.204087	0.098830
565.417123	0.098571
565.630141	0.099072
565.843140	0.098978
566.056122	0.099149
566.269085	0.099811
566.482030	0.099624
566.694957	0.100122
566.907866	0.100429
567.120756	0.100338
567.333628	0.100545
567.546482	0.100089
567.759318	0.100295
567.972135	0.100303
568.184935	0.100087
568.397716	0.100025
568.610478	0.099790
568.823223	0.099915
569.035949	0.099970
569.248657	0.100066
569.461347	0.100693
569.674019	0.100626
569.886672	0.100564
570.099308	0.100724
570.311925	0.101038
570.524523	0.101266
570.737104	0.101504
570.949666	0.101695
571.162210	0.101538
571.374736	0.101528
571.587244	0.101083
571.799733	0.101110
572.012205	0.101217
572.224658	0.101085
572.437092	0.100878
572.649509	0.100736
572.861907	0.100773
573.074287	0.100950
573.286649	0.100759
573.498993	0.101387
573.711318	0.101595
573.923625	0.101611
574.135914	0.101510
574.348185	0.101816
574.560438	0.101671
574.772672	0.101746
574.984888	0.101785
575.197086	0.101919
575.409266	0.101863
575.621427	0.101975
575.833570	0.102407
576.045695	0.102540
576.257802	0.102756
576.469890	0.102977
576.681961	0.102803
576.894013	0.102897
577.106046	0.103113
577.318062	0.103138
577.530059	0.102748
577.742039	0.102515
577.954000	0.102375
578.165942	0.102262
578.377867	0.102053
578.589773	0.101922
578.801661	0.102229
579.013531	0.102103
579.225382	0.101802
579.437216	0.102154
579.649031	0.102445
579.860828	0.102805
580.072606	0.102473
580.284367	0.102621
580.496109	0.102838
580.707833	0.102517
580.919539	0.102555
581.131227	0.103022
581.342896	0.102786
581.554547	0.102521
581.766180	0.102566
581.977795	0.103098
582.189391	0.103467
582.400969	0.103613
582.612529	0.103700
582.824071	0.103765
583.035595	0.103763
583.247100	0.104067
583.458587	0.103895
583.670056	0.103750
583.881506	0.103695
584.092939	0.103565
584.304353	0.103381
584.515749	0.103405
584.727127	0.103564
584.938486	0.103756
585.149828	0.103462
585.361151	0.103612
585.572456	0.103895
585.783742	0.103916
585.995011	0.103776
586.206261	0.103861
586.417493	0.103911
586.628706	0.103538
586.839902	0.103734
587.051079	0.103954
587.262238	0.104324
587.473379	0.104127
587.684502	0.104422
587.895606	0.104660
588.106692	0.104809
588.317760	0.104945
588.528810	0.105030
588.739841	0.104888
588.950855	0.105198
589.161850	0.104631
589.372827	0.104792
589.583785	0.104541
589.794726	0.104104
590.005648	0.104255
590.216552	0.104123
590.427437	0.104403
590.638305	0.104315
590.849154	0.104343
591.059985	0.104683
591.270798	0.104552
591.481592	0.104565
591.692369	0.104960
591.903127	0.104875
592.113867	0.105024
592.324588	0.105065
592.535292	0.105343
592.745977	0.105122
592.956644	0.105050
593.167293	0.105272
593.377923	0.105416
593.588536	0.105716
593.799130	0.106037
594.009706	0.106242
594.220263	0.106520
594.430803	0.106525
594.641324	0.106718
594.851827	0.106715
595.062312	0.106885
595.272778	0.107026
595.483227	0.106971
595.693657	0.106912
595.904069	0.106767
596.114462	0.106553
596.324838	0.106643
596.535195	0.106591
596.745534	0.106608
596.955855	0.106461
597.166157	0.106310
597.376441	0.106325
597.586707	0.106134
597.796955	0.106159
598.007185	0.105800
598.217396	0.106000
598.427589	0.106269
598.637764	0.106666
598.847921	0.106728
599.058060	0.106892
599.268180	0.106491
599.478282	0.106505
599.688366	0.106671
599.898431	0.106753
600.108479	0.106529
600.318508	0.106278
600.528519	0.106273
600.738511	0.106433
600.948486	0.106458
601.158442	0.106941
601.368380	0.107043
601.578300	0.106933
601.788202	0.107299
601.998085	0.107387
602.207950	0.107534
602.417797	0.107305
602.627626	0.107361
602.837436	0.107276
603.047228	0.107374
603.257002	0.107725
603.466758	0.108047
603.676496	0.108043
603.886215	0.108021
604.095916	0.108257
604.305599	0.108212
604.515264	0.108404
604.724910	0.108685
604.934538	0.108538
605.144148	0.108115
605.353740	0.107833
605.563314	0.107889
605.772869	0.107913
605.982406	0.107789
606.191925	0.108206
606.401425	0.108035
606.610908	0.108155
606.820372	0.108297
607.029818	0.108545
607.239246	0.108731
607.448655	0.108682
607.658047	0.108784
607.867420	0.108901
608.076775	0.108959
608.286111	0.108967
608.495430	0.108487
608.704730	0.108559
608.914012	0.108572
609.123275	0.108582
609.332521	0.108920
609.541748	0.108899
609.750957	0.108581
609.960148	0.108319
610.169321	0.108311
610.378475	0.108612
610.587611	0.108793
610.796729	0.108706
611.005829	0.108528
611.214910	0.108541
611.423974	0.108633
611.633019	0.109005
611.842045	0.109146
612.051054	0.109204
612.260044	0.109259
612.469017	0.108998
612.677970	0.109208
612.886906	0.109449
613.095824	0.109399
613.304723	0.109402
613.513604	0.109316
613.722467	0.109208
613.931311	0.109256
614.140138	0.109269
614.348946	0.109602
614.557736	0.109743
614.766507	0.109792
614.975261	0.109867
615.183996	0.110055
615.392713	0.110203
615.601412	0.110292
615.810092	0.110018
616.018754	0.109992
616.227399	0.109900
616.436024	0.109714
616.644632	0.109825
616.853222	0.109576
617.061793	0.109477
617.270346	0.109550
617.478880	0.109421
617.687397	0.109659
617.895895	0.109953
618.104375	0.109886
618.312837	0.110051
618.521281	0.109984
618.729706	0.110061
618.938113	0.110039
619.146502	0.109764
619.354873	0.110123
619.563226	0.110264
619.771560	0.109817
619.979876	0.109636
620.188174	0.109421
620.396453	0.109554
620.604715	0.109571
620.812958	0.109706
621.021183	0.110009
621.229390	0.109945
621.437578	0.109951
621.645748	0.110205
621.853900	0.110655
622.062034	0.111142
622.270150	0.111277
622.478247	0.111530
622.686326	0.111499
622.894387	0.111519
623.102430	0.111768
623.310454	0.112056
623.518461	0.112133
623.726449	0.112047
623.934418	0.111940
624.142370	0.111908
624.350303	0.111858
624.558218	0.111888
624.766115	0.111966
624.973994	0.111826
625.181855	0.111423
625.389697	0.111813
625.597521	0.111960
625.805327	0.111722
626.013114	0.111763
626.220883	0.111786
626.428634	0.111713
626.636367	0.111826
626.844082	0.112151
627.051778	0.112360
627.259457	0.112082
627.467117	0.112032
627.674758	0.112090
627.882382	0.111849
628.089987	0.111805
628.297574	0.111801
628.505143	0.111691
628.712694	0.111271
628.920226	0.111141
629.127740	0.111259
629.335236	0.111129
629.542714	0.111231
629.750174	0.111386
629.957615	0.111527
630.165038	0.111640
630.372443	0.111575
630.579829	0.111919
630.787198	0.112052
630.994548	0.111943
631.201880	0.112018
631.409194	0.112052
631.616489	0.112247
631.823766	0.112283
632.031025	0.112269
632.238266	0.112483
632.445489	0.112392
632.652693	0.112558
632.859879	0.112748
633.067047	0.112874
633.274197	0.112909
633.481329	0.112885
633.688442	0.112867
633.895537	0.113064
634.102614	0.113033
634.309672	0.113173
634.516713	0.113223
634.723735	0.113266
634.930739	0.113377
635.137724	0.113644
635.344692	0.113725
635.551641	0.113917
635.758572	0.113850
635.965485	0.113840
636.172379	0.114012
636.379256	0.114103
636.586114	0.113939
636.792954	0.113996
636.999775	0.113658
637.206579	0.113819
637.413364	0.113847
637.620131	0.114029
637.826880	0.114076
638.033610	0.114025
638.240323	0.114003
638.447017	0.114209
638.653692	0.114333
638.860350	0.114691
639.066990	0.114616
639.273611	0.114524
639.480214	0.114555
639.686798	0.114725
639.893365	0.114543
640.099913	0.114608
640.306443	0.114541
640.512955	0.114359
640.719449	0.114419
640.925924	0.114448
641.132381	0.114688
641.338820	0.114807
641.545241	0.114968
641.751644	0.115159
641.958028	0.115255
642.164394	0.115532
642.370742	0.115588
642.577071	0.115586
642.783383	0.115560
642.989676	0.115658
643.195951	0.115665
643.402207	0.115400
643.608446	0.115454
643.814666	0.115536
644.020868	0.115414
644.227052	0.115255
644.433218	0.115135
644.639365	0.115204
644.845494	0.115120
645.051605	0.114992
645.257698	0.115196
645.463772	0.115261
645.669828	0.115018
645.875866	0.115055
646.081886	0.115412
646.287888	0.115665
646.493871	0.115771
646.699836	0.115818
646.905783	0.115951
647.111712	0.115857
647.317622	0.115950
647.523514	0.116135
647.729388	0.116018
647.935244	0.115999
648.141082	0.115943
648.346901	0.115879
648.552702	0.115872
648.758485	0.115949
648.964250	0.116181
649.169996	0.116173
649.375724	0.116119
649.581434	0.116274
649.787126	0.116228
649.992800	0.116442
650.198455	0.116537
650.404092	0.116513
650.609711	0.116427
650.815311	0.116434
651.020894	0.116616
651.226458	0.116859
651.432004	0.117031
651.637532	0.117093
651.843041	0.116995
652.048532	0.117145
652.254006	0.117148
652.459460	0.117349
652.664897	0.117162
652.870315	0.116862
653.075716	0.116697
653.281097	0.116608
653.486461	0.116574
653.691807	0.116707
653.897134	0.116718
654.102443	0.116732
654.307734	0.116818
654.513006	0.117045
654.718261	0.117175
654.923497	0.117253
655.128715	0.117269
655.333915	0.117155
655.539096	0.116951
655.744259	0.116776
655.949404	0.116907
656.154531	0.116684
656.359640	0.116792
656.564730	0.116686
656.769802	0.116925
656.974856	0.117199
657.179892	0.117565
657.384909	0.117619
657.589908	0.117833
657.794889	0.117889
657.999852	0.118081
658.204797	0.118098
658.409723	0.118290
658.614631	0.118382
658.819521	0.118244
659.024393	0.118283
659.229246	0.118482
659.434081	0.118392
659.638898	0.118552
659.843697	0.118560
660.048478	0.118610
660.253240	0.118897
660.457984	0.118943
660.662710	0.119117
660.867417	0.119114
661.072107	0.119064
661.276778	0.119060
661.481431	0.119035
661.686066	0.118938
661.890682	0.118876
662.095281	0.118579
662.299861	0.118402
662.504422	0.118223
662.708966	0.118278
662.913491	0.118306
663.117999	0.118349
663.322488	0.118288
663.526958	0.118616
663.731411	0.118699
663.935845	0.118973
664.140261	0.118994
664.344659	0.119259
664.549038	0.119180
664.753400	0.119256
664.957743	0.119626
665.162068	0.119880
665.366375	0.119796
665.570663	0.119966
665.774933	0.120147
665.979185	0.120304
666.183419	0.120265
666.387635	0.120576
666.591832	0.120851
666.796011	0.120852
667.000172	0.120799
667.204315	0.120723
667.408439	0.120514
667.612545	0.120457
667.816634	0.120627
668.020703	0.120744
668.224755	0.120777
668.428788	0.120685
668.632803	0.120816
668.836800	0.120925
669.040779	0.121449
669.244739	0.121794
669.448681	0.121768
669.652605	0.121795
669.856511	0.121887
670.060399	0.122016
670.264268	0.122141
670.468119	0.122070
670.671952	0.122160
670.875767	0.121978
671.079563	0.121843
671.283341	0.121913
671.487101	0.122015
671.690843	0.121874
671.894567	0.121699
672.098272	0.121740
672.301959	0.121870
672.505628	0.121896
672.709278	0.121989
672.912911	0.122252
673.116525	0.122414
673.320121	0.122316
673.523699	0.122306
673.727258	0.122535
673.930799	0.122506
674.134322	0.122548
674.337827	0.122544
674.541314	0.122694
674.744782	0.122599
674.948232	0.122440
675.151664	0.122611
675.355078	0.122754
675.558474	0.122705
675.761851	0.122702
675.965210	0.122606
676.168551	0.122811
676.371873	0.122842
676.575178	0.122884
676.778464	0.123001
676.981732	0.123157
677.184981	0.123423
677.388213	0.123583
677.591426	0.123863
677.794621	0.124113
677.997798	0.124173
678.200956	0.124010
678.404097	0.124257
678.607219	0.124347
678.810323	0.124532
679.013408	0.124512
679.216476	0.124788
679.419525	0.124927
679.622556	0.125140
679.825569	0.125427
680.028563	0.125693
680.231540	0.125610
680.434498	0.125782
680.637438	0.125621
680.840359	0.125703
681.043263	0.125530
681.246148	0.125542
681.449015	0.125426
681.651864	0.125294
681.854694	0.125567
682.057506	0.125848
682.260301	0.125854
682.463076	0.125886
682.665834	0.125961
682.868573	0.126074
683.071295	0.126265
683.273998	0.126352
683.476682	0.126381
683.679349	0.126137
683.881997	0.126017
684.084627	0.126172
684.287239	0.126097
684.489833	0.126369
684.692408	0.126366
684.894965	0.126272
685.097504	0.126420
685.300025	0.126541
685.502527	0.126514
685.705012	0.126522
685.907478	0.126429
686.109925	0.126654
686.312355	0.126608
686.514766	0.126673
686.717159	0.126748
686.919534	0.126661
687.121891	0.126512
687.324230	0.126728
687.526550	0.126799
687.728852	0.126917
687.931136	0.127036
688.133401	0.126966
688.335649	0.126929
688.537878	0.126869
688.740089	0.126964
688.942281	0.127179
689.144456	0.127061
689.346612	0.127114
689.548750	0.127201
689.750870	0.127120
689.952971	0.127158
690.155055	0.127162
690.357120	0.127361
690.559167	0.127341
690.761195	0.127299
690.963206	0.127458
691.165198	0.127618
691.367172	0.127701
691.569128	0.127771
691.771065	0.127836
691.972984	0.127976
692.174885	0.128062
692.376768	0.127958
692.578633	0.127900
692.780479	0.127919
692.982308	0.127956
693.184118	0.128107
693.385909	0.128133
