sample name	sample
index	920
start time	 04-12-2021  11:31:16 AM


Wavelength (nm)	Absorbance
494.344910	-0.101600
494.563924	-0.101600
494.782919	-0.101600
495.001897	-0.393873
495.220856	-0.068422
495.439797	0.014465
495.658719	0.063367
495.877624	0.060747
496.096510	0.092057
496.315378	0.113779
496.534227	0.130640
496.753059	0.131228
496.971872	0.153452
497.190667	0.126912
497.409444	0.136192
497.628203	0.138794
497.846943	0.142123
498.065665	0.145160
498.284369	0.147757
498.503055	0.148023
498.721723	0.147174
498.940372	0.147055
499.159003	0.148442
499.377616	0.149202
499.596210	0.150137
499.814787	0.150345
500.033345	0.150761
500.251885	0.150054
500.470406	0.149906
500.688910	0.150788
500.907395	0.150999
501.125862	0.151333
501.344311	0.151626
501.562742	0.150953
501.781154	0.150902
501.999548	0.150917
502.217924	0.151180
502.436282	0.151310
502.654621	0.151672
502.872942	0.152213
503.091245	0.152463
503.309530	0.152096
503.527797	0.152057
503.746045	0.152878
503.964275	0.152153
504.182487	0.152372
504.400681	0.152727
504.618856	0.152637
504.837013	0.153054
505.055152	0.152780
505.273273	0.153203
505.491376	0.154359
505.709460	0.153475
505.927526	0.154795
506.145574	0.155111
506.363604	0.154835
506.581615	0.155731
506.799608	0.155402
507.017583	0.155979
507.235540	0.155534
507.453478	0.155498
507.671399	0.156063
507.889301	0.155360
508.107185	0.155874
508.325050	0.156559
508.542898	0.155774
508.760727	0.155245
508.978538	0.156429
509.196330	0.157211
509.414105	0.157112
509.631861	0.157577
509.849599	0.157354
510.067319	0.157329
510.285021	0.157469
510.502704	0.158041
510.720369	0.159774
510.938016	0.159036
511.155645	0.159280
511.373255	0.159942
511.590848	0.160074
511.808422	0.160716
512.025977	0.161434
512.243515	0.161648
512.461034	0.161162
512.678536	0.160806
512.896018	0.160640
513.113483	0.160707
513.330930	0.160978
513.548358	0.161617
513.765768	0.162391
513.983160	0.161676
514.200533	0.162048
514.417889	0.162748
514.635226	0.162901
514.852545	0.164049
515.069845	0.164714
515.287128	0.164323
515.504392	0.164963
515.721638	0.165327
515.938866	0.166575
516.156075	0.166434
516.373267	0.166802
516.590440	0.166874
516.807594	0.166987
517.024731	0.166332
517.241850	0.167089
517.458950	0.166388
517.676032	0.166205
517.893095	0.166480
518.110141	0.166498
518.327168	0.166426
518.544177	0.166859
518.761168	0.167282
518.978141	0.167488
519.195095	0.167397
519.412031	0.167454
519.628949	0.168002
519.845849	0.168092
520.062731	0.169040
520.279594	0.169300
520.496439	0.170366
520.713266	0.170295
520.930074	0.171429
521.146865	0.171621
521.363637	0.171351
521.580391	0.171843
521.797127	0.172018
522.013844	0.172097
522.230543	0.172665
522.447224	0.172287
522.663887	0.172419
522.880532	0.172091
523.097158	0.172964
523.313766	0.174022
523.530356	0.173969
523.746928	0.173497
523.963481	0.173143
524.180017	0.174065
524.396534	0.173629
524.613032	0.173709
524.829513	0.174810
525.045975	0.174908
525.262420	0.175197
525.478845	0.175234
525.695253	0.175886
525.911643	0.177126
526.128014	0.176700
526.344367	0.178148
526.560702	0.179010
526.777018	0.178121
526.993316	0.178553
527.209597	0.178455
527.425858	0.178975
527.642102	0.179492
527.858328	0.179968
528.074535	0.179984
528.290724	0.180140
528.506894	0.180635
528.723047	0.181564
528.939181	0.181800
529.155297	0.182656
529.371395	0.183253
529.587475	0.183621
529.803536	0.183453
530.019579	0.185025
530.235604	0.185142
530.451611	0.185255
530.667600	0.185729
530.883570	0.186382
531.099522	0.186684
531.315456	0.186887
531.531372	0.187356
531.747269	0.187453
531.963148	0.187719
532.179009	0.188240
532.394852	0.188555
532.610676	0.188512
532.826482	0.188781
533.042271	0.189184
533.258040	0.189620
533.473792	0.189932
533.689525	0.190775
533.905240	0.190637
534.120937	0.191389
534.336616	0.191968
534.552277	0.192958
534.767919	0.193677
534.983543	0.193657
535.199149	0.193886
535.414736	0.194526
535.630306	0.194901
535.845857	0.195455
536.061390	0.195586
536.276904	0.196008
536.492401	0.196114
536.707879	0.196070
536.923339	0.197225
537.138781	0.197385
537.354204	0.197606
537.569610	0.198155
537.784997	0.197998
538.000366	0.197961
538.215716	0.197908
538.431049	0.198457
538.646363	0.198767
538.861659	0.198927
539.076937	0.199663
539.292196	0.200215
539.507438	0.200628
539.722661	0.201516
539.937866	0.202221
540.153052	0.202856
540.368221	0.203092
540.583371	0.203185
540.798503	0.203419
541.013617	0.203173
541.228712	0.203424
541.443789	0.203023
541.658848	0.202841
541.873889	0.202912
542.088912	0.203537
542.303916	0.203873
542.518902	0.204543
542.733870	0.204565
542.948820	0.205180
543.163752	0.205494
543.378665	0.206330
543.593560	0.207309
543.808437	0.207759
544.023295	0.207823
544.238136	0.208136
544.452958	0.208282
544.667762	0.208125
544.882548	0.208596
545.097315	0.209365
545.312064	0.209864
545.526795	0.209961
545.741508	0.210092
545.956203	0.210623
546.170879	0.211163
546.385537	0.211725
546.600177	0.212913
546.814799	0.212767
547.029402	0.212277
547.243988	0.212300
547.458555	0.212647
547.673103	0.213599
547.887634	0.213140
548.102146	0.213298
548.316640	0.213771
548.531116	0.213908
548.745574	0.214635
548.960013	0.215455
549.174435	0.215539
549.388838	0.215695
549.603222	0.215726
549.817589	0.216354
550.031937	0.216538
550.246267	0.216413
550.460579	0.216895
550.674873	0.217383
550.889148	0.217311
551.103405	0.217753
551.317644	0.217989
551.531865	0.217997
551.746068	0.218215
551.960252	0.218616
552.174418	0.219161
552.388566	0.219412
552.602696	0.219422
552.816807	0.219913
553.030900	0.220251
553.244975	0.220868
553.459032	0.221183
553.673070	0.221716
553.887091	0.221461
554.101093	0.221511
554.315077	0.221388
554.529042	0.221969
554.742990	0.221995
554.956919	0.222009
555.170830	0.222112
555.384722	0.222417
555.598597	0.222273
555.812453	0.222546
556.026291	0.223214
556.240111	0.223495
556.453913	0.223527
556.667696	0.223951
556.881461	0.224675
557.095208	0.224681
557.308937	0.224894
557.522647	0.225066
557.736339	0.225522
557.950013	0.225258
558.163669	0.226082
558.377307	0.226311
558.590926	0.226578
558.804527	0.226396
559.018110	0.226540
559.231675	0.226796
559.445221	0.227360
559.658749	0.227551
559.872259	0.227729
560.085751	0.227510
560.299225	0.227888
560.512680	0.228480
560.726117	0.228869
560.939536	0.229036
561.152937	0.229282
561.366319	0.229593
561.579683	0.230318
561.793029	0.230809
562.006357	0.230984
562.219667	0.230908
562.432958	0.230731
562.646231	0.231200
562.859486	0.231405
563.072723	0.231304
563.285941	0.231499
563.499141	0.231349
563.712323	0.231324
563.925487	0.231618
564.138632	0.231954
564.351760	0.231733
564.564869	0.231575
564.777960	0.232163
564.991032	0.232747
565.204087	0.232710
565.417123	0.232783
565.630141	0.233081
565.843140	0.233443
566.056122	0.233849
566.269085	0.234522
566.482030	0.234873
566.694957	0.234922
566.907866	0.235365
567.120756	0.235774
567.333628	0.236104
567.546482	0.236280
567.759318	0.236228
567.972135	0.236252
568.184935	0.236509
568.397716	0.236356
568.610478	0.236489
568.823223	0.236384
569.035949	0.236505
569.248657	0.236583
569.461347	0.236557
569.674019	0.237050
569.886672	0.236751
570.099308	0.237012
570.311925	0.237708
570.524523	0.238045
570.737104	0.238019
570.949666	0.238101
571.162210	0.238054
571.374736	0.238384
571.587244	0.238602
571.799733	0.239472
572.012205	0.239398
572.224658	0.239560
572.437092	0.239887
572.649509	0.240598
572.861907	0.240855
573.074287	0.241671
573.286649	0.241911
573.498993	0.242123
573.711318	0.241825
573.923625	0.242016
574.135914	0.242339
574.348185	0.242052
574.560438	0.242165
574.772672	0.242389
574.984888	0.242105
575.197086	0.242330
575.409266	0.242404
575.621427	0.242695
575.833570	0.242850
576.045695	0.242514
576.257802	0.243131
576.469890	0.242884
576.681961	0.242887
576.894013	0.243109
577.106046	0.243302
577.318062	0.243358
577.530059	0.243684
577.742039	0.243823
577.954000	0.243985
578.165942	0.244007
578.377867	0.244024
578.589773	0.244489
578.801661	0.244831
579.013531	0.244948
579.225382	0.245067
579.437216	0.245177
579.649031	0.245598
579.860828	0.245686
580.072606	0.246105
580.284367	0.246619
580.496109	0.246969
580.707833	0.247260
580.919539	0.247551
581.131227	0.247342
581.342896	0.247554
581.554547	0.247773
581.766180	0.248387
581.977795	0.248216
582.189391	0.248521
582.400969	0.248579
582.612529	0.248856
582.824071	0.249210
583.035595	0.250128
583.247100	0.250631
583.458587	0.250833
583.670056	0.250784
583.881506	0.251276
584.092939	0.251115
584.304353	0.251104
584.515749	0.251403
584.727127	0.251673
584.938486	0.251788
585.149828	0.252061
585.361151	0.251889
585.572456	0.252309
585.783742	0.252364
585.995011	0.252774
586.206261	0.253133
586.417493	0.253319
586.628706	0.253465
586.839902	0.253976
587.051079	0.253962
587.262238	0.254699
587.473379	0.254952
587.684502	0.255129
587.895606	0.255791
588.106692	0.256208
588.317760	0.256310
588.528810	0.256210
588.739841	0.255473
588.950855	0.255733
589.161850	0.255870
589.372827	0.255995
589.583785	0.256297
589.794726	0.255986
590.005648	0.256250
590.216552	0.256618
590.427437	0.256774
590.638305	0.257715
590.849154	0.257665
591.059985	0.257626
591.270798	0.257722
591.481592	0.257844
591.692369	0.258034
591.903127	0.258040
592.113867	0.257924
592.324588	0.258299
592.535292	0.258405
592.745977	0.258338
592.956644	0.258416
593.167293	0.259004
593.377923	0.259262
593.588536	0.259748
593.799130	0.259629
594.009706	0.259822
594.220263	0.259751
594.430803	0.260073
594.641324	0.260673
594.851827	0.261235
595.062312	0.261136
595.272778	0.261031
595.483227	0.261110
595.693657	0.261467
595.904069	0.261799
596.114462	0.262125
596.324838	0.261810
596.535195	0.261900
596.745534	0.262004
596.955855	0.262001
597.166157	0.262081
597.376441	0.262090
597.586707	0.262138
597.796955	0.262098
598.007185	0.262108
598.217396	0.262498
598.427589	0.262828
598.637764	0.262643
598.847921	0.262910
599.058060	0.263565
599.268180	0.263868
599.478282	0.263997
599.688366	0.264075
599.898431	0.264518
600.108479	0.264432
600.318508	0.264190
600.528519	0.264632
600.738511	0.264823
600.948486	0.264872
601.158442	0.265024
601.368380	0.265390
601.578300	0.266078
601.788202	0.266191
601.998085	0.266337
602.207950	0.266617
602.417797	0.266614
602.627626	0.266802
602.837436	0.266987
603.047228	0.267253
603.257002	0.267292
603.466758	0.267080
603.676496	0.267177
603.886215	0.267976
604.095916	0.268388
604.305599	0.268653
604.515264	0.269000
604.724910	0.269251
604.934538	0.269073
605.144148	0.269437
605.353740	0.269804
605.563314	0.270245
605.772869	0.270114
605.982406	0.270600
606.191925	0.270759
606.401425	0.270854
606.610908	0.270799
606.820372	0.271038
607.029818	0.271174
607.239246	0.271125
607.448655	0.271349
607.658047	0.271501
607.867420	0.271162
608.076775	0.271367
608.286111	0.271274
608.495430	0.271556
608.704730	0.271971
608.914012	0.272173
609.123275	0.272708
609.332521	0.272667
609.541748	0.272811
609.750957	0.273300
609.960148	0.273293
610.169321	0.273766
610.378475	0.273996
610.587611	0.274363
610.796729	0.274632
611.005829	0.274356
611.214910	0.274610
611.423974	0.274674
611.633019	0.274417
611.842045	0.274737
612.051054	0.274522
612.260044	0.274865
612.469017	0.274920
612.677970	0.274761
612.886906	0.275097
613.095824	0.275052
613.304723	0.275101
613.513604	0.275235
613.722467	0.275543
613.931311	0.276064
614.140138	0.276091
614.348946	0.276015
614.557736	0.276346
614.766507	0.276498
614.975261	0.277106
615.183996	0.277582
615.392713	0.277904
615.601412	0.277781
615.810092	0.277652
616.018754	0.277530
616.227399	0.277859
616.436024	0.277999
616.644632	0.277959
616.853222	0.277680
617.061793	0.277528
617.270346	0.277616
617.478880	0.277781
617.687397	0.278272
617.895895	0.278362
618.104375	0.278201
618.312837	0.278731
618.521281	0.278907
618.729706	0.279254
618.938113	0.279836
619.146502	0.279999
619.354873	0.280205
619.563226	0.280170
619.771560	0.280447
619.979876	0.280655
620.188174	0.280341
620.396453	0.280722
620.604715	0.280766
620.812958	0.280642
621.021183	0.280721
621.229390	0.281013
621.437578	0.281033
621.645748	0.281187
621.853900	0.281692
622.062034	0.282063
622.270150	0.282391
622.478247	0.282505
622.686326	0.282637
622.894387	0.283173
623.102430	0.283345
623.310454	0.283806
623.518461	0.284027
623.726449	0.284301
623.934418	0.284271
624.142370	0.284201
624.350303	0.284310
624.558218	0.284636
624.766115	0.284430
624.973994	0.284561
625.181855	0.284662
625.389697	0.285034
625.597521	0.285125
625.805327	0.285548
626.013114	0.285969
626.220883	0.286216
626.428634	0.286550
626.636367	0.286676
626.844082	0.286748
627.051778	0.286929
627.259457	0.286756
627.467117	0.286834
627.674758	0.286625
627.882382	0.286857
628.089987	0.287142
628.297574	0.286944
628.505143	0.287327
628.712694	0.287775
628.920226	0.288077
629.127740	0.288516
629.335236	0.288527
629.542714	0.288816
629.750174	0.288642
629.957615	0.288895
630.165038	0.288953
630.372443	0.289294
630.579829	0.289391
630.787198	0.289499
630.994548	0.289506
631.201880	0.289546
631.409194	0.289975
631.616489	0.290087
631.823766	0.290156
632.031025	0.290624
632.238266	0.290720
632.445489	0.290647
632.652693	0.290703
632.859879	0.290751
633.067047	0.291214
633.274197	0.291007
633.481329	0.291550
633.688442	0.291714
633.895537	0.291742
634.102614	0.291869
634.309672	0.292107
634.516713	0.291933
634.723735	0.292331
634.930739	0.292647
635.137724	0.293238
635.344692	0.293225
635.551641	0.293474
635.758572	0.293710
635.965485	0.293985
636.172379	0.294500
636.379256	0.295103
636.586114	0.295278
636.792954	0.295165
636.999775	0.294936
637.206579	0.295176
637.413364	0.295369
637.620131	0.295624
637.826880	0.295836
638.033610	0.295380
638.240323	0.295650
638.447017	0.295771
638.653692	0.295822
638.860350	0.296344
639.066990	0.296257
639.273611	0.296384
639.480214	0.296667
639.686798	0.296909
639.893365	0.297580
640.099913	0.297572
640.306443	0.298104
640.512955	0.298391
640.719449	0.298792
640.925924	0.299235
641.132381	0.299713
641.338820	0.300081
641.545241	0.300282
641.751644	0.300482
641.958028	0.300867
642.164394	0.300897
642.370742	0.301382
642.577071	0.301417
642.783383	0.301667
642.989676	0.301714
643.195951	0.301695
643.402207	0.301780
643.608446	0.301793
643.814666	0.301819
644.020868	0.302099
644.227052	0.302608
644.433218	0.302947
644.639365	0.303123
644.845494	0.303429
645.051605	0.303903
645.257698	0.304165
645.463772	0.304438
645.669828	0.304807
645.875866	0.304812
646.081886	0.304337
646.287888	0.304393
646.493871	0.304548
646.699836	0.304741
646.905783	0.304691
647.111712	0.304989
647.317622	0.305294
647.523514	0.305459
647.729388	0.306017
647.935244	0.306517
648.141082	0.306563
648.346901	0.306875
648.552702	0.307009
648.758485	0.307239
648.964250	0.307521
649.169996	0.307914
649.375724	0.308149
649.581434	0.307896
649.787126	0.308196
649.992800	0.308809
650.198455	0.309118
650.404092	0.309229
650.609711	0.309518
650.815311	0.309389
651.020894	0.309363
651.226458	0.309676
651.432004	0.310178
651.637532	0.310124
651.843041	0.310216
652.048532	0.310360
652.254006	0.310844
652.459460	0.311045
652.664897	0.311593
652.870315	0.311714
653.075716	0.311453
653.281097	0.311584
653.486461	0.311844
653.691807	0.311564
653.897134	0.311683
654.102443	0.311537
654.307734	0.311630
654.513006	0.311931
654.718261	0.312265
654.923497	0.312918
655.128715	0.313012
655.333915	0.313395
655.539096	0.314084
655.744259	0.314253
655.949404	0.314872
656.154531	0.315380
656.359640	0.315331
656.564730	0.315598
656.769802	0.315991
656.974856	0.316209
657.179892	0.316498
657.384909	0.316729
657.589908	0.317119
657.794889	0.316980
657.999852	0.316953
658.204797	0.317265
658.409723	0.317355
658.614631	0.317228
658.819521	0.317829
659.024393	0.317918
659.229246	0.317869
659.434081	0.317996
659.638898	0.318578
659.843697	0.319074
660.048478	0.319443
660.253240	0.319769
660.457984	0.320147
660.662710	0.320244
660.867417	0.320549
661.072107	0.321257
661.276778	0.321459
661.481431	0.321614
661.686066	0.321747
661.890682	0.322050
662.095281	0.322444
662.299861	0.322599
662.504422	0.322876
662.708966	0.323029
662.913491	0.323057
663.117999	0.323425
663.322488	0.323578
663.526958	0.323746
663.731411	0.323926
663.935845	0.324178
664.140261	0.324546
664.344659	0.324779
664.549038	0.325276
664.753400	0.325482
664.957743	0.325672
665.162068	0.325998
665.366375	0.326177
665.570663	0.326400
665.774933	0.326843
665.979185	0.327328
666.183419	0.327834
666.387635	0.327951
666.591832	0.328111
666.796011	0.328498
667.000172	0.328641
667.204315	0.329058
667.408439	0.329239
667.612545	0.329303
667.816634	0.329204
668.020703	0.329212
668.224755	0.329318
668.428788	0.329583
668.632803	0.329945
668.836800	0.330243
669.040779	0.330528
669.244739	0.330931
669.448681	0.331162
669.652605	0.331501
669.856511	0.331814
670.060399	0.332469
670.264268	0.332723
670.468119	0.333023
670.671952	0.333257
670.875767	0.333281
671.079563	0.333354
671.283341	0.333741
671.487101	0.334210
671.690843	0.334676
671.894567	0.334993
672.098272	0.335581
672.301959	0.335712
672.505628	0.336224
672.709278	0.336744
672.912911	0.337251
673.116525	0.337280
673.320121	0.337486
673.523699	0.337716
673.727258	0.337861
673.930799	0.338007
674.134322	0.338483
674.337827	0.338838
674.541314	0.339330
674.744782	0.339483
674.948232	0.339920
675.151664	0.340155
675.355078	0.340324
675.558474	0.340651
675.761851	0.340870
675.965210	0.341118
676.168551	0.341152
676.371873	0.341132
676.575178	0.341336
676.778464	0.341553
676.981732	0.342092
677.184981	0.342553
677.388213	0.342717
677.591426	0.343203
677.794621	0.343332
677.997798	0.343534
678.200956	0.343723
678.404097	0.344121
678.607219	0.344871
678.810323	0.344819
679.013408	0.344951
679.216476	0.345244
679.419525	0.345417
679.622556	0.345763
679.825569	0.345982
680.028563	0.346295
680.231540	0.346620
680.434498	0.346433
680.637438	0.346623
680.840359	0.346605
681.043263	0.346611
681.246148	0.346803
681.449015	0.346974
681.651864	0.347356
681.854694	0.347718
682.057506	0.347874
682.260301	0.348300
682.463076	0.348603
682.665834	0.349091
682.868573	0.349685
683.071295	0.350165
683.273998	0.350246
683.476682	0.350468
683.679349	0.350714
683.881997	0.351026
684.084627	0.350962
684.287239	0.351266
684.489833	0.351623
684.692408	0.351576
684.894965	0.351514
685.097504	0.351723
685.300025	0.352227
685.502527	0.352569
685.705012	0.352578
685.907478	0.352752
686.109925	0.353028
686.312355	0.353105
686.514766	0.353425
686.717159	0.353812
686.919534	0.354216
687.121891	0.354238
687.324230	0.354561
687.526550	0.355078
687.728852	0.355589
687.931136	0.355840
688.133401	0.356016
688.335649	0.356135
688.537878	0.356309
688.740089	0.356558
688.942281	0.356799
689.144456	0.356944
689.346612	0.356977
689.548750	0.357076
689.750870	0.357439
689.952971	0.357520
690.155055	0.358044
690.357120	0.358341
690.559167	0.358577
690.761195	0.358831
690.963206	0.359040
691.165198	0.359177
691.367172	0.359744
691.569128	0.359839
691.771065	0.360117
691.972984	0.360272
692.174885	0.360530
692.376768	0.360374
692.578633	0.360495
692.780479	0.360674
692.982308	0.360832
693.184118	0.360721
693.385909	0.360777
