sample name	sample
index	979
start time	 04-14-2021  03:12:49 PM


Wavelength (nm)	Absorbance
494.344910	0.032510
494.563924	0.032510
494.782919	0.032510
495.001897	-0.046473
495.220856	-0.003597
495.439797	-0.004957
495.658719	-0.018180
495.877624	-0.032450
496.096510	-0.033105
496.315378	-0.042912
496.534227	-0.059586
496.753059	-0.053892
496.971872	-0.034746
497.190667	0.014990
497.409444	0.036291
497.628203	0.046837
497.846943	0.050931
498.065665	0.056108
498.284369	0.058127
498.503055	0.057722
498.721723	0.058629
498.940372	0.057256
499.159003	0.057742
499.377616	0.057543
499.596210	0.058283
499.814787	0.058401
500.033345	0.057438
500.251885	0.055294
500.470406	0.056154
500.688910	0.055367
500.907395	0.056848
501.125862	0.056328
501.344311	0.056480
501.562742	0.055184
501.781154	0.055822
501.999548	0.054321
502.217924	0.055775
502.436282	0.056123
502.654621	0.055806
502.872942	0.054600
503.091245	0.055212
503.309530	0.055833
503.527797	0.055795
503.746045	0.054911
503.964275	0.056120
504.182487	0.055717
504.400681	0.056467
504.618856	0.057416
504.837013	0.059553
505.055152	0.058780
505.273273	0.058486
505.491376	0.059007
505.709460	0.059354
505.927526	0.059764
506.145574	0.060390
506.363604	0.059595
506.581615	0.059713
506.799608	0.058179
507.017583	0.058605
507.235540	0.059829
507.453478	0.060334
507.671399	0.060122
507.889301	0.059790
508.107185	0.059718
508.325050	0.060160
508.542898	0.060311
508.760727	0.061058
508.978538	0.061464
509.196330	0.060245
509.414105	0.059269
509.631861	0.059946
509.849599	0.059792
510.067319	0.059917
510.285021	0.059957
510.502704	0.059313
510.720369	0.059111
510.938016	0.059898
511.155645	0.059799
511.373255	0.059751
511.590848	0.060380
511.808422	0.060058
512.025977	0.060465
512.243515	0.060823
512.461034	0.060878
512.678536	0.061936
512.896018	0.061283
513.113483	0.061758
513.330930	0.062510
513.548358	0.062332
513.765768	0.063169
513.983160	0.061893
514.200533	0.061890
514.417889	0.062626
514.635226	0.061721
514.852545	0.061695
515.069845	0.061928
515.287128	0.061635
515.504392	0.061521
515.721638	0.061592
515.938866	0.062515
516.156075	0.063031
516.373267	0.062122
516.590440	0.062523
516.807594	0.062824
517.024731	0.062422
517.241850	0.062527
517.458950	0.062068
517.676032	0.062215
517.893095	0.062358
518.110141	0.061799
518.327168	0.062152
518.544177	0.062313
518.761168	0.062014
518.978141	0.062461
519.195095	0.062943
519.412031	0.063785
519.628949	0.063816
519.845849	0.064077
520.062731	0.064972
520.279594	0.064947
520.496439	0.065060
520.713266	0.065396
520.930074	0.065717
521.146865	0.066456
521.363637	0.066129
521.580391	0.065928
521.797127	0.065898
522.013844	0.065753
522.230543	0.066475
522.447224	0.066347
522.663887	0.066571
522.880532	0.066404
523.097158	0.066031
523.313766	0.066084
523.530356	0.066714
523.746928	0.067029
523.963481	0.066993
524.180017	0.067172
524.396534	0.067190
524.613032	0.067659
524.829513	0.068417
525.045975	0.068740
525.262420	0.069388
525.478845	0.069749
525.695253	0.069587
525.911643	0.070338
526.128014	0.071059
526.344367	0.071409
526.560702	0.071475
526.777018	0.071661
526.993316	0.071792
527.209597	0.071804
527.425858	0.071632
527.642102	0.071952
527.858328	0.071537
528.074535	0.070895
528.290724	0.071410
528.506894	0.071348
528.723047	0.071794
528.939181	0.071695
529.155297	0.072091
529.371395	0.072420
529.587475	0.072599
529.803536	0.073038
530.019579	0.073556
530.235604	0.073216
530.451611	0.073663
530.667600	0.073076
530.883570	0.073066
531.099522	0.072914
531.315456	0.073307
531.531372	0.073252
531.747269	0.073333
531.963148	0.073384
532.179009	0.074084
532.394852	0.074644
532.610676	0.074891
532.826482	0.075124
533.042271	0.075445
533.258040	0.075166
533.473792	0.075760
533.689525	0.075699
533.905240	0.075629
534.120937	0.075914
534.336616	0.075512
534.552277	0.075651
534.767919	0.076106
534.983543	0.076427
535.199149	0.077143
535.414736	0.077655
535.630306	0.078078
535.845857	0.078643
536.061390	0.078468
536.276904	0.078992
536.492401	0.079656
536.707879	0.080267
536.923339	0.080142
537.138781	0.079817
537.354204	0.080081
537.569610	0.080428
537.784997	0.080751
538.000366	0.081411
538.215716	0.081894
538.431049	0.082178
538.646363	0.082060
538.861659	0.082456
539.076937	0.082730
539.292196	0.082508
539.507438	0.082232
539.722661	0.082503
539.937866	0.082497
540.153052	0.082518
540.368221	0.082331
540.583371	0.082197
540.798503	0.082453
541.013617	0.083049
541.228712	0.083439
541.443789	0.084046
541.658848	0.083982
541.873889	0.084101
542.088912	0.084480
542.303916	0.084455
542.518902	0.084814
542.733870	0.084704
542.948820	0.084711
543.163752	0.084451
543.378665	0.084403
543.593560	0.084895
543.808437	0.084848
544.023295	0.084933
544.238136	0.085171
544.452958	0.085568
544.667762	0.085633
544.882548	0.085983
545.097315	0.086546
545.312064	0.086717
545.526795	0.086673
545.741508	0.087211
545.956203	0.087201
546.170879	0.087560
546.385537	0.087446
546.600177	0.087638
546.814799	0.087301
547.029402	0.087467
547.243988	0.087325
547.458555	0.087326
547.673103	0.087222
547.887634	0.087593
548.102146	0.088027
548.316640	0.088272
548.531116	0.088683
548.745574	0.088877
548.960013	0.088760
549.174435	0.089584
549.388838	0.089818
549.603222	0.090203
549.817589	0.090181
550.031937	0.089706
550.246267	0.090036
550.460579	0.090046
550.674873	0.090446
550.889148	0.090470
551.103405	0.090161
551.317644	0.090567
551.531865	0.090545
551.746068	0.090310
551.960252	0.090983
552.174418	0.090979
552.388566	0.091274
552.602696	0.091622
552.816807	0.092156
553.030900	0.092778
553.244975	0.092447
553.459032	0.092452
553.673070	0.092768
553.887091	0.092647
554.101093	0.092726
554.315077	0.092371
554.529042	0.092284
554.742990	0.092039
554.956919	0.091928
555.170830	0.092178
555.384722	0.092290
555.598597	0.092779
555.812453	0.092628
556.026291	0.092755
556.240111	0.093172
556.453913	0.093390
556.667696	0.093988
556.881461	0.093965
557.095208	0.094001
557.308937	0.094311
557.522647	0.094150
557.736339	0.094031
557.950013	0.094422
558.163669	0.094581
558.377307	0.094346
558.590926	0.094076
558.804527	0.094113
559.018110	0.094894
559.231675	0.095177
559.445221	0.095187
559.658749	0.095725
559.872259	0.095509
560.085751	0.095673
560.299225	0.095645
560.512680	0.096023
560.726117	0.096283
560.939536	0.095628
561.152937	0.095253
561.366319	0.095278
561.579683	0.095434
561.793029	0.095443
562.006357	0.095457
562.219667	0.095970
562.432958	0.096011
562.646231	0.096029
562.859486	0.096520
563.072723	0.096894
563.285941	0.097301
563.499141	0.097445
563.712323	0.097792
563.925487	0.097870
564.138632	0.097679
564.351760	0.098071
564.564869	0.098214
564.777960	0.098194
564.991032	0.098316
565.204087	0.098065
565.417123	0.097815
565.630141	0.097943
565.843140	0.098092
566.056122	0.098278
566.269085	0.097821
566.482030	0.097957
566.694957	0.098068
566.907866	0.098020
567.120756	0.098684
567.333628	0.099279
567.546482	0.099153
567.759318	0.099397
567.972135	0.099754
568.184935	0.100313
568.397716	0.100351
568.610478	0.100075
568.823223	0.100213
569.035949	0.099886
569.248657	0.099977
569.461347	0.100300
569.674019	0.100510
569.886672	0.100461
570.099308	0.100327
570.311925	0.101029
570.524523	0.101391
570.737104	0.101493
570.949666	0.101538
571.162210	0.101471
571.374736	0.101296
571.587244	0.101051
571.799733	0.101216
572.012205	0.101085
572.224658	0.100464
572.437092	0.100451
572.649509	0.100819
572.861907	0.100950
573.074287	0.100716
573.286649	0.100572
573.498993	0.100855
573.711318	0.100668
573.923625	0.101096
574.135914	0.101440
574.348185	0.101626
574.560438	0.101542
574.772672	0.101410
574.984888	0.101956
575.197086	0.102460
575.409266	0.102398
575.621427	0.102558
575.833570	0.102536
576.045695	0.102609
576.257802	0.102772
576.469890	0.102600
576.681961	0.102944
576.894013	0.102534
577.106046	0.102223
577.318062	0.102275
577.530059	0.102024
577.742039	0.101832
577.954000	0.101217
578.165942	0.100762
578.377867	0.100922
578.589773	0.100777
578.801661	0.100819
579.013531	0.101092
579.225382	0.101344
579.437216	0.101602
579.649031	0.101965
579.860828	0.102520
580.072606	0.102957
580.284367	0.103113
580.496109	0.103022
580.707833	0.103137
580.919539	0.103372
581.131227	0.103007
581.342896	0.103129
581.554547	0.102884
581.766180	0.102983
581.977795	0.103042
582.189391	0.103275
582.400969	0.103472
582.612529	0.103826
582.824071	0.103821
583.035595	0.104004
583.247100	0.104398
583.458587	0.104144
583.670056	0.103996
583.881506	0.104224
584.092939	0.104092
584.304353	0.104416
584.515749	0.104524
584.727127	0.104448
584.938486	0.104623
585.149828	0.104282
585.361151	0.104353
585.572456	0.104521
585.783742	0.104545
585.995011	0.104864
586.206261	0.105204
586.417493	0.105179
586.628706	0.105366
586.839902	0.105714
587.051079	0.106129
587.262238	0.106762
587.473379	0.107274
587.684502	0.107123
587.895606	0.107100
588.106692	0.106945
588.317760	0.107545
588.528810	0.107628
588.739841	0.107198
588.950855	0.107247
589.161850	0.107247
589.372827	0.107036
589.583785	0.107422
589.794726	0.107609
590.005648	0.107699
590.216552	0.107187
590.427437	0.107069
590.638305	0.107539
590.849154	0.107524
591.059985	0.107509
591.270798	0.107498
591.481592	0.107655
591.692369	0.107748
591.903127	0.107784
592.113867	0.107937
592.324588	0.108258
592.535292	0.108313
592.745977	0.108357
592.956644	0.108729
593.167293	0.108823
593.377923	0.108793
593.588536	0.108572
593.799130	0.108431
594.009706	0.108750
594.220263	0.108717
594.430803	0.108710
594.641324	0.108802
594.851827	0.108797
595.062312	0.108797
595.272778	0.108541
595.483227	0.108771
595.693657	0.108939
595.904069	0.108774
596.114462	0.109101
596.324838	0.109473
596.535195	0.109495
596.745534	0.109337
596.955855	0.109596
597.166157	0.110093
597.376441	0.110285
597.586707	0.110251
597.796955	0.110662
598.007185	0.110727
598.217396	0.110566
598.427589	0.110824
598.637764	0.111185
598.847921	0.110938
599.058060	0.110891
599.268180	0.110790
599.478282	0.111122
599.688366	0.110992
599.898431	0.110753
600.108479	0.110536
600.318508	0.110624
600.528519	0.110522
600.738511	0.111219
600.948486	0.111107
601.158442	0.111039
601.368380	0.111020
601.578300	0.111167
601.788202	0.111410
601.998085	0.111882
602.207950	0.112002
602.417797	0.112186
602.627626	0.111895
602.837436	0.111958
603.047228	0.112085
603.257002	0.112111
603.466758	0.111913
603.676496	0.112148
603.886215	0.112038
604.095916	0.112031
604.305599	0.112138
604.515264	0.112386
604.724910	0.112730
604.934538	0.112693
605.144148	0.112716
605.353740	0.113215
605.563314	0.113179
605.772869	0.113312
605.982406	0.113594
606.191925	0.113810
606.401425	0.113924
606.610908	0.113869
606.820372	0.114346
607.029818	0.114532
607.239246	0.114607
607.448655	0.114841
607.658047	0.115087
607.867420	0.114900
608.076775	0.115029
608.286111	0.115114
608.495430	0.115129
608.704730	0.115459
608.914012	0.115426
609.123275	0.115461
609.332521	0.115310
609.541748	0.115236
609.750957	0.115578
609.960148	0.115339
610.169321	0.115161
610.378475	0.115465
610.587611	0.115258
610.796729	0.115564
611.005829	0.115452
611.214910	0.115604
611.423974	0.115452
611.633019	0.115321
611.842045	0.115509
612.051054	0.115616
612.260044	0.115927
612.469017	0.115966
612.677970	0.116137
612.886906	0.116494
613.095824	0.116768
613.304723	0.117257
613.513604	0.117504
613.722467	0.117689
613.931311	0.117793
614.140138	0.117570
614.348946	0.117833
614.557736	0.118056
614.766507	0.118057
614.975261	0.117943
615.183996	0.117783
615.392713	0.117633
615.601412	0.117619
615.810092	0.117734
616.018754	0.117776
616.227399	0.117437
616.436024	0.117425
616.644632	0.117367
616.853222	0.117662
617.061793	0.118028
617.270346	0.118180
617.478880	0.118408
617.687397	0.118443
617.895895	0.118731
618.104375	0.119038
618.312837	0.119030
618.521281	0.118947
618.729706	0.119039
618.938113	0.118942
619.146502	0.119133
619.354873	0.119201
619.563226	0.119213
619.771560	0.119128
619.979876	0.119297
620.188174	0.119189
620.396453	0.119117
620.604715	0.118831
620.812958	0.118869
621.021183	0.118610
621.229390	0.119013
621.437578	0.119165
621.645748	0.119250
621.853900	0.119433
622.062034	0.119611
622.270150	0.119978
622.478247	0.120239
622.686326	0.120698
622.894387	0.121187
623.102430	0.121055
623.310454	0.121339
623.518461	0.121473
623.726449	0.121285
623.934418	0.121483
624.142370	0.121759
624.350303	0.121699
624.558218	0.121562
624.766115	0.121512
624.973994	0.121493
625.181855	0.121559
625.389697	0.121710
625.597521	0.121904
625.805327	0.121957
626.013114	0.121925
626.220883	0.122174
626.428634	0.122366
626.636367	0.122416
626.844082	0.122360
627.051778	0.122324
627.259457	0.122292
627.467117	0.122300
627.674758	0.122258
627.882382	0.122289
628.089987	0.122498
628.297574	0.122282
628.505143	0.122355
628.712694	0.122232
628.920226	0.122301
629.127740	0.122189
629.335236	0.122335
629.542714	0.122433
629.750174	0.122757
629.957615	0.122720
630.165038	0.123025
630.372443	0.122656
630.579829	0.122785
630.787198	0.122759
630.994548	0.123068
631.201880	0.123199
631.409194	0.123280
631.616489	0.123132
631.823766	0.123293
632.031025	0.123269
632.238266	0.123933
632.445489	0.123951
632.652693	0.124112
632.859879	0.124078
633.067047	0.123958
633.274197	0.124016
633.481329	0.124012
633.688442	0.123996
633.895537	0.123943
634.102614	0.123963
634.309672	0.124318
634.516713	0.124417
634.723735	0.124574
634.930739	0.124619
635.137724	0.124662
635.344692	0.124807
635.551641	0.124699
635.758572	0.124879
635.965485	0.124661
636.172379	0.124854
636.379256	0.124817
636.586114	0.125130
636.792954	0.125280
636.999775	0.125422
637.206579	0.125436
637.413364	0.125562
637.620131	0.125429
637.826880	0.125986
638.033610	0.126027
638.240323	0.126150
638.447017	0.125902
638.653692	0.125911
638.860350	0.126093
639.066990	0.126246
639.273611	0.126381
639.480214	0.126708
639.686798	0.126606
639.893365	0.126501
640.099913	0.126645
640.306443	0.126847
640.512955	0.127112
640.719449	0.127142
640.925924	0.127148
641.132381	0.127281
641.338820	0.127248
641.545241	0.127253
641.751644	0.127353
641.958028	0.127565
642.164394	0.127693
642.370742	0.127786
642.577071	0.127984
642.783383	0.127931
642.989676	0.128032
643.195951	0.128067
643.402207	0.128233
643.608446	0.128235
643.814666	0.128112
644.020868	0.128011
644.227052	0.128132
644.433218	0.128199
644.639365	0.128348
644.845494	0.128481
645.051605	0.128533
645.257698	0.128548
645.463772	0.128784
645.669828	0.128773
645.875866	0.129112
646.081886	0.129202
646.287888	0.128964
646.493871	0.129350
646.699836	0.129280
646.905783	0.129385
647.111712	0.129419
647.317622	0.129107
647.523514	0.129381
647.729388	0.129388
647.935244	0.129467
648.141082	0.129588
648.346901	0.129350
648.552702	0.129400
648.758485	0.129403
648.964250	0.129480
649.169996	0.129819
649.375724	0.129836
649.581434	0.129823
649.787126	0.129753
649.992800	0.129894
650.198455	0.129998
650.404092	0.130298
650.609711	0.130584
650.815311	0.130524
651.020894	0.130748
651.226458	0.130929
651.432004	0.131011
651.637532	0.131237
651.843041	0.131371
652.048532	0.131509
652.254006	0.131462
652.459460	0.131711
652.664897	0.131958
652.870315	0.132024
653.075716	0.132293
653.281097	0.132466
653.486461	0.132592
653.691807	0.132609
653.897134	0.132715
654.102443	0.132912
654.307734	0.133120
654.513006	0.133386
654.718261	0.133594
654.923497	0.133499
655.128715	0.133731
655.333915	0.133668
655.539096	0.133998
655.744259	0.134179
655.949404	0.134163
656.154531	0.134333
656.359640	0.134457
656.564730	0.134739
656.769802	0.134957
656.974856	0.134869
657.179892	0.135115
657.384909	0.135252
657.589908	0.135165
657.794889	0.135431
657.999852	0.135326
658.204797	0.135419
658.409723	0.135453
658.614631	0.135647
658.819521	0.136092
659.024393	0.136113
659.229246	0.136201
659.434081	0.136624
659.638898	0.137008
659.843697	0.137037
660.048478	0.136976
660.253240	0.137182
660.457984	0.137237
660.662710	0.137197
660.867417	0.137260
661.072107	0.137545
661.276778	0.137553
661.481431	0.137470
661.686066	0.137584
661.890682	0.138026
662.095281	0.138011
662.299861	0.138132
662.504422	0.138092
662.708966	0.138282
662.913491	0.138234
663.117999	0.138372
663.322488	0.138474
663.526958	0.138652
663.731411	0.138493
663.935845	0.138570
664.140261	0.138652
664.344659	0.138794
664.549038	0.139038
664.753400	0.139072
664.957743	0.139386
665.162068	0.139633
665.366375	0.139805
665.570663	0.139908
665.774933	0.140024
665.979185	0.140272
666.183419	0.140645
666.387635	0.140848
666.591832	0.141049
666.796011	0.141109
667.000172	0.141184
667.204315	0.141318
667.408439	0.141497
667.612545	0.141696
667.816634	0.141904
668.020703	0.141725
668.224755	0.141613
668.428788	0.141631
668.632803	0.141720
668.836800	0.141699
669.040779	0.141697
669.244739	0.141688
669.448681	0.141785
669.652605	0.141509
669.856511	0.141777
670.060399	0.141940
670.264268	0.142278
670.468119	0.142411
670.671952	0.142537
670.875767	0.142540
671.079563	0.142813
671.283341	0.142963
671.487101	0.143300
671.690843	0.143360
671.894567	0.143597
672.098272	0.143787
672.301959	0.143690
672.505628	0.143749
672.709278	0.144022
672.912911	0.144156
673.116525	0.144236
673.320121	0.144337
673.523699	0.144645
673.727258	0.144862
673.930799	0.144912
674.134322	0.145426
674.337827	0.145617
674.541314	0.145739
674.744782	0.145741
674.948232	0.145849
675.151664	0.145947
675.355078	0.145872
675.558474	0.145866
675.761851	0.145825
675.965210	0.145916
676.168551	0.145912
676.371873	0.146108
676.575178	0.146233
676.778464	0.146332
676.981732	0.146472
677.184981	0.146568
677.388213	0.146811
677.591426	0.146924
677.794621	0.146777
677.997798	0.147108
678.200956	0.147169
678.404097	0.147496
678.607219	0.147649
678.810323	0.147723
679.013408	0.148058
679.216476	0.147888
679.419525	0.147990
679.622556	0.148093
679.825569	0.148159
680.028563	0.148080
680.231540	0.147970
680.434498	0.147931
680.637438	0.148218
680.840359	0.148093
681.043263	0.148339
681.246148	0.148667
681.449015	0.148852
681.651864	0.148908
681.854694	0.149128
682.057506	0.149489
682.260301	0.149682
682.463076	0.149486
682.665834	0.149705
682.868573	0.149841
683.071295	0.149725
683.273998	0.149856
683.476682	0.150114
683.679349	0.150215
683.881997	0.150234
684.084627	0.150278
684.287239	0.150418
684.489833	0.150553
684.692408	0.150519
684.894965	0.150623
685.097504	0.150517
685.300025	0.150451
685.502527	0.150542
685.705012	0.150506
685.907478	0.150704
686.109925	0.150761
686.312355	0.150766
686.514766	0.150921
686.717159	0.150975
686.919534	0.151226
687.121891	0.151545
687.324230	0.151746
687.526550	0.152015
687.728852	0.151931
687.931136	0.152180
688.133401	0.152299
688.335649	0.152256
688.537878	0.152329
688.740089	0.152352
688.942281	0.152208
689.144456	0.152308
689.346612	0.152220
689.548750	0.152468
689.750870	0.152552
689.952971	0.152627
690.155055	0.152966
690.357120	0.153078
690.559167	0.153451
690.761195	0.153562
690.963206	0.153678
691.165198	0.153958
691.367172	0.154151
691.569128	0.154269
691.771065	0.154640
691.972984	0.154634
692.174885	0.154871
692.376768	0.154750
692.578633	0.154884
692.780479	0.154995
692.982308	0.154935
693.184118	0.154968
693.385909	0.154965
