sample name	sample
index	1419
start time	 05-10-2021  12:03:16 PM


Wavelength (nm)	Absorbance
494.344910	-0.078672
494.563924	-0.078672
494.782919	-0.078672
495.001897	-0.015648
495.220856	-0.035755
495.439797	-0.021873
495.658719	-0.019753
495.877624	-0.004819
496.096510	-0.000834
496.315378	0.001803
496.534227	0.000852
496.753059	-0.004116
496.971872	0.012484
497.190667	0.046338
497.409444	0.064770
497.628203	0.072791
497.846943	0.074896
498.065665	0.075199
498.284369	0.076125
498.503055	0.076667
498.721723	0.077498
498.940372	0.077180
499.159003	0.076992
499.377616	0.076469
499.596210	0.076008
499.814787	0.076194
500.033345	0.076494
500.251885	0.076495
500.470406	0.076051
500.688910	0.075468
500.907395	0.075282
501.125862	0.075902
501.344311	0.074195
501.562742	0.074573
501.781154	0.074820
501.999548	0.074818
502.217924	0.075658
502.436282	0.076467
502.654621	0.076999
502.872942	0.076654
503.091245	0.075465
503.309530	0.077295
503.527797	0.077542
503.746045	0.077375
503.964275	0.078122
504.182487	0.077306
504.400681	0.076538
504.618856	0.075908
504.837013	0.077254
505.055152	0.078268
505.273273	0.077662
505.491376	0.078200
505.709460	0.078323
505.927526	0.078326
506.145574	0.078381
506.363604	0.077867
506.581615	0.077870
506.799608	0.077403
507.017583	0.077947
507.235540	0.077591
507.453478	0.076579
507.671399	0.075282
507.889301	0.074562
508.107185	0.075511
508.325050	0.077139
508.542898	0.077867
508.760727	0.077609
508.978538	0.077981
509.196330	0.078185
509.414105	0.078428
509.631861	0.079296
509.849599	0.080221
510.067319	0.080238
510.285021	0.079199
510.502704	0.079065
510.720369	0.079415
510.938016	0.079102
511.155645	0.079687
511.373255	0.079412
511.590848	0.079578
511.808422	0.079415
512.025977	0.078902
512.243515	0.078902
512.461034	0.078838
512.678536	0.078853
512.896018	0.078356
513.113483	0.078427
513.330930	0.078545
513.548358	0.078343
513.765768	0.078214
513.983160	0.078768
514.200533	0.079619
514.417889	0.079595
514.635226	0.079594
514.852545	0.079915
515.069845	0.080012
515.287128	0.081151
515.504392	0.080809
515.721638	0.080734
515.938866	0.080450
516.156075	0.079970
516.373267	0.080003
516.590440	0.079969
516.807594	0.079827
517.024731	0.079753
517.241850	0.079138
517.458950	0.079933
517.676032	0.079666
517.893095	0.078698
518.110141	0.079494
518.327168	0.079449
518.544177	0.079846
518.761168	0.080326
518.978141	0.080279
519.195095	0.080797
519.412031	0.080136
519.628949	0.079829
519.845849	0.081519
520.062731	0.080925
520.279594	0.081013
520.496439	0.080675
520.713266	0.081170
520.930074	0.081866
521.146865	0.081067
521.363637	0.081548
521.580391	0.082340
521.797127	0.081983
522.013844	0.082667
522.230543	0.082456
522.447224	0.082858
522.663887	0.082943
522.880532	0.083138
523.097158	0.083205
523.313766	0.083520
523.530356	0.084159
523.746928	0.084159
523.963481	0.084134
524.180017	0.085112
524.396534	0.084687
524.613032	0.083339
524.829513	0.083320
525.045975	0.083435
525.262420	0.083414
525.478845	0.083156
525.695253	0.083281
525.911643	0.083229
526.128014	0.082594
526.344367	0.083152
526.560702	0.083679
526.777018	0.083163
526.993316	0.083631
527.209597	0.084001
527.425858	0.084069
527.642102	0.084127
527.858328	0.083947
528.074535	0.084228
528.290724	0.084172
528.506894	0.084774
528.723047	0.085213
528.939181	0.085331
529.155297	0.085407
529.371395	0.085578
529.587475	0.086295
529.803536	0.087089
530.019579	0.087389
530.235604	0.088102
530.451611	0.088554
530.667600	0.088864
530.883570	0.089047
531.099522	0.088584
531.315456	0.088731
531.531372	0.088353
531.747269	0.087903
531.963148	0.088215
532.179009	0.087536
532.394852	0.087144
532.610676	0.086653
532.826482	0.086607
533.042271	0.087571
533.258040	0.087364
533.473792	0.087487
533.689525	0.088005
533.905240	0.087996
534.120937	0.088941
534.336616	0.089283
534.552277	0.090111
534.767919	0.090380
534.983543	0.090336
535.199149	0.090646
535.414736	0.091034
535.630306	0.090671
535.845857	0.090952
536.061390	0.090742
536.276904	0.090652
536.492401	0.090418
536.707879	0.090306
536.923339	0.090376
537.138781	0.090506
537.354204	0.090277
537.569610	0.090879
537.784997	0.090926
538.000366	0.091336
538.215716	0.091343
538.431049	0.091626
538.646363	0.091532
538.861659	0.091526
539.076937	0.091986
539.292196	0.092268
539.507438	0.091945
539.722661	0.092150
539.937866	0.092205
540.153052	0.092696
540.368221	0.092622
540.583371	0.092961
540.798503	0.092739
541.013617	0.092426
541.228712	0.092490
541.443789	0.092326
541.658848	0.092149
541.873889	0.091928
542.088912	0.092042
542.303916	0.092046
542.518902	0.092522
542.733870	0.093190
542.948820	0.093338
543.163752	0.093235
543.378665	0.093600
543.593560	0.093845
543.808437	0.093913
544.023295	0.094196
544.238136	0.094532
544.452958	0.094087
544.667762	0.093907
544.882548	0.094061
545.097315	0.094240
545.312064	0.094399
545.526795	0.094226
545.741508	0.094469
545.956203	0.093908
546.170879	0.094238
546.385537	0.094291
546.600177	0.094490
546.814799	0.095059
547.029402	0.095141
547.243988	0.095084
547.458555	0.095353
547.673103	0.095654
547.887634	0.096270
548.102146	0.096430
548.316640	0.097203
548.531116	0.097259
548.745574	0.097090
548.960013	0.097106
549.174435	0.097228
549.388838	0.097075
549.603222	0.097217
549.817589	0.097207
550.031937	0.096934
550.246267	0.096549
550.460579	0.096588
550.674873	0.096439
550.889148	0.096587
551.103405	0.096855
551.317644	0.097184
551.531865	0.096665
551.746068	0.096705
551.960252	0.096797
552.174418	0.096981
552.388566	0.097364
552.602696	0.097099
552.816807	0.097083
553.030900	0.097106
553.244975	0.097212
553.459032	0.097513
553.673070	0.097646
553.887091	0.097699
554.101093	0.098432
554.315077	0.098068
554.529042	0.098038
554.742990	0.098310
554.956919	0.098630
555.170830	0.098953
555.384722	0.099207
555.598597	0.099210
555.812453	0.099269
556.026291	0.098970
556.240111	0.099371
556.453913	0.099777
556.667696	0.100008
556.881461	0.099805
557.095208	0.099739
557.308937	0.099308
557.522647	0.099109
557.736339	0.099368
557.950013	0.099521
558.163669	0.099277
558.377307	0.099695
558.590926	0.099303
558.804527	0.099359
559.018110	0.099386
559.231675	0.099427
559.445221	0.099479
559.658749	0.099591
559.872259	0.098987
560.085751	0.099120
560.299225	0.098854
560.512680	0.098875
560.726117	0.099090
560.939536	0.099268
561.152937	0.099703
561.366319	0.099799
561.579683	0.099406
561.793029	0.099614
562.006357	0.099405
562.219667	0.099520
562.432958	0.099692
562.646231	0.099706
562.859486	0.099833
563.072723	0.100051
563.285941	0.100652
563.499141	0.101114
563.712323	0.101267
563.925487	0.101830
564.138632	0.102196
564.351760	0.102519
564.564869	0.102509
564.777960	0.102553
564.991032	0.102116
565.204087	0.102230
565.417123	0.102139
565.630141	0.102273
565.843140	0.102244
566.056122	0.102449
566.269085	0.102453
566.482030	0.102660
566.694957	0.102438
566.907866	0.103090
567.120756	0.102925
567.333628	0.103116
567.546482	0.102984
567.759318	0.103010
567.972135	0.102644
568.184935	0.102580
568.397716	0.103061
568.610478	0.103013
568.823223	0.102820
569.035949	0.103048
569.248657	0.103018
569.461347	0.103137
569.674019	0.103626
569.886672	0.103866
570.099308	0.103959
570.311925	0.103482
570.524523	0.103947
570.737104	0.104324
570.949666	0.104172
571.162210	0.104545
571.374736	0.104677
571.587244	0.104534
571.799733	0.104167
572.012205	0.104544
572.224658	0.104216
572.437092	0.104412
572.649509	0.103714
572.861907	0.103906
573.074287	0.103460
573.286649	0.103634
573.498993	0.103373
573.711318	0.103701
573.923625	0.103660
574.135914	0.104819
574.348185	0.104729
574.560438	0.105580
574.772672	0.105466
574.984888	0.105729
575.197086	0.105904
575.409266	0.106333
575.621427	0.106699
575.833570	0.106723
576.045695	0.106160
576.257802	0.106476
576.469890	0.106300
576.681961	0.106699
576.894013	0.107211
577.106046	0.107433
577.318062	0.107639
577.530059	0.107516
577.742039	0.107581
577.954000	0.107533
578.165942	0.107004
578.377867	0.107049
578.589773	0.106820
578.801661	0.106588
579.013531	0.106673
579.225382	0.106717
579.437216	0.107252
579.649031	0.107711
579.860828	0.108049
580.072606	0.108410
580.284367	0.108752
580.496109	0.108910
580.707833	0.109198
580.919539	0.109356
581.131227	0.109319
581.342896	0.109168
581.554547	0.109014
581.766180	0.109454
581.977795	0.109715
582.189391	0.109604
582.400969	0.109680
582.612529	0.109591
582.824071	0.109764
583.035595	0.109918
583.247100	0.110110
583.458587	0.110217
583.670056	0.110173
583.881506	0.110563
584.092939	0.110990
584.304353	0.111214
584.515749	0.111664
584.727127	0.111975
584.938486	0.111847
585.149828	0.111827
585.361151	0.112198
585.572456	0.112295
585.783742	0.112312
585.995011	0.112500
586.206261	0.112911
586.417493	0.112685
586.628706	0.112341
586.839902	0.113261
587.051079	0.113279
587.262238	0.113193
587.473379	0.113378
587.684502	0.113310
587.895606	0.113377
588.106692	0.113100
588.317760	0.113216
588.528810	0.113521
588.739841	0.112921
588.950855	0.113183
589.161850	0.113102
589.372827	0.113162
589.583785	0.113143
589.794726	0.113106
590.005648	0.113342
590.216552	0.113586
590.427437	0.113489
590.638305	0.113887
590.849154	0.113714
591.059985	0.113763
591.270798	0.113686
591.481592	0.114019
591.692369	0.114000
591.903127	0.114064
592.113867	0.114398
592.324588	0.114508
592.535292	0.114533
592.745977	0.114791
592.956644	0.114812
593.167293	0.114811
593.377923	0.114577
593.588536	0.114777
593.799130	0.114839
594.009706	0.114875
594.220263	0.115228
594.430803	0.115041
594.641324	0.114988
594.851827	0.115287
595.062312	0.115518
595.272778	0.116081
595.483227	0.116056
595.693657	0.116180
595.904069	0.116116
596.114462	0.116022
596.324838	0.116225
596.535195	0.116267
596.745534	0.116271
596.955855	0.116508
597.166157	0.116346
597.376441	0.116225
597.586707	0.116463
597.796955	0.116685
598.007185	0.116968
598.217396	0.116752
598.427589	0.116803
598.637764	0.117156
598.847921	0.117066
599.058060	0.117147
599.268180	0.117589
599.478282	0.117607
599.688366	0.117283
599.898431	0.117241
600.108479	0.117609
600.318508	0.117986
600.528519	0.117915
600.738511	0.118207
600.948486	0.118362
601.158442	0.118121
601.368380	0.118268
601.578300	0.118675
601.788202	0.118614
601.998085	0.118547
602.207950	0.118456
602.417797	0.118116
602.627626	0.118096
602.837436	0.118105
603.047228	0.118477
603.257002	0.118346
603.466758	0.118175
603.676496	0.118429
603.886215	0.118508
604.095916	0.118855
604.305599	0.119487
604.515264	0.119444
604.724910	0.119570
604.934538	0.119718
605.144148	0.119964
605.353740	0.120401
605.563314	0.120449
605.772869	0.120706
605.982406	0.120656
606.191925	0.120619
606.401425	0.121002
606.610908	0.121087
606.820372	0.121003
607.029818	0.120930
607.239246	0.121033
607.448655	0.120855
607.658047	0.120949
607.867420	0.121009
608.076775	0.121181
608.286111	0.120952
608.495430	0.121242
608.704730	0.121556
608.914012	0.121700
609.123275	0.121552
609.332521	0.121919
609.541748	0.121915
609.750957	0.121770
609.960148	0.121825
610.169321	0.122127
610.378475	0.122177
610.587611	0.122298
610.796729	0.122251
611.005829	0.122402
611.214910	0.122466
611.423974	0.122750
611.633019	0.123156
611.842045	0.123160
612.051054	0.123264
612.260044	0.123233
612.469017	0.123137
612.677970	0.123343
612.886906	0.123194
613.095824	0.123036
613.304723	0.123090
613.513604	0.122998
613.722467	0.122930
613.931311	0.122763
614.140138	0.122698
614.348946	0.122722
614.557736	0.122809
614.766507	0.123062
614.975261	0.123175
615.183996	0.123109
615.392713	0.123271
615.601412	0.123663
615.810092	0.123953
616.018754	0.123776
616.227399	0.123922
616.436024	0.124108
616.644632	0.124023
616.853222	0.123985
617.061793	0.124199
617.270346	0.124150
617.478880	0.124091
617.687397	0.124174
617.895895	0.124325
618.104375	0.124334
618.312837	0.124118
618.521281	0.124281
618.729706	0.124714
618.938113	0.124590
619.146502	0.124898
619.354873	0.124910
619.563226	0.124859
619.771560	0.125128
619.979876	0.125232
620.188174	0.125268
620.396453	0.125285
620.604715	0.125206
620.812958	0.125456
621.021183	0.125474
621.229390	0.125477
621.437578	0.125642
621.645748	0.125740
621.853900	0.125795
622.062034	0.125839
622.270150	0.125902
622.478247	0.125771
622.686326	0.125810
622.894387	0.125844
623.102430	0.126247
623.310454	0.126313
623.518461	0.126377
623.726449	0.126355
623.934418	0.126734
624.142370	0.127210
624.350303	0.127553
624.558218	0.127578
624.766115	0.127701
624.973994	0.127541
625.181855	0.127511
625.389697	0.127646
625.597521	0.127632
625.805327	0.127820
626.013114	0.127562
626.220883	0.127650
626.428634	0.127700
626.636367	0.127659
626.844082	0.127664
627.051778	0.127652
627.259457	0.127394
627.467117	0.127680
627.674758	0.127285
627.882382	0.127304
628.089987	0.127257
628.297574	0.127338
628.505143	0.127420
628.712694	0.127474
628.920226	0.127744
629.127740	0.127923
629.335236	0.127934
629.542714	0.128310
629.750174	0.128331
629.957615	0.128282
630.165038	0.128208
630.372443	0.128132
630.579829	0.128171
630.787198	0.128022
630.994548	0.128302
631.201880	0.128296
631.409194	0.128102
631.616489	0.128181
631.823766	0.128230
632.031025	0.128298
632.238266	0.128568
632.445489	0.128713
632.652693	0.128903
632.859879	0.129009
633.067047	0.128895
633.274197	0.129234
633.481329	0.129190
633.688442	0.129361
633.895537	0.129745
634.102614	0.129805
634.309672	0.129875
634.516713	0.129728
634.723735	0.129531
634.930739	0.129816
635.137724	0.129995
635.344692	0.130171
635.551641	0.130065
635.758572	0.130123
635.965485	0.130353
636.172379	0.130451
636.379256	0.130607
636.586114	0.131016
636.792954	0.130926
636.999775	0.130931
637.206579	0.131083
637.413364	0.131490
637.620131	0.131573
637.826880	0.131499
638.033610	0.131628
638.240323	0.132112
638.447017	0.132233
638.653692	0.132537
638.860350	0.132501
639.066990	0.132840
639.273611	0.133050
639.480214	0.133324
639.686798	0.133538
639.893365	0.133737
640.099913	0.133692
640.306443	0.133913
640.512955	0.133889
640.719449	0.134048
640.925924	0.134014
641.132381	0.134028
641.338820	0.134037
641.545241	0.133973
641.751644	0.133918
641.958028	0.134059
642.164394	0.133802
642.370742	0.134095
642.577071	0.134105
642.783383	0.134159
642.989676	0.134152
643.195951	0.134024
643.402207	0.134252
643.608446	0.134435
643.814666	0.134346
644.020868	0.134674
644.227052	0.134506
644.433218	0.134616
644.639365	0.134710
644.845494	0.135153
645.051605	0.135463
645.257698	0.135530
645.463772	0.135567
645.669828	0.135758
645.875866	0.135714
646.081886	0.136060
646.287888	0.136142
646.493871	0.136230
646.699836	0.136011
646.905783	0.135979
647.111712	0.136099
647.317622	0.136283
647.523514	0.136390
647.729388	0.136468
647.935244	0.136421
648.141082	0.136632
648.346901	0.136801
648.552702	0.137075
648.758485	0.137097
648.964250	0.136987
649.169996	0.136813
649.375724	0.136660
649.581434	0.136752
649.787126	0.136763
649.992800	0.136705
650.198455	0.136531
650.404092	0.136435
650.609711	0.136496
650.815311	0.136573
651.020894	0.136721
651.226458	0.136877
651.432004	0.136882
651.637532	0.136858
651.843041	0.136960
652.048532	0.137071
652.254006	0.136878
652.459460	0.136917
652.664897	0.137046
652.870315	0.137253
653.075716	0.137581
653.281097	0.137700
653.486461	0.138140
653.691807	0.138397
653.897134	0.138839
654.102443	0.139272
654.307734	0.139571
654.513006	0.139789
654.718261	0.139882
654.923497	0.140001
655.128715	0.140143
655.333915	0.140444
655.539096	0.140639
655.744259	0.140579
655.949404	0.140602
656.154531	0.140672
656.359640	0.140881
656.564730	0.140928
656.769802	0.140810
656.974856	0.140933
657.179892	0.140940
657.384909	0.140878
657.589908	0.141038
657.794889	0.141136
657.999852	0.141135
658.204797	0.141092
658.409723	0.141246
658.614631	0.141650
658.819521	0.141555
659.024393	0.141488
659.229246	0.141822
659.434081	0.141886
659.638898	0.142019
659.843697	0.142202
660.048478	0.142368
660.253240	0.142519
660.457984	0.142553
660.662710	0.142807
660.867417	0.142721
661.072107	0.142520
661.276778	0.142495
661.481431	0.142375
661.686066	0.142400
661.890682	0.142344
662.095281	0.142492
662.299861	0.142261
662.504422	0.142386
662.708966	0.142745
662.913491	0.142896
663.117999	0.143063
663.322488	0.143247
663.526958	0.143334
663.731411	0.143592
663.935845	0.143633
664.140261	0.143790
664.344659	0.143876
664.549038	0.144087
664.753400	0.144222
664.957743	0.144211
665.162068	0.144392
665.366375	0.144377
665.570663	0.144413
665.774933	0.144467
665.979185	0.144565
666.183419	0.144539
666.387635	0.144459
666.591832	0.144520
666.796011	0.144816
667.000172	0.144973
667.204315	0.145112
667.408439	0.145057
667.612545	0.145328
667.816634	0.145417
668.020703	0.145393
668.224755	0.145480
668.428788	0.145679
668.632803	0.145506
668.836800	0.145476
669.040779	0.145599
669.244739	0.145795
669.448681	0.145640
669.652605	0.145791
669.856511	0.146205
670.060399	0.146171
670.264268	0.146139
670.468119	0.146347
670.671952	0.146594
670.875767	0.147017
671.079563	0.147213
671.283341	0.147427
671.487101	0.147655
671.690843	0.147781
671.894567	0.147874
672.098272	0.148206
672.301959	0.148401
672.505628	0.148543
672.709278	0.148497
672.912911	0.148508
673.116525	0.148624
673.320121	0.148768
673.523699	0.148722
673.727258	0.148841
673.930799	0.148704
674.134322	0.148825
674.337827	0.148810
674.541314	0.148821
674.744782	0.148920
674.948232	0.148974
675.151664	0.148834
675.355078	0.148701
675.558474	0.148987
675.761851	0.149113
675.965210	0.148986
676.168551	0.149119
676.371873	0.149042
676.575178	0.149061
676.778464	0.149086
676.981732	0.149509
677.184981	0.149882
677.388213	0.149868
677.591426	0.149805
677.794621	0.150090
677.997798	0.150042
678.200956	0.150382
678.404097	0.150490
678.607219	0.150533
678.810323	0.150445
679.013408	0.150414
679.216476	0.150543
679.419525	0.150901
679.622556	0.151027
679.825569	0.151271
680.028563	0.151331
680.231540	0.151564
680.434498	0.151670
680.637438	0.151656
680.840359	0.151985
681.043263	0.152204
681.246148	0.152178
681.449015	0.152340
681.651864	0.152406
681.854694	0.152533
682.057506	0.152571
682.260301	0.152745
682.463076	0.152826
682.665834	0.152844
682.868573	0.152809
683.071295	0.152907
683.273998	0.152983
683.476682	0.153131
683.679349	0.153235
683.881997	0.153414
684.084627	0.153643
684.287239	0.153867
684.489833	0.153917
684.692408	0.153913
684.894965	0.154128
685.097504	0.154342
685.300025	0.154559
685.502527	0.154540
685.705012	0.154556
685.907478	0.154674
686.109925	0.154814
686.312355	0.154832
686.514766	0.154883
686.717159	0.154940
686.919534	0.154617
687.121891	0.154503
687.324230	0.154566
687.526550	0.154499
687.728852	0.154215
687.931136	0.154003
688.133401	0.154081
688.335649	0.154297
688.537878	0.154112
688.740089	0.154165
688.942281	0.154288
689.144456	0.154173
689.346612	0.154337
689.548750	0.154500
689.750870	0.154899
689.952971	0.154833
690.155055	0.155085
690.357120	0.155062
690.559167	0.155352
690.761195	0.155267
690.963206	0.155505
691.165198	0.155706
691.367172	0.155834
691.569128	0.155660
691.771065	0.155902
691.972984	0.155708
692.174885	0.156197
692.376768	0.156287
692.578633	0.156345
692.780479	0.156451
692.982308	0.156310
693.184118	0.156553
693.385909	0.156548
