sample name	sample
index	641
start time	 03-19-2021  03:35:10 PM


Wavelength (nm)	Absorbance
494.344910	0.196147
494.563924	0.196147
494.782919	0.196147
495.001897	NaN
495.220856	0.441253
495.439797	0.265166
495.658719	0.088406
495.877624	-0.018771
496.096510	-0.076922
496.315378	-0.102126
496.534227	-0.147839
496.753059	-0.196277
496.971872	-0.093585
497.190667	0.097454
497.409444	0.107018
497.628203	0.110031
497.846943	0.110502
498.065665	0.109581
498.284369	0.109399
498.503055	0.108691
498.721723	0.109594
498.940372	0.109795
499.159003	0.110429
499.377616	0.109862
499.596210	0.110020
499.814787	0.110692
500.033345	0.111068
500.251885	0.111671
500.470406	0.112566
500.688910	0.111529
500.907395	0.111252
501.125862	0.110838
501.344311	0.112504
501.562742	0.111543
501.781154	0.111803
501.999548	0.112179
502.217924	0.111024
502.436282	0.110890
502.654621	0.111634
502.872942	0.112394
503.091245	0.112449
503.309530	0.112443
503.527797	0.112769
503.746045	0.112425
503.964275	0.112064
504.182487	0.111679
504.400681	0.111325
504.618856	0.111856
504.837013	0.110958
505.055152	0.110848
505.273273	0.109780
505.491376	0.110916
505.709460	0.110921
505.927526	0.110641
506.145574	0.111577
506.363604	0.111758
506.581615	0.111404
506.799608	0.111887
507.017583	0.112058
507.235540	0.112436
507.453478	0.112187
507.671399	0.112634
507.889301	0.113695
508.107185	0.113798
508.325050	0.113609
508.542898	0.113906
508.760727	0.113015
508.978538	0.113453
509.196330	0.113136
509.414105	0.112280
509.631861	0.110974
509.849599	0.110420
510.067319	0.110509
510.285021	0.111239
510.502704	0.110988
510.720369	0.111314
510.938016	0.112153
511.155645	0.114006
511.373255	0.115219
511.590848	0.116471
511.808422	0.116571
512.025977	0.116918
512.243515	0.116435
512.461034	0.116594
512.678536	0.117348
512.896018	0.117551
513.113483	0.115891
513.330930	0.115284
513.548358	0.116045
513.765768	0.115937
513.983160	0.115660
514.200533	0.116546
514.417889	0.116203
514.635226	0.116451
514.852545	0.115833
515.069845	0.116535
515.287128	0.116927
515.504392	0.115987
515.721638	0.115990
515.938866	0.116382
516.156075	0.116745
516.373267	0.116997
516.590440	0.117048
516.807594	0.116565
517.024731	0.117013
517.241850	0.117266
517.458950	0.118141
517.676032	0.119475
517.893095	0.119394
518.110141	0.119126
518.327168	0.119554
518.544177	0.119614
518.761168	0.120885
518.978141	0.120369
519.195095	0.120326
519.412031	0.120355
519.628949	0.119670
519.845849	0.120074
520.062731	0.119752
520.279594	0.119859
520.496439	0.120125
520.713266	0.119258
520.930074	0.119631
521.146865	0.119509
521.363637	0.119486
521.580391	0.119932
521.797127	0.120084
522.013844	0.120241
522.230543	0.120201
522.447224	0.120391
522.663887	0.120543
522.880532	0.120062
523.097158	0.120551
523.313766	0.119819
523.530356	0.119464
523.746928	0.119418
523.963481	0.119666
524.180017	0.119970
524.396534	0.119615
524.613032	0.119784
524.829513	0.120138
525.045975	0.120400
525.262420	0.121654
525.478845	0.122161
525.695253	0.122593
525.911643	0.122853
526.128014	0.122989
526.344367	0.123616
526.560702	0.123716
526.777018	0.124372
526.993316	0.124212
527.209597	0.123867
527.425858	0.123821
527.642102	0.123792
527.858328	0.124378
528.074535	0.124596
528.290724	0.124621
528.506894	0.125111
528.723047	0.125171
528.939181	0.125810
529.155297	0.126034
529.371395	0.126102
529.587475	0.126554
529.803536	0.126138
530.019579	0.126215
530.235604	0.126532
530.451611	0.126345
530.667600	0.126331
530.883570	0.126482
531.099522	0.126807
531.315456	0.127111
531.531372	0.127465
531.747269	0.127948
531.963148	0.128300
532.179009	0.128256
532.394852	0.129052
532.610676	0.129794
532.826482	0.129545
533.042271	0.129421
533.258040	0.130382
533.473792	0.130196
533.689525	0.130399
533.905240	0.130560
534.120937	0.131350
534.336616	0.131163
534.552277	0.130920
534.767919	0.131324
534.983543	0.131733
535.199149	0.131058
535.414736	0.131181
535.630306	0.131096
535.845857	0.131034
536.061390	0.131229
536.276904	0.131468
536.492401	0.131958
536.707879	0.132555
536.923339	0.132413
537.138781	0.132600
537.354204	0.132850
537.569610	0.133396
537.784997	0.133917
538.000366	0.133507
538.215716	0.133925
538.431049	0.133615
538.646363	0.133276
538.861659	0.133773
539.076937	0.134430
539.292196	0.134591
539.507438	0.134312
539.722661	0.134500
539.937866	0.134842
540.153052	0.134662
540.368221	0.135195
540.583371	0.135616
540.798503	0.136046
541.013617	0.135726
541.228712	0.135671
541.443789	0.135891
541.658848	0.135905
541.873889	0.136057
542.088912	0.136280
542.303916	0.136248
542.518902	0.136644
542.733870	0.136781
542.948820	0.137268
543.163752	0.137687
543.378665	0.138294
543.593560	0.138577
543.808437	0.138793
544.023295	0.139102
544.238136	0.139855
544.452958	0.139738
544.667762	0.140269
544.882548	0.140173
545.097315	0.140191
545.312064	0.140046
545.526795	0.140615
545.741508	0.140795
545.956203	0.141407
546.170879	0.140618
546.385537	0.140892
546.600177	0.140566
546.814799	0.141228
547.029402	0.141748
547.243988	0.141767
547.458555	0.141746
547.673103	0.141768
547.887634	0.141698
548.102146	0.142601
548.316640	0.142886
548.531116	0.143434
548.745574	0.143700
548.960013	0.144021
549.174435	0.144433
549.388838	0.144549
549.603222	0.144998
549.817589	0.145255
550.031937	0.145343
550.246267	0.145965
550.460579	0.146375
550.674873	0.146634
550.889148	0.146625
551.103405	0.147059
551.317644	0.147188
551.531865	0.147444
551.746068	0.147499
551.960252	0.147764
552.174418	0.147815
552.388566	0.147458
552.602696	0.147523
552.816807	0.147461
553.030900	0.147421
553.244975	0.147516
553.459032	0.147251
553.673070	0.146978
553.887091	0.147134
554.101093	0.147226
554.315077	0.147617
554.529042	0.147415
554.742990	0.147624
554.956919	0.147722
555.170830	0.147716
555.384722	0.147881
555.598597	0.148395
555.812453	0.148193
556.026291	0.147711
556.240111	0.147562
556.453913	0.147831
556.667696	0.148311
556.881461	0.148291
557.095208	0.148709
557.308937	0.149044
557.522647	0.149029
557.736339	0.149370
557.950013	0.149727
558.163669	0.149901
558.377307	0.149866
558.590926	0.149754
558.804527	0.150360
559.018110	0.150534
559.231675	0.150609
559.445221	0.151049
559.658749	0.151232
559.872259	0.151532
560.085751	0.151656
560.299225	0.151806
560.512680	0.151787
560.726117	0.152314
560.939536	0.152445
561.152937	0.152594
561.366319	0.152664
561.579683	0.153159
561.793029	0.153200
562.006357	0.153198
562.219667	0.153542
562.432958	0.153976
562.646231	0.153726
562.859486	0.153514
563.072723	0.154037
563.285941	0.154154
563.499141	0.154106
563.712323	0.154317
563.925487	0.154765
564.138632	0.155095
564.351760	0.154933
564.564869	0.154845
564.777960	0.155557
564.991032	0.155669
565.204087	0.155778
565.417123	0.155926
565.630141	0.155870
565.843140	0.156006
566.056122	0.156201
566.269085	0.156545
566.482030	0.156820
566.694957	0.156445
566.907866	0.156420
567.120756	0.156709
567.333628	0.156464
567.546482	0.156497
567.759318	0.156687
567.972135	0.156762
568.184935	0.157099
568.397716	0.156954
568.610478	0.157508
568.823223	0.157801
569.035949	0.157753
569.248657	0.158220
569.461347	0.158562
569.674019	0.158573
569.886672	0.158367
570.099308	0.158315
570.311925	0.158767
570.524523	0.158495
570.737104	0.158395
570.949666	0.158655
571.162210	0.158536
571.374736	0.159027
571.587244	0.159138
571.799733	0.159397
572.012205	0.159678
572.224658	0.159690
572.437092	0.160090
572.649509	0.160293
572.861907	0.160152
573.074287	0.160529
573.286649	0.160250
573.498993	0.160526
573.711318	0.160892
573.923625	0.161294
574.135914	0.161620
574.348185	0.161948
574.560438	0.162297
574.772672	0.162800
574.984888	0.162985
575.197086	0.163261
575.409266	0.163890
575.621427	0.164067
575.833570	0.164101
576.045695	0.164428
576.257802	0.164196
576.469890	0.164137
576.681961	0.164265
576.894013	0.163990
577.106046	0.164381
577.318062	0.163781
577.530059	0.163509
577.742039	0.163102
577.954000	0.163184
578.165942	0.163642
578.377867	0.163770
578.589773	0.163640
578.801661	0.164288
579.013531	0.164330
579.225382	0.164879
579.437216	0.165436
579.649031	0.166107
579.860828	0.166006
580.072606	0.166033
580.284367	0.166098
580.496109	0.166606
580.707833	0.166739
580.919539	0.167042
581.131227	0.166926
581.342896	0.166973
581.554547	0.166743
581.766180	0.167121
581.977795	0.167598
582.189391	0.167706
582.400969	0.167662
582.612529	0.167625
582.824071	0.167612
583.035595	0.168015
583.247100	0.168153
583.458587	0.168576
583.670056	0.168518
583.881506	0.168438
584.092939	0.169017
584.304353	0.169432
584.515749	0.169744
584.727127	0.169548
584.938486	0.169371
585.149828	0.169398
585.361151	0.169446
585.572456	0.169652
585.783742	0.169588
585.995011	0.169630
586.206261	0.169526
586.417493	0.169795
586.628706	0.170501
586.839902	0.170743
587.051079	0.170889
587.262238	0.170842
587.473379	0.171096
587.684502	0.171672
587.895606	0.171498
588.106692	0.171591
588.317760	0.171415
588.528810	0.171308
588.739841	0.171620
588.950855	0.171933
589.161850	0.172372
589.372827	0.172473
589.583785	0.172338
589.794726	0.172492
590.005648	0.172821
590.216552	0.173206
590.427437	0.173013
590.638305	0.173079
590.849154	0.172868
591.059985	0.172591
591.270798	0.172599
591.481592	0.172949
591.692369	0.173200
591.903127	0.173267
592.113867	0.173245
592.324588	0.173728
592.535292	0.173886
592.745977	0.174391
592.956644	0.174846
593.167293	0.175024
593.377923	0.174991
593.588536	0.175104
593.799130	0.174744
594.009706	0.175167
594.220263	0.175362
594.430803	0.175436
594.641324	0.175470
594.851827	0.176110
595.062312	0.176087
595.272778	0.176356
595.483227	0.176640
595.693657	0.177119
595.904069	0.177138
596.114462	0.176901
596.324838	0.177224
596.535195	0.177407
596.745534	0.177000
596.955855	0.177543
597.166157	0.177506
597.376441	0.177700
597.586707	0.177928
597.796955	0.177912
598.007185	0.178375
598.217396	0.178499
598.427589	0.178567
598.637764	0.178846
598.847921	0.178811
599.058060	0.178838
599.268180	0.179078
599.478282	0.179160
599.688366	0.179116
599.898431	0.179171
600.108479	0.179291
600.318508	0.179335
600.528519	0.179312
600.738511	0.179391
600.948486	0.179480
601.158442	0.179387
601.368380	0.179503
601.578300	0.179578
601.788202	0.179888
601.998085	0.179988
602.207950	0.180438
602.417797	0.180934
602.627626	0.181311
602.837436	0.181677
603.047228	0.181649
603.257002	0.181745
603.466758	0.182191
603.676496	0.182291
603.886215	0.182377
604.095916	0.182362
604.305599	0.182247
604.515264	0.182245
604.724910	0.182373
604.934538	0.182593
605.144148	0.182723
605.353740	0.182693
605.563314	0.182556
605.772869	0.182723
605.982406	0.182660
606.191925	0.182759
606.401425	0.182493
606.610908	0.182388
606.820372	0.182442
607.029818	0.182510
607.239246	0.182992
607.448655	0.183217
607.658047	0.183140
607.867420	0.183041
608.076775	0.183176
608.286111	0.183606
608.495430	0.183722
608.704730	0.184106
608.914012	0.184306
609.123275	0.184135
609.332521	0.184134
609.541748	0.183906
609.750957	0.184470
609.960148	0.184595
610.169321	0.184575
610.378475	0.184971
610.587611	0.185133
610.796729	0.185228
611.005829	0.185425
611.214910	0.185545
611.423974	0.186023
611.633019	0.185946
611.842045	0.185892
612.051054	0.186224
612.260044	0.186087
612.469017	0.185872
612.677970	0.186009
612.886906	0.186007
613.095824	0.186296
613.304723	0.186283
613.513604	0.186641
613.722467	0.186583
613.931311	0.186368
614.140138	0.186455
614.348946	0.186780
614.557736	0.186882
614.766507	0.186918
614.975261	0.186713
615.183996	0.187074
615.392713	0.187111
615.601412	0.187347
615.810092	0.187428
616.018754	0.187554
616.227399	0.187520
616.436024	0.187513
616.644632	0.187710
616.853222	0.187957
617.061793	0.188089
617.270346	0.187870
617.478880	0.187728
617.687397	0.188142
617.895895	0.188381
618.104375	0.188704
618.312837	0.188828
618.521281	0.188930
618.729706	0.189217
618.938113	0.189127
619.146502	0.189269
619.354873	0.189755
619.563226	0.189787
619.771560	0.189932
619.979876	0.189920
620.188174	0.190338
620.396453	0.190531
620.604715	0.190675
620.812958	0.190955
621.021183	0.191026
621.229390	0.190951
621.437578	0.190995
621.645748	0.191270
621.853900	0.191262
622.062034	0.191403
622.270150	0.191551
622.478247	0.191613
622.686326	0.191815
622.894387	0.192130
623.102430	0.192531
623.310454	0.192591
623.518461	0.192585
623.726449	0.192692
623.934418	0.192471
624.142370	0.192464
624.350303	0.192465
624.558218	0.192525
624.766115	0.192696
624.973994	0.192719
625.181855	0.192968
625.389697	0.193010
625.597521	0.193223
625.805327	0.193561
626.013114	0.193792
626.220883	0.193881
626.428634	0.193831
626.636367	0.194003
626.844082	0.194075
627.051778	0.194202
627.259457	0.194223
627.467117	0.194383
627.674758	0.194105
627.882382	0.194030
628.089987	0.194072
628.297574	0.194298
628.505143	0.194348
628.712694	0.194551
628.920226	0.194583
629.127740	0.194677
629.335236	0.194489
629.542714	0.194908
629.750174	0.194801
629.957615	0.195101
630.165038	0.195067
630.372443	0.195108
630.579829	0.194888
630.787198	0.195091
630.994548	0.195221
631.201880	0.195462
631.409194	0.195563
631.616489	0.195950
631.823766	0.195978
632.031025	0.196131
632.238266	0.196150
632.445489	0.196498
632.652693	0.196412
632.859879	0.196526
633.067047	0.196604
633.274197	0.196560
633.481329	0.196949
633.688442	0.197216
633.895537	0.197216
634.102614	0.197415
634.309672	0.197465
634.516713	0.197633
634.723735	0.197725
634.930739	0.197983
635.137724	0.198169
635.344692	0.197825
635.551641	0.197983
635.758572	0.198186
635.965485	0.198422
636.172379	0.198695
636.379256	0.198898
636.586114	0.198932
636.792954	0.198906
636.999775	0.198900
637.206579	0.199192
637.413364	0.199165
637.620131	0.199283
637.826880	0.199455
638.033610	0.199434
638.240323	0.199460
638.447017	0.199810
638.653692	0.199982
638.860350	0.200405
639.066990	0.200429
639.273611	0.200614
639.480214	0.200802
639.686798	0.201007
639.893365	0.201135
640.099913	0.201326
640.306443	0.201273
640.512955	0.201488
640.719449	0.201474
640.925924	0.201643
641.132381	0.201685
641.338820	0.201807
641.545241	0.201614
641.751644	0.201669
641.958028	0.201558
642.164394	0.201855
642.370742	0.202096
642.577071	0.202244
642.783383	0.202319
642.989676	0.202286
643.195951	0.202526
643.402207	0.202635
643.608446	0.203031
643.814666	0.203378
644.020868	0.203448
644.227052	0.203637
644.433218	0.203478
644.639365	0.203690
644.845494	0.204074
645.051605	0.204179
645.257698	0.204431
645.463772	0.204220
645.669828	0.204499
645.875866	0.204871
646.081886	0.204920
646.287888	0.205555
646.493871	0.205895
646.699836	0.205999
646.905783	0.205823
647.111712	0.205915
647.317622	0.206150
647.523514	0.205924
647.729388	0.205713
647.935244	0.205816
648.141082	0.205745
648.346901	0.205747
648.552702	0.205751
648.758485	0.206084
648.964250	0.206036
649.169996	0.206348
649.375724	0.206673
649.581434	0.206986
649.787126	0.207020
649.992800	0.207001
650.198455	0.206935
650.404092	0.207122
650.609711	0.207533
650.815311	0.207985
651.020894	0.207931
651.226458	0.208007
651.432004	0.208139
651.637532	0.208452
651.843041	0.208650
652.048532	0.208988
652.254006	0.209141
652.459460	0.209026
652.664897	0.209156
652.870315	0.209406
653.075716	0.209435
653.281097	0.209421
653.486461	0.209173
653.691807	0.209508
653.897134	0.209450
654.102443	0.209393
654.307734	0.209496
654.513006	0.209600
654.718261	0.209853
654.923497	0.210057
655.128715	0.210273
655.333915	0.210794
655.539096	0.210793
655.744259	0.211051
655.949404	0.211381
656.154531	0.211625
656.359640	0.211499
656.564730	0.211626
656.769802	0.211969
656.974856	0.212251
657.179892	0.212194
657.384909	0.212225
657.589908	0.212412
657.794889	0.212706
657.999852	0.212973
658.204797	0.213458
658.409723	0.213676
658.614631	0.213605
658.819521	0.213559
659.024393	0.213809
659.229246	0.213984
659.434081	0.213963
659.638898	0.213863
659.843697	0.213808
660.048478	0.213802
660.253240	0.213844
660.457984	0.214048
660.662710	0.214200
660.867417	0.214445
661.072107	0.214588
661.276778	0.214931
661.481431	0.215008
661.686066	0.215290
661.890682	0.215438
662.095281	0.215494
662.299861	0.215486
662.504422	0.215496
662.708966	0.215572
662.913491	0.215787
663.117999	0.215728
663.322488	0.215832
663.526958	0.215838
663.731411	0.215938
663.935845	0.216086
664.140261	0.216393
664.344659	0.216751
664.549038	0.216768
664.753400	0.216822
664.957743	0.217108
665.162068	0.217175
665.366375	0.217280
665.570663	0.217622
665.774933	0.217808
665.979185	0.218095
666.183419	0.218098
666.387635	0.218151
666.591832	0.218434
666.796011	0.218472
667.000172	0.218972
667.204315	0.219267
667.408439	0.219226
667.612545	0.219259
667.816634	0.219344
668.020703	0.219543
668.224755	0.219771
668.428788	0.219742
668.632803	0.219838
668.836800	0.219877
669.040779	0.219907
669.244739	0.220039
669.448681	0.219986
669.652605	0.220075
669.856511	0.220209
670.060399	0.220416
670.264268	0.220542
670.468119	0.220937
670.671952	0.221008
670.875767	0.221039
671.079563	0.221272
671.283341	0.221813
671.487101	0.222083
671.690843	0.222329
671.894567	0.222535
672.098272	0.222986
672.301959	0.223311
672.505628	0.223505
672.709278	0.223756
672.912911	0.223861
673.116525	0.223926
673.320121	0.223821
673.523699	0.223779
673.727258	0.223926
673.930799	0.223891
674.134322	0.223865
674.337827	0.224176
674.541314	0.224183
674.744782	0.224356
674.948232	0.224251
675.151664	0.224744
675.355078	0.224892
675.558474	0.224827
675.761851	0.225166
675.965210	0.225173
676.168551	0.225205
676.371873	0.225257
676.575178	0.225191
676.778464	0.225539
676.981732	0.225652
677.184981	0.225804
677.388213	0.226134
677.591426	0.226091
677.794621	0.226273
677.997798	0.226377
678.200956	0.226713
678.404097	0.227041
678.607219	0.227370
678.810323	0.227547
679.013408	0.227904
679.216476	0.228114
679.419525	0.228038
679.622556	0.228078
679.825569	0.228365
680.028563	0.228687
680.231540	0.228774
680.434498	0.228766
680.637438	0.228656
680.840359	0.228719
681.043263	0.228975
681.246148	0.229466
681.449015	0.229801
681.651864	0.229912
681.854694	0.229845
682.057506	0.229963
682.260301	0.230158
682.463076	0.230257
682.665834	0.230580
682.868573	0.230719
683.071295	0.230815
683.273998	0.230869
683.476682	0.230762
683.679349	0.230916
683.881997	0.231590
684.084627	0.231738
684.287239	0.231820
684.489833	0.231759
684.692408	0.231619
684.894965	0.231616
685.097504	0.231760
685.300025	0.232139
685.502527	0.232334
685.705012	0.231971
685.907478	0.231996
686.109925	0.232127
686.312355	0.232208
686.514766	0.232312
686.717159	0.232724
686.919534	0.232803
687.121891	0.232988
687.324230	0.233285
687.526550	0.233718
687.728852	0.233823
687.931136	0.234114
688.133401	0.234233
688.335649	0.234505
688.537878	0.234319
688.740089	0.234472
688.942281	0.234479
689.144456	0.234392
689.346612	0.234071
689.548750	0.234095
689.750870	0.234295
689.952971	0.234203
690.155055	0.234238
690.357120	0.234407
690.559167	0.234398
690.761195	0.234314
690.963206	0.234388
691.165198	0.234659
691.367172	0.234703
691.569128	0.234597
691.771065	0.235288
691.972984	0.235469
692.174885	0.235933
692.376768	0.236211
692.578633	0.236402
692.780479	0.236558
692.982308	0.236594
693.184118	0.236900
693.385909	0.237010
