sample name	sample
index	552
start time	 03-15-2021  11:44:37 AM


Wavelength (nm)	Absorbance
494.344910	-0.875569
494.563924	-0.875569
494.782919	-0.875569
495.001897	NaN
495.220856	NaN
495.439797	NaN
495.658719	NaN
495.877624	NaN
496.096510	NaN
496.315378	NaN
496.534227	NaN
496.753059	NaN
496.971872	NaN
497.190667	0.131286
497.409444	0.123112
497.628203	0.117365
497.846943	0.116474
498.065665	0.117207
498.284369	0.118257
498.503055	0.117234
498.721723	0.116605
498.940372	0.116102
499.159003	0.116259
499.377616	0.113078
499.596210	0.113446
499.814787	0.113463
500.033345	0.112974
500.251885	0.112560
500.470406	0.113500
500.688910	0.113822
500.907395	0.114500
501.125862	0.114022
501.344311	0.115823
501.562742	0.115483
501.781154	0.113776
501.999548	0.114007
502.217924	0.114625
502.436282	0.113094
502.654621	0.113017
502.872942	0.113202
503.091245	0.112709
503.309530	0.111217
503.527797	0.111361
503.746045	0.112384
503.964275	0.112555
504.182487	0.111322
504.400681	0.113156
504.618856	0.112446
504.837013	0.112700
505.055152	0.114274
505.273273	0.115156
505.491376	0.115362
505.709460	0.115424
505.927526	0.115708
506.145574	0.116488
506.363604	0.116146
506.581615	0.116739
506.799608	0.116651
507.017583	0.116229
507.235540	0.117178
507.453478	0.117738
507.671399	0.117336
507.889301	0.117791
508.107185	0.117739
508.325050	0.117826
508.542898	0.118248
508.760727	0.118298
508.978538	0.118305
509.196330	0.118440
509.414105	0.118307
509.631861	0.118379
509.849599	0.117577
510.067319	0.117612
510.285021	0.117939
510.502704	0.118011
510.720369	0.117188
510.938016	0.117601
511.155645	0.116119
511.373255	0.116212
511.590848	0.117002
511.808422	0.116611
512.025977	0.116776
512.243515	0.116499
512.461034	0.117263
512.678536	0.118664
512.896018	0.118479
513.113483	0.119252
513.330930	0.119249
513.548358	0.118528
513.765768	0.119423
513.983160	0.119398
514.200533	0.119330
514.417889	0.118608
514.635226	0.118200
514.852545	0.118064
515.069845	0.117502
515.287128	0.117415
515.504392	0.118386
515.721638	0.117885
515.938866	0.118549
516.156075	0.118883
516.373267	0.119282
516.590440	0.119294
516.807594	0.120032
517.024731	0.120304
517.241850	0.121345
517.458950	0.121136
517.676032	0.121801
517.893095	0.121349
518.110141	0.121252
518.327168	0.120755
518.544177	0.120669
518.761168	0.120763
518.978141	0.122235
519.195095	0.121611
519.412031	0.122128
519.628949	0.122806
519.845849	0.123004
520.062731	0.123642
520.279594	0.124397
520.496439	0.125031
520.713266	0.125489
520.930074	0.125359
521.146865	0.126594
521.363637	0.126194
521.580391	0.125704
521.797127	0.126387
522.013844	0.126011
522.230543	0.126170
522.447224	0.126404
522.663887	0.126176
522.880532	0.126514
523.097158	0.125708
523.313766	0.125387
523.530356	0.126306
523.746928	0.126415
523.963481	0.126857
524.180017	0.126949
524.396534	0.127138
524.613032	0.127238
524.829513	0.127493
525.045975	0.128277
525.262420	0.129137
525.478845	0.128592
525.695253	0.129037
525.911643	0.129535
526.128014	0.130109
526.344367	0.130559
526.560702	0.131143
526.777018	0.130448
526.993316	0.130219
527.209597	0.130740
527.425858	0.131352
527.642102	0.130863
527.858328	0.130635
528.074535	0.131115
528.290724	0.130642
528.506894	0.130540
528.723047	0.130974
528.939181	0.131498
529.155297	0.131313
529.371395	0.130996
529.587475	0.131457
529.803536	0.132049
530.019579	0.132009
530.235604	0.132679
530.451611	0.133186
530.667600	0.133197
530.883570	0.133288
531.099522	0.133582
531.315456	0.134541
531.531372	0.134547
531.747269	0.134350
531.963148	0.134176
532.179009	0.134116
532.394852	0.134045
532.610676	0.134766
532.826482	0.135148
533.042271	0.135320
533.258040	0.135150
533.473792	0.135599
533.689525	0.135476
533.905240	0.135854
534.120937	0.136337
534.336616	0.136613
534.552277	0.136920
534.767919	0.136795
534.983543	0.136771
535.199149	0.137107
535.414736	0.137408
535.630306	0.138215
535.845857	0.138139
536.061390	0.138351
536.276904	0.138340
536.492401	0.138550
536.707879	0.139278
536.923339	0.140099
537.138781	0.140197
537.354204	0.140405
537.569610	0.140610
537.784997	0.141295
538.000366	0.141161
538.215716	0.141654
538.431049	0.141913
538.646363	0.141765
538.861659	0.142354
539.076937	0.142620
539.292196	0.142926
539.507438	0.142723
539.722661	0.142671
539.937866	0.142933
540.153052	0.142950
540.368221	0.143182
540.583371	0.143656
540.798503	0.143458
541.013617	0.143506
541.228712	0.144186
541.443789	0.144550
541.658848	0.144477
541.873889	0.145114
542.088912	0.144948
542.303916	0.144509
542.518902	0.144673
542.733870	0.144822
542.948820	0.145054
543.163752	0.144643
543.378665	0.144863
543.593560	0.145541
543.808437	0.145283
544.023295	0.145452
544.238136	0.145939
544.452958	0.146239
544.667762	0.146351
544.882548	0.146549
545.097315	0.146604
545.312064	0.146700
545.526795	0.147352
545.741508	0.147194
545.956203	0.147830
546.170879	0.148057
546.385537	0.148120
546.600177	0.148049
546.814799	0.148100
547.029402	0.148483
547.243988	0.149152
547.458555	0.149187
547.673103	0.149925
547.887634	0.150161
548.102146	0.150312
548.316640	0.150263
548.531116	0.150696
548.745574	0.151515
548.960013	0.151628
549.174435	0.151777
549.388838	0.152092
549.603222	0.152378
549.817589	0.152731
550.031937	0.153026
550.246267	0.153421
550.460579	0.153294
550.674873	0.153176
550.889148	0.153653
551.103405	0.153526
551.317644	0.153252
551.531865	0.153181
551.746068	0.153175
551.960252	0.153388
552.174418	0.153119
552.388566	0.153664
552.602696	0.154354
552.816807	0.154385
553.030900	0.154503
553.244975	0.154775
553.459032	0.154956
553.673070	0.154949
553.887091	0.155025
554.101093	0.155674
554.315077	0.155813
554.529042	0.155531
554.742990	0.155320
554.956919	0.155391
555.170830	0.155726
555.384722	0.156092
555.598597	0.156562
555.812453	0.156675
556.026291	0.156860
556.240111	0.156689
556.453913	0.156872
556.667696	0.157109
556.881461	0.157312
557.095208	0.157070
557.308937	0.157282
557.522647	0.157593
557.736339	0.158191
557.950013	0.157756
558.163669	0.158151
558.377307	0.158224
558.590926	0.158868
558.804527	0.158975
559.018110	0.159148
559.231675	0.159028
559.445221	0.158893
559.658749	0.158528
559.872259	0.158967
560.085751	0.159110
560.299225	0.159328
560.512680	0.159497
560.726117	0.159699
560.939536	0.159977
561.152937	0.160190
561.366319	0.160139
561.579683	0.160404
561.793029	0.160583
562.006357	0.160221
562.219667	0.160289
562.432958	0.160664
562.646231	0.160656
562.859486	0.160895
563.072723	0.160939
563.285941	0.160948
563.499141	0.161140
563.712323	0.161256
563.925487	0.161802
564.138632	0.161509
564.351760	0.161262
564.564869	0.161691
564.777960	0.161934
564.991032	0.161908
565.204087	0.161799
565.417123	0.161877
565.630141	0.162297
565.843140	0.162994
566.056122	0.163382
566.269085	0.163533
566.482030	0.163530
566.694957	0.163735
566.907866	0.163916
567.120756	0.164402
567.333628	0.164713
567.546482	0.164441
567.759318	0.163517
567.972135	0.163575
568.184935	0.163471
568.397716	0.163625
568.610478	0.163361
568.823223	0.163550
569.035949	0.163473
569.248657	0.163221
569.461347	0.163563
569.674019	0.164492
569.886672	0.164529
570.099308	0.164509
570.311925	0.164278
570.524523	0.164374
570.737104	0.164790
570.949666	0.165039
571.162210	0.164973
571.374736	0.164626
571.587244	0.164764
571.799733	0.164649
572.012205	0.164927
572.224658	0.165291
572.437092	0.165578
572.649509	0.165676
572.861907	0.165661
573.074287	0.165989
573.286649	0.166053
573.498993	0.165883
573.711318	0.166397
573.923625	0.166319
574.135914	0.166309
574.348185	0.166187
574.560438	0.166098
574.772672	0.166505
574.984888	0.166968
575.197086	0.167374
575.409266	0.167416
575.621427	0.167514
575.833570	0.168168
576.045695	0.168668
576.257802	0.168795
576.469890	0.168698
576.681961	0.168734
576.894013	0.168589
577.106046	0.168678
577.318062	0.168697
577.530059	0.168753
577.742039	0.168180
577.954000	0.168068
578.165942	0.168076
578.377867	0.168131
578.589773	0.168308
578.801661	0.168411
579.013531	0.168742
579.225382	0.168899
579.437216	0.169353
579.649031	0.169878
579.860828	0.169972
580.072606	0.170443
580.284367	0.170775
580.496109	0.171054
580.707833	0.171368
580.919539	0.171261
581.131227	0.171758
581.342896	0.171315
581.554547	0.171607
581.766180	0.171925
581.977795	0.171975
582.189391	0.172065
582.400969	0.172349
582.612529	0.172335
582.824071	0.172608
583.035595	0.172232
583.247100	0.172593
583.458587	0.171968
583.670056	0.171734
583.881506	0.171579
584.092939	0.172080
584.304353	0.171581
584.515749	0.171902
584.727127	0.172038
584.938486	0.172238
585.149828	0.172215
585.361151	0.172930
585.572456	0.173177
585.783742	0.173476
585.995011	0.173225
586.206261	0.173658
586.417493	0.173529
586.628706	0.173570
586.839902	0.174088
587.051079	0.174213
587.262238	0.174209
587.473379	0.173985
587.684502	0.173939
587.895606	0.173999
588.106692	0.173792
588.317760	0.173668
588.528810	0.173899
588.739841	0.173722
588.950855	0.174056
589.161850	0.174235
589.372827	0.174920
589.583785	0.175114
589.794726	0.175614
590.005648	0.175929
590.216552	0.176320
590.427437	0.176174
590.638305	0.176528
590.849154	0.176442
591.059985	0.176498
591.270798	0.176416
591.481592	0.176491
591.692369	0.176059
591.903127	0.176008
592.113867	0.176240
592.324588	0.176805
592.535292	0.176369
592.745977	0.176683
592.956644	0.176632
593.167293	0.176737
593.377923	0.176706
593.588536	0.176951
593.799130	0.177124
594.009706	0.177268
594.220263	0.177370
594.430803	0.177731
594.641324	0.177706
594.851827	0.177719
595.062312	0.177829
595.272778	0.178320
595.483227	0.178473
595.693657	0.178838
595.904069	0.179210
596.114462	0.178736
596.324838	0.178999
596.535195	0.178999
596.745534	0.179475
596.955855	0.179487
597.166157	0.179397
597.376441	0.179237
597.586707	0.179292
597.796955	0.178952
598.007185	0.179448
598.217396	0.179618
598.427589	0.179918
598.637764	0.179855
598.847921	0.180180
599.058060	0.180476
599.268180	0.181025
599.478282	0.181082
599.688366	0.181233
599.898431	0.181013
600.108479	0.181010
600.318508	0.180920
600.528519	0.181082
600.738511	0.181214
600.948486	0.180969
601.158442	0.180872
601.368380	0.180901
601.578300	0.181187
601.788202	0.181529
601.998085	0.181831
602.207950	0.182155
602.417797	0.182678
602.627626	0.182483
602.837436	0.182653
603.047228	0.182939
603.257002	0.183323
603.466758	0.183049
603.676496	0.183231
603.886215	0.183075
604.095916	0.183216
604.305599	0.183108
604.515264	0.183493
604.724910	0.183782
604.934538	0.183802
605.144148	0.183837
605.353740	0.184145
605.563314	0.184339
605.772869	0.184389
605.982406	0.184555
606.191925	0.184358
606.401425	0.184087
606.610908	0.184083
606.820372	0.183960
607.029818	0.183808
607.239246	0.184108
607.448655	0.183859
607.658047	0.184073
607.867420	0.183941
608.076775	0.184201
608.286111	0.184321
608.495430	0.184512
608.704730	0.184848
608.914012	0.184899
609.123275	0.184783
609.332521	0.185072
609.541748	0.185291
609.750957	0.185331
609.960148	0.185653
610.169321	0.186172
610.378475	0.186229
610.587611	0.186570
610.796729	0.186862
611.005829	0.186676
611.214910	0.186555
611.423974	0.186521
611.633019	0.186914
611.842045	0.186876
612.051054	0.186813
612.260044	0.186858
612.469017	0.186723
612.677970	0.186708
612.886906	0.186914
613.095824	0.187183
613.304723	0.187014
613.513604	0.186951
613.722467	0.186954
613.931311	0.186843
614.140138	0.187049
614.348946	0.187309
614.557736	0.187590
614.766507	0.188027
614.975261	0.188124
615.183996	0.188760
615.392713	0.188834
615.601412	0.188899
615.810092	0.189226
616.018754	0.189311
616.227399	0.189187
616.436024	0.189017
616.644632	0.189080
616.853222	0.188982
617.061793	0.188759
617.270346	0.189148
617.478880	0.189342
617.687397	0.189734
617.895895	0.190047
618.104375	0.190173
618.312837	0.190974
618.521281	0.191155
618.729706	0.191218
618.938113	0.191458
619.146502	0.191583
619.354873	0.191572
619.563226	0.191307
619.771560	0.191069
619.979876	0.191304
620.188174	0.190825
620.396453	0.191031
620.604715	0.191630
620.812958	0.191668
621.021183	0.191383
621.229390	0.191528
621.437578	0.191656
621.645748	0.192146
621.853900	0.192260
622.062034	0.192421
622.270150	0.192206
622.478247	0.192199
622.686326	0.192492
622.894387	0.192667
623.102430	0.192976
623.310454	0.193058
623.518461	0.192632
623.726449	0.192701
623.934418	0.192863
624.142370	0.193012
624.350303	0.193102
624.558218	0.193005
624.766115	0.192962
624.973994	0.192905
625.181855	0.193140
625.389697	0.193683
625.597521	0.193551
625.805327	0.193568
626.013114	0.193605
626.220883	0.193563
626.428634	0.193603
626.636367	0.193942
626.844082	0.194111
627.051778	0.194129
627.259457	0.194068
627.467117	0.194693
627.674758	0.195048
627.882382	0.195081
628.089987	0.195190
628.297574	0.195580
628.505143	0.196028
628.712694	0.196074
628.920226	0.196288
629.127740	0.196717
629.335236	0.196233
629.542714	0.196125
629.750174	0.196510
629.957615	0.196772
630.165038	0.196693
630.372443	0.196647
630.579829	0.196557
630.787198	0.196736
630.994548	0.196675
631.201880	0.197189
631.409194	0.197538
631.616489	0.197641
631.823766	0.197630
632.031025	0.197552
632.238266	0.197426
632.445489	0.197771
632.652693	0.197748
632.859879	0.197780
633.067047	0.197741
633.274197	0.197820
633.481329	0.197993
633.688442	0.198172
633.895537	0.198383
634.102614	0.198662
634.309672	0.198807
634.516713	0.198995
634.723735	0.198996
634.930739	0.199136
635.137724	0.199154
635.344692	0.199296
635.551641	0.199602
635.758572	0.200068
635.965485	0.200410
636.172379	0.200521
636.379256	0.200561
636.586114	0.200649
636.792954	0.200922
636.999775	0.200871
637.206579	0.200819
637.413364	0.200709
637.620131	0.200601
637.826880	0.200542
638.033610	0.200689
638.240323	0.200935
638.447017	0.201367
638.653692	0.201534
638.860350	0.201928
639.066990	0.202172
639.273611	0.202218
639.480214	0.202409
639.686798	0.202676
639.893365	0.202630
640.099913	0.202775
640.306443	0.202621
640.512955	0.202513
640.719449	0.202685
640.925924	0.202648
641.132381	0.203063
641.338820	0.203312
641.545241	0.203040
641.751644	0.203365
641.958028	0.203656
642.164394	0.203843
642.370742	0.203769
642.577071	0.203707
642.783383	0.203956
642.989676	0.203796
643.195951	0.203850
643.402207	0.204162
643.608446	0.204208
643.814666	0.204129
644.020868	0.204448
644.227052	0.204836
644.433218	0.205032
644.639365	0.205189
644.845494	0.205409
645.051605	0.205488
645.257698	0.205684
645.463772	0.205630
645.669828	0.205727
645.875866	0.205878
646.081886	0.206033
646.287888	0.206165
646.493871	0.206082
646.699836	0.206230
646.905783	0.206343
647.111712	0.206265
647.317622	0.206487
647.523514	0.206835
647.729388	0.207036
647.935244	0.207330
648.141082	0.207303
648.346901	0.207451
648.552702	0.207617
648.758485	0.208028
648.964250	0.208462
649.169996	0.208817
649.375724	0.208773
649.581434	0.208916
649.787126	0.209086
649.992800	0.209474
650.198455	0.209748
650.404092	0.210024
650.609711	0.209914
650.815311	0.209783
651.020894	0.209938
651.226458	0.209939
651.432004	0.210081
651.637532	0.209788
651.843041	0.209628
652.048532	0.209777
652.254006	0.209902
652.459460	0.209958
652.664897	0.210090
652.870315	0.210264
653.075716	0.210410
653.281097	0.210175
653.486461	0.210486
653.691807	0.210700
653.897134	0.210926
654.102443	0.211332
654.307734	0.211542
654.513006	0.211679
654.718261	0.211727
654.923497	0.212129
655.128715	0.212683
655.333915	0.213059
655.539096	0.213522
655.744259	0.213526
655.949404	0.213255
656.154531	0.213589
656.359640	0.214048
656.564730	0.214381
656.769802	0.214581
656.974856	0.214287
657.179892	0.214489
657.384909	0.214537
657.589908	0.215057
657.794889	0.215359
657.999852	0.215460
658.204797	0.215717
658.409723	0.215765
658.614631	0.215658
658.819521	0.216116
659.024393	0.216260
659.229246	0.216486
659.434081	0.216274
659.638898	0.216286
659.843697	0.216335
660.048478	0.216301
660.253240	0.216585
660.457984	0.216957
660.662710	0.216925
660.867417	0.217130
661.072107	0.217341
661.276778	0.217533
661.481431	0.217943
661.686066	0.218191
661.890682	0.218477
662.095281	0.218485
662.299861	0.218614
662.504422	0.218749
662.708966	0.218712
662.913491	0.218759
663.117999	0.219336
663.322488	0.219360
663.526958	0.219581
663.731411	0.219945
663.935845	0.220012
664.140261	0.220231
664.344659	0.220438
664.549038	0.221020
664.753400	0.221232
664.957743	0.221091
665.162068	0.221374
665.366375	0.221324
665.570663	0.221009
665.774933	0.221249
665.979185	0.221549
666.183419	0.222117
666.387635	0.221977
666.591832	0.222075
666.796011	0.222321
667.000172	0.222579
667.204315	0.222711
667.408439	0.222895
667.612545	0.223255
667.816634	0.223190
668.020703	0.223164
668.224755	0.223404
668.428788	0.223596
668.632803	0.223661
668.836800	0.223580
669.040779	0.224023
669.244739	0.224345
669.448681	0.224323
669.652605	0.224375
669.856511	0.224841
670.060399	0.224903
670.264268	0.225188
670.468119	0.225373
670.671952	0.225666
670.875767	0.225651
671.079563	0.225848
671.283341	0.226068
671.487101	0.226384
671.690843	0.226349
671.894567	0.226456
672.098272	0.226450
672.301959	0.226817
672.505628	0.226884
672.709278	0.227103
672.912911	0.227178
673.116525	0.227213
673.320121	0.227065
673.523699	0.227098
673.727258	0.227478
673.930799	0.227819
674.134322	0.227911
674.337827	0.228075
674.541314	0.228293
674.744782	0.228599
674.948232	0.228796
675.151664	0.229291
675.355078	0.229528
675.558474	0.229585
675.761851	0.229776
675.965210	0.229750
676.168551	0.230133
676.371873	0.230425
676.575178	0.230454
676.778464	0.230520
676.981732	0.230396
677.184981	0.230523
677.388213	0.230843
677.591426	0.230807
677.794621	0.231145
677.997798	0.231073
678.200956	0.230922
678.404097	0.231050
678.607219	0.231532
678.810323	0.232012
679.013408	0.232280
679.216476	0.232277
679.419525	0.232431
679.622556	0.232493
679.825569	0.232476
680.028563	0.232798
680.231540	0.233242
680.434498	0.233210
680.637438	0.233320
680.840359	0.233316
681.043263	0.233483
681.246148	0.233773
681.449015	0.233828
681.651864	0.234171
681.854694	0.234265
682.057506	0.234095
682.260301	0.234319
682.463076	0.234666
682.665834	0.234972
682.868573	0.235049
683.071295	0.235041
683.273998	0.235342
683.476682	0.235652
683.679349	0.235737
683.881997	0.236216
684.084627	0.236565
684.287239	0.236494
684.489833	0.236674
684.692408	0.236647
684.894965	0.236917
685.097504	0.237081
685.300025	0.237221
685.502527	0.237405
685.705012	0.237192
685.907478	0.237064
686.109925	0.237118
686.312355	0.237022
686.514766	0.237252
686.717159	0.237425
686.919534	0.237207
687.121891	0.237058
687.324230	0.237256
687.526550	0.237405
687.728852	0.237414
687.931136	0.237565
688.133401	0.237927
688.335649	0.238207
688.537878	0.238098
688.740089	0.238573
688.942281	0.238813
689.144456	0.238908
689.346612	0.238861
689.548750	0.239050
689.750870	0.239265
689.952971	0.239029
690.155055	0.239076
690.357120	0.239497
690.559167	0.239457
690.761195	0.239507
690.963206	0.239768
691.165198	0.240075
691.367172	0.240169
691.569128	0.240544
691.771065	0.240954
691.972984	0.241075
692.174885	0.240927
692.376768	0.241165
692.578633	0.241471
692.780479	0.241500
692.982308	0.241720
693.184118	0.241803
693.385909	0.241694
693.587683	0.241635
693.789438	0.241697
