sample name	sample
index	1177
start time	 04-26-2021  11:29:12 AM


Wavelength (nm)	Absorbance
494.344910	NaN
494.563924	NaN
494.782919	NaN
495.001897	-0.213173
495.220856	-0.006360
495.439797	-0.084265
495.658719	-0.175019
495.877624	-0.243080
496.096510	-0.243573
496.315378	-0.277912
496.534227	-0.221637
496.753059	-0.191295
496.971872	-0.080522
497.190667	0.042067
497.409444	0.055679
497.628203	0.060138
497.846943	0.061934
498.065665	0.063356
498.284369	0.064836
498.503055	0.064125
498.721723	0.064253
498.940372	0.062050
499.159003	0.062347
499.377616	0.062789
499.596210	0.062790
499.814787	0.062483
500.033345	0.063130
500.251885	0.063685
500.470406	0.063764
500.688910	0.062842
500.907395	0.063643
501.125862	0.063113
501.344311	0.062287
501.562742	0.061762
501.781154	0.061176
501.999548	0.060005
502.217924	0.059327
502.436282	0.059354
502.654621	0.059943
502.872942	0.060434
503.091245	0.060893
503.309530	0.060610
503.527797	0.060978
503.746045	0.062292
503.964275	0.062653
504.182487	0.061706
504.400681	0.062671
504.618856	0.061534
504.837013	0.060898
505.055152	0.061300
505.273273	0.062805
505.491376	0.063269
505.709460	0.062761
505.927526	0.063060
506.145574	0.062690
506.363604	0.061988
506.581615	0.063049
506.799608	0.062071
507.017583	0.062324
507.235540	0.062072
507.453478	0.062066
507.671399	0.061459
507.889301	0.060625
508.107185	0.061882
508.325050	0.061848
508.542898	0.061951
508.760727	0.063401
508.978538	0.062978
509.196330	0.061846
509.414105	0.061142
509.631861	0.061566
509.849599	0.061612
510.067319	0.061394
510.285021	0.061211
510.502704	0.062106
510.720369	0.060897
510.938016	0.060585
511.155645	0.061059
511.373255	0.061965
511.590848	0.062146
511.808422	0.062996
512.025977	0.063171
512.243515	0.065121
512.461034	0.064368
512.678536	0.066272
512.896018	0.066724
513.113483	0.067537
513.330930	0.067643
513.548358	0.067850
513.765768	0.068028
513.983160	0.067793
514.200533	0.066422
514.417889	0.067124
514.635226	0.066857
514.852545	0.066828
515.069845	0.066141
515.287128	0.066179
515.504392	0.065933
515.721638	0.065862
515.938866	0.066277
516.156075	0.066567
516.373267	0.065687
516.590440	0.065150
516.807594	0.064369
517.024731	0.064626
517.241850	0.065042
517.458950	0.065729
517.676032	0.065793
517.893095	0.066227
518.110141	0.066523
518.327168	0.067321
518.544177	0.067958
518.761168	0.069245
518.978141	0.069866
519.195095	0.069782
519.412031	0.069922
519.628949	0.070724
519.845849	0.070936
520.062731	0.069766
520.279594	0.069877
520.496439	0.069667
520.713266	0.069611
520.930074	0.068816
521.146865	0.068508
521.363637	0.068658
521.580391	0.068448
521.797127	0.067921
522.013844	0.069470
522.230543	0.069918
522.447224	0.069644
522.663887	0.069286
522.880532	0.070231
523.097158	0.071114
523.313766	0.071070
523.530356	0.070479
523.746928	0.070695
523.963481	0.070730
524.180017	0.070563
524.396534	0.071020
524.613032	0.071624
524.829513	0.071303
525.045975	0.070824
525.262420	0.071118
525.478845	0.071505
525.695253	0.072311
525.911643	0.072052
526.128014	0.072454
526.344367	0.072596
526.560702	0.071974
526.777018	0.072554
526.993316	0.073344
527.209597	0.073323
527.425858	0.073949
527.642102	0.073787
527.858328	0.074693
528.074535	0.074619
528.290724	0.075242
528.506894	0.076488
528.723047	0.076623
528.939181	0.076083
529.155297	0.076762
529.371395	0.076813
529.587475	0.077111
529.803536	0.076355
530.019579	0.076406
530.235604	0.075921
530.451611	0.076148
530.667600	0.076287
530.883570	0.076722
531.099522	0.076651
531.315456	0.076983
531.531372	0.076838
531.747269	0.077627
531.963148	0.078125
532.179009	0.079124
532.394852	0.079252
532.610676	0.079537
532.826482	0.079830
533.042271	0.080237
533.258040	0.080222
533.473792	0.080807
533.689525	0.081146
533.905240	0.081393
534.120937	0.081517
534.336616	0.081168
534.552277	0.081596
534.767919	0.081942
534.983543	0.081991
535.199149	0.083051
535.414736	0.083292
535.630306	0.083634
535.845857	0.083779
536.061390	0.083972
536.276904	0.084574
536.492401	0.084554
536.707879	0.084947
536.923339	0.085777
537.138781	0.085041
537.354204	0.085027
537.569610	0.085080
537.784997	0.085532
538.000366	0.085657
538.215716	0.086012
538.431049	0.086310
538.646363	0.086534
538.861659	0.086220
539.076937	0.086419
539.292196	0.086633
539.507438	0.086609
539.722661	0.086503
539.937866	0.087134
540.153052	0.087154
540.368221	0.087143
540.583371	0.086789
540.798503	0.086893
541.013617	0.087491
541.228712	0.087661
541.443789	0.087783
541.658848	0.088080
541.873889	0.087709
542.088912	0.087810
542.303916	0.088447
542.518902	0.089255
542.733870	0.089413
542.948820	0.089746
543.163752	0.090225
543.378665	0.090618
543.593560	0.090760
543.808437	0.091349
544.023295	0.091722
544.238136	0.091398
544.452958	0.091420
544.667762	0.091913
544.882548	0.091388
545.097315	0.091132
545.312064	0.091352
545.526795	0.091340
545.741508	0.090883
545.956203	0.091226
546.170879	0.091648
546.385537	0.091562
546.600177	0.091386
546.814799	0.092179
547.029402	0.092698
547.243988	0.092881
547.458555	0.093294
547.673103	0.093724
547.887634	0.094103
548.102146	0.094331
548.316640	0.094411
548.531116	0.095250
548.745574	0.095665
548.960013	0.096332
549.174435	0.096288
549.388838	0.096422
549.603222	0.096923
549.817589	0.096613
550.031937	0.097057
550.246267	0.097347
550.460579	0.097357
550.674873	0.097404
550.889148	0.097061
551.103405	0.097187
551.317644	0.097454
551.531865	0.097526
551.746068	0.097928
551.960252	0.097669
552.174418	0.097724
552.388566	0.097437
552.602696	0.097504
552.816807	0.097697
553.030900	0.097923
553.244975	0.097673
553.459032	0.097824
553.673070	0.098172
553.887091	0.098264
554.101093	0.098606
554.315077	0.098789
554.529042	0.098495
554.742990	0.098578
554.956919	0.098955
555.170830	0.099347
555.384722	0.099854
555.598597	0.099585
555.812453	0.099934
556.026291	0.100154
556.240111	0.099921
556.453913	0.100382
556.667696	0.100948
556.881461	0.101187
557.095208	0.101212
557.308937	0.101372
557.522647	0.101831
557.736339	0.101935
557.950013	0.101848
558.163669	0.102480
558.377307	0.102935
558.590926	0.102671
558.804527	0.103009
559.018110	0.103365
559.231675	0.103064
559.445221	0.102917
559.658749	0.103615
559.872259	0.103816
560.085751	0.104019
560.299225	0.103987
560.512680	0.103856
560.726117	0.103653
560.939536	0.103775
561.152937	0.103724
561.366319	0.104046
561.579683	0.103635
561.793029	0.103715
562.006357	0.103656
562.219667	0.103703
562.432958	0.103886
562.646231	0.103964
562.859486	0.104659
563.072723	0.105157
563.285941	0.105297
563.499141	0.105780
563.712323	0.106013
563.925487	0.106909
564.138632	0.107117
564.351760	0.107774
564.564869	0.108126
564.777960	0.107760
564.991032	0.107828
565.204087	0.108302
565.417123	0.108342
565.630141	0.108617
565.843140	0.108619
566.056122	0.108627
566.269085	0.108510
566.482030	0.108844
566.694957	0.109055
566.907866	0.109363
567.120756	0.109477
567.333628	0.109541
567.546482	0.110010
567.759318	0.109624
567.972135	0.109813
568.184935	0.109828
568.397716	0.109976
568.610478	0.109790
568.823223	0.110145
569.035949	0.109992
569.248657	0.110393
569.461347	0.110026
569.674019	0.110142
569.886672	0.110426
570.099308	0.110949
570.311925	0.110669
570.524523	0.111356
570.737104	0.110712
570.949666	0.110813
571.162210	0.110610
571.374736	0.111044
571.587244	0.111052
571.799733	0.111068
572.012205	0.110954
572.224658	0.111160
572.437092	0.110728
572.649509	0.111385
572.861907	0.111562
573.074287	0.112171
573.286649	0.112406
573.498993	0.112962
573.711318	0.112941
573.923625	0.113416
574.135914	0.113716
574.348185	0.114234
574.560438	0.114138
574.772672	0.114520
574.984888	0.114260
575.197086	0.114377
575.409266	0.114388
575.621427	0.114734
575.833570	0.114492
576.045695	0.114489
576.257802	0.114649
576.469890	0.114794
576.681961	0.114931
576.894013	0.115167
577.106046	0.115214
577.318062	0.115547
577.530059	0.115839
577.742039	0.116073
577.954000	0.116414
578.165942	0.116305
578.377867	0.116641
578.589773	0.116543
578.801661	0.116997
579.013531	0.116863
579.225382	0.116981
579.437216	0.117209
579.649031	0.117377
579.860828	0.117570
580.072606	0.118148
580.284367	0.118527
580.496109	0.118930
580.707833	0.118749
580.919539	0.118978
581.131227	0.118952
581.342896	0.119012
581.554547	0.119253
581.766180	0.119367
581.977795	0.119566
582.189391	0.119503
582.400969	0.119191
582.612529	0.119400
582.824071	0.119647
583.035595	0.120005
583.247100	0.120102
583.458587	0.120340
583.670056	0.120845
583.881506	0.120795
584.092939	0.120659
584.304353	0.121236
584.515749	0.121071
584.727127	0.121349
584.938486	0.121636
585.149828	0.122047
585.361151	0.122520
585.572456	0.122307
585.783742	0.122691
585.995011	0.123425
586.206261	0.123636
586.417493	0.124243
586.628706	0.124380
586.839902	0.124252
587.051079	0.124015
587.262238	0.123522
587.473379	0.123822
587.684502	0.123899
587.895606	0.123703
588.106692	0.123806
588.317760	0.123848
588.528810	0.123975
588.739841	0.124431
588.950855	0.124685
589.161850	0.125205
589.372827	0.125562
589.583785	0.125738
589.794726	0.126286
590.005648	0.126570
590.216552	0.126617
590.427437	0.126868
590.638305	0.126804
590.849154	0.127091
591.059985	0.126868
591.270798	0.126917
591.481592	0.127223
591.692369	0.126916
591.903127	0.126938
592.113867	0.127478
592.324588	0.127514
592.535292	0.128123
592.745977	0.128038
592.956644	0.128667
593.167293	0.128874
593.377923	0.128732
593.588536	0.129043
593.799130	0.129334
594.009706	0.129575
594.220263	0.129802
594.430803	0.129327
594.641324	0.129776
594.851827	0.129700
595.062312	0.129651
595.272778	0.130108
595.483227	0.130657
595.693657	0.130625
595.904069	0.130556
596.114462	0.130995
596.324838	0.131738
596.535195	0.131677
596.745534	0.131658
596.955855	0.131820
597.166157	0.131525
597.376441	0.131195
597.586707	0.131402
597.796955	0.131389
598.007185	0.131071
598.217396	0.130945
598.427589	0.131325
598.637764	0.131752
598.847921	0.131867
599.058060	0.132330
599.268180	0.132380
599.478282	0.132664
599.688366	0.132893
599.898431	0.133540
600.108479	0.133891
600.318508	0.134350
600.528519	0.134540
600.738511	0.134688
600.948486	0.134857
601.158442	0.135437
601.368380	0.135386
601.578300	0.135543
601.788202	0.135539
601.998085	0.135136
602.207950	0.135019
602.417797	0.135225
602.627626	0.135592
602.837436	0.135615
603.047228	0.135612
603.257002	0.135846
603.466758	0.135878
603.676496	0.135980
603.886215	0.136200
604.095916	0.136392
604.305599	0.136533
604.515264	0.136424
604.724910	0.136505
604.934538	0.136572
605.144148	0.136633
605.353740	0.136821
605.563314	0.136917
605.772869	0.137350
605.982406	0.137173
606.191925	0.136898
606.401425	0.137123
606.610908	0.137213
606.820372	0.137110
607.029818	0.137318
607.239246	0.137369
607.448655	0.137693
607.658047	0.137603
607.867420	0.137856
608.076775	0.138218
608.286111	0.138093
608.495430	0.138464
608.704730	0.138794
608.914012	0.139088
609.123275	0.139605
609.332521	0.139599
609.541748	0.139990
609.750957	0.140229
609.960148	0.140468
610.169321	0.140764
610.378475	0.140814
610.587611	0.140984
610.796729	0.140916
611.005829	0.140697
611.214910	0.140891
611.423974	0.140933
611.633019	0.140912
611.842045	0.141114
612.051054	0.141527
612.260044	0.141614
612.469017	0.141897
612.677970	0.142122
612.886906	0.142314
613.095824	0.142414
613.304723	0.142464
613.513604	0.142519
613.722467	0.142543
613.931311	0.142721
614.140138	0.143012
614.348946	0.143360
614.557736	0.143533
614.766507	0.143806
614.975261	0.144046
615.183996	0.144165
615.392713	0.144535
615.601412	0.144576
615.810092	0.144538
616.018754	0.144366
616.227399	0.144372
616.436024	0.144455
616.644632	0.144811
616.853222	0.144561
617.061793	0.145005
617.270346	0.145334
617.478880	0.145675
617.687397	0.145561
617.895895	0.146061
618.104375	0.146047
618.312837	0.145956
618.521281	0.145739
618.729706	0.145989
618.938113	0.145623
619.146502	0.145452
619.354873	0.145233
619.563226	0.145578
619.771560	0.145630
619.979876	0.145510
620.188174	0.145909
620.396453	0.145993
620.604715	0.146235
620.812958	0.146374
621.021183	0.146455
621.229390	0.146755
621.437578	0.146785
621.645748	0.146614
621.853900	0.146874
622.062034	0.146878
622.270150	0.146870
622.478247	0.147158
622.686326	0.147578
622.894387	0.147747
623.102430	0.147879
623.310454	0.148137
623.518461	0.148534
623.726449	0.148725
623.934418	0.148887
624.142370	0.149362
624.350303	0.149427
624.558218	0.149422
624.766115	0.149700
624.973994	0.149805
625.181855	0.149864
625.389697	0.149819
625.597521	0.149881
625.805327	0.150039
626.013114	0.149904
626.220883	0.150006
626.428634	0.150278
626.636367	0.150548
626.844082	0.150852
627.051778	0.151013
627.259457	0.151211
627.467117	0.151410
627.674758	0.151570
627.882382	0.152075
628.089987	0.152325
628.297574	0.152457
628.505143	0.152197
628.712694	0.152328
628.920226	0.152504
629.127740	0.152622
629.335236	0.152637
629.542714	0.152856
629.750174	0.152918
629.957615	0.153043
630.165038	0.153043
630.372443	0.153362
630.579829	0.153473
630.787198	0.153707
630.994548	0.153912
631.201880	0.154065
631.409194	0.154163
631.616489	0.154315
631.823766	0.154085
632.031025	0.154337
632.238266	0.154496
632.445489	0.154630
632.652693	0.154700
632.859879	0.154722
633.067047	0.154905
633.274197	0.154947
633.481329	0.154949
633.688442	0.155406
633.895537	0.155452
634.102614	0.155425
634.309672	0.155401
634.516713	0.155323
634.723735	0.155410
634.930739	0.155374
635.137724	0.155293
635.344692	0.155263
635.551641	0.155115
635.758572	0.155156
635.965485	0.155338
636.172379	0.155635
636.379256	0.155812
636.586114	0.156155
636.792954	0.156368
636.999775	0.156570
637.206579	0.156919
637.413364	0.157297
637.620131	0.157512
637.826880	0.157651
638.033610	0.157911
638.240323	0.158001
638.447017	0.158254
638.653692	0.158595
638.860350	0.158834
639.066990	0.158933
639.273611	0.158924
639.480214	0.159070
639.686798	0.159246
639.893365	0.159282
640.099913	0.159578
640.306443	0.159823
640.512955	0.160275
640.719449	0.160781
640.925924	0.160848
641.132381	0.161145
641.338820	0.161640
641.545241	0.162117
641.751644	0.162454
641.958028	0.162749
642.164394	0.163006
642.370742	0.163067
642.577071	0.163189
642.783383	0.163695
642.989676	0.164081
643.195951	0.164231
643.402207	0.164161
643.608446	0.164387
643.814666	0.164537
644.020868	0.164541
644.227052	0.164769
644.433218	0.164876
644.639365	0.164693
644.845494	0.164955
645.051605	0.165035
645.257698	0.165338
645.463772	0.165232
645.669828	0.165306
645.875866	0.165472
646.081886	0.165397
646.287888	0.165628
646.493871	0.166333
646.699836	0.166095
646.905783	0.166073
647.111712	0.166300
647.317622	0.166554
647.523514	0.166935
647.729388	0.166983
647.935244	0.167404
648.141082	0.167560
648.346901	0.167280
648.552702	0.167557
648.758485	0.167849
648.964250	0.167941
649.169996	0.168162
649.375724	0.168170
649.581434	0.168410
649.787126	0.168264
649.992800	0.168166
650.198455	0.168395
650.404092	0.168663
650.609711	0.168817
650.815311	0.169095
651.020894	0.169377
651.226458	0.169482
651.432004	0.169835
651.637532	0.170221
651.843041	0.170429
652.048532	0.170730
652.254006	0.170983
652.459460	0.171303
652.664897	0.171512
652.870315	0.171446
653.075716	0.171647
653.281097	0.171408
653.486461	0.171595
653.691807	0.171786
653.897134	0.171850
654.102443	0.171948
654.307734	0.172032
654.513006	0.172236
654.718261	0.172620
654.923497	0.173074
655.128715	0.173397
655.333915	0.173671
655.539096	0.174078
655.744259	0.174422
655.949404	0.174645
656.154531	0.175157
656.359640	0.175305
656.564730	0.175672
656.769802	0.175657
656.974856	0.175917
657.179892	0.175987
657.384909	0.175960
657.589908	0.176084
657.794889	0.176400
657.999852	0.176240
658.204797	0.176499
658.409723	0.176537
658.614631	0.176824
658.819521	0.177133
659.024393	0.177451
659.229246	0.177622
659.434081	0.177788
659.638898	0.178032
659.843697	0.178324
660.048478	0.178417
660.253240	0.178693
660.457984	0.178872
660.662710	0.179284
660.867417	0.179549
661.072107	0.180229
661.276778	0.180385
661.481431	0.180431
661.686066	0.180544
661.890682	0.180757
662.095281	0.181119
662.299861	0.181166
662.504422	0.181107
662.708966	0.181240
662.913491	0.181230
663.117999	0.181598
663.322488	0.181906
663.526958	0.182390
663.731411	0.182658
663.935845	0.182486
664.140261	0.182876
664.344659	0.183308
664.549038	0.183430
664.753400	0.183578
664.957743	0.183627
665.162068	0.183755
665.366375	0.183928
665.570663	0.184233
665.774933	0.184522
665.979185	0.184768
666.183419	0.184814
666.387635	0.185319
666.591832	0.185459
666.796011	0.185609
667.000172	0.185865
667.204315	0.185945
667.408439	0.185826
667.612545	0.186162
667.816634	0.186264
668.020703	0.186394
668.224755	0.186322
668.428788	0.186615
668.632803	0.187255
668.836800	0.187383
669.040779	0.187614
669.244739	0.187932
669.448681	0.188239
669.652605	0.188625
669.856511	0.188931
670.060399	0.189211
670.264268	0.189441
670.468119	0.189098
670.671952	0.189393
670.875767	0.189550
671.079563	0.189705
671.283341	0.189515
671.487101	0.189514
671.690843	0.189557
671.894567	0.189503
672.098272	0.189564
672.301959	0.190094
672.505628	0.190073
672.709278	0.190372
672.912911	0.190642
673.116525	0.191102
673.320121	0.191240
673.523699	0.191378
673.727258	0.191807
673.930799	0.192111
674.134322	0.192115
674.337827	0.192368
674.541314	0.192199
674.744782	0.192205
674.948232	0.192421
675.151664	0.192638
675.355078	0.192803
675.558474	0.192849
675.761851	0.193110
675.965210	0.193289
676.168551	0.193347
676.371873	0.194029
676.575178	0.194508
676.778464	0.194575
676.981732	0.195083
677.184981	0.195587
677.388213	0.196098
677.591426	0.196368
677.794621	0.196884
677.997798	0.197453
678.200956	0.197790
678.404097	0.198038
678.607219	0.198497
678.810323	0.198380
679.013408	0.198629
679.216476	0.198495
679.419525	0.198634
679.622556	0.198730
679.825569	0.199020
680.028563	0.198917
680.231540	0.198961
680.434498	0.199025
680.637438	0.199634
680.840359	0.199836
681.043263	0.200237
681.246148	0.200438
681.449015	0.200483
681.651864	0.200672
681.854694	0.200897
682.057506	0.201114
682.260301	0.201032
682.463076	0.200964
682.665834	0.201007
682.868573	0.201314
683.071295	0.201438
683.273998	0.201709
683.476682	0.201885
683.679349	0.201904
683.881997	0.202041
684.084627	0.202575
684.287239	0.202796
684.489833	0.202992
684.692408	0.202878
684.894965	0.202984
685.097504	0.203202
685.300025	0.203250
685.502527	0.203440
685.705012	0.203682
685.907478	0.203702
686.109925	0.204024
686.312355	0.204180
686.514766	0.204430
686.717159	0.204464
686.919534	0.204656
687.121891	0.204635
687.324230	0.204824
687.526550	0.204978
687.728852	0.205048
687.931136	0.205023
688.133401	0.205437
688.335649	0.205595
688.537878	0.205962
688.740089	0.206182
688.942281	0.206604
689.144456	0.206769
689.346612	0.207025
689.548750	0.207336
689.750870	0.207544
689.952971	0.207460
690.155055	0.207762
690.357120	0.207806
690.559167	0.207887
690.761195	0.207897
690.963206	0.208191
691.165198	0.208365
691.367172	0.208435
691.569128	0.208566
691.771065	0.208785
691.972984	0.208852
692.174885	0.209386
692.376768	0.209529
692.578633	0.209538
692.780479	0.209677
692.982308	0.209600
693.184118	0.209939
693.385909	0.210122
