sample name	sample
index	467
start time	 03-11-2021  12:10:14 PM


Wavelength (nm)	Absorbance
494.344910	0.233731
494.563924	0.233731
494.782919	0.233731
495.001897	-0.379644
495.220856	-0.067625
495.439797	-0.151259
495.658719	-0.186210
495.877624	-0.228141
496.096510	-0.245889
496.315378	-0.230945
496.534227	-0.259308
496.753059	-0.234403
496.971872	-0.182660
497.190667	0.045533
497.409444	0.077345
497.628203	0.080817
497.846943	0.084031
498.065665	0.085992
498.284369	0.083947
498.503055	0.084779
498.721723	0.085268
498.940372	0.084678
499.159003	0.085010
499.377616	0.084187
499.596210	0.084015
499.814787	0.083497
500.033345	0.082720
500.251885	0.083625
500.470406	0.083071
500.688910	0.082991
500.907395	0.083256
501.125862	0.082786
501.344311	0.082384
501.562742	0.081652
501.781154	0.081353
501.999548	0.082886
502.217924	0.082887
502.436282	0.083529
502.654621	0.082756
502.872942	0.082710
503.091245	0.083312
503.309530	0.082501
503.527797	0.083434
503.746045	0.083212
503.964275	0.082082
504.182487	0.081660
504.400681	0.081729
504.618856	0.082157
504.837013	0.082527
505.055152	0.081792
505.273273	0.082683
505.491376	0.082848
505.709460	0.082792
505.927526	0.083463
506.145574	0.084428
506.363604	0.084363
506.581615	0.084381
506.799608	0.084315
507.017583	0.084939
507.235540	0.084526
507.453478	0.084776
507.671399	0.084502
507.889301	0.083987
508.107185	0.082823
508.325050	0.081466
508.542898	0.081478
508.760727	0.081120
508.978538	0.080954
509.196330	0.081167
509.414105	0.080848
509.631861	0.080756
509.849599	0.081081
510.067319	0.082103
510.285021	0.083694
510.502704	0.083423
510.720369	0.083793
510.938016	0.083795
511.155645	0.084270
511.373255	0.084225
511.590848	0.085427
511.808422	0.085683
512.025977	0.085445
512.243515	0.085193
512.461034	0.085735
512.678536	0.085440
512.896018	0.084903
513.113483	0.085465
513.330930	0.085156
513.548358	0.085164
513.765768	0.085234
513.983160	0.085712
514.200533	0.085983
514.417889	0.085253
514.635226	0.084812
514.852545	0.085562
515.069845	0.084710
515.287128	0.085121
515.504392	0.084888
515.721638	0.084770
515.938866	0.084177
516.156075	0.083999
516.373267	0.085106
516.590440	0.086114
516.807594	0.086042
517.024731	0.086931
517.241850	0.086658
517.458950	0.086614
517.676032	0.086286
517.893095	0.086221
518.110141	0.085907
518.327168	0.085057
518.544177	0.084000
518.761168	0.084407
518.978141	0.083875
519.195095	0.084573
519.412031	0.084963
519.628949	0.085624
519.845849	0.085643
520.062731	0.086051
520.279594	0.086525
520.496439	0.088083
520.713266	0.087825
520.930074	0.087876
521.146865	0.087449
521.363637	0.087642
521.580391	0.087427
521.797127	0.087786
522.013844	0.088078
522.230543	0.088368
522.447224	0.087921
522.663887	0.088328
522.880532	0.088875
523.097158	0.089172
523.313766	0.089137
523.530356	0.089663
523.746928	0.089910
523.963481	0.089620
524.180017	0.089761
524.396534	0.089825
524.613032	0.089750
524.829513	0.089635
525.045975	0.090107
525.262420	0.090104
525.478845	0.089807
525.695253	0.089723
525.911643	0.090079
526.128014	0.089914
526.344367	0.089862
526.560702	0.089841
526.777018	0.090002
526.993316	0.090088
527.209597	0.089773
527.425858	0.089974
527.642102	0.090625
527.858328	0.090484
528.074535	0.091029
528.290724	0.091130
528.506894	0.091266
528.723047	0.091348
528.939181	0.091312
529.155297	0.092063
529.371395	0.092069
529.587475	0.091288
529.803536	0.091548
530.019579	0.091789
530.235604	0.091916
530.451611	0.091914
530.667600	0.092438
530.883570	0.092329
531.099522	0.091879
531.315456	0.091851
531.531372	0.092382
531.747269	0.092516
531.963148	0.091874
532.179009	0.092426
532.394852	0.092660
532.610676	0.092953
532.826482	0.093483
533.042271	0.093751
533.258040	0.094182
533.473792	0.094310
533.689525	0.094170
533.905240	0.095144
534.120937	0.094648
534.336616	0.094825
534.552277	0.094748
534.767919	0.094748
534.983543	0.095472
535.199149	0.095527
535.414736	0.095923
535.630306	0.096451
535.845857	0.096288
536.061390	0.097020
536.276904	0.097553
536.492401	0.097953
536.707879	0.098337
536.923339	0.097660
537.138781	0.097273
537.354204	0.097771
537.569610	0.097718
537.784997	0.097214
538.000366	0.097247
538.215716	0.097023
538.431049	0.096831
538.646363	0.096529
538.861659	0.096944
539.076937	0.097725
539.292196	0.097358
539.507438	0.097714
539.722661	0.098363
539.937866	0.098766
540.153052	0.098781
540.368221	0.098560
540.583371	0.098560
540.798503	0.099056
541.013617	0.099234
541.228712	0.099380
541.443789	0.099338
541.658848	0.099559
541.873889	0.099013
542.088912	0.098706
542.303916	0.099057
542.518902	0.099480
542.733870	0.099248
542.948820	0.099380
543.163752	0.099367
543.378665	0.099541
543.593560	0.099659
543.808437	0.100212
544.023295	0.100887
544.238136	0.100967
544.452958	0.101121
544.667762	0.101442
544.882548	0.101383
545.097315	0.101590
545.312064	0.101712
545.526795	0.101903
545.741508	0.102354
545.956203	0.102263
546.170879	0.102400
546.385537	0.102194
546.600177	0.102237
546.814799	0.102519
547.029402	0.102459
547.243988	0.102856
547.458555	0.102914
547.673103	0.102376
547.887634	0.102641
548.102146	0.102570
548.316640	0.102477
548.531116	0.103028
548.745574	0.103038
548.960013	0.103401
549.174435	0.103364
549.388838	0.103153
549.603222	0.103650
549.817589	0.103908
550.031937	0.104382
550.246267	0.104830
550.460579	0.104467
550.674873	0.104468
550.889148	0.104286
551.103405	0.104078
551.317644	0.104271
551.531865	0.103990
551.746068	0.103652
551.960252	0.103482
552.174418	0.103524
552.388566	0.103859
552.602696	0.103808
552.816807	0.104015
553.030900	0.104689
553.244975	0.104799
553.459032	0.105141
553.673070	0.105657
553.887091	0.106079
554.101093	0.106481
554.315077	0.106769
554.529042	0.107293
554.742990	0.107436
554.956919	0.107456
555.170830	0.107614
555.384722	0.107730
555.598597	0.107925
555.812453	0.107715
556.026291	0.108026
556.240111	0.107509
556.453913	0.107282
556.667696	0.107588
556.881461	0.107224
557.095208	0.107781
557.308937	0.108029
557.522647	0.107689
557.736339	0.107850
557.950013	0.107878
558.163669	0.108434
558.377307	0.108195
558.590926	0.108442
558.804527	0.108571
559.018110	0.108265
559.231675	0.107908
559.445221	0.108063
559.658749	0.107949
559.872259	0.107789
560.085751	0.107628
560.299225	0.107693
560.512680	0.107526
560.726117	0.107575
560.939536	0.107549
561.152937	0.107988
561.366319	0.108286
561.579683	0.108453
561.793029	0.108472
562.006357	0.108296
562.219667	0.108906
562.432958	0.109135
562.646231	0.109690
562.859486	0.109873
563.072723	0.109886
563.285941	0.109799
563.499141	0.110000
563.712323	0.110253
563.925487	0.110423
564.138632	0.110205
564.351760	0.110192
564.564869	0.110204
564.777960	0.110451
564.991032	0.110525
565.204087	0.110558
565.417123	0.110457
565.630141	0.110159
565.843140	0.110005
566.056122	0.110449
566.269085	0.110276
566.482030	0.109847
566.694957	0.110049
566.907866	0.109951
567.120756	0.110225
567.333628	0.110558
567.546482	0.110821
567.759318	0.111225
567.972135	0.111083
568.184935	0.111438
568.397716	0.111741
568.610478	0.111581
568.823223	0.111481
569.035949	0.111479
569.248657	0.111286
569.461347	0.111539
569.674019	0.111561
569.886672	0.111572
570.099308	0.111565
570.311925	0.111645
570.524523	0.111714
570.737104	0.112284
570.949666	0.112262
571.162210	0.112352
571.374736	0.112218
571.587244	0.112351
571.799733	0.112193
572.012205	0.112565
572.224658	0.112661
572.437092	0.112536
572.649509	0.112369
572.861907	0.112617
573.074287	0.112793
573.286649	0.112862
573.498993	0.112962
573.711318	0.113295
573.923625	0.112922
574.135914	0.112943
574.348185	0.113003
574.560438	0.113219
574.772672	0.113260
574.984888	0.113465
575.197086	0.113480
575.409266	0.113587
575.621427	0.113761
575.833570	0.113866
576.045695	0.114218
576.257802	0.114277
576.469890	0.114039
576.681961	0.113984
576.894013	0.114174
577.106046	0.114363
577.318062	0.114517
577.530059	0.114448
577.742039	0.114899
577.954000	0.114876
578.165942	0.115029
578.377867	0.115007
578.589773	0.115371
578.801661	0.115229
579.013531	0.115326
579.225382	0.115349
579.437216	0.115351
579.649031	0.115160
579.860828	0.115190
580.072606	0.115766
580.284367	0.115997
580.496109	0.116008
580.707833	0.115911
580.919539	0.115853
581.131227	0.115948
581.342896	0.116367
581.554547	0.116375
581.766180	0.116253
581.977795	0.115914
582.189391	0.116178
582.400969	0.116341
582.612529	0.116805
582.824071	0.117083
583.035595	0.117438
583.247100	0.117519
583.458587	0.117428
583.670056	0.117756
583.881506	0.117622
584.092939	0.117683
584.304353	0.117536
584.515749	0.117531
584.727127	0.117306
584.938486	0.117149
585.149828	0.117167
585.361151	0.117779
585.572456	0.117665
585.783742	0.118073
585.995011	0.118485
586.206261	0.118880
586.417493	0.119183
586.628706	0.119483
586.839902	0.119360
587.051079	0.119536
587.262238	0.119258
587.473379	0.119556
587.684502	0.119457
587.895606	0.119244
588.106692	0.118653
588.317760	0.118217
588.528810	0.118382
588.739841	0.118606
588.950855	0.118806
589.161850	0.118645
589.372827	0.118315
589.583785	0.118482
589.794726	0.118336
590.005648	0.118949
590.216552	0.119337
590.427437	0.119305
590.638305	0.119331
590.849154	0.119120
591.059985	0.119522
591.270798	0.120189
591.481592	0.120138
591.692369	0.120459
591.903127	0.120228
592.113867	0.120233
592.324588	0.120339
592.535292	0.120522
592.745977	0.120592
592.956644	0.120559
593.167293	0.120231
593.377923	0.120352
593.588536	0.120228
593.799130	0.120492
594.009706	0.120696
594.220263	0.120758
594.430803	0.120780
594.641324	0.121061
594.851827	0.120995
595.062312	0.121198
595.272778	0.121743
595.483227	0.121826
595.693657	0.121727
595.904069	0.121483
596.114462	0.121627
596.324838	0.121556
596.535195	0.121468
596.745534	0.121697
596.955855	0.121988
597.166157	0.121564
597.376441	0.121879
597.586707	0.122138
597.796955	0.122295
598.007185	0.122599
598.217396	0.122814
598.427589	0.123163
598.637764	0.123306
598.847921	0.123261
599.058060	0.123527
599.268180	0.123235
599.478282	0.123213
599.688366	0.123196
599.898431	0.122990
600.108479	0.123127
600.318508	0.123005
600.528519	0.123283
600.738511	0.123375
600.948486	0.123358
601.158442	0.123723
601.368380	0.123882
601.578300	0.124300
601.788202	0.124161
601.998085	0.124436
602.207950	0.124406
602.417797	0.124366
602.627626	0.124588
602.837436	0.124674
603.047228	0.124924
603.257002	0.125098
603.466758	0.125095
603.676496	0.125538
603.886215	0.125379
604.095916	0.125633
604.305599	0.125849
604.515264	0.125676
604.724910	0.125629
604.934538	0.125461
605.144148	0.125333
605.353740	0.125347
605.563314	0.125253
605.772869	0.125497
605.982406	0.125524
606.191925	0.125496
606.401425	0.125404
606.610908	0.125848
606.820372	0.125736
607.029818	0.125940
607.239246	0.126164
607.448655	0.126177
607.658047	0.125747
607.867420	0.125806
608.076775	0.125545
608.286111	0.125961
608.495430	0.125882
608.704730	0.126140
608.914012	0.125971
609.123275	0.125915
609.332521	0.126328
609.541748	0.126725
609.750957	0.126718
609.960148	0.126893
610.169321	0.126738
610.378475	0.126859
610.587611	0.127008
610.796729	0.127381
611.005829	0.127695
611.214910	0.127628
611.423974	0.127731
611.633019	0.127985
611.842045	0.128225
612.051054	0.128363
612.260044	0.128542
612.469017	0.128540
612.677970	0.128547
612.886906	0.128375
613.095824	0.128228
613.304723	0.128183
613.513604	0.128122
613.722467	0.128104
613.931311	0.127951
614.140138	0.127909
614.348946	0.128074
614.557736	0.128331
614.766507	0.128418
614.975261	0.128633
615.183996	0.128817
615.392713	0.128789
615.601412	0.128896
615.810092	0.129308
616.018754	0.129376
616.227399	0.129449
616.436024	0.129048
616.644632	0.129117
616.853222	0.129182
617.061793	0.129411
617.270346	0.129384
617.478880	0.129231
617.687397	0.129088
617.895895	0.129024
618.104375	0.128920
618.312837	0.129235
618.521281	0.129044
618.729706	0.128883
618.938113	0.128748
619.146502	0.128941
619.354873	0.129500
619.563226	0.129765
619.771560	0.129774
619.979876	0.130027
620.188174	0.130080
620.396453	0.130342
620.604715	0.130489
620.812958	0.130570
621.021183	0.130651
621.229390	0.130434
621.437578	0.130319
621.645748	0.130411
621.853900	0.130504
622.062034	0.130794
622.270150	0.130968
622.478247	0.131179
622.686326	0.131182
622.894387	0.131341
623.102430	0.131466
623.310454	0.131590
623.518461	0.131834
623.726449	0.131939
623.934418	0.131936
624.142370	0.131998
624.350303	0.132070
624.558218	0.132436
624.766115	0.132225
624.973994	0.132264
625.181855	0.132357
625.389697	0.132342
625.597521	0.132389
625.805327	0.132502
626.013114	0.132724
626.220883	0.132635
626.428634	0.132312
626.636367	0.132625
626.844082	0.132510
627.051778	0.132402
627.259457	0.132307
627.467117	0.132326
627.674758	0.132335
627.882382	0.132091
628.089987	0.132196
628.297574	0.132651
628.505143	0.132654
628.712694	0.133089
628.920226	0.133260
629.127740	0.133745
629.335236	0.133807
629.542714	0.133416
629.750174	0.133670
629.957615	0.133763
630.165038	0.133627
630.372443	0.133525
630.579829	0.133372
630.787198	0.133452
630.994548	0.133219
631.201880	0.133199
631.409194	0.133718
631.616489	0.133660
631.823766	0.133949
632.031025	0.134130
632.238266	0.134542
632.445489	0.134807
632.652693	0.134931
632.859879	0.134965
633.067047	0.135083
633.274197	0.135183
633.481329	0.135235
633.688442	0.135252
633.895537	0.135224
634.102614	0.134858
634.309672	0.134781
634.516713	0.134895
634.723735	0.135189
634.930739	0.135377
635.137724	0.135222
635.344692	0.135341
635.551641	0.135538
635.758572	0.135666
635.965485	0.136186
636.172379	0.136288
636.379256	0.136378
636.586114	0.136131
636.792954	0.136007
636.999775	0.136170
637.206579	0.136370
637.413364	0.136185
637.620131	0.136265
637.826880	0.136234
638.033610	0.136420
638.240323	0.136476
638.447017	0.136722
638.653692	0.136753
638.860350	0.136762
639.066990	0.136822
639.273611	0.136957
639.480214	0.137146
639.686798	0.137075
639.893365	0.137288
640.099913	0.137134
640.306443	0.137205
640.512955	0.137522
640.719449	0.137588
640.925924	0.137523
641.132381	0.137507
641.338820	0.137316
641.545241	0.137385
641.751644	0.137210
641.958028	0.137440
642.164394	0.137748
642.370742	0.137555
642.577071	0.137587
642.783383	0.137721
642.989676	0.137944
643.195951	0.138145
643.402207	0.138419
643.608446	0.138684
643.814666	0.138944
644.020868	0.138955
644.227052	0.139212
644.433218	0.139387
644.639365	0.139671
644.845494	0.139598
645.051605	0.139657
645.257698	0.139454
645.463772	0.139461
645.669828	0.139235
645.875866	0.139133
646.081886	0.139241
646.287888	0.139330
646.493871	0.139045
646.699836	0.139035
646.905783	0.138921
647.111712	0.139028
647.317622	0.138809
647.523514	0.139052
647.729388	0.139193
647.935244	0.139393
648.141082	0.139632
648.346901	0.139984
648.552702	0.140138
648.758485	0.140290
648.964250	0.140606
649.169996	0.140945
649.375724	0.141151
649.581434	0.141208
649.787126	0.141130
649.992800	0.141299
650.198455	0.141084
650.404092	0.141156
650.609711	0.141394
650.815311	0.141437
651.020894	0.141445
651.226458	0.141401
651.432004	0.141408
651.637532	0.141438
651.843041	0.141354
652.048532	0.141640
652.254006	0.141936
652.459460	0.142012
652.664897	0.142232
652.870315	0.142281
653.075716	0.142387
653.281097	0.142604
653.486461	0.142744
653.691807	0.142715
653.897134	0.142746
654.102443	0.142691
654.307734	0.142679
654.513006	0.142681
654.718261	0.142835
654.923497	0.142833
655.128715	0.142914
655.333915	0.143036
655.539096	0.143370
655.744259	0.143519
655.949404	0.143659
656.154531	0.143744
656.359640	0.143626
656.564730	0.143598
656.769802	0.143861
656.974856	0.143828
657.179892	0.143753
657.384909	0.143663
657.589908	0.143738
657.794889	0.143829
657.999852	0.144129
658.204797	0.144620
658.409723	0.144796
658.614631	0.144900
658.819521	0.144917
659.024393	0.145296
659.229246	0.145472
659.434081	0.145705
659.638898	0.145757
659.843697	0.145852
660.048478	0.145811
660.253240	0.145913
660.457984	0.145977
660.662710	0.146241
660.867417	0.146010
661.072107	0.145982
661.276778	0.145812
661.481431	0.145831
661.686066	0.145636
661.890682	0.145629
662.095281	0.145667
662.299861	0.145649
662.504422	0.145686
662.708966	0.145908
662.913491	0.146049
663.117999	0.146339
663.322488	0.146481
663.526958	0.146611
663.731411	0.146668
663.935845	0.146694
664.140261	0.146600
664.344659	0.146476
664.549038	0.146345
664.753400	0.146412
664.957743	0.146454
665.162068	0.146704
665.366375	0.146781
665.570663	0.146865
665.774933	0.147079
665.979185	0.147345
666.183419	0.147512
666.387635	0.147790
666.591832	0.147993
666.796011	0.148130
667.000172	0.148126
667.204315	0.148146
667.408439	0.148159
667.612545	0.148009
667.816634	0.148019
668.020703	0.148320
668.224755	0.148419
668.428788	0.148465
668.632803	0.148287
668.836800	0.148304
669.040779	0.148500
669.244739	0.148627
669.448681	0.149081
669.652605	0.149190
669.856511	0.149200
670.060399	0.149323
670.264268	0.149250
670.468119	0.149266
670.671952	0.149324
670.875767	0.149332
671.079563	0.149444
671.283341	0.149242
671.487101	0.149319
671.690843	0.149490
671.894567	0.149533
672.098272	0.149532
672.301959	0.149846
672.505628	0.149946
672.709278	0.150112
672.912911	0.150314
673.116525	0.150433
673.320121	0.150449
673.523699	0.150511
673.727258	0.150601
673.930799	0.150924
674.134322	0.150766
674.337827	0.150944
674.541314	0.151169
674.744782	0.151073
674.948232	0.151251
675.151664	0.151492
675.355078	0.151587
675.558474	0.151793
675.761851	0.151901
675.965210	0.152425
676.168551	0.152476
676.371873	0.152480
676.575178	0.152593
676.778464	0.152677
676.981732	0.152936
677.184981	0.152876
677.388213	0.152820
677.591426	0.152938
677.794621	0.152881
677.997798	0.153092
678.200956	0.153158
678.404097	0.153342
678.607219	0.153346
678.810323	0.153210
679.013408	0.153244
679.216476	0.153368
679.419525	0.153273
679.622556	0.153413
679.825569	0.153414
680.028563	0.153555
680.231540	0.153535
680.434498	0.153703
680.637438	0.153863
680.840359	0.154059
681.043263	0.154174
681.246148	0.154444
681.449015	0.154443
681.651864	0.154678
681.854694	0.154717
682.057506	0.154871
682.260301	0.154976
682.463076	0.155112
682.665834	0.155257
682.868573	0.155423
683.071295	0.155394
683.273998	0.155630
683.476682	0.155529
683.679349	0.155688
683.881997	0.155855
684.084627	0.155932
684.287239	0.155990
684.489833	0.156021
684.692408	0.156041
684.894965	0.156073
685.097504	0.156011
685.300025	0.156046
685.502527	0.155874
685.705012	0.155814
685.907478	0.155914
686.109925	0.155994
686.312355	0.156237
686.514766	0.156288
686.717159	0.156384
686.919534	0.156518
687.121891	0.156517
687.324230	0.156917
687.526550	0.157076
687.728852	0.157051
687.931136	0.157108
688.133401	0.157235
688.335649	0.157267
688.537878	0.157266
688.740089	0.157345
688.942281	0.157477
689.144456	0.157428
689.346612	0.157361
689.548750	0.157451
689.750870	0.157554
689.952971	0.157152
690.155055	0.157196
690.357120	0.157449
690.559167	0.157398
690.761195	0.157489
690.963206	0.157604
691.165198	0.157873
691.367172	0.158043
691.569128	0.157957
691.771065	0.158273
691.972984	0.158373
692.174885	0.158406
692.376768	0.158679
692.578633	0.158681
692.780479	0.158720
692.982308	0.158631
693.184118	0.158492
693.385909	0.158469
