sample name	sample
index	1013
start time	 04-19-2021  11:40:18 AM


Wavelength (nm)	Absorbance
494.344910	0.027982
494.563924	0.027982
494.782919	0.027982
495.001897	0.093309
495.220856	0.019258
495.439797	0.011097
495.658719	0.009838
495.877624	0.015744
496.096510	-0.005171
496.315378	-0.002875
496.534227	-0.006715
496.753059	0.007207
496.971872	0.003672
497.190667	0.069859
497.409444	0.094616
497.628203	0.099590
497.846943	0.098601
498.065665	0.101043
498.284369	0.101597
498.503055	0.100952
498.721723	0.099931
498.940372	0.101778
499.159003	0.101627
499.377616	0.101334
499.596210	0.100770
499.814787	0.102068
500.033345	0.102186
500.251885	0.101455
500.470406	0.103052
500.688910	0.104287
500.907395	0.103300
501.125862	0.103535
501.344311	0.102327
501.562742	0.102048
501.781154	0.100936
501.999548	0.100850
502.217924	0.102287
502.436282	0.100324
502.654621	0.100490
502.872942	0.100402
503.091245	0.100518
503.309530	0.100491
503.527797	0.101011
503.746045	0.101988
503.964275	0.102115
504.182487	0.101847
504.400681	0.103023
504.618856	0.102068
504.837013	0.102198
505.055152	0.101537
505.273273	0.102235
505.491376	0.101781
505.709460	0.101296
505.927526	0.100372
506.145574	0.100213
506.363604	0.100013
506.581615	0.100051
506.799608	0.100305
507.017583	0.100537
507.235540	0.100136
507.453478	0.100265
507.671399	0.100729
507.889301	0.101015
508.107185	0.101738
508.325050	0.102674
508.542898	0.103281
508.760727	0.102834
508.978538	0.103207
509.196330	0.104244
509.414105	0.103702
509.631861	0.103411
509.849599	0.104305
510.067319	0.103383
510.285021	0.102978
510.502704	0.103283
510.720369	0.103952
510.938016	0.103219
511.155645	0.103063
511.373255	0.103669
511.590848	0.103604
511.808422	0.103096
512.025977	0.103450
512.243515	0.103087
512.461034	0.103280
512.678536	0.103629
512.896018	0.104793
513.113483	0.103425
513.330930	0.102510
513.548358	0.102612
513.765768	0.102941
513.983160	0.102906
514.200533	0.103499
514.417889	0.103256
514.635226	0.102697
514.852545	0.102032
515.069845	0.102466
515.287128	0.103664
515.504392	0.103745
515.721638	0.104114
515.938866	0.105105
516.156075	0.105238
516.373267	0.105959
516.590440	0.106737
516.807594	0.107454
517.024731	0.108218
517.241850	0.108327
517.458950	0.109249
517.676032	0.108834
517.893095	0.107934
518.110141	0.107470
518.327168	0.107381
518.544177	0.106815
518.761168	0.107651
518.978141	0.108248
519.195095	0.108510
519.412031	0.108328
519.628949	0.108594
519.845849	0.108447
520.062731	0.108586
520.279594	0.108542
520.496439	0.108884
520.713266	0.107956
520.930074	0.107301
521.146865	0.107634
521.363637	0.107160
521.580391	0.107253
521.797127	0.107875
522.013844	0.109314
522.230543	0.109278
522.447224	0.109615
522.663887	0.110163
522.880532	0.110223
523.097158	0.110025
523.313766	0.110309
523.530356	0.110303
523.746928	0.110847
523.963481	0.109324
524.180017	0.109321
524.396534	0.109937
524.613032	0.109574
524.829513	0.109761
525.045975	0.110149
525.262420	0.110982
525.478845	0.111258
525.695253	0.111136
525.911643	0.112171
526.128014	0.112475
526.344367	0.111803
526.560702	0.112360
526.777018	0.112520
526.993316	0.112388
527.209597	0.111690
527.425858	0.111903
527.642102	0.112207
527.858328	0.112795
528.074535	0.113079
528.290724	0.113549
528.506894	0.113190
528.723047	0.113702
528.939181	0.113979
529.155297	0.114638
529.371395	0.114447
529.587475	0.114364
529.803536	0.113980
530.019579	0.114161
530.235604	0.114290
530.451611	0.114943
530.667600	0.115515
530.883570	0.115278
531.099522	0.115222
531.315456	0.115458
531.531372	0.115159
531.747269	0.115291
531.963148	0.115564
532.179009	0.115934
532.394852	0.115938
532.610676	0.115479
532.826482	0.115622
533.042271	0.115542
533.258040	0.115645
533.473792	0.116218
533.689525	0.115783
533.905240	0.115217
534.120937	0.114773
534.336616	0.114895
534.552277	0.114881
534.767919	0.115491
534.983543	0.115679
535.199149	0.116460
535.414736	0.116183
535.630306	0.116740
535.845857	0.117097
536.061390	0.117502
536.276904	0.117591
536.492401	0.118090
536.707879	0.117777
536.923339	0.117906
537.138781	0.118049
537.354204	0.118478
537.569610	0.118934
537.784997	0.119513
538.000366	0.119682
538.215716	0.119804
538.431049	0.119377
538.646363	0.120030
538.861659	0.120392
539.076937	0.120255
539.292196	0.119775
539.507438	0.119783
539.722661	0.119459
539.937866	0.119414
540.153052	0.119719
540.368221	0.120414
540.583371	0.120319
540.798503	0.120347
541.013617	0.119779
541.228712	0.120423
541.443789	0.120389
541.658848	0.120426
541.873889	0.120462
542.088912	0.120680
542.303916	0.120759
542.518902	0.120625
542.733870	0.120675
542.948820	0.121754
543.163752	0.121921
543.378665	0.121871
543.593560	0.122157
543.808437	0.122167
544.023295	0.122085
544.238136	0.122287
544.452958	0.122884
544.667762	0.122995
544.882548	0.122848
545.097315	0.123264
545.312064	0.123492
545.526795	0.123318
545.741508	0.123624
545.956203	0.123597
546.170879	0.123935
546.385537	0.123993
546.600177	0.124489
546.814799	0.124971
547.029402	0.124952
547.243988	0.125565
547.458555	0.126467
547.673103	0.126817
547.887634	0.127324
548.102146	0.127450
548.316640	0.127884
548.531116	0.127612
548.745574	0.127631
548.960013	0.127668
549.174435	0.127454
549.388838	0.127590
549.603222	0.127605
549.817589	0.127479
550.031937	0.127405
550.246267	0.127178
550.460579	0.127458
550.674873	0.127469
550.889148	0.128055
551.103405	0.128037
551.317644	0.127860
551.531865	0.127986
551.746068	0.128346
551.960252	0.127958
552.174418	0.128114
552.388566	0.128322
552.602696	0.128103
552.816807	0.127944
553.030900	0.128439
553.244975	0.128767
553.459032	0.128872
553.673070	0.128961
553.887091	0.129567
554.101093	0.129666
554.315077	0.129411
554.529042	0.129760
554.742990	0.129749
554.956919	0.129784
555.170830	0.129445
555.384722	0.129847
555.598597	0.129981
555.812453	0.130054
556.026291	0.130287
556.240111	0.130915
556.453913	0.131096
556.667696	0.130895
556.881461	0.130996
557.095208	0.131494
557.308937	0.131406
557.522647	0.131241
557.736339	0.131334
557.950013	0.131116
558.163669	0.131149
558.377307	0.131333
558.590926	0.131611
558.804527	0.131878
559.018110	0.132038
559.231675	0.132059
559.445221	0.132360
559.658749	0.132642
559.872259	0.132713
560.085751	0.132734
560.299225	0.132536
560.512680	0.132326
560.726117	0.131638
560.939536	0.131594
561.152937	0.131703
561.366319	0.131926
561.579683	0.132050
561.793029	0.132550
562.006357	0.132714
562.219667	0.132883
562.432958	0.133241
562.646231	0.133928
562.859486	0.133983
563.072723	0.134185
563.285941	0.134079
563.499141	0.133874
563.712323	0.133511
563.925487	0.133665
564.138632	0.133674
564.351760	0.133736
564.564869	0.133889
564.777960	0.133968
564.991032	0.134209
565.204087	0.133752
565.417123	0.133914
565.630141	0.134499
565.843140	0.134300
566.056122	0.134445
566.269085	0.134736
566.482030	0.134924
566.694957	0.135243
566.907866	0.134891
567.120756	0.135303
567.333628	0.135653
567.546482	0.135569
567.759318	0.135684
567.972135	0.135819
568.184935	0.135545
568.397716	0.135449
568.610478	0.135399
568.823223	0.135823
569.035949	0.136294
569.248657	0.135914
569.461347	0.135864
569.674019	0.136263
569.886672	0.136443
570.099308	0.136874
570.311925	0.136860
570.524523	0.136991
570.737104	0.136992
570.949666	0.136423
571.162210	0.136268
571.374736	0.136408
571.587244	0.136132
571.799733	0.136098
572.012205	0.135961
572.224658	0.135878
572.437092	0.135976
572.649509	0.135746
572.861907	0.136345
573.074287	0.137021
573.286649	0.137016
573.498993	0.137240
573.711318	0.137133
573.923625	0.137608
574.135914	0.138027
574.348185	0.137974
574.560438	0.138423
574.772672	0.138096
574.984888	0.138126
575.197086	0.138265
575.409266	0.138198
575.621427	0.138407
575.833570	0.138063
576.045695	0.138086
576.257802	0.138288
576.469890	0.137751
576.681961	0.138054
576.894013	0.138039
577.106046	0.138183
577.318062	0.138446
577.530059	0.138494
577.742039	0.138605
577.954000	0.138837
578.165942	0.139027
578.377867	0.139716
578.589773	0.139792
578.801661	0.139913
579.013531	0.139881
579.225382	0.139841
579.437216	0.139851
579.649031	0.139834
579.860828	0.139782
580.072606	0.139555
580.284367	0.139719
580.496109	0.139688
580.707833	0.140027
580.919539	0.140267
581.131227	0.140535
581.342896	0.140816
581.554547	0.141039
581.766180	0.141032
581.977795	0.141394
582.189391	0.141337
582.400969	0.141651
582.612529	0.141241
582.824071	0.141368
583.035595	0.141303
583.247100	0.141609
583.458587	0.141902
583.670056	0.142438
583.881506	0.142410
584.092939	0.142543
584.304353	0.142533
584.515749	0.142979
584.727127	0.143121
584.938486	0.143278
585.149828	0.143338
585.361151	0.143356
585.572456	0.143005
585.783742	0.143160
585.995011	0.143462
586.206261	0.143848
586.417493	0.143922
586.628706	0.143736
586.839902	0.143835
587.051079	0.143602
587.262238	0.143474
587.473379	0.143478
587.684502	0.143456
587.895606	0.143457
588.106692	0.143417
588.317760	0.143268
588.528810	0.143700
588.739841	0.143694
588.950855	0.143852
589.161850	0.144338
589.372827	0.144319
589.583785	0.144386
589.794726	0.144392
590.005648	0.144507
590.216552	0.144572
590.427437	0.144412
590.638305	0.144312
590.849154	0.144560
591.059985	0.144225
591.270798	0.144722
591.481592	0.145133
591.692369	0.144764
591.903127	0.144562
592.113867	0.144781
592.324588	0.144741
592.535292	0.145347
592.745977	0.145530
592.956644	0.145891
593.167293	0.145534
593.377923	0.145236
593.588536	0.145436
593.799130	0.146047
594.009706	0.146060
594.220263	0.146060
594.430803	0.146043
594.641324	0.146010
594.851827	0.146178
595.062312	0.146348
595.272778	0.146339
595.483227	0.146782
595.693657	0.146457
595.904069	0.146287
596.114462	0.146629
596.324838	0.146625
596.535195	0.146972
596.745534	0.147131
596.955855	0.147428
597.166157	0.147872
597.376441	0.147503
597.586707	0.147634
597.796955	0.147971
598.007185	0.147671
598.217396	0.147828
598.427589	0.147518
598.637764	0.147276
598.847921	0.147088
599.058060	0.146801
599.268180	0.147371
599.478282	0.147756
599.688366	0.147705
599.898431	0.148114
600.108479	0.148020
600.318508	0.148315
600.528519	0.148713
600.738511	0.149061
600.948486	0.149113
601.158442	0.148967
601.368380	0.148763
601.578300	0.148793
601.788202	0.149055
601.998085	0.148897
602.207950	0.148903
602.417797	0.149152
602.627626	0.149152
602.837436	0.149449
603.047228	0.149550
603.257002	0.149326
603.466758	0.149193
603.676496	0.149008
603.886215	0.149310
604.095916	0.149199
604.305599	0.148922
604.515264	0.148969
604.724910	0.148987
604.934538	0.149139
605.144148	0.149370
605.353740	0.149950
605.563314	0.149761
605.772869	0.149702
605.982406	0.149666
606.191925	0.149559
606.401425	0.149466
606.610908	0.149401
606.820372	0.149420
607.029818	0.149414
607.239246	0.149423
607.448655	0.149883
607.658047	0.150200
607.867420	0.150424
608.076775	0.150554
608.286111	0.150640
608.495430	0.150803
608.704730	0.151067
608.914012	0.151163
609.123275	0.151380
609.332521	0.151469
609.541748	0.151640
609.750957	0.151867
609.960148	0.152133
610.169321	0.152234
610.378475	0.152177
610.587611	0.152113
610.796729	0.152252
611.005829	0.152234
611.214910	0.152155
611.423974	0.152019
611.633019	0.151681
611.842045	0.151595
612.051054	0.151773
612.260044	0.152105
612.469017	0.152041
612.677970	0.152241
612.886906	0.152083
613.095824	0.152177
613.304723	0.152108
613.513604	0.152522
613.722467	0.152426
613.931311	0.152523
614.140138	0.152390
614.348946	0.152572
614.557736	0.152544
614.766507	0.152881
614.975261	0.153176
615.183996	0.153068
615.392713	0.152925
615.601412	0.152916
615.810092	0.152858
616.018754	0.152967
616.227399	0.153072
616.436024	0.153186
616.644632	0.153145
616.853222	0.153034
617.061793	0.153493
617.270346	0.153777
617.478880	0.153959
617.687397	0.154306
617.895895	0.154444
618.104375	0.154407
618.312837	0.154624
618.521281	0.154749
618.729706	0.154982
618.938113	0.154941
619.146502	0.154909
619.354873	0.155172
619.563226	0.154913
619.771560	0.154941
619.979876	0.155274
620.188174	0.155148
620.396453	0.154907
620.604715	0.154702
620.812958	0.155038
621.021183	0.155254
621.229390	0.155580
621.437578	0.155870
621.645748	0.156058
621.853900	0.155885
622.062034	0.156031
622.270150	0.156180
622.478247	0.156522
622.686326	0.156422
622.894387	0.156254
623.102430	0.156081
623.310454	0.155870
623.518461	0.155909
623.726449	0.156124
623.934418	0.156253
624.142370	0.156465
624.350303	0.156559
624.558218	0.156594
624.766115	0.156564
624.973994	0.156559
625.181855	0.157051
625.389697	0.157095
625.597521	0.157180
625.805327	0.157373
626.013114	0.157484
626.220883	0.157224
626.428634	0.157454
626.636367	0.157633
626.844082	0.157821
627.051778	0.157689
627.259457	0.157627
627.467117	0.157634
627.674758	0.157461
627.882382	0.157426
628.089987	0.157849
628.297574	0.157531
628.505143	0.157532
628.712694	0.157516
628.920226	0.157550
629.127740	0.157724
629.335236	0.157576
629.542714	0.157814
629.750174	0.157939
629.957615	0.157750
630.165038	0.157900
630.372443	0.158125
630.579829	0.158363
630.787198	0.158356
630.994548	0.158375
631.201880	0.158449
631.409194	0.158414
631.616489	0.158618
631.823766	0.158649
632.031025	0.158884
632.238266	0.158886
632.445489	0.158642
632.652693	0.158773
632.859879	0.158792
633.067047	0.159138
633.274197	0.159278
633.481329	0.159194
633.688442	0.159428
633.895537	0.159427
634.102614	0.159626
634.309672	0.159904
634.516713	0.160106
634.723735	0.160272
634.930739	0.160426
635.137724	0.160482
635.344692	0.160731
635.551641	0.160890
635.758572	0.161265
635.965485	0.161319
636.172379	0.161328
636.379256	0.161407
636.586114	0.161438
636.792954	0.161307
636.999775	0.161209
637.206579	0.161079
637.413364	0.160879
637.620131	0.160624
637.826880	0.160708
638.033610	0.160870
638.240323	0.160717
638.447017	0.160773
638.653692	0.160707
638.860350	0.160860
639.066990	0.160909
639.273611	0.161056
639.480214	0.161233
639.686798	0.161598
639.893365	0.161581
640.099913	0.161792
640.306443	0.161941
640.512955	0.162211
640.719449	0.162425
640.925924	0.162414
641.132381	0.162652
641.338820	0.162509
641.545241	0.162168
641.751644	0.162468
641.958028	0.162511
642.164394	0.162659
642.370742	0.162660
642.577071	0.162669
642.783383	0.162841
642.989676	0.162604
643.195951	0.162839
643.402207	0.163240
643.608446	0.163081
643.814666	0.163312
644.020868	0.163322
644.227052	0.163222
644.433218	0.163113
644.639365	0.163219
644.845494	0.163619
645.051605	0.163857
645.257698	0.163887
645.463772	0.164148
645.669828	0.163999
645.875866	0.164187
646.081886	0.164635
646.287888	0.164853
646.493871	0.164823
646.699836	0.164722
646.905783	0.164634
647.111712	0.164485
647.317622	0.164664
647.523514	0.164886
647.729388	0.164979
647.935244	0.164858
648.141082	0.165017
648.346901	0.165152
648.552702	0.165454
648.758485	0.165675
648.964250	0.165973
649.169996	0.165812
649.375724	0.166011
649.581434	0.165815
649.787126	0.165855
649.992800	0.166005
650.198455	0.166129
650.404092	0.165884
650.609711	0.165890
650.815311	0.165871
651.020894	0.165978
651.226458	0.165903
651.432004	0.166100
651.637532	0.166041
651.843041	0.165939
652.048532	0.166030
652.254006	0.166284
652.459460	0.166364
652.664897	0.166413
652.870315	0.166470
653.075716	0.166677
653.281097	0.166711
653.486461	0.166944
653.691807	0.167240
653.897134	0.167351
654.102443	0.167246
654.307734	0.167199
654.513006	0.167285
654.718261	0.167191
654.923497	0.167132
655.128715	0.167506
655.333915	0.167590
655.539096	0.167427
655.744259	0.167417
655.949404	0.167455
656.154531	0.167609
656.359640	0.167374
656.564730	0.167645
656.769802	0.167645
656.974856	0.167419
657.179892	0.167588
657.384909	0.167800
657.589908	0.168004
657.794889	0.168421
657.999852	0.168630
658.204797	0.169173
658.409723	0.169322
658.614631	0.169621
658.819521	0.170036
659.024393	0.170193
659.229246	0.170252
659.434081	0.170400
659.638898	0.170349
659.843697	0.170318
660.048478	0.170230
660.253240	0.170463
660.457984	0.170439
660.662710	0.170378
660.867417	0.170399
661.072107	0.170739
661.276778	0.170776
661.481431	0.170981
661.686066	0.170978
661.890682	0.171034
662.095281	0.170941
662.299861	0.171162
662.504422	0.171361
662.708966	0.171447
662.913491	0.171264
663.117999	0.171342
663.322488	0.171281
663.526958	0.171604
663.731411	0.172019
663.935845	0.172031
664.140261	0.172102
664.344659	0.171963
664.549038	0.171905
664.753400	0.172049
664.957743	0.172315
665.162068	0.172560
665.366375	0.172422
665.570663	0.172394
665.774933	0.172857
665.979185	0.173007
666.183419	0.173173
666.387635	0.173617
666.591832	0.173879
666.796011	0.173875
667.000172	0.174058
667.204315	0.174195
667.408439	0.174350
667.612545	0.174329
667.816634	0.174283
668.020703	0.174295
668.224755	0.174290
668.428788	0.174446
668.632803	0.174620
668.836800	0.174660
669.040779	0.174919
669.244739	0.174836
669.448681	0.174704
669.652605	0.174845
669.856511	0.174856
670.060399	0.174911
670.264268	0.174583
670.468119	0.174543
670.671952	0.174539
670.875767	0.174587
671.079563	0.174657
671.283341	0.174930
671.487101	0.175026
671.690843	0.175218
671.894567	0.175212
672.098272	0.175362
672.301959	0.175261
672.505628	0.175231
672.709278	0.175361
672.912911	0.175268
673.116525	0.175292
673.320121	0.175219
673.523699	0.175570
673.727258	0.175487
673.930799	0.175645
674.134322	0.175904
674.337827	0.176062
674.541314	0.176334
674.744782	0.176720
674.948232	0.176618
675.151664	0.176908
675.355078	0.176778
675.558474	0.177129
675.761851	0.177329
675.965210	0.177492
676.168551	0.177483
676.371873	0.177544
676.575178	0.177536
676.778464	0.177762
676.981732	0.177653
677.184981	0.177937
677.388213	0.178106
677.591426	0.178151
677.794621	0.178102
677.997798	0.178528
678.200956	0.178429
678.404097	0.178679
678.607219	0.178741
678.810323	0.178970
679.013408	0.178901
679.216476	0.178926
679.419525	0.179113
679.622556	0.179276
679.825569	0.179365
680.028563	0.179358
680.231540	0.179333
680.434498	0.179495
680.637438	0.179808
680.840359	0.179896
681.043263	0.180089
681.246148	0.180205
681.449015	0.180215
681.651864	0.180280
681.854694	0.180580
682.057506	0.180727
682.260301	0.180900
682.463076	0.180598
682.665834	0.180744
682.868573	0.180780
683.071295	0.180750
683.273998	0.181044
683.476682	0.180954
683.679349	0.181002
683.881997	0.181213
684.084627	0.181238
684.287239	0.181475
684.489833	0.181554
684.692408	0.181550
684.894965	0.181562
685.097504	0.181511
685.300025	0.181879
685.502527	0.181817
685.705012	0.181640
685.907478	0.181594
686.109925	0.181556
686.312355	0.181597
686.514766	0.181712
686.717159	0.181756
686.919534	0.181916
687.121891	0.181721
687.324230	0.181977
687.526550	0.182114
687.728852	0.182393
687.931136	0.182721
688.133401	0.182902
688.335649	0.182869
688.537878	0.183098
688.740089	0.183261
688.942281	0.183221
689.144456	0.183124
689.346612	0.183110
689.548750	0.183251
689.750870	0.183312
689.952971	0.183514
690.155055	0.183852
690.357120	0.183896
690.559167	0.183734
690.761195	0.184101
690.963206	0.184498
691.165198	0.184620
691.367172	0.184566
691.569128	0.184599
691.771065	0.184583
691.972984	0.184475
692.174885	0.184686
692.376768	0.184926
692.578633	0.184792
692.780479	0.184664
692.982308	0.185053
693.184118	0.185082
693.385909	0.185088
