sample name	sample
index	516
start time	 03-11-2021  03:37:25 PM


Wavelength (nm)	Absorbance
494.344910	-0.772007
494.563924	-0.772007
494.782919	-0.772007
495.001897	-0.645095
495.220856	-0.541750
495.439797	-0.465878
495.658719	-0.413816
495.877624	-0.354139
496.096510	-0.304376
496.315378	-0.248906
496.534227	-0.111172
496.753059	-0.185930
496.971872	-0.095184
497.190667	0.139653
497.409444	0.147340
497.628203	0.149525
497.846943	0.151854
498.065665	0.153255
498.284369	0.151759
498.503055	0.152855
498.721723	0.153588
498.940372	0.153738
499.159003	0.153156
499.377616	0.153993
499.596210	0.155118
499.814787	0.155521
500.033345	0.156188
500.251885	0.156446
500.470406	0.156352
500.688910	0.156883
500.907395	0.157398
501.125862	0.156815
501.344311	0.156706
501.562742	0.155657
501.781154	0.156072
501.999548	0.155806
502.217924	0.155544
502.436282	0.155512
502.654621	0.155734
502.872942	0.155300
503.091245	0.156424
503.309530	0.156552
503.527797	0.156744
503.746045	0.156743
503.964275	0.155544
504.182487	0.155643
504.400681	0.156612
504.618856	0.156346
504.837013	0.157259
505.055152	0.157871
505.273273	0.157522
505.491376	0.158206
505.709460	0.157632
505.927526	0.158806
506.145574	0.159484
506.363604	0.158489
506.581615	0.159477
506.799608	0.158896
507.017583	0.158825
507.235540	0.158345
507.453478	0.157583
507.671399	0.157766
507.889301	0.157755
508.107185	0.157543
508.325050	0.158316
508.542898	0.157860
508.760727	0.158152
508.978538	0.158498
509.196330	0.160265
509.414105	0.161244
509.631861	0.161530
509.849599	0.160503
510.067319	0.162013
510.285021	0.161694
510.502704	0.161586
510.720369	0.162088
510.938016	0.162139
511.155645	0.161733
511.373255	0.161932
511.590848	0.161685
511.808422	0.163123
512.025977	0.163405
512.243515	0.164910
512.461034	0.165610
512.678536	0.165761
512.896018	0.166263
513.113483	0.166047
513.330930	0.166284
513.548358	0.167178
513.765768	0.167422
513.983160	0.166718
514.200533	0.166379
514.417889	0.166383
514.635226	0.166379
514.852545	0.166004
515.069845	0.166109
515.287128	0.165853
515.504392	0.166239
515.721638	0.165993
515.938866	0.166535
516.156075	0.166251
516.373267	0.166429
516.590440	0.166799
516.807594	0.167276
517.024731	0.168772
517.241850	0.168751
517.458950	0.168451
517.676032	0.168976
517.893095	0.169207
518.110141	0.169183
518.327168	0.167691
518.544177	0.166831
518.761168	0.166755
518.978141	0.166058
519.195095	0.165981
519.412031	0.167046
519.628949	0.167001
519.845849	0.167571
520.062731	0.167355
520.279594	0.169531
520.496439	0.170515
520.713266	0.171015
520.930074	0.171965
521.146865	0.173439
521.363637	0.172951
521.580391	0.173743
521.797127	0.173183
522.013844	0.174194
522.230543	0.173802
522.447224	0.173671
522.663887	0.174217
522.880532	0.173779
523.097158	0.174758
523.313766	0.174832
523.530356	0.174474
523.746928	0.174979
523.963481	0.175247
524.180017	0.175219
524.396534	0.176026
524.613032	0.176470
524.829513	0.176899
525.045975	0.176242
525.262420	0.176847
525.478845	0.177073
525.695253	0.177025
525.911643	0.177102
526.128014	0.177705
526.344367	0.177709
526.560702	0.177339
526.777018	0.177788
526.993316	0.178274
527.209597	0.178470
527.425858	0.178895
527.642102	0.178660
527.858328	0.179828
528.074535	0.180311
528.290724	0.181113
528.506894	0.181536
528.723047	0.182088
528.939181	0.182126
529.155297	0.182912
529.371395	0.183692
529.587475	0.185291
529.803536	0.184873
530.019579	0.184621
530.235604	0.184648
530.451611	0.185332
530.667600	0.185182
530.883570	0.185576
531.099522	0.185488
531.315456	0.185319
531.531372	0.185056
531.747269	0.185696
531.963148	0.186121
532.179009	0.186377
532.394852	0.186307
532.610676	0.186884
532.826482	0.187041
533.042271	0.187132
533.258040	0.187746
533.473792	0.187949
533.689525	0.188179
533.905240	0.189198
534.120937	0.189991
534.336616	0.190080
534.552277	0.190263
534.767919	0.190545
534.983543	0.191393
535.199149	0.191634
535.414736	0.192220
535.630306	0.192395
535.845857	0.192510
536.061390	0.192511
536.276904	0.192800
536.492401	0.192778
536.707879	0.193578
536.923339	0.193655
537.138781	0.193134
537.354204	0.193130
537.569610	0.192874
537.784997	0.193151
538.000366	0.192896
538.215716	0.193487
538.431049	0.194069
538.646363	0.193277
538.861659	0.192928
539.076937	0.193664
539.292196	0.194112
539.507438	0.194804
539.722661	0.194773
539.937866	0.195357
540.153052	0.195610
540.368221	0.196078
540.583371	0.197368
540.798503	0.198072
541.013617	0.198424
541.228712	0.198779
541.443789	0.198859
541.658848	0.198992
541.873889	0.199588
542.088912	0.200041
542.303916	0.199648
542.518902	0.199131
542.733870	0.199726
542.948820	0.199995
543.163752	0.200458
543.378665	0.200595
543.593560	0.201496
543.808437	0.201164
544.023295	0.201423
544.238136	0.202352
544.452958	0.202894
544.667762	0.202942
544.882548	0.203502
545.097315	0.203526
545.312064	0.203961
545.526795	0.204076
545.741508	0.204249
545.956203	0.204182
546.170879	0.204226
546.385537	0.204818
546.600177	0.204937
546.814799	0.205035
547.029402	0.205208
547.243988	0.205630
547.458555	0.205857
547.673103	0.206845
547.887634	0.206946
548.102146	0.207186
548.316640	0.207454
548.531116	0.208040
548.745574	0.207813
548.960013	0.208053
549.174435	0.208112
549.388838	0.208279
549.603222	0.207911
549.817589	0.208569
550.031937	0.208594
550.246267	0.208565
550.460579	0.208454
550.674873	0.209185
550.889148	0.209647
551.103405	0.210327
551.317644	0.210319
551.531865	0.210680
551.746068	0.210745
551.960252	0.211124
552.174418	0.211108
552.388566	0.211143
552.602696	0.211220
552.816807	0.210750
553.030900	0.210838
553.244975	0.211171
553.459032	0.211883
553.673070	0.212489
553.887091	0.212344
554.101093	0.212816
554.315077	0.212792
554.529042	0.213158
554.742990	0.214136
554.956919	0.214137
555.170830	0.214482
555.384722	0.214483
555.598597	0.213850
555.812453	0.214094
556.026291	0.213951
556.240111	0.214619
556.453913	0.214411
556.667696	0.214202
556.881461	0.214513
557.095208	0.214347
557.308937	0.213992
557.522647	0.214650
557.736339	0.215250
557.950013	0.215604
558.163669	0.215735
558.377307	0.216180
558.590926	0.216543
558.804527	0.216506
559.018110	0.216851
559.231675	0.217187
559.445221	0.217632
559.658749	0.217897
559.872259	0.218171
560.085751	0.218504
560.299225	0.218561
560.512680	0.218322
560.726117	0.218629
560.939536	0.218815
561.152937	0.218945
561.366319	0.218311
561.579683	0.218361
561.793029	0.218354
562.006357	0.218645
562.219667	0.218881
562.432958	0.219138
562.646231	0.219274
562.859486	0.219438
563.072723	0.219557
563.285941	0.219752
563.499141	0.219778
563.712323	0.220495
563.925487	0.220509
564.138632	0.220474
564.351760	0.220822
564.564869	0.221046
564.777960	0.221580
564.991032	0.221829
565.204087	0.221976
565.417123	0.221416
565.630141	0.221091
565.843140	0.221269
566.056122	0.221298
566.269085	0.221467
566.482030	0.221555
566.694957	0.221482
566.907866	0.222057
567.120756	0.222852
567.333628	0.223697
567.546482	0.223939
567.759318	0.223875
567.972135	0.224594
568.184935	0.224637
568.397716	0.224598
568.610478	0.224590
568.823223	0.224604
569.035949	0.224663
569.248657	0.224859
569.461347	0.225056
569.674019	0.225376
569.886672	0.225485
570.099308	0.225598
570.311925	0.225942
570.524523	0.226273
570.737104	0.225978
570.949666	0.226169
571.162210	0.226679
571.374736	0.226469
571.587244	0.226568
571.799733	0.226694
572.012205	0.227032
572.224658	0.226754
572.437092	0.226717
572.649509	0.227195
572.861907	0.227164
573.074287	0.226729
573.286649	0.227345
573.498993	0.227603
573.711318	0.227807
573.923625	0.228215
574.135914	0.228714
574.348185	0.229108
574.560438	0.229488
574.772672	0.230137
574.984888	0.230303
575.197086	0.230265
575.409266	0.230408
575.621427	0.230008
575.833570	0.230080
576.045695	0.230705
576.257802	0.230839
576.469890	0.230885
576.681961	0.230736
576.894013	0.231138
577.106046	0.231532
577.318062	0.231222
577.530059	0.231746
577.742039	0.231660
577.954000	0.231556
578.165942	0.231589
578.377867	0.231854
578.589773	0.231896
578.801661	0.232404
579.013531	0.232701
579.225382	0.233389
579.437216	0.233764
579.649031	0.234091
579.860828	0.234287
580.072606	0.234622
580.284367	0.234559
580.496109	0.234841
580.707833	0.234657
580.919539	0.234516
581.131227	0.234652
581.342896	0.234821
581.554547	0.234474
581.766180	0.234545
581.977795	0.234662
582.189391	0.235040
582.400969	0.234868
582.612529	0.235112
582.824071	0.235197
583.035595	0.235530
583.247100	0.235418
583.458587	0.236227
583.670056	0.236536
583.881506	0.236557
584.092939	0.236789
584.304353	0.237201
584.515749	0.236838
584.727127	0.237204
584.938486	0.237367
585.149828	0.237719
585.361151	0.237636
585.572456	0.237886
585.783742	0.238022
585.995011	0.237950
586.206261	0.238442
586.417493	0.239142
586.628706	0.239568
586.839902	0.239450
587.051079	0.239710
587.262238	0.239812
587.473379	0.240143
587.684502	0.240062
587.895606	0.240139
588.106692	0.239758
588.317760	0.239642
588.528810	0.239052
588.739841	0.239492
588.950855	0.239352
589.161850	0.239876
589.372827	0.239292
589.583785	0.239950
589.794726	0.240484
590.005648	0.240618
590.216552	0.241061
590.427437	0.241830
590.638305	0.241884
590.849154	0.242350
591.059985	0.242434
591.270798	0.242745
591.481592	0.242442
591.692369	0.242514
591.903127	0.242767
592.113867	0.243064
592.324588	0.243086
592.535292	0.243174
592.745977	0.243266
592.956644	0.243560
593.167293	0.244433
593.377923	0.244793
593.588536	0.245109
593.799130	0.245266
594.009706	0.245322
594.220263	0.245562
594.430803	0.245562
594.641324	0.245757
594.851827	0.245685
595.062312	0.245135
595.272778	0.245432
595.483227	0.245399
595.693657	0.245589
595.904069	0.245634
596.114462	0.245868
596.324838	0.246386
596.535195	0.246452
596.745534	0.246626
596.955855	0.247238
597.166157	0.247197
597.376441	0.247436
597.586707	0.247732
597.796955	0.248026
598.007185	0.248364
598.217396	0.248500
598.427589	0.248377
598.637764	0.248574
598.847921	0.248482
599.058060	0.249141
599.268180	0.249253
599.478282	0.249267
599.688366	0.249446
599.898431	0.249316
600.108479	0.249198
600.318508	0.249849
600.528519	0.250020
600.738511	0.250159
600.948486	0.249959
601.158442	0.249908
601.368380	0.250360
601.578300	0.250487
601.788202	0.250520
601.998085	0.250858
602.207950	0.251059
602.417797	0.251001
602.627626	0.250960
602.837436	0.251221
603.047228	0.251652
603.257002	0.251573
603.466758	0.251871
603.676496	0.251965
603.886215	0.252133
604.095916	0.252143
604.305599	0.252336
604.515264	0.253167
604.724910	0.253267
604.934538	0.253229
605.144148	0.253535
605.353740	0.253387
605.563314	0.254077
605.772869	0.254323
605.982406	0.254259
606.191925	0.254493
606.401425	0.254034
606.610908	0.254077
606.820372	0.254477
607.029818	0.254679
607.239246	0.255107
607.448655	0.255100
607.658047	0.255089
607.867420	0.255684
608.076775	0.255752
608.286111	0.256156
608.495430	0.256815
608.704730	0.256611
608.914012	0.256679
609.123275	0.256567
609.332521	0.256554
609.541748	0.256697
609.750957	0.256848
609.960148	0.257148
610.169321	0.257257
610.378475	0.257124
610.587611	0.257339
610.796729	0.257378
611.005829	0.257584
611.214910	0.257576
611.423974	0.257869
611.633019	0.257666
611.842045	0.257727
612.051054	0.257874
612.260044	0.257945
612.469017	0.257646
612.677970	0.258096
612.886906	0.258200
613.095824	0.258261
613.304723	0.258018
613.513604	0.258251
613.722467	0.258502
613.931311	0.258704
614.140138	0.259062
614.348946	0.259668
614.557736	0.259796
614.766507	0.259897
614.975261	0.260275
615.183996	0.260588
615.392713	0.260728
615.601412	0.260783
615.810092	0.261099
616.018754	0.260881
616.227399	0.260892
616.436024	0.261008
616.644632	0.261357
616.853222	0.261665
617.061793	0.261963
617.270346	0.262252
617.478880	0.262588
617.687397	0.262644
617.895895	0.262791
618.104375	0.263189
618.312837	0.263297
618.521281	0.263475
618.729706	0.263533
618.938113	0.263506
619.146502	0.263546
619.354873	0.263811
619.563226	0.263732
619.771560	0.264051
619.979876	0.264236
620.188174	0.264243
620.396453	0.264334
620.604715	0.264448
620.812958	0.264618
621.021183	0.264591
621.229390	0.264364
621.437578	0.264635
621.645748	0.264739
621.853900	0.264665
622.062034	0.265093
622.270150	0.265227
622.478247	0.265291
622.686326	0.265497
622.894387	0.265657
623.102430	0.265970
623.310454	0.266132
623.518461	0.266225
623.726449	0.266518
623.934418	0.266040
624.142370	0.266047
624.350303	0.266051
624.558218	0.266073
624.766115	0.266167
624.973994	0.266310
625.181855	0.266526
625.389697	0.266822
625.597521	0.266730
625.805327	0.267238
626.013114	0.267343
626.220883	0.267575
626.428634	0.268176
626.636367	0.268491
626.844082	0.268560
627.051778	0.268638
627.259457	0.269032
627.467117	0.269437
627.674758	0.269711
627.882382	0.270129
628.089987	0.270276
628.297574	0.270164
628.505143	0.270239
628.712694	0.270420
628.920226	0.270520
629.127740	0.270400
629.335236	0.270420
629.542714	0.270736
629.750174	0.270768
629.957615	0.271210
630.165038	0.271439
630.372443	0.271850
630.579829	0.271920
630.787198	0.271960
630.994548	0.271990
631.201880	0.272279
631.409194	0.272208
631.616489	0.272386
631.823766	0.272333
632.031025	0.272463
632.238266	0.272338
632.445489	0.272600
632.652693	0.272723
632.859879	0.272768
633.067047	0.272658
633.274197	0.272647
633.481329	0.272723
633.688442	0.272961
633.895537	0.273040
634.102614	0.273360
634.309672	0.273272
634.516713	0.273822
634.723735	0.274198
634.930739	0.274503
635.137724	0.274802
635.344692	0.274824
635.551641	0.274907
635.758572	0.275004
635.965485	0.275129
636.172379	0.275723
636.379256	0.275779
636.586114	0.275966
636.792954	0.275956
636.999775	0.276193
637.206579	0.276573
637.413364	0.276877
637.620131	0.277046
637.826880	0.277407
638.033610	0.277466
638.240323	0.277249
638.447017	0.277381
638.653692	0.277841
638.860350	0.277826
639.066990	0.277923
639.273611	0.277774
639.480214	0.278026
639.686798	0.277884
639.893365	0.278184
640.099913	0.278766
640.306443	0.278755
640.512955	0.278895
640.719449	0.279163
640.925924	0.279495
641.132381	0.280037
641.338820	0.279974
641.545241	0.280165
641.751644	0.280055
641.958028	0.279999
642.164394	0.280148
642.370742	0.280348
642.577071	0.280535
642.783383	0.280591
642.989676	0.280490
643.195951	0.280828
643.402207	0.280955
643.608446	0.281171
643.814666	0.281485
644.020868	0.281744
644.227052	0.281748
644.433218	0.281919
644.639365	0.282241
644.845494	0.282423
645.051605	0.282793
645.257698	0.282739
645.463772	0.283004
645.669828	0.283087
645.875866	0.283364
646.081886	0.283723
646.287888	0.283735
646.493871	0.283458
646.699836	0.283787
646.905783	0.283781
647.111712	0.284101
647.317622	0.284053
647.523514	0.284051
647.729388	0.284095
647.935244	0.284188
648.141082	0.284550
648.346901	0.285154
648.552702	0.285183
648.758485	0.285514
648.964250	0.285965
649.169996	0.286250
649.375724	0.286661
649.581434	0.287003
649.787126	0.287204
649.992800	0.287343
650.198455	0.287319
650.404092	0.287478
650.609711	0.287385
650.815311	0.287181
651.020894	0.287133
651.226458	0.287159
651.432004	0.287313
651.637532	0.287355
651.843041	0.287667
652.048532	0.287925
652.254006	0.288033
652.459460	0.288366
652.664897	0.288922
652.870315	0.289201
653.075716	0.289636
653.281097	0.289649
653.486461	0.289867
653.691807	0.289969
653.897134	0.290300
654.102443	0.290403
654.307734	0.290625
654.513006	0.290716
654.718261	0.290923
654.923497	0.290833
655.128715	0.291232
655.333915	0.291540
655.539096	0.291621
655.744259	0.291553
655.949404	0.291980
656.154531	0.292300
656.359640	0.292361
656.564730	0.292533
656.769802	0.292941
656.974856	0.293055
657.179892	0.293242
657.384909	0.293470
657.589908	0.293907
657.794889	0.293981
657.999852	0.293908
658.204797	0.294424
658.409723	0.294847
658.614631	0.295009
658.819521	0.295095
659.024393	0.295421
659.229246	0.295551
659.434081	0.295593
659.638898	0.295889
659.843697	0.296130
660.048478	0.296300
660.253240	0.296362
660.457984	0.296396
660.662710	0.296785
660.867417	0.296950
661.072107	0.297250
661.276778	0.297426
661.481431	0.297546
661.686066	0.297907
661.890682	0.297933
662.095281	0.298339
662.299861	0.298948
662.504422	0.299083
662.708966	0.299042
662.913491	0.299402
663.117999	0.299440
663.322488	0.299750
663.526958	0.299810
663.731411	0.299959
663.935845	0.300134
664.140261	0.299962
664.344659	0.300357
664.549038	0.300627
664.753400	0.300535
664.957743	0.301089
665.162068	0.301573
665.366375	0.301790
665.570663	0.302071
665.774933	0.302100
665.979185	0.302534
666.183419	0.302440
666.387635	0.302746
666.591832	0.303195
666.796011	0.303447
667.000172	0.303604
667.204315	0.303857
667.408439	0.304042
667.612545	0.304306
667.816634	0.304419
668.020703	0.304627
668.224755	0.304827
668.428788	0.304913
668.632803	0.305058
668.836800	0.305012
669.040779	0.305290
669.244739	0.305356
669.448681	0.305788
669.652605	0.306182
669.856511	0.306539
670.060399	0.306589
670.264268	0.306617
670.468119	0.306731
670.671952	0.306886
670.875767	0.306895
671.079563	0.307217
671.283341	0.307157
671.487101	0.307291
671.690843	0.307376
671.894567	0.307698
672.098272	0.308258
672.301959	0.308503
672.505628	0.308800
672.709278	0.309091
672.912911	0.309193
673.116525	0.309600
673.320121	0.309613
673.523699	0.309842
673.727258	0.310101
673.930799	0.310327
674.134322	0.310602
674.337827	0.310607
674.541314	0.310843
674.744782	0.311252
674.948232	0.311287
675.151664	0.311731
675.355078	0.311985
675.558474	0.312265
675.761851	0.312491
675.965210	0.312433
676.168551	0.312757
676.371873	0.312987
676.575178	0.313201
676.778464	0.313574
676.981732	0.313584
677.184981	0.313921
677.388213	0.314173
677.591426	0.314034
677.794621	0.314534
677.997798	0.314745
678.200956	0.314992
678.404097	0.315403
678.607219	0.315458
678.810323	0.315733
679.013408	0.315875
679.216476	0.316023
679.419525	0.316321
679.622556	0.316545
679.825569	0.316801
680.028563	0.316853
680.231540	0.316585
680.434498	0.316687
680.637438	0.317022
680.840359	0.317138
681.043263	0.317441
681.246148	0.317718
681.449015	0.317752
681.651864	0.318012
681.854694	0.318490
682.057506	0.319065
682.260301	0.319618
682.463076	0.319782
682.665834	0.320012
682.868573	0.320230
683.071295	0.320448
683.273998	0.320845
683.476682	0.320770
683.679349	0.320993
683.881997	0.321169
684.084627	0.321466
684.287239	0.321753
684.489833	0.322194
684.692408	0.322297
684.894965	0.322541
685.097504	0.322716
685.300025	0.323336
685.502527	0.323341
685.705012	0.323418
685.907478	0.323518
686.109925	0.323640
686.312355	0.323821
686.514766	0.324119
686.717159	0.324533
686.919534	0.324681
687.121891	0.324686
687.324230	0.325244
687.526550	0.325501
687.728852	0.325515
687.931136	0.325674
688.133401	0.325804
688.335649	0.325819
688.537878	0.325728
688.740089	0.325979
688.942281	0.326380
689.144456	0.326179
689.346612	0.326251
689.548750	0.326392
689.750870	0.326648
689.952971	0.326462
690.155055	0.326704
690.357120	0.326829
690.559167	0.326869
690.761195	0.326940
690.963206	0.327127
691.165198	0.327383
691.367172	0.327606
691.569128	0.327668
691.771065	0.328455
691.972984	0.328616
692.174885	0.329040
692.376768	0.329169
692.578633	0.329451
692.780479	0.329794
692.982308	0.329967
693.184118	0.329995
693.385909	0.329861
