sample name	sample
index	385
start time	 03-04-2021  02:47:02 PM
880	0.143793
Peak Time (s)	92.537
Peak Height 	0.1438
calc peak height	90,93
Baseline Time (s)	11.036
Baseline Value 	-0.002307
subtract baseline	10,4
Abs	0.106363
Peak Time (s)	92.537
Peak Height 	0.1064
calc peak height	90,93
Baseline Time (s)	11.537
Baseline Value 	0.001643
subtract baseline	10,3
PK_550	0.057321
Peak Time (s)	92.537
Peak Height 	0.05732
calc peak height	90,93
Baseline Time (s)	8.537
Baseline Value 	2.6543E-4
subtract baseline	10,2
PK_880	0.097459
Peak Time (s)	92.537
Peak Height 	0.09746
calc peak height	90,93
Baseline Time (s)	9.035
Baseline Value 	6.3407E-4
subtract baseline	10,1


Time (s)	A880-A510	A880-A775	A880-A975	A880	I510	I775	I975	I880	
0.035500	-0.003090	-0.000548	-0.004316	0.004471	6814.795729	46802.209211	3990.436406	24826.600649
0.535500	-0.001884	-0.000186	-0.001700	0.004501	6825.443942	46835.758476	3997.180382	24825.051616
1.036000	-0.001158	0.000153	-0.003252	0.003331	6842.680427	46988.711271	3996.183291	24884.279863
1.536000	0.002411	0.000384	0.001981	0.000829	6898.378279	47266.902186	4016.586066	25011.434345
2.036500	-0.002323	-0.000307	-0.005537	0.003516	6830.402673	46923.262260	3989.743155	24874.895818
2.537000	0.001348	-0.000548	0.001820	0.000188	6894.479606	47237.176356	4017.862657	25044.130666
3.037000	0.000808	-0.000146	0.003442	-0.001968	6909.416028	47499.043008	4027.971667	25154.419302
3.537000	-0.000365	-0.000671	0.003434	0.000147	6879.074989	47228.820754	4022.280967	25046.200633
4.038000	-0.001078	-0.000228	-0.000121	0.000489	6869.390932	47239.173502	4011.905695	25028.786297
4.535000	0.000051	-0.000111	-0.003746	0.000041	6883.879714	47296.920987	4003.515789	25051.646340
5.035500	0.000913	-0.000234	0.002149	0.000367	6888.826538	47251.064365	4018.263858	25035.011936
5.535500	0.000455	0.000696	0.001624	0.000765	6880.935316	47305.388394	4015.806352	25014.705283
6.035500	0.000362	0.000552	-0.002951	0.000656	6881.082454	47301.730946	4003.987842	25020.242857
6.536000	0.000087	-0.000516	0.006315	-0.000240	6886.800692	47284.217441	4031.052622	25065.982588
7.039000	0.000393	-0.000156	0.004185	-0.000038	6887.755412	47300.252267	4024.785588	25055.644175
7.537000	-0.002094	-0.000695	-0.002506	-0.000297	6867.280500	47271.685137	4007.673173	25068.870086
8.037000	0.000399	0.000404	0.002317	0.000412	6883.671952	47311.600822	4018.592486	25032.702736
8.537500	-0.000390	0.000000	-0.002291	0.000517	6875.446927	47259.553928	4006.093741	25027.329403
9.035000	0.000000	0.000362	0.000843	0.000504	6879.152807	47297.839615	4014.423604	25028.001973
9.535500	0.000946	0.000551	0.002289	0.000498	6887.913123	47317.777582	4018.286925	25028.290629
10.035500	0.001072	0.000061	0.003712	-0.000187	6895.399443	47337.796152	4023.919236	25063.282578
10.536000	0.001261	-0.000208	-0.001798	-0.000794	6902.756954	47372.398152	4010.861800	25094.325848
11.036000	-0.001121	-0.000143	-0.001054	0.000000	6873.486942	47297.812277	4010.729185	25053.720790
11.536500	-0.001068	-0.000129	0.000000	-0.000185	6875.675539	47318.136087	4014.015414	25063.185901
12.036500	-0.001058	0.000238	0.003071	0.000201	6872.216503	47316.196473	4021.166686	25043.466727
12.537000	0.001765	0.000183	0.005857	0.000308	6897.221478	47299.620933	4028.345515	25037.985404
13.037000	0.000782	0.000394	0.002660	-0.002187	6911.214742	47576.996106	4026.460901	25165.676164
13.534500	-0.000917	0.000103	-0.000221	-0.000928	6883.883914	47417.861223	4015.400486	25101.148705
14.035000	0.000674	0.000155	0.001062	-0.000315	6892.903081	47360.501704	4017.184280	25069.827311
14.535000	0.000596	-0.000277	0.002330	0.001158	6878.624582	47165.936812	4016.638362	24994.686958
15.035500	0.001387	0.000239	0.001980	-0.000037	6896.914454	47340.565734	4018.888288	25055.585006
15.548000	0.001062	0.000319	0.005205	-0.001175	6904.427997	47465.369853	4030.582445	25113.784434
16.036000	0.000515	0.000423	-0.000499	-0.001287	6900.403827	47487.515190	4015.614918	25119.525054
16.539000	-0.001612	-0.000005	0.007977	0.001200	6857.983805	47189.325206	4031.650904	24992.502893
17.037000	-0.000059	-0.000245	0.001045	-0.001106	6893.435605	47400.513155	4019.245095	25110.256788
17.537000	0.000020	-0.000025	0.002891	-0.000993	6893.126802	47411.534261	4023.880471	25104.502037
18.037500	0.001388	0.000221	0.005165	-0.003101	6925.328810	47653.383130	4035.674554	25212.661989
18.535000	0.001737	0.000693	0.000735	0.001056	6890.060514	47275.305817	4012.672344	24999.857246
19.035000	-0.001386	-0.000391	-0.002685	0.000162	6869.562231	47255.850556	4005.991628	25045.451053
19.535000	-0.001324	-0.000273	-0.002599	-0.000336	6874.704614	47318.836580	4007.532743	25070.895899
20.035500	-0.000538	-0.000106	-0.002343	0.000311	6875.977919	47269.726260	4006.500502	25037.833797
20.536000	-0.002196	0.000033	0.001269	0.000872	6855.644118	47226.718358	4014.578528	25009.230247
21.036500	-0.001100	-0.000402	-0.001013	-0.000110	6874.694287	47282.572812	4011.130094	25059.358622
21.536500	-0.000336	0.000170	0.002005	0.000491	6876.179407	47279.543640	4017.547921	25028.645428
22.037000	-0.001483	0.000803	0.002914	0.000659	6864.116333	47327.102240	4019.524285	25020.072087
22.537500	0.000508	0.000444	0.003509	0.001134	6878.035139	47241.877787	4019.844048	24995.887923
23.037500	-0.001084	-0.000567	0.001787	0.000194	6872.044364	47234.655708	4017.759564	25043.827093
23.535000	-0.000613	0.000668	0.000660	0.000667	6872.030134	47312.482170	4013.505112	25019.698729
24.035000	-0.000749	-0.000058	-0.002371	0.000145	6875.563629	47291.586170	4006.863317	25046.311179
24.536000	0.000839	0.000543	-0.000699	0.000384	6887.980813	47328.644310	4010.652549	25034.139414
25.036000	-0.000595	-0.000400	-0.003989	0.000087	6877.512051	47262.575116	4002.753719	25049.263231
25.536000	-0.000084	0.000252	-0.003937	0.000493	6878.482137	47287.755650	4001.825380	25028.554495
26.039500	-0.001482	-0.000273	-0.004487	0.001202	6859.157404	47161.855179	3998.522781	24992.425731
26.537000	-0.002943	0.000446	-0.001508	0.001655	6841.686032	47188.985451	4005.159085	24969.362794
27.036000	0.000087	-0.000116	-0.001915	0.000556	6879.473122	47243.686278	4006.982557	25025.327717
27.537000	0.000571	0.001312	0.003749	0.001097	6878.949541	47334.380442	4020.583053	24997.757043
28.037500	-0.000347	-0.000145	-0.003921	-0.001138	6891.073832	47414.020558	4006.159772	25111.887131
28.534500	-0.001169	0.000282	0.000172	0.001472	6859.555884	47190.919682	4010.079365	24978.692366
29.035000	0.001315	0.000443	0.002257	-0.001149	6906.527758	47475.377298	4022.599232	25112.448399
29.535500	-0.000613	-0.000373	0.000356	-0.001716	6893.952714	47449.950284	4019.036223	25141.524069
30.035500	-0.003175	-0.000785	-0.002975	0.003747	6820.578396	46851.437965	3995.818153	24863.198876
30.539000	0.001063	0.001008	0.002878	-0.000645	6899.539130	47481.686242	4022.911938	25086.685849
31.036500	0.000399	0.000675	0.003923	-0.000972	6896.422692	47481.108027	4026.588317	25103.403128
31.560000	0.003502	0.000624	0.004366	-0.000696	6922.612531	47447.587694	4027.036632	25089.282797
32.037500	-0.001612	-0.000377	-0.002321	0.002112	6849.660211	47058.721656	4001.819372	24946.153580
32.537500	0.000008	0.000612	0.002012	0.000087	6883.068477	47366.175543	4018.643956	25049.298547
33.073000	-0.000340	0.000617	0.000226	-0.001139	6891.151205	47492.241104	4017.151677	25111.944491
33.535500	0.003054	0.000363	-0.000254	-0.001174	6922.901274	47469.776794	4015.968333	25113.755977
34.035500	-0.001694	0.000096	0.001233	0.003069	6840.181002	47009.455000	4008.660038	24897.532605
34.535500	-0.000871	0.000303	0.002635	-0.000869	6883.769088	47432.333160	4022.861226	25098.115703
35.036000	0.000220	0.000919	0.003998	0.001082	6875.866898	47295.731196	4021.290349	24998.541969
35.536500	-0.002878	-0.000094	0.000489	0.000999	6848.255924	47200.759529	4012.168205	25002.741406
36.039500	0.000044	0.000048	-0.002556	0.001003	6874.973593	47214.908337	4004.116997	25002.563510
36.537000	-0.000365	-0.000211	0.000559	0.001746	6864.397368	47112.706132	4010.376974	24964.715371
37.037500	-0.000793	-0.000412	0.004506	0.000699	6870.085615	47198.989162	4023.673183	25018.078856
37.537500	0.001073	0.000331	-0.001024	0.001006	6884.399046	47243.439871	4008.146207	25002.396109
38.035500	-0.001282	0.000645	-0.000525	0.001399	6859.182405	47235.384290	4008.426826	24982.377303
38.535000	0.000118	-0.000526	-0.001054	0.001543	6870.693932	47101.417672	4006.650176	24975.075382
39.035500	0.000279	0.001043	-0.004221	0.001298	6874.418292	47286.292535	3998.968238	24987.540464
39.536000	0.000394	0.000785	0.000726	0.000906	6879.085118	47300.059364	4013.047931	25007.522931
40.038500	0.000522	0.000035	-0.000402	0.001156	6877.954554	47197.967957	4009.394911	24994.772599
40.536500	-0.000343	0.001162	-0.001272	0.001021	6871.260746	47326.863395	4007.453628	25001.666417
41.039500	-0.002521	0.000110	-0.001531	0.000408	6856.921030	47282.017138	4008.388353	25032.914322
41.537500	0.000074	-0.000180	0.004094	0.000650	6878.491673	47227.611920	4022.701637	25020.566524
42.035000	-0.001216	-0.000342	-0.001575	0.000694	6866.247122	47206.655440	4007.517939	25018.314599
42.535000	-0.002299	-0.000439	0.002465	0.001386	6850.018768	47126.232963	4016.392377	24983.080919
43.035500	0.000807	0.000440	-0.000059	0.001426	6878.092848	47211.657203	4009.586346	24980.995999
43.535500	-0.000040	0.000171	0.002396	0.000823	6875.856127	47245.816762	4017.704876	25011.733198
44.036000	-0.000558	0.000957	0.003241	0.001892	6861.298717	47216.958144	4017.110346	24957.327749
44.536000	-0.002610	-0.000124	0.003149	0.001711	6844.215745	47125.253927	4017.346864	24966.539940
45.039000	0.001039	0.000579	0.003714	-0.002868	6919.915768	47666.241126	4031.126555	25200.683639
45.536500	-0.001087	0.000120	0.001852	-0.001349	6886.207791	47462.879784	4022.053246	25122.737182
46.037000	-0.001333	-0.000193	-0.002832	0.001969	6853.511649	47091.944697	4000.851890	24953.402800
46.537500	0.000080	0.000413	-0.002758	0.002418	6862.327797	47107.934937	3999.869000	24930.607547
47.037500	0.000349	0.000536	0.004819	-0.000258	6889.385990	47393.653353	4027.078186	25066.912439
47.535000	0.000771	0.000980	0.003268	-0.000475	6895.277009	47461.436500	4023.501647	25078.001181
48.035000	-0.000542	0.000114	0.000607	0.002946	6851.809083	47023.753204	4007.331170	24903.788712
48.546500	-0.000627	0.000532	0.002010	0.002903	6851.425476	47070.562824	4011.153160	24905.949406
49.036000	-0.000649	0.000920	0.003145	0.002275	6856.971673	47174.102569	4015.836321	24937.868621
49.542000	-0.000871	0.000105	0.003882	0.001610	6861.021338	47158.796307	4019.569884	24971.669503
50.058000	0.000675	0.001229	0.002335	0.000872	6881.973239	47348.841135	4017.411932	25009.217438
50.536500	0.000592	-0.000376	0.001872	0.002079	6870.122079	47062.012323	4012.973619	24947.785482
51.037000	-0.001280	0.000247	0.000199	-0.000554	6877.113572	47394.410060	4015.525510	25082.036348
51.537500	0.002149	0.000432	0.003384	-0.002845	6930.025232	47648.750620	4030.175237	25199.490068
52.035000	0.000077	0.001250	-0.001347	0.003797	6849.696921	47052.821461	3999.951420	24860.686874
52.535000	0.003231	-0.000388	-0.002067	-0.007350	6982.376155	48029.832496	4027.630112	25432.219615
53.035500	-0.028112	-0.019651	0.005040	0.248311	5001.514434	26868.011085	3519.151536	15396.249197
53.536000	-0.017130	-0.022018	-0.002306	0.035695	6425.949828	41787.138680	3916.945848	23303.829055
54.036000	-0.011047	-0.050176	-0.003395	-0.181549	8805.902441	62996.453632	4598.108760	36563.015512
54.536500	-0.103139	-0.301729	-0.091363	-0.451072	11793.195753	65535.000000	5499.754087	65535.000000
55.036500	-0.001996	-0.126893	0.012162	-0.276237	10403.102789	65535.000000	5100.146150	44769.768726
55.537000	-0.012881	-0.075723	0.005054	-0.221474	9348.564611	65019.072264	4802.807094	39806.692088
56.037000	-0.019354	-0.056059	-0.008114	-0.194952	8875.780074	64046.022653	4633.200028	37618.862154
56.534500	-0.010918	-0.067761	-0.007279	-0.215135	9283.762659	65251.654355	4721.082537	39271.552549
57.035000	0.001370	-0.068049	-0.001750	-0.217371	9501.328331	65531.756977	4754.643655	39459.393586
57.535000	0.003971	-0.059877	-0.000166	-0.208026	9399.413121	65363.092338	4721.101851	38680.701999
58.036000	0.006685	-0.048126	-0.002155	-0.191997	9202.758095	64750.854590	4645.502468	37383.320912
58.535500	0.008737	-0.039096	0.000162	-0.178270	9035.209143	64085.640864	4599.222526	36309.656462
59.039000	0.012985	-0.025264	0.003518	-0.155934	8784.360801	62899.418810	4524.885688	34633.629427
59.536500	0.012707	-0.009181	0.006539	-0.120230	8315.386891	60249.423729	4404.248233	32127.242989
60.036500	0.016451	-0.005050	0.010692	-0.092707	8026.116956	57242.891486	4323.391835	30331.074711
60.537000	0.014400	-0.001900	0.012120	-0.075875	7807.425315	55557.779270	4272.423997	29287.323338
61.037000	0.017291	0.001401	0.016510	-0.048988	7542.884558	52774.885395	4201.163449	27701.851688
61.534500	0.020174	0.006072	0.016905	-0.015374	7224.767499	49560.015901	4102.461484	25852.847953
62.035000	0.022438	0.007072	0.018932	0.001141	7084.702393	47922.873451	4061.724375	24995.516160
62.535500	0.025948	0.009862	0.028351	0.012483	7009.678623	47045.251387	4056.421674	24425.369925
63.035500	0.026807	0.011680	0.028632	0.012457	7018.080975	47233.019832	4057.264046	24426.627866
63.538500	0.033058	0.016344	0.027358	0.009693	7104.744438	47997.562837	4061.375607	24564.213376
64.036500	0.030982	0.020560	0.035744	0.012999	7052.790956	48092.143020	4075.501812	24399.760151
64.536500	0.031478	0.020631	0.033617	0.019404	6996.489778	47438.094889	4051.872986	24084.678418
65.037000	0.033250	0.022046	0.032232	0.028930	6923.756189	46614.163158	4022.322074	23624.540258
65.542000	0.034276	0.022808	0.032872	0.033874	6887.494189	46195.364764	4010.868031	23389.689726
66.046000	0.035370	0.023219	0.036820	0.039895	6842.351367	45639.756195	4005.391023	23107.258740
66.538000	0.033170	0.022960	0.037488	0.046839	6759.922554	44936.947496	3988.968467	22786.342543
67.035500	0.034761	0.024377	0.040054	0.046300	6778.976282	45126.689722	3997.064378	22811.098087
67.535500	0.039480	0.025604	0.042256	0.049299	6794.428083	44954.773710	3994.981099	22673.907954
68.035500	0.038814	0.025167	0.043238	0.051802	6766.003351	44671.115465	3991.016355	22560.115555
68.536500	0.039900	0.026139	0.043882	0.055323	6744.312003	44426.694239	3983.553807	22401.182512
69.036500	0.043831	0.026953	0.046842	0.053473	6796.008857	44682.170482	3996.057528	22484.519053
69.537000	0.044058	0.027827	0.049810	0.054306	6790.558265	44686.009518	4001.650763	22446.939779
70.037000	0.045717	0.028927	0.051781	0.056432	6786.368823	44587.502206	4001.244002	22351.397570
70.537500	0.045358	0.028297	0.049172	0.058945	6760.658938	44286.923649	3987.872208	22239.010510
71.035000	0.048951	0.029470	0.055530	0.056363	6816.140183	44646.281351	4011.315675	22354.491002
71.535000	0.050289	0.029885	0.057834	0.056977	6822.697919	44627.204133	4015.798984	22326.963586
72.035500	0.052389	0.029912	0.060893	0.058227	6830.416656	44509.915467	4020.622265	22271.073779
72.536000	0.051908	0.031599	0.055709	0.062685	6785.807889	44245.306132	3995.155337	22073.006051
73.039000	0.053918	0.031592	0.058461	0.059483	6832.888857	44550.471148	4010.813412	22215.032065
73.537000	0.055934	0.033287	0.056133	0.060757	6839.641066	44590.863460	4001.315233	22158.392860
74.036500	0.058169	0.033354	0.061190	0.061446	6853.737445	44531.236879	4012.843054	22127.828417
74.542500	0.056344	0.034672	0.062703	0.067645	6781.101981	44066.030033	4000.480881	21854.997002
75.037000	0.060414	0.035141	0.057119	0.064529	6846.090203	44407.279116	3994.022860	21991.672213
75.537500	0.061526	0.036344	0.062995	0.066345	6839.673873	44348.698366	4004.665307	21911.895291
76.035000	0.063221	0.036951	0.061298	0.068117	6838.970890	44237.705021	3995.566540	21834.388823
76.535000	0.063416	0.037921	0.070327	0.070341	6820.549097	44118.506277	4013.486624	21737.554709
77.035500	0.064948	0.037688	0.068950	0.071417	6824.683695	43994.489077	4006.992472	21690.871172
77.536000	0.064275	0.038645	0.064108	0.074094	6794.419931	43832.118770	3987.320507	21575.260008
78.036000	0.065922	0.039237	0.066404	0.077129	6781.947064	43602.488452	3985.403495	21445.028904
78.536500	0.066933	0.040042	0.068525	0.079193	6772.522006	43484.823502	3985.555269	21357.029383
79.037000	0.068330	0.040666	0.072151	0.081751	6762.134818	43304.436714	3988.323002	21248.468036
79.537500	0.069950	0.040670	0.075601	0.083567	6760.396035	43136.281459	3992.573323	21171.824131
80.034500	0.071823	0.041816	0.078169	0.087326	6743.601411	42894.998976	3989.472607	21014.125238
80.538000	0.069087	0.040665	0.067972	0.092920	6670.320722	42278.857850	3949.171040	20782.020228
81.038000	0.073568	0.042193	0.077733	0.091660	6720.675000	42532.306295	3977.142229	20834.023583
81.535500	0.073346	0.043397	0.076272	0.094342	6695.126581	42397.735150	3966.546344	20723.498966
82.035500	0.076335	0.044555	0.075437	0.098069	6688.654518	42164.834436	3954.991257	20570.970811
82.539000	0.076713	0.043620	0.082661	0.099129	6682.689288	41984.927296	3970.632738	20527.855554
83.036000	0.078021	0.044917	0.080288	0.102455	6665.090343	41802.845910	3956.164841	20393.184672
83.536500	0.076723	0.044993	0.087726	0.104505	6636.071326	41626.510213	3969.838736	20310.710542
84.037000	0.081451	0.046932	0.083315	0.108414	6643.147012	41451.202807	3948.792148	20154.464572
84.537000	0.077648	0.046887	0.080508	0.113724	6565.134327	40978.856463	3928.647907	19944.495383
85.037500	0.081116	0.047708	0.083882	0.111983	6609.528562	41204.155482	3941.300010	20013.079600
85.535000	0.082016	0.048052	0.085734	0.114308	6597.328281	41029.848206	3940.121848	19921.566004
86.034500	0.083888	0.048778	0.086984	0.117043	6589.962766	40854.004004	3936.438772	19814.582928
86.535500	0.085625	0.050224	0.089338	0.119783	6581.419699	40741.099464	3935.485267	19708.052260
87.036000	0.086715	0.051413	0.088731	0.121429	6576.689136	40701.293843	3929.922827	19644.358365
87.536000	0.087812	0.050258	0.090237	0.122883	6573.653728	40474.918743	3930.049951	19588.314758
88.036000	0.087889	0.052521	0.090768	0.127128	6538.439929	40303.916965	3920.946363	19425.785033
88.537000	0.089523	0.052916	0.089471	0.128557	6540.163147	40214.971380	3914.311625	19371.404703
89.037000	0.092489	0.053168	0.090847	0.130490	6548.870745	40070.872108	3912.961876	19298.163760
89.537000	0.090555	0.054197	0.099290	0.132407	6516.526045	39994.928515	3928.889674	19225.805354
90.035000	0.092429	0.054358	0.097494	0.134048	6518.482669	39868.833877	3920.473173	19164.163920
90.535000	0.089480	0.055121	0.096779	0.136211	6475.967141	39749.813350	3913.472539	19083.224680
91.035000	0.095394	0.056519	0.099277	0.138780	6503.736470	39650.727513	3913.302227	18987.674436
91.535500	0.094528	0.056160	0.095588	0.139646	6489.333017	39547.210290	3902.320995	18955.577807
92.038500	0.096244	0.056731	0.101639	0.142131	6482.954435	39386.045906	3910.905795	18863.812911
92.536500	0.097459	0.057321	0.106363	0.143793	6479.254186	39296.091183	3918.335877	18802.742918
93.036500	0.096635	0.058682	0.104867	0.146540	6449.837185	39180.252264	3908.057363	18702.354119
93.537000	0.097245	0.059116	0.107307	0.148725	6436.934217	39034.259010	3908.671722	18622.924747
94.037000	0.099817	0.060179	0.104168	0.150590	6442.717575	38967.614530	3896.667941	18555.449866
94.537500	0.097580	0.060078	0.105063	0.156711	6374.926313	38454.707929	3884.275576	18335.998663
95.035000	0.104148	0.061395	0.108217	0.154507	6446.109267	38744.108878	3896.981852	18414.671176
95.615500	0.103428	0.061866	0.108652	0.156588	6423.224903	38611.523160	3893.061278	18340.396060
96.035000	0.103172	0.061880	0.110119	0.157997	6409.688370	38497.026598	3893.198919	18290.302008
96.563000	0.101467	0.061893	0.102535	0.164858	6340.876330	37940.250540	3859.426536	18048.711281
97.036000	0.106363	0.063068	0.115516	0.161306	6408.734096	38323.616435	3898.176229	18173.310326
97.535500	0.106603	0.063004	0.112405	0.164073	6388.299896	38093.519909	3884.228170	18076.155584
