sample name	sample
index	1493
start time	 05-18-2021  01:09:34 PM


Wavelength (nm)	Absorbance
494.344910	NaN
494.563924	NaN
494.782919	NaN
495.001897	-0.033845
495.220856	0.205146
495.439797	0.197456
495.658719	0.141809
495.877624	0.054603
496.096510	0.096208
496.315378	0.118619
496.534227	0.125572
496.753059	0.162385
496.971872	0.219055
497.190667	0.156595
497.409444	0.142295
497.628203	0.142202
497.846943	0.141478
498.065665	0.140847
498.284369	0.139341
498.503055	0.136591
498.721723	0.135763
498.940372	0.135336
499.159003	0.134410
499.377616	0.133516
499.596210	0.133060
499.814787	0.133515
500.033345	0.132463
500.251885	0.132868
500.470406	0.134933
500.688910	0.135562
500.907395	0.135252
501.125862	0.134705
501.344311	0.135968
501.562742	0.136229
501.781154	0.136159
501.999548	0.136831
502.217924	0.136740
502.436282	0.135708
502.654621	0.135280
502.872942	0.135800
503.091245	0.136418
503.309530	0.135820
503.527797	0.136439
503.746045	0.136293
503.964275	0.134927
504.182487	0.134556
504.400681	0.135134
504.618856	0.135046
504.837013	0.135290
505.055152	0.135497
505.273273	0.135257
505.491376	0.134685
505.709460	0.134484
505.927526	0.135030
506.145574	0.135851
506.363604	0.135355
506.581615	0.135761
506.799608	0.135369
507.017583	0.135330
507.235540	0.135556
507.453478	0.136393
507.671399	0.136659
507.889301	0.137518
508.107185	0.137219
508.325050	0.138294
508.542898	0.138577
508.760727	0.139205
508.978538	0.139925
509.196330	0.140590
509.414105	0.140543
509.631861	0.140761
509.849599	0.140863
510.067319	0.141707
510.285021	0.141341
510.502704	0.141493
510.720369	0.142347
510.938016	0.142237
511.155645	0.142592
511.373255	0.141459
511.590848	0.141804
511.808422	0.142600
512.025977	0.142627
512.243515	0.143291
512.461034	0.143737
512.678536	0.142985
512.896018	0.143064
513.113483	0.142780
513.330930	0.143233
513.548358	0.143396
513.765768	0.142826
513.983160	0.142288
514.200533	0.142289
514.417889	0.141550
514.635226	0.141442
514.852545	0.141299
515.069845	0.141929
515.287128	0.141803
515.504392	0.142141
515.721638	0.142513
515.938866	0.142503
516.156075	0.142825
516.373267	0.144032
516.590440	0.144726
516.807594	0.144620
517.024731	0.144081
517.241850	0.146065
517.458950	0.145827
517.676032	0.146496
517.893095	0.147692
518.110141	0.147355
518.327168	0.146694
518.544177	0.147273
518.761168	0.147483
518.978141	0.148524
519.195095	0.147382
519.412031	0.148306
519.628949	0.147889
519.845849	0.147309
520.062731	0.147718
520.279594	0.148043
520.496439	0.147215
520.713266	0.147784
520.930074	0.147871
521.146865	0.147340
521.363637	0.147045
521.580391	0.147434
521.797127	0.147586
522.013844	0.148019
522.230543	0.148577
522.447224	0.149008
522.663887	0.149410
522.880532	0.148769
523.097158	0.150424
523.313766	0.150514
523.530356	0.150229
523.746928	0.150747
523.963481	0.150150
524.180017	0.150533
524.396534	0.151186
524.613032	0.150881
524.829513	0.152045
525.045975	0.151072
525.262420	0.152179
525.478845	0.152906
525.695253	0.152995
525.911643	0.154271
526.128014	0.154261
526.344367	0.154020
526.560702	0.154453
526.777018	0.153946
526.993316	0.155000
527.209597	0.154019
527.425858	0.154836
527.642102	0.155197
527.858328	0.154549
528.074535	0.154900
528.290724	0.154911
528.506894	0.154709
528.723047	0.155326
528.939181	0.155994
529.155297	0.156504
529.371395	0.156355
529.587475	0.156420
529.803536	0.156929
530.019579	0.157091
530.235604	0.157386
530.451611	0.158454
530.667600	0.158043
530.883570	0.157602
531.099522	0.157995
531.315456	0.158164
531.531372	0.158608
531.747269	0.158593
531.963148	0.158704
532.179009	0.159148
532.394852	0.159419
532.610676	0.160172
532.826482	0.160459
533.042271	0.160199
533.258040	0.159935
533.473792	0.160543
533.689525	0.161033
533.905240	0.161007
534.120937	0.161308
534.336616	0.160952
534.552277	0.161686
534.767919	0.162011
534.983543	0.163020
535.199149	0.163351
535.414736	0.163237
535.630306	0.164009
535.845857	0.164753
536.061390	0.165107
536.276904	0.166430
536.492401	0.166009
536.707879	0.166158
536.923339	0.166142
537.138781	0.166436
537.354204	0.166239
537.569610	0.166441
537.784997	0.165997
538.000366	0.165824
538.215716	0.165033
538.431049	0.165461
538.646363	0.165376
538.861659	0.165536
539.076937	0.166512
539.292196	0.166723
539.507438	0.167044
539.722661	0.167511
539.937866	0.168003
540.153052	0.167865
540.368221	0.168034
540.583371	0.168697
540.798503	0.169380
541.013617	0.168848
541.228712	0.169524
541.443789	0.169026
541.658848	0.169736
541.873889	0.170081
542.088912	0.170843
542.303916	0.170961
542.518902	0.170958
542.733870	0.170683
542.948820	0.171208
543.163752	0.170810
543.378665	0.171197
543.593560	0.171657
543.808437	0.171888
544.023295	0.172600
544.238136	0.173206
544.452958	0.173689
544.667762	0.174226
544.882548	0.174213
545.097315	0.175203
545.312064	0.175625
545.526795	0.174942
545.741508	0.174970
545.956203	0.174736
546.170879	0.174918
546.385537	0.175336
546.600177	0.175542
546.814799	0.176014
547.029402	0.175933
547.243988	0.176198
547.458555	0.176740
547.673103	0.177124
547.887634	0.177667
548.102146	0.177627
548.316640	0.177650
548.531116	0.177721
548.745574	0.178009
548.960013	0.178430
549.174435	0.178638
549.388838	0.179102
549.603222	0.179658
549.817589	0.179103
550.031937	0.179378
550.246267	0.179432
550.460579	0.179709
550.674873	0.179728
550.889148	0.179656
551.103405	0.179862
551.317644	0.179989
551.531865	0.179873
551.746068	0.180618
551.960252	0.180688
552.174418	0.181034
552.388566	0.180827
552.602696	0.181449
552.816807	0.181903
553.030900	0.182100
553.244975	0.182536
553.459032	0.182841
553.673070	0.183590
553.887091	0.184096
554.101093	0.184157
554.315077	0.184740
554.529042	0.184841
554.742990	0.184878
554.956919	0.184718
555.170830	0.184429
555.384722	0.184645
555.598597	0.184169
555.812453	0.184418
556.026291	0.184735
556.240111	0.185090
556.453913	0.184729
556.667696	0.184648
556.881461	0.185302
557.095208	0.186015
557.308937	0.185916
557.522647	0.186406
557.736339	0.186373
557.950013	0.186535
558.163669	0.186574
558.377307	0.187144
558.590926	0.187613
558.804527	0.187842
559.018110	0.187646
559.231675	0.187814
559.445221	0.187743
559.658749	0.187873
559.872259	0.187706
560.085751	0.187568
560.299225	0.187815
560.512680	0.187818
560.726117	0.187766
560.939536	0.187864
561.152937	0.188126
561.366319	0.188199
561.579683	0.187904
561.793029	0.188420
562.006357	0.188546
562.219667	0.188193
562.432958	0.188359
562.646231	0.188745
562.859486	0.189060
563.072723	0.189515
563.285941	0.189786
563.499141	0.190774
563.712323	0.190940
563.925487	0.191219
564.138632	0.191799
564.351760	0.192430
564.564869	0.192328
564.777960	0.192120
564.991032	0.191902
565.204087	0.192306
565.417123	0.192578
565.630141	0.193133
565.843140	0.193535
566.056122	0.193577
566.269085	0.193371
566.482030	0.193497
566.694957	0.194229
566.907866	0.194406
567.120756	0.194588
567.333628	0.194340
567.546482	0.194157
567.759318	0.194483
567.972135	0.194869
568.184935	0.195169
568.397716	0.195550
568.610478	0.196098
568.823223	0.196525
569.035949	0.196289
569.248657	0.196756
569.461347	0.197140
569.674019	0.197181
569.886672	0.197608
570.099308	0.197964
570.311925	0.197707
570.524523	0.197388
570.737104	0.197446
570.949666	0.198086
571.162210	0.198080
571.374736	0.197791
571.587244	0.198082
571.799733	0.197965
572.012205	0.197889
572.224658	0.198593
572.437092	0.199109
572.649509	0.198903
572.861907	0.198831
573.074287	0.198957
573.286649	0.199510
573.498993	0.199798
573.711318	0.200007
573.923625	0.200543
574.135914	0.200691
574.348185	0.200305
574.560438	0.200967
574.772672	0.201149
574.984888	0.201229
575.197086	0.201158
575.409266	0.200907
575.621427	0.200738
575.833570	0.200560
576.045695	0.200337
576.257802	0.200731
576.469890	0.200882
576.681961	0.200846
576.894013	0.200923
577.106046	0.200999
577.318062	0.201272
577.530059	0.201358
577.742039	0.201863
577.954000	0.201878
578.165942	0.201825
578.377867	0.201589
578.589773	0.202063
578.801661	0.202599
579.013531	0.202863
579.225382	0.202928
579.437216	0.203315
579.649031	0.203616
579.860828	0.203571
580.072606	0.203770
580.284367	0.204125
580.496109	0.204437
580.707833	0.204359
580.919539	0.204927
581.131227	0.205283
581.342896	0.205213
581.554547	0.204816
581.766180	0.205537
581.977795	0.206128
582.189391	0.206716
582.400969	0.206129
582.612529	0.206156
582.824071	0.206100
583.035595	0.205967
583.247100	0.206234
583.458587	0.206286
583.670056	0.206330
583.881506	0.206191
584.092939	0.205940
584.304353	0.206673
584.515749	0.206976
584.727127	0.207056
584.938486	0.207611
585.149828	0.208154
585.361151	0.208313
585.572456	0.208139
585.783742	0.208169
585.995011	0.208823
586.206261	0.208820
586.417493	0.208768
586.628706	0.208799
586.839902	0.208558
587.051079	0.208231
587.262238	0.208558
587.473379	0.208995
587.684502	0.209309
587.895606	0.208820
588.106692	0.209245
588.317760	0.209640
588.528810	0.209774
588.739841	0.210050
588.950855	0.210584
589.161850	0.210864
589.372827	0.211088
589.583785	0.211520
589.794726	0.211940
590.005648	0.211958
590.216552	0.212265
590.427437	0.212485
590.638305	0.212719
590.849154	0.212736
591.059985	0.212880
591.270798	0.213354
591.481592	0.212869
591.692369	0.213082
591.903127	0.213661
592.113867	0.213932
592.324588	0.213985
592.535292	0.214404
592.745977	0.214391
592.956644	0.214695
593.167293	0.214930
593.377923	0.215266
593.588536	0.215331
593.799130	0.215222
594.009706	0.215156
594.220263	0.215572
594.430803	0.215609
594.641324	0.216096
594.851827	0.216219
595.062312	0.216156
595.272778	0.216646
595.483227	0.217003
595.693657	0.216990
595.904069	0.217089
596.114462	0.217605
596.324838	0.218004
596.535195	0.217757
596.745534	0.217795
596.955855	0.217960
597.166157	0.218022
597.376441	0.217875
597.586707	0.218357
597.796955	0.218831
598.007185	0.218677
598.217396	0.218666
598.427589	0.219509
598.637764	0.219470
598.847921	0.219879
599.058060	0.220011
599.268180	0.220225
599.478282	0.220098
599.688366	0.219841
599.898431	0.219803
600.108479	0.219752
600.318508	0.219683
600.528519	0.220123
600.738511	0.219823
600.948486	0.219818
601.158442	0.220191
601.368380	0.220354
601.578300	0.220574
601.788202	0.220750
601.998085	0.221084
602.207950	0.220889
602.417797	0.220797
602.627626	0.221206
602.837436	0.221477
603.047228	0.221404
603.257002	0.221701
603.466758	0.221985
603.676496	0.221911
603.886215	0.221576
604.095916	0.221861
604.305599	0.222016
604.515264	0.222053
604.724910	0.222236
604.934538	0.222218
605.144148	0.222352
605.353740	0.222382
605.563314	0.222806
605.772869	0.223066
605.982406	0.223184
606.191925	0.223329
606.401425	0.223435
606.610908	0.223429
606.820372	0.223816
607.029818	0.223575
607.239246	0.223996
607.448655	0.224136
607.658047	0.224545
607.867420	0.224692
608.076775	0.225138
608.286111	0.225161
608.495430	0.225314
608.704730	0.225558
608.914012	0.225760
609.123275	0.225538
609.332521	0.225624
609.541748	0.225476
609.750957	0.225702
609.960148	0.225642
610.169321	0.225603
610.378475	0.225675
610.587611	0.225371
610.796729	0.225768
611.005829	0.226055
611.214910	0.226221
611.423974	0.226645
611.633019	0.226691
611.842045	0.226935
612.051054	0.227058
612.260044	0.227207
612.469017	0.227829
612.677970	0.227814
612.886906	0.228032
613.095824	0.228307
613.304723	0.228443
613.513604	0.228964
613.722467	0.229093
613.931311	0.229424
614.140138	0.229684
614.348946	0.229496
614.557736	0.229552
614.766507	0.229697
614.975261	0.229615
615.183996	0.229500
615.392713	0.229261
615.601412	0.229390
615.810092	0.229474
616.018754	0.229244
616.227399	0.229526
616.436024	0.229636
616.644632	0.229417
616.853222	0.229748
617.061793	0.229847
617.270346	0.229737
617.478880	0.229962
617.687397	0.230058
617.895895	0.230554
618.104375	0.230839
618.312837	0.231118
618.521281	0.231323
618.729706	0.231351
618.938113	0.231608
619.146502	0.232158
619.354873	0.232282
619.563226	0.232669
619.771560	0.232650
619.979876	0.232712
620.188174	0.232625
620.396453	0.232912
620.604715	0.233107
620.812958	0.233092
621.021183	0.233076
621.229390	0.232911
621.437578	0.233047
621.645748	0.233038
621.853900	0.232956
622.062034	0.233163
622.270150	0.233171
622.478247	0.233149
622.686326	0.233316
622.894387	0.233649
623.102430	0.234287
623.310454	0.234146
623.518461	0.234410
623.726449	0.234567
623.934418	0.234467
624.142370	0.234685
624.350303	0.234823
624.558218	0.235103
624.766115	0.235101
624.973994	0.234679
625.181855	0.234765
625.389697	0.234910
625.597521	0.235346
625.805327	0.235945
626.013114	0.236356
626.220883	0.236526
626.428634	0.236588
626.636367	0.236689
626.844082	0.236875
627.051778	0.237251
627.259457	0.237623
627.467117	0.237547
627.674758	0.237260
627.882382	0.237340
628.089987	0.237461
628.297574	0.237417
628.505143	0.237675
628.712694	0.238077
628.920226	0.238147
629.127740	0.238136
629.335236	0.238202
629.542714	0.238761
629.750174	0.238793
629.957615	0.238801
630.165038	0.239462
630.372443	0.239470
630.579829	0.239621
630.787198	0.239803
630.994548	0.240015
631.201880	0.240241
631.409194	0.240360
631.616489	0.240288
631.823766	0.240510
632.031025	0.240460
632.238266	0.240785
632.445489	0.241059
632.652693	0.241106
632.859879	0.241386
633.067047	0.241581
633.274197	0.241709
633.481329	0.242096
633.688442	0.242352
633.895537	0.242648
634.102614	0.242775
634.309672	0.242804
634.516713	0.243248
634.723735	0.243103
634.930739	0.243394
635.137724	0.243527
635.344692	0.243632
635.551641	0.243576
635.758572	0.243443
635.965485	0.243476
636.172379	0.243423
636.379256	0.243483
636.586114	0.243596
636.792954	0.243514
636.999775	0.243453
637.206579	0.243474
637.413364	0.243809
637.620131	0.244183
637.826880	0.244186
638.033610	0.244480
638.240323	0.244513
638.447017	0.244600
638.653692	0.244740
638.860350	0.244846
639.066990	0.245019
639.273611	0.245102
639.480214	0.245091
639.686798	0.245436
639.893365	0.245581
640.099913	0.245849
640.306443	0.245957
640.512955	0.246136
640.719449	0.246519
640.925924	0.246720
641.132381	0.246647
641.338820	0.246694
641.545241	0.246830
641.751644	0.247025
641.958028	0.247184
642.164394	0.247543
642.370742	0.247934
642.577071	0.248012
642.783383	0.248306
642.989676	0.248625
643.195951	0.248861
643.402207	0.248807
643.608446	0.248804
643.814666	0.248868
644.020868	0.249264
644.227052	0.249254
644.433218	0.249370
644.639365	0.249531
644.845494	0.249735
645.051605	0.249853
645.257698	0.250031
645.463772	0.250012
645.669828	0.250022
645.875866	0.249992
646.081886	0.250074
646.287888	0.250435
646.493871	0.250339
646.699836	0.250368
646.905783	0.250590
647.111712	0.250785
647.317622	0.250870
647.523514	0.251299
647.729388	0.251268
647.935244	0.251755
648.141082	0.251696
648.346901	0.251925
648.552702	0.252469
648.758485	0.252777
648.964250	0.253011
649.169996	0.253688
649.375724	0.253694
649.581434	0.254127
649.787126	0.254147
649.992800	0.254616
650.198455	0.254794
650.404092	0.255102
650.609711	0.254949
650.815311	0.255158
651.020894	0.255291
651.226458	0.255407
651.432004	0.255359
651.637532	0.255357
651.843041	0.255087
652.048532	0.255293
652.254006	0.255118
652.459460	0.255666
652.664897	0.255747
652.870315	0.255888
653.075716	0.256073
653.281097	0.256520
653.486461	0.256748
653.691807	0.257187
653.897134	0.257568
654.102443	0.257577
654.307734	0.257569
654.513006	0.257786
654.718261	0.258006
654.923497	0.258322
655.128715	0.258401
655.333915	0.258717
655.539096	0.258807
655.744259	0.259055
655.949404	0.259605
656.154531	0.259789
656.359640	0.260054
656.564730	0.260165
656.769802	0.260285
656.974856	0.260541
657.179892	0.260484
657.384909	0.260665
657.589908	0.260641
657.794889	0.260651
657.999852	0.260712
658.204797	0.260982
658.409723	0.261055
658.614631	0.261412
658.819521	0.261462
659.024393	0.261850
659.229246	0.262174
659.434081	0.262360
659.638898	0.262709
659.843697	0.263051
660.048478	0.263041
660.253240	0.263368
660.457984	0.263442
660.662710	0.263619
660.867417	0.264047
661.072107	0.264497
661.276778	0.264873
661.481431	0.264793
661.686066	0.265028
661.890682	0.265294
662.095281	0.265337
662.299861	0.265562
662.504422	0.265688
662.708966	0.265420
662.913491	0.265054
663.117999	0.264967
663.322488	0.265381
663.526958	0.265457
663.731411	0.265688
663.935845	0.265624
664.140261	0.265721
664.344659	0.265958
664.549038	0.266040
664.753400	0.266304
664.957743	0.266437
665.162068	0.266511
665.366375	0.266621
665.570663	0.266672
665.774933	0.266981
665.979185	0.267291
666.183419	0.267494
666.387635	0.267805
666.591832	0.267799
666.796011	0.268176
667.000172	0.268390
667.204315	0.268852
667.408439	0.268985
667.612545	0.269208
667.816634	0.269118
668.020703	0.269271
668.224755	0.269348
668.428788	0.269826
668.632803	0.269799
668.836800	0.269951
669.040779	0.270203
669.244739	0.270474
669.448681	0.270747
669.652605	0.270974
669.856511	0.270947
670.060399	0.271332
670.264268	0.271544
670.468119	0.271869
670.671952	0.271842
670.875767	0.271596
671.079563	0.271844
671.283341	0.271981
671.487101	0.272319
671.690843	0.272790
671.894567	0.273044
672.098272	0.273254
672.301959	0.273310
672.505628	0.273719
672.709278	0.274270
672.912911	0.274416
673.116525	0.274703
673.320121	0.274840
673.523699	0.274925
673.727258	0.275259
673.930799	0.275435
674.134322	0.275530
674.337827	0.275666
674.541314	0.275993
674.744782	0.276467
674.948232	0.276665
675.151664	0.276812
675.355078	0.276997
675.558474	0.276766
675.761851	0.276887
675.965210	0.277297
676.168551	0.277754
676.371873	0.277606
676.575178	0.277389
676.778464	0.277617
676.981732	0.277931
677.184981	0.278281
677.388213	0.278832
677.591426	0.279101
677.794621	0.279206
677.997798	0.279350
678.200956	0.279654
678.404097	0.280030
678.607219	0.280282
678.810323	0.280441
679.013408	0.280718
679.216476	0.280885
679.419525	0.281207
679.622556	0.281522
679.825569	0.281728
680.028563	0.281817
680.231540	0.281851
680.434498	0.282098
680.637438	0.282514
680.840359	0.282787
681.043263	0.282923
681.246148	0.283200
681.449015	0.283351
681.651864	0.283385
681.854694	0.283650
682.057506	0.284078
682.260301	0.284221
682.463076	0.284168
682.665834	0.284282
682.868573	0.284560
683.071295	0.284585
683.273998	0.284602
683.476682	0.284622
683.679349	0.284873
683.881997	0.284967
684.084627	0.285221
684.287239	0.285535
684.489833	0.285465
684.692408	0.285600
684.894965	0.285749
685.097504	0.286093
685.300025	0.286304
685.502527	0.286443
685.705012	0.286570
685.907478	0.286667
686.109925	0.286809
686.312355	0.287079
686.514766	0.287171
686.717159	0.287470
686.919534	0.287651
687.121891	0.287848
687.324230	0.288084
687.526550	0.288155
687.728852	0.288327
687.931136	0.288422
688.133401	0.288688
688.335649	0.289000
688.537878	0.288930
688.740089	0.289134
688.942281	0.289527
689.144456	0.289600
689.346612	0.289907
689.548750	0.289916
689.750870	0.290151
689.952971	0.290262
690.155055	0.290278
690.357120	0.290604
690.559167	0.290588
690.761195	0.290545
690.963206	0.290697
691.165198	0.290852
691.367172	0.291054
691.569128	0.291171
691.771065	0.291411
691.972984	0.291568
692.174885	0.291847
692.376768	0.292231
692.578633	0.292359
692.780479	0.292471
692.982308	0.292630
693.184118	0.292754
693.385909	0.292727
693.587683	0.292863
