sample name	sample
index	970
start time	 04-14-2021  02:30:18 PM


Wavelength (nm)	Absorbance
494.344910	-0.030669
494.563924	-0.030669
494.782919	-0.030669
495.001897	0.053985
495.220856	-0.005647
495.439797	0.005106
495.658719	0.017840
495.877624	0.018526
496.096510	-0.008568
496.315378	-0.033373
496.534227	-0.037790
496.753059	-0.040435
496.971872	-0.025833
497.190667	0.064488
497.409444	0.082196
497.628203	0.088693
497.846943	0.094392
498.065665	0.099157
498.284369	0.102129
498.503055	0.103109
498.721723	0.104090
498.940372	0.104796
499.159003	0.105464
499.377616	0.105590
499.596210	0.105521
499.814787	0.105816
500.033345	0.106487
500.251885	0.106267
500.470406	0.106060
500.688910	0.104501
500.907395	0.104304
501.125862	0.103026
501.344311	0.103325
501.562742	0.104528
501.781154	0.104381
501.999548	0.104337
502.217924	0.103818
502.436282	0.104131
502.654621	0.104411
502.872942	0.105434
503.091245	0.106732
503.309530	0.107259
503.527797	0.106601
503.746045	0.106581
503.964275	0.104971
504.182487	0.105723
504.400681	0.105719
504.618856	0.106743
504.837013	0.106177
505.055152	0.106168
505.273273	0.105871
505.491376	0.105692
505.709460	0.106047
505.927526	0.107551
506.145574	0.107850
506.363604	0.108258
506.581615	0.108989
506.799608	0.109143
507.017583	0.108168
507.235540	0.108350
507.453478	0.108093
507.671399	0.108106
507.889301	0.107863
508.107185	0.106994
508.325050	0.107586
508.542898	0.106961
508.760727	0.106643
508.978538	0.107619
509.196330	0.108232
509.414105	0.108463
509.631861	0.107663
509.849599	0.106837
510.067319	0.107832
510.285021	0.107192
510.502704	0.106597
510.720369	0.107681
510.938016	0.108349
511.155645	0.108445
511.373255	0.108238
511.590848	0.108810
511.808422	0.109256
512.025977	0.109534
512.243515	0.109108
512.461034	0.110084
512.678536	0.109674
512.896018	0.108383
513.113483	0.107591
513.330930	0.107466
513.548358	0.107594
513.765768	0.108305
513.983160	0.108165
514.200533	0.108133
514.417889	0.107365
514.635226	0.106409
514.852545	0.107166
515.069845	0.107106
515.287128	0.107086
515.504392	0.107054
515.721638	0.106057
515.938866	0.105822
516.156075	0.106832
516.373267	0.108092
516.590440	0.109063
516.807594	0.109283
517.024731	0.109803
517.241850	0.111159
517.458950	0.112202
517.676032	0.112869
517.893095	0.112992
518.110141	0.113074
518.327168	0.112897
518.544177	0.113335
518.761168	0.112949
518.978141	0.113855
519.195095	0.113435
519.412031	0.112705
519.628949	0.113626
519.845849	0.113771
520.062731	0.112498
520.279594	0.112184
520.496439	0.111610
520.713266	0.111923
520.930074	0.110980
521.146865	0.110785
521.363637	0.111380
521.580391	0.111712
521.797127	0.111817
522.013844	0.113022
522.230543	0.113320
522.447224	0.113556
522.663887	0.114158
522.880532	0.114718
523.097158	0.115296
523.313766	0.115022
523.530356	0.114577
523.746928	0.115249
523.963481	0.114457
524.180017	0.114490
524.396534	0.114664
524.613032	0.114026
524.829513	0.114305
525.045975	0.114836
525.262420	0.114662
525.478845	0.114880
525.695253	0.114689
525.911643	0.115585
526.128014	0.115569
526.344367	0.116275
526.560702	0.116932
526.777018	0.117131
526.993316	0.117400
527.209597	0.118521
527.425858	0.119037
527.642102	0.118877
527.858328	0.119135
528.074535	0.120175
528.290724	0.120189
528.506894	0.120491
528.723047	0.120851
528.939181	0.120781
529.155297	0.120745
529.371395	0.120766
529.587475	0.121102
529.803536	0.121388
530.019579	0.121836
530.235604	0.121847
530.451611	0.121375
530.667600	0.120960
530.883570	0.121459
531.099522	0.121750
531.315456	0.120948
531.531372	0.121791
531.747269	0.122000
531.963148	0.121708
532.179009	0.122053
532.394852	0.122602
532.610676	0.123378
532.826482	0.123369
533.042271	0.123734
533.258040	0.124308
533.473792	0.124491
533.689525	0.124667
533.905240	0.124734
534.120937	0.124904
534.336616	0.125345
534.552277	0.125024
534.767919	0.125223
534.983543	0.125328
535.199149	0.126280
535.414736	0.125601
535.630306	0.125673
535.845857	0.125950
536.061390	0.125685
536.276904	0.125800
536.492401	0.126872
536.707879	0.126704
536.923339	0.126697
537.138781	0.126277
537.354204	0.126968
537.569610	0.127191
537.784997	0.127073
538.000366	0.127383
538.215716	0.127234
538.431049	0.126813
538.646363	0.127072
538.861659	0.127023
539.076937	0.127219
539.292196	0.127159
539.507438	0.127493
539.722661	0.127816
539.937866	0.128106
540.153052	0.128434
540.368221	0.128660
540.583371	0.128758
540.798503	0.128842
541.013617	0.129740
541.228712	0.129818
541.443789	0.129801
541.658848	0.129951
541.873889	0.130535
542.088912	0.130605
542.303916	0.130644
542.518902	0.131089
542.733870	0.131127
542.948820	0.131077
543.163752	0.131139
543.378665	0.131415
543.593560	0.131782
543.808437	0.131443
544.023295	0.131865
544.238136	0.132321
544.452958	0.132768
544.667762	0.133590
544.882548	0.133472
545.097315	0.134005
545.312064	0.133988
545.526795	0.134268
545.741508	0.134549
545.956203	0.134559
546.170879	0.134478
546.385537	0.134011
546.600177	0.133636
546.814799	0.133859
547.029402	0.134306
547.243988	0.134921
547.458555	0.134941
547.673103	0.135078
547.887634	0.134909
548.102146	0.134902
548.316640	0.135278
548.531116	0.135313
548.745574	0.135163
548.960013	0.135018
549.174435	0.134778
549.388838	0.134889
549.603222	0.135106
549.817589	0.135788
550.031937	0.135677
550.246267	0.135955
550.460579	0.136228
550.674873	0.136889
550.889148	0.136616
551.103405	0.137365
551.317644	0.137488
551.531865	0.137723
551.746068	0.138040
551.960252	0.138598
552.174418	0.138444
552.388566	0.138881
552.602696	0.138785
552.816807	0.139231
553.030900	0.138669
553.244975	0.138919
553.459032	0.138971
553.673070	0.138946
553.887091	0.139365
554.101093	0.139597
554.315077	0.139558
554.529042	0.139727
554.742990	0.139685
554.956919	0.140014
555.170830	0.140223
555.384722	0.140159
555.598597	0.140483
555.812453	0.140288
556.026291	0.140334
556.240111	0.140607
556.453913	0.140378
556.667696	0.140957
556.881461	0.140796
557.095208	0.140486
557.308937	0.141094
557.522647	0.141029
557.736339	0.140964
557.950013	0.141073
558.163669	0.141242
558.377307	0.141445
558.590926	0.141068
558.804527	0.141481
559.018110	0.141874
559.231675	0.141574
559.445221	0.141554
559.658749	0.142045
559.872259	0.142595
560.085751	0.142680
560.299225	0.143040
560.512680	0.143591
560.726117	0.143727
560.939536	0.143785
561.152937	0.143951
561.366319	0.143791
561.579683	0.143745
561.793029	0.143587
562.006357	0.143549
562.219667	0.143482
562.432958	0.143143
562.646231	0.143083
562.859486	0.143138
563.072723	0.143313
563.285941	0.143345
563.499141	0.143396
563.712323	0.143405
563.925487	0.143251
564.138632	0.142992
564.351760	0.142959
564.564869	0.142569
564.777960	0.142506
564.991032	0.142520
565.204087	0.142989
565.417123	0.142764
565.630141	0.142553
565.843140	0.142798
566.056122	0.142954
566.269085	0.142973
566.482030	0.143242
566.694957	0.143245
566.907866	0.143486
567.120756	0.143231
567.333628	0.143425
567.546482	0.143834
567.759318	0.144275
567.972135	0.144529
568.184935	0.144869
568.397716	0.145327
568.610478	0.145770
568.823223	0.145259
569.035949	0.145734
569.248657	0.146043
569.461347	0.145899
569.674019	0.145404
569.886672	0.145588
570.099308	0.145657
570.311925	0.145560
570.524523	0.145610
570.737104	0.146110
570.949666	0.146132
571.162210	0.146457
571.374736	0.146619
571.587244	0.146878
571.799733	0.146735
572.012205	0.146346
572.224658	0.146617
572.437092	0.146092
572.649509	0.145998
572.861907	0.145772
573.074287	0.145191
573.286649	0.145097
573.498993	0.145247
573.711318	0.145606
573.923625	0.146141
574.135914	0.146431
574.348185	0.146740
574.560438	0.146793
574.772672	0.147223
574.984888	0.147931
575.197086	0.148008
575.409266	0.147679
575.621427	0.147445
575.833570	0.147735
576.045695	0.147325
576.257802	0.147932
576.469890	0.148062
576.681961	0.147921
576.894013	0.147783
577.106046	0.147958
577.318062	0.148279
577.530059	0.148597
577.742039	0.148429
577.954000	0.148419
578.165942	0.148202
578.377867	0.148516
578.589773	0.148493
578.801661	0.148243
579.013531	0.148165
579.225382	0.148270
579.437216	0.147972
579.649031	0.148168
579.860828	0.148370
580.072606	0.148481
580.284367	0.148286
580.496109	0.148581
580.707833	0.148707
580.919539	0.149056
581.131227	0.149257
581.342896	0.149562
581.554547	0.149737
581.766180	0.150225
581.977795	0.150190
582.189391	0.150472
582.400969	0.150449
582.612529	0.150827
582.824071	0.151253
583.035595	0.151229
583.247100	0.151410
583.458587	0.151456
583.670056	0.151421
583.881506	0.151305
584.092939	0.150975
584.304353	0.150897
584.515749	0.150953
584.727127	0.150853
584.938486	0.150971
585.149828	0.151042
585.361151	0.151069
585.572456	0.151145
585.783742	0.151456
585.995011	0.151882
586.206261	0.151740
586.417493	0.151765
586.628706	0.151921
586.839902	0.152226
587.051079	0.152317
587.262238	0.152454
587.473379	0.152447
587.684502	0.152454
587.895606	0.152551
588.106692	0.153041
588.317760	0.152793
588.528810	0.152710
588.739841	0.152388
588.950855	0.152442
589.161850	0.152298
589.372827	0.152107
589.583785	0.152369
589.794726	0.152434
590.005648	0.152473
590.216552	0.152937
590.427437	0.152906
590.638305	0.153190
590.849154	0.153692
591.059985	0.153517
591.270798	0.153936
591.481592	0.153942
591.692369	0.154022
591.903127	0.154218
592.113867	0.154334
592.324588	0.154223
592.535292	0.154237
592.745977	0.153795
592.956644	0.154184
593.167293	0.154271
593.377923	0.154433
593.588536	0.154687
593.799130	0.154422
594.009706	0.154247
594.220263	0.154429
594.430803	0.154719
594.641324	0.154881
594.851827	0.155143
595.062312	0.154831
595.272778	0.154693
595.483227	0.154615
595.693657	0.154769
595.904069	0.154958
596.114462	0.155081
596.324838	0.154833
596.535195	0.154892
596.745534	0.154510
596.955855	0.154712
597.166157	0.154732
597.376441	0.154354
597.586707	0.154556
597.796955	0.154579
598.007185	0.154487
598.217396	0.154776
598.427589	0.154543
598.637764	0.154968
598.847921	0.155093
599.058060	0.155057
599.268180	0.155171
599.478282	0.155203
599.688366	0.155462
599.898431	0.155718
600.108479	0.155616
600.318508	0.155964
600.528519	0.155983
600.738511	0.155957
600.948486	0.156426
601.158442	0.156917
601.368380	0.157139
601.578300	0.157330
601.788202	0.157602
601.998085	0.157491
602.207950	0.157591
602.417797	0.157710
602.627626	0.157932
602.837436	0.158131
603.047228	0.158312
603.257002	0.158385
603.466758	0.158119
603.676496	0.158036
603.886215	0.158539
604.095916	0.158569
604.305599	0.158728
604.515264	0.158375
604.724910	0.158146
604.934538	0.157885
605.144148	0.157772
605.353740	0.157769
605.563314	0.157555
605.772869	0.157528
605.982406	0.157612
606.191925	0.157157
606.401425	0.157364
606.610908	0.157344
606.820372	0.157539
607.029818	0.157689
607.239246	0.158236
607.448655	0.158641
607.658047	0.158539
607.867420	0.158825
608.076775	0.159087
608.286111	0.159359
608.495430	0.159581
608.704730	0.159601
608.914012	0.159741
609.123275	0.159339
609.332521	0.159562
609.541748	0.159729
609.750957	0.159608
609.960148	0.159937
610.169321	0.160327
610.378475	0.160540
610.587611	0.160580
610.796729	0.160347
611.005829	0.160643
611.214910	0.160541
611.423974	0.160743
611.633019	0.160886
611.842045	0.161131
612.051054	0.161059
612.260044	0.160799
612.469017	0.160905
612.677970	0.161180
612.886906	0.161255
613.095824	0.161296
613.304723	0.161092
613.513604	0.161130
613.722467	0.160907
613.931311	0.160692
614.140138	0.160715
614.348946	0.160892
614.557736	0.160857
614.766507	0.160807
614.975261	0.160640
615.183996	0.161061
615.392713	0.161305
615.601412	0.161344
615.810092	0.161817
616.018754	0.161865
616.227399	0.162204
616.436024	0.162339
616.644632	0.162422
616.853222	0.162472
617.061793	0.162200
617.270346	0.161921
617.478880	0.162133
617.687397	0.161761
617.895895	0.162166
618.104375	0.161782
618.312837	0.161985
618.521281	0.162075
618.729706	0.162226
618.938113	0.162277
619.146502	0.162644
619.354873	0.162444
619.563226	0.162457
619.771560	0.162442
619.979876	0.162834
620.188174	0.162792
620.396453	0.163069
620.604715	0.163176
620.812958	0.163283
621.021183	0.163210
621.229390	0.163594
621.437578	0.163708
621.645748	0.163486
621.853900	0.163297
622.062034	0.163401
622.270150	0.163396
622.478247	0.163607
622.686326	0.163823
622.894387	0.163848
623.102430	0.163793
623.310454	0.164030
623.518461	0.164491
623.726449	0.164665
623.934418	0.164683
624.142370	0.164794
624.350303	0.164765
624.558218	0.164704
624.766115	0.164765
624.973994	0.164645
625.181855	0.164704
625.389697	0.164714
625.597521	0.164755
625.805327	0.164844
626.013114	0.164799
626.220883	0.164741
626.428634	0.164714
626.636367	0.164742
626.844082	0.164939
627.051778	0.165072
627.259457	0.164951
627.467117	0.165046
627.674758	0.164877
627.882382	0.164875
628.089987	0.164849
628.297574	0.165040
628.505143	0.165278
628.712694	0.165185
628.920226	0.165275
629.127740	0.165451
629.335236	0.165527
629.542714	0.165848
629.750174	0.165733
629.957615	0.166269
630.165038	0.166454
630.372443	0.166262
630.579829	0.166682
630.787198	0.166406
630.994548	0.166375
631.201880	0.166380
631.409194	0.166401
631.616489	0.166615
631.823766	0.166384
632.031025	0.166199
632.238266	0.166366
632.445489	0.166351
632.652693	0.166625
632.859879	0.166675
633.067047	0.166426
633.274197	0.166400
633.481329	0.166519
633.688442	0.166477
633.895537	0.166708
634.102614	0.167022
634.309672	0.166950
634.516713	0.167111
634.723735	0.167111
634.930739	0.167374
635.137724	0.167286
635.344692	0.167109
635.551641	0.167366
635.758572	0.167272
635.965485	0.167120
636.172379	0.167133
636.379256	0.167244
636.586114	0.167274
636.792954	0.167460
636.999775	0.167605
637.206579	0.167810
637.413364	0.167718
637.620131	0.167905
637.826880	0.167846
638.033610	0.168150
638.240323	0.168038
638.447017	0.168129
638.653692	0.168149
638.860350	0.168353
639.066990	0.168546
639.273611	0.168892
639.480214	0.168942
639.686798	0.169282
639.893365	0.169250
640.099913	0.169367
640.306443	0.169456
640.512955	0.169686
640.719449	0.169859
640.925924	0.169972
641.132381	0.170109
641.338820	0.170323
641.545241	0.170392
641.751644	0.170350
641.958028	0.170473
642.164394	0.170666
642.370742	0.170626
642.577071	0.170584
642.783383	0.170532
642.989676	0.170329
643.195951	0.170378
643.402207	0.170449
643.608446	0.170627
643.814666	0.170659
644.020868	0.170900
644.227052	0.170887
644.433218	0.170854
644.639365	0.171122
644.845494	0.171107
645.051605	0.171106
645.257698	0.170951
645.463772	0.171129
645.669828	0.171167
645.875866	0.171246
646.081886	0.171512
646.287888	0.171831
646.493871	0.171798
646.699836	0.171769
646.905783	0.171804
647.111712	0.171963
647.317622	0.171997
647.523514	0.172025
647.729388	0.171985
647.935244	0.172035
648.141082	0.172036
648.346901	0.172015
648.552702	0.172342
648.758485	0.172490
648.964250	0.172297
649.169996	0.172280
649.375724	0.172346
649.581434	0.172161
649.787126	0.172117
649.992800	0.172246
650.198455	0.172341
650.404092	0.172404
650.609711	0.172306
650.815311	0.172582
651.020894	0.172418
651.226458	0.172560
651.432004	0.172772
651.637532	0.172868
651.843041	0.172890
652.048532	0.173095
652.254006	0.173245
652.459460	0.173747
652.664897	0.174032
652.870315	0.174644
653.075716	0.174902
653.281097	0.175310
653.486461	0.175553
653.691807	0.175794
653.897134	0.175879
654.102443	0.176074
654.307734	0.175949
654.513006	0.176331
654.718261	0.176321
654.923497	0.176527
655.128715	0.176410
655.333915	0.176507
655.539096	0.176517
655.744259	0.176589
655.949404	0.176672
656.154531	0.176651
656.359640	0.176129
656.564730	0.176088
656.769802	0.175925
656.974856	0.175891
657.179892	0.175920
657.384909	0.176086
657.589908	0.176140
657.794889	0.176046
657.999852	0.176078
658.204797	0.176363
658.409723	0.176540
658.614631	0.176595
658.819521	0.176897
659.024393	0.176983
659.229246	0.176844
659.434081	0.176705
659.638898	0.176906
659.843697	0.177254
660.048478	0.177429
660.253240	0.177634
660.457984	0.177999
660.662710	0.178095
660.867417	0.178257
661.072107	0.178697
661.276778	0.179176
661.481431	0.179399
661.686066	0.179678
661.890682	0.179996
662.095281	0.180056
662.299861	0.180146
662.504422	0.180623
662.708966	0.181047
662.913491	0.180939
663.117999	0.180969
663.322488	0.181168
663.526958	0.180846
663.731411	0.180783
663.935845	0.180871
664.140261	0.180855
664.344659	0.180507
664.549038	0.180466
664.753400	0.180557
664.957743	0.180758
665.162068	0.180639
665.366375	0.181049
665.570663	0.181125
665.774933	0.181395
665.979185	0.181449
666.183419	0.181743
666.387635	0.181707
666.591832	0.181946
666.796011	0.181933
667.000172	0.182165
667.204315	0.182168
667.408439	0.182257
667.612545	0.182097
667.816634	0.182509
668.020703	0.182542
668.224755	0.182823
668.428788	0.182802
668.632803	0.182939
668.836800	0.182892
669.040779	0.183095
669.244739	0.183148
669.448681	0.183375
669.652605	0.183207
669.856511	0.183415
670.060399	0.183275
670.264268	0.183381
670.468119	0.183599
670.671952	0.183859
670.875767	0.183942
671.079563	0.184443
671.283341	0.184435
671.487101	0.184858
671.690843	0.184724
671.894567	0.184956
672.098272	0.184978
672.301959	0.184972
672.505628	0.185095
672.709278	0.185369
672.912911	0.185179
673.116525	0.185430
673.320121	0.185212
673.523699	0.185400
673.727258	0.185489
673.930799	0.185620
674.134322	0.185615
674.337827	0.185713
674.541314	0.185509
674.744782	0.185399
674.948232	0.185418
675.151664	0.185471
675.355078	0.185542
675.558474	0.185546
675.761851	0.185751
675.965210	0.185968
676.168551	0.185882
676.371873	0.186101
676.575178	0.186519
676.778464	0.186456
676.981732	0.186794
677.184981	0.186842
677.388213	0.187036
677.591426	0.187392
677.794621	0.187532
677.997798	0.187732
678.200956	0.187849
678.404097	0.187788
678.607219	0.188266
678.810323	0.188333
679.013408	0.188637
679.216476	0.188849
679.419525	0.188796
679.622556	0.188850
679.825569	0.189179
680.028563	0.189389
680.231540	0.189624
680.434498	0.189776
680.637438	0.190086
680.840359	0.189928
681.043263	0.189821
681.246148	0.190005
681.449015	0.190166
681.651864	0.189984
681.854694	0.189930
682.057506	0.189969
682.260301	0.189639
682.463076	0.189589
682.665834	0.189898
682.868573	0.190157
683.071295	0.190217
683.273998	0.190418
683.476682	0.190617
683.679349	0.190848
683.881997	0.191234
684.084627	0.191722
684.287239	0.191761
684.489833	0.191926
684.692408	0.191841
684.894965	0.192055
685.097504	0.192026
685.300025	0.192198
685.502527	0.192368
685.705012	0.192212
685.907478	0.192023
686.109925	0.192034
686.312355	0.192193
686.514766	0.192303
686.717159	0.192046
686.919534	0.192046
687.121891	0.192238
687.324230	0.192403
687.526550	0.192592
687.728852	0.192769
687.931136	0.193094
688.133401	0.193162
688.335649	0.193367
688.537878	0.193397
688.740089	0.193692
688.942281	0.193618
689.144456	0.193451
689.346612	0.193373
689.548750	0.193550
689.750870	0.193476
689.952971	0.193383
690.155055	0.193414
690.357120	0.193630
690.559167	0.193622
690.761195	0.193672
690.963206	0.193856
691.165198	0.194184
691.367172	0.194386
691.569128	0.194559
691.771065	0.195004
691.972984	0.195246
692.174885	0.195412
692.376768	0.195871
692.578633	0.196077
692.780479	0.196119
692.982308	0.196057
693.184118	0.195946
693.385909	0.196114
