sample name	sample
index	429
start time	 03-08-2021  12:03:23 PM


Wavelength (nm)	Absorbance
494.344910	NaN
494.563924	NaN
494.782919	NaN
495.001897	NaN
495.220856	-0.125167
495.439797	0.211381
495.658719	0.232738
495.877624	0.819881
496.096510	0.601292
496.315378	0.680113
496.534227	0.440070
496.753059	0.485784
496.971872	0.325606
497.190667	0.073598
497.409444	0.075711
497.628203	0.077227
497.846943	0.071559
498.065665	0.069635
498.284369	0.068926
498.503055	0.070275
498.721723	0.071098
498.940372	0.070603
499.159003	0.071066
499.377616	0.070637
499.596210	0.070273
499.814787	0.071635
500.033345	0.072711
500.251885	0.072867
500.470406	0.072935
500.688910	0.072277
500.907395	0.072785
501.125862	0.072456
501.344311	0.071631
501.562742	0.071161
501.781154	0.070545
501.999548	0.069850
502.217924	0.070581
502.436282	0.070348
502.654621	0.070912
502.872942	0.070771
503.091245	0.071244
503.309530	0.071245
503.527797	0.071651
503.746045	0.072096
503.964275	0.071850
504.182487	0.071853
504.400681	0.071891
504.618856	0.071612
504.837013	0.070867
505.055152	0.071471
505.273273	0.071394
505.491376	0.071330
505.709460	0.072080
505.927526	0.072510
506.145574	0.072732
506.363604	0.072391
506.581615	0.072357
506.799608	0.073780
507.017583	0.072762
507.235540	0.073929
507.453478	0.073909
507.671399	0.073266
507.889301	0.073883
508.107185	0.073031
508.325050	0.073630
508.542898	0.073621
508.760727	0.073072
508.978538	0.073854
509.196330	0.072587
509.414105	0.073118
509.631861	0.073071
509.849599	0.072235
510.067319	0.072276
510.285021	0.071653
510.502704	0.070969
510.720369	0.070897
510.938016	0.070993
511.155645	0.071906
511.373255	0.071905
511.590848	0.071288
511.808422	0.070987
512.025977	0.071691
512.243515	0.072255
512.461034	0.072390
512.678536	0.071947
512.896018	0.072010
513.113483	0.071614
513.330930	0.071365
513.548358	0.071967
513.765768	0.072946
513.983160	0.072471
514.200533	0.072733
514.417889	0.072543
514.635226	0.073256
514.852545	0.073243
515.069845	0.073344
515.287128	0.074010
515.504392	0.073627
515.721638	0.073492
515.938866	0.074554
516.156075	0.073911
516.373267	0.075137
516.590440	0.074965
516.807594	0.074944
517.024731	0.075075
517.241850	0.074775
517.458950	0.075210
517.676032	0.074940
517.893095	0.074615
518.110141	0.075135
518.327168	0.075112
518.544177	0.075462
518.761168	0.075424
518.978141	0.075843
519.195095	0.076026
519.412031	0.076269
519.628949	0.076655
519.845849	0.076718
520.062731	0.076651
520.279594	0.076774
520.496439	0.076437
520.713266	0.076490
520.930074	0.076479
521.146865	0.075796
521.363637	0.076463
521.580391	0.076672
521.797127	0.077034
522.013844	0.077413
522.230543	0.077616
522.447224	0.078334
522.663887	0.078034
522.880532	0.078189
523.097158	0.078615
523.313766	0.078888
523.530356	0.079364
523.746928	0.078809
523.963481	0.079174
524.180017	0.078968
524.396534	0.078854
524.613032	0.079632
524.829513	0.079723
525.045975	0.080028
525.262420	0.079114
525.478845	0.078697
525.695253	0.079363
525.911643	0.078826
526.128014	0.079186
526.344367	0.079251
526.560702	0.078796
526.777018	0.078247
526.993316	0.078435
527.209597	0.078875
527.425858	0.079089
527.642102	0.079183
527.858328	0.079410
528.074535	0.079460
528.290724	0.079694
528.506894	0.080525
528.723047	0.081277
528.939181	0.081258
529.155297	0.081615
529.371395	0.082054
529.587475	0.082191
529.803536	0.082632
530.019579	0.082943
530.235604	0.082863
530.451611	0.082448
530.667600	0.082098
530.883570	0.082541
531.099522	0.082261
531.315456	0.082631
531.531372	0.082535
531.747269	0.082568
531.963148	0.082274
532.179009	0.082757
532.394852	0.083161
532.610676	0.083787
532.826482	0.083819
533.042271	0.084655
533.258040	0.083950
533.473792	0.083876
533.689525	0.083993
533.905240	0.084470
534.120937	0.084614
534.336616	0.085102
534.552277	0.085223
534.767919	0.085698
534.983543	0.085449
535.199149	0.086379
535.414736	0.086788
535.630306	0.087001
535.845857	0.086997
536.061390	0.087373
536.276904	0.087139
536.492401	0.087008
536.707879	0.086819
536.923339	0.087114
537.138781	0.087171
537.354204	0.087771
537.569610	0.087836
537.784997	0.087879
538.000366	0.087890
538.215716	0.088643
538.431049	0.088798
538.646363	0.089043
538.861659	0.089346
539.076937	0.089931
539.292196	0.089462
539.507438	0.089702
539.722661	0.090114
539.937866	0.089921
540.153052	0.089340
540.368221	0.089808
540.583371	0.089422
540.798503	0.089439
541.013617	0.089241
541.228712	0.089689
541.443789	0.090206
541.658848	0.090432
541.873889	0.091079
542.088912	0.091225
542.303916	0.090874
542.518902	0.091561
542.733870	0.091544
542.948820	0.091351
543.163752	0.091126
543.378665	0.091331
543.593560	0.091032
543.808437	0.091087
544.023295	0.091271
544.238136	0.091875
544.452958	0.091362
544.667762	0.091580
544.882548	0.091431
545.097315	0.092078
545.312064	0.091663
545.526795	0.092036
545.741508	0.092016
545.956203	0.092527
546.170879	0.092598
546.385537	0.093304
546.600177	0.093528
546.814799	0.093939
547.029402	0.093739
547.243988	0.093974
547.458555	0.094033
547.673103	0.094293
547.887634	0.094131
548.102146	0.094184
548.316640	0.094335
548.531116	0.094194
548.745574	0.094634
548.960013	0.094720
549.174435	0.094938
549.388838	0.094349
549.603222	0.094201
549.817589	0.094328
550.031937	0.094515
550.246267	0.094015
550.460579	0.094253
550.674873	0.094379
550.889148	0.094505
551.103405	0.094655
551.317644	0.095384
551.531865	0.095664
551.746068	0.096088
551.960252	0.095827
552.174418	0.096137
552.388566	0.096508
552.602696	0.096238
552.816807	0.096330
553.030900	0.096447
553.244975	0.096566
553.459032	0.096338
553.673070	0.096236
553.887091	0.096702
554.101093	0.097006
554.315077	0.097067
554.529042	0.097348
554.742990	0.097344
554.956919	0.097174
555.170830	0.097446
555.384722	0.097799
555.598597	0.097859
555.812453	0.097840
556.026291	0.098404
556.240111	0.098440
556.453913	0.098557
556.667696	0.098780
556.881461	0.099205
557.095208	0.099347
557.308937	0.099357
557.522647	0.099407
557.736339	0.099406
557.950013	0.098930
558.163669	0.098980
558.377307	0.098924
558.590926	0.099375
558.804527	0.099246
559.018110	0.099421
559.231675	0.099517
559.445221	0.099594
559.658749	0.100084
559.872259	0.100396
560.085751	0.100164
560.299225	0.100528
560.512680	0.100514
560.726117	0.100948
560.939536	0.100473
561.152937	0.100916
561.366319	0.101159
561.579683	0.101216
561.793029	0.100709
562.006357	0.101013
562.219667	0.100768
562.432958	0.100701
562.646231	0.100634
562.859486	0.101052
563.072723	0.100706
563.285941	0.100822
563.499141	0.100904
563.712323	0.101673
563.925487	0.101732
564.138632	0.102058
564.351760	0.101899
564.564869	0.101858
564.777960	0.102109
564.991032	0.102732
565.204087	0.102823
565.417123	0.102842
565.630141	0.102928
565.843140	0.102855
566.056122	0.103031
566.269085	0.103190
566.482030	0.103577
566.694957	0.103594
566.907866	0.103251
567.120756	0.103521
567.333628	0.103470
567.546482	0.103541
567.759318	0.103761
567.972135	0.103744
568.184935	0.104132
568.397716	0.103955
568.610478	0.104081
568.823223	0.104321
569.035949	0.104158
569.248657	0.104423
569.461347	0.104472
569.674019	0.104703
569.886672	0.105198
570.099308	0.105161
570.311925	0.105322
570.524523	0.105307
570.737104	0.105432
570.949666	0.105293
571.162210	0.105211
571.374736	0.105843
571.587244	0.106034
571.799733	0.106035
572.012205	0.106067
572.224658	0.106010
572.437092	0.106143
572.649509	0.106079
572.861907	0.106538
573.074287	0.106931
573.286649	0.106411
573.498993	0.106390
573.711318	0.106319
573.923625	0.106673
574.135914	0.106934
574.348185	0.107006
574.560438	0.107284
574.772672	0.107216
574.984888	0.107013
575.197086	0.107282
575.409266	0.107607
575.621427	0.107610
575.833570	0.107585
576.045695	0.107841
576.257802	0.108423
576.469890	0.108682
576.681961	0.108603
576.894013	0.108557
577.106046	0.108614
577.318062	0.108596
577.530059	0.108720
577.742039	0.108861
577.954000	0.108585
578.165942	0.108396
578.377867	0.107890
578.589773	0.108024
578.801661	0.108165
579.013531	0.107994
579.225382	0.108076
579.437216	0.107865
579.649031	0.108084
579.860828	0.108380
580.072606	0.108412
580.284367	0.108951
580.496109	0.109528
580.707833	0.109877
580.919539	0.110167
581.131227	0.110437
581.342896	0.110509
581.554547	0.110685
581.766180	0.110856
581.977795	0.110737
582.189391	0.110878
582.400969	0.110676
582.612529	0.110559
582.824071	0.110616
583.035595	0.110801
583.247100	0.111214
583.458587	0.111148
583.670056	0.111295
583.881506	0.111361
584.092939	0.111454
584.304353	0.111461
584.515749	0.111725
584.727127	0.111939
584.938486	0.111897
585.149828	0.112016
585.361151	0.112142
585.572456	0.112344
585.783742	0.112591
585.995011	0.112735
586.206261	0.112885
586.417493	0.112863
586.628706	0.112822
586.839902	0.112935
587.051079	0.112906
587.262238	0.113097
587.473379	0.113044
587.684502	0.113161
587.895606	0.113236
588.106692	0.113625
588.317760	0.114069
588.528810	0.114176
588.739841	0.114195
588.950855	0.114456
589.161850	0.114514
589.372827	0.114523
589.583785	0.114590
589.794726	0.114539
590.005648	0.114779
590.216552	0.114448
590.427437	0.114772
590.638305	0.114824
590.849154	0.114883
591.059985	0.114651
591.270798	0.114621
591.481592	0.114852
591.692369	0.114899
591.903127	0.114476
592.113867	0.114745
592.324588	0.114817
592.535292	0.114824
592.745977	0.114563
592.956644	0.114665
593.167293	0.115028
593.377923	0.115138
593.588536	0.115386
593.799130	0.115890
594.009706	0.116004
594.220263	0.115858
594.430803	0.115718
594.641324	0.116236
594.851827	0.116692
595.062312	0.116758
595.272778	0.116721
595.483227	0.116690
595.693657	0.116491
595.904069	0.116594
596.114462	0.116726
596.324838	0.117154
596.535195	0.117266
596.745534	0.117238
596.955855	0.116834
597.166157	0.116969
597.376441	0.117133
597.586707	0.117265
597.796955	0.117399
598.007185	0.117781
598.217396	0.117553
598.427589	0.117425
598.637764	0.117526
598.847921	0.118070
599.058060	0.118296
599.268180	0.118158
599.478282	0.118178
599.688366	0.118020
599.898431	0.118008
600.108479	0.118446
600.318508	0.118786
600.528519	0.118902
600.738511	0.119132
600.948486	0.119360
601.158442	0.119587
601.368380	0.119795
601.578300	0.120121
601.788202	0.120116
601.998085	0.120301
602.207950	0.120540
602.417797	0.120686
602.627626	0.121086
602.837436	0.120864
603.047228	0.120872
603.257002	0.120942
603.466758	0.121083
603.676496	0.121097
603.886215	0.121269
604.095916	0.120872
604.305599	0.120752
604.515264	0.120434
604.724910	0.120547
604.934538	0.120664
605.144148	0.120926
605.353740	0.121069
605.563314	0.121088
605.772869	0.120791
605.982406	0.121183
606.191925	0.121179
606.401425	0.121207
606.610908	0.121288
606.820372	0.121656
607.029818	0.121546
607.239246	0.121863
607.448655	0.122250
607.658047	0.122695
607.867420	0.122886
608.076775	0.123176
608.286111	0.123314
608.495430	0.123517
608.704730	0.123408
608.914012	0.123669
609.123275	0.123591
609.332521	0.123670
609.541748	0.123553
609.750957	0.123562
609.960148	0.123646
610.169321	0.123859
610.378475	0.123982
610.587611	0.124084
610.796729	0.123965
611.005829	0.123909
611.214910	0.123882
611.423974	0.124148
611.633019	0.124163
611.842045	0.124267
612.051054	0.124063
612.260044	0.124175
612.469017	0.124161
612.677970	0.124489
612.886906	0.124438
613.095824	0.124486
613.304723	0.124192
613.513604	0.124308
613.722467	0.124325
613.931311	0.124369
614.140138	0.124569
614.348946	0.124796
614.557736	0.124740
614.766507	0.125005
614.975261	0.124956
615.183996	0.125512
615.392713	0.125219
615.601412	0.125437
615.810092	0.125838
616.018754	0.125549
616.227399	0.125586
616.436024	0.125753
616.644632	0.125950
616.853222	0.126016
617.061793	0.125856
617.270346	0.126199
617.478880	0.126309
617.687397	0.126232
617.895895	0.126245
618.104375	0.126401
618.312837	0.126463
618.521281	0.126455
618.729706	0.126634
618.938113	0.126875
619.146502	0.127107
619.354873	0.127144
619.563226	0.127184
619.771560	0.127259
619.979876	0.127350
620.188174	0.127381
620.396453	0.127166
620.604715	0.127205
620.812958	0.126963
621.021183	0.126941
621.229390	0.126791
621.437578	0.127033
621.645748	0.127533
621.853900	0.127605
622.062034	0.127514
622.270150	0.127562
622.478247	0.127694
622.686326	0.127973
622.894387	0.128141
623.102430	0.128210
623.310454	0.128191
623.518461	0.128041
623.726449	0.128103
623.934418	0.128362
624.142370	0.128776
624.350303	0.129109
624.558218	0.128989
624.766115	0.128825
624.973994	0.129232
625.181855	0.129296
625.389697	0.129447
625.597521	0.129649
625.805327	0.129706
626.013114	0.129887
626.220883	0.129842
626.428634	0.130058
626.636367	0.130294
626.844082	0.130187
627.051778	0.130166
627.259457	0.130123
627.467117	0.129926
627.674758	0.129950
627.882382	0.129859
628.089987	0.130026
628.297574	0.130300
628.505143	0.130405
628.712694	0.130625
628.920226	0.130724
629.127740	0.130894
629.335236	0.131077
629.542714	0.131189
629.750174	0.131455
629.957615	0.131333
630.165038	0.131511
630.372443	0.131660
630.579829	0.131680
630.787198	0.132025
630.994548	0.131879
631.201880	0.132037
631.409194	0.132084
631.616489	0.132224
631.823766	0.132516
632.031025	0.132271
632.238266	0.132213
632.445489	0.132395
632.652693	0.132281
632.859879	0.132491
633.067047	0.132657
633.274197	0.132676
633.481329	0.132679
633.688442	0.132673
633.895537	0.132646
634.102614	0.132820
634.309672	0.132603
634.516713	0.132787
634.723735	0.132931
634.930739	0.133122
635.137724	0.133329
635.344692	0.133299
635.551641	0.133343
635.758572	0.133700
635.965485	0.133761
636.172379	0.134070
636.379256	0.134121
636.586114	0.134056
636.792954	0.133921
636.999775	0.134240
637.206579	0.134427
637.413364	0.134529
637.620131	0.134483
637.826880	0.134467
638.033610	0.134528
638.240323	0.134517
638.447017	0.134681
638.653692	0.134551
638.860350	0.134461
639.066990	0.134388
639.273611	0.134091
639.480214	0.134222
639.686798	0.134411
639.893365	0.134322
640.099913	0.134646
640.306443	0.134767
640.512955	0.135219
640.719449	0.135180
640.925924	0.135268
641.132381	0.135800
641.338820	0.135856
641.545241	0.135793
641.751644	0.135835
641.958028	0.135689
642.164394	0.135910
642.370742	0.135837
642.577071	0.135959
642.783383	0.135960
642.989676	0.136004
643.195951	0.136074
643.402207	0.136399
643.608446	0.136732
643.814666	0.136839
644.020868	0.136829
644.227052	0.136959
644.433218	0.137111
644.639365	0.137197
644.845494	0.137143
645.051605	0.137081
645.257698	0.136946
645.463772	0.136913
645.669828	0.137182
645.875866	0.137292
646.081886	0.137362
646.287888	0.137370
646.493871	0.137468
646.699836	0.137416
646.905783	0.137871
647.111712	0.138024
647.317622	0.138086
647.523514	0.138041
647.729388	0.137975
647.935244	0.137928
648.141082	0.137961
648.346901	0.138022
648.552702	0.138319
648.758485	0.138336
648.964250	0.138579
649.169996	0.138715
649.375724	0.138702
649.581434	0.138915
649.787126	0.139334
649.992800	0.139488
650.198455	0.139812
650.404092	0.139914
650.609711	0.139923
650.815311	0.139988
651.020894	0.140307
651.226458	0.140557
651.432004	0.140633
651.637532	0.140471
651.843041	0.140609
652.048532	0.140406
652.254006	0.140467
652.459460	0.140472
652.664897	0.140546
652.870315	0.140552
653.075716	0.140458
653.281097	0.140556
653.486461	0.140719
653.691807	0.140720
653.897134	0.141080
654.102443	0.141268
654.307734	0.141387
654.513006	0.141565
654.718261	0.141446
654.923497	0.141732
655.128715	0.141912
655.333915	0.142187
655.539096	0.142566
655.744259	0.142684
655.949404	0.143050
656.154531	0.143293
656.359640	0.143305
656.564730	0.143543
656.769802	0.143654
656.974856	0.143753
657.179892	0.143548
657.384909	0.143543
657.589908	0.143482
657.794889	0.143329
657.999852	0.143179
658.204797	0.143467
658.409723	0.143367
658.614631	0.143388
658.819521	0.143480
659.024393	0.143626
659.229246	0.143762
659.434081	0.144045
659.638898	0.144090
659.843697	0.144335
660.048478	0.144266
660.253240	0.144382
660.457984	0.144569
660.662710	0.144588
660.867417	0.144655
661.072107	0.144543
661.276778	0.144478
661.481431	0.144738
661.686066	0.144751
661.890682	0.144705
662.095281	0.144926
662.299861	0.145098
662.504422	0.145313
662.708966	0.145529
662.913491	0.145743
663.117999	0.145897
663.322488	0.145819
663.526958	0.146096
663.731411	0.146385
663.935845	0.146561
664.140261	0.146615
664.344659	0.146819
664.549038	0.146941
664.753400	0.146949
664.957743	0.147073
665.162068	0.147280
665.366375	0.147298
665.570663	0.147347
665.774933	0.147441
665.979185	0.147604
666.183419	0.147779
666.387635	0.147944
666.591832	0.148377
666.796011	0.148617
667.000172	0.148842
667.204315	0.148997
667.408439	0.149211
667.612545	0.149619
667.816634	0.149645
668.020703	0.149589
668.224755	0.149791
668.428788	0.149631
668.632803	0.149823
668.836800	0.149802
669.040779	0.149876
669.244739	0.150110
669.448681	0.150031
669.652605	0.150087
669.856511	0.150354
670.060399	0.150435
670.264268	0.150660
670.468119	0.150499
670.671952	0.150646
670.875767	0.150785
671.079563	0.150529
671.283341	0.150475
671.487101	0.150632
671.690843	0.150422
671.894567	0.150359
672.098272	0.150604
672.301959	0.150720
672.505628	0.150720
672.709278	0.150897
672.912911	0.151203
673.116525	0.151447
673.320121	0.151546
673.523699	0.151947
673.727258	0.151939
673.930799	0.151801
674.134322	0.152066
674.337827	0.152252
674.541314	0.152132
674.744782	0.152095
674.948232	0.152053
675.151664	0.152070
675.355078	0.151825
675.558474	0.152165
675.761851	0.152331
675.965210	0.152368
676.168551	0.152522
676.371873	0.152842
676.575178	0.152939
676.778464	0.153176
676.981732	0.153315
677.184981	0.153622
677.388213	0.153606
677.591426	0.153673
677.794621	0.153882
677.997798	0.153842
678.200956	0.153794
678.404097	0.154106
678.607219	0.154156
678.810323	0.154362
679.013408	0.154415
679.216476	0.154594
679.419525	0.154820
679.622556	0.154756
679.825569	0.154845
680.028563	0.154971
680.231540	0.154825
680.434498	0.154875
680.637438	0.155027
680.840359	0.155213
681.043263	0.155341
681.246148	0.155316
681.449015	0.155447
681.651864	0.155627
681.854694	0.155577
682.057506	0.155784
682.260301	0.155894
682.463076	0.155805
682.665834	0.155982
682.868573	0.156174
683.071295	0.156455
683.273998	0.156500
683.476682	0.156649
683.679349	0.157240
683.881997	0.157324
684.084627	0.157559
684.287239	0.157543
684.489833	0.157503
684.692408	0.157571
684.894965	0.157658
685.097504	0.157953
685.300025	0.158095
685.502527	0.158011
685.705012	0.157993
685.907478	0.157957
686.109925	0.158194
686.312355	0.158496
686.514766	0.158436
686.717159	0.158605
686.919534	0.158739
687.121891	0.158704
687.324230	0.158906
687.526550	0.159339
687.728852	0.159447
687.931136	0.159635
688.133401	0.159704
688.335649	0.159811
688.537878	0.159554
688.740089	0.159515
688.942281	0.159678
689.144456	0.159705
689.346612	0.159535
689.548750	0.159697
689.750870	0.159974
689.952971	0.159893
690.155055	0.160068
690.357120	0.160333
690.559167	0.160273
690.761195	0.160310
690.963206	0.160312
691.165198	0.160597
691.367172	0.160695
691.569128	0.160372
691.771065	0.160491
691.972984	0.160447
692.174885	0.160600
692.376768	0.160929
692.578633	0.160940
692.780479	0.161248
692.982308	0.161265
693.184118	0.161303
693.385909	0.161555
693.587683	0.161651
