sample name	sample
index	258
start time	 02-25-2021  10:50:24 AM


Wavelength (nm)	Absorbance
494.344910	0.164514
494.563924	0.164514
494.782919	0.164514
495.001897	0.126240
495.220856	0.074104
495.439797	0.040268
495.658719	0.023839
495.877624	0.015222
496.096510	0.005693
496.315378	0.004970
496.534227	-0.026394
496.753059	-0.024144
496.971872	-0.025456
497.190667	0.046917
497.409444	0.065070
497.628203	0.071936
497.846943	0.073438
498.065665	0.075357
498.284369	0.075149
498.503055	0.077409
498.721723	0.078605
498.940372	0.078604
499.159003	0.077849
499.377616	0.078006
499.596210	0.077675
499.814787	0.078662
500.033345	0.078880
500.251885	0.079190
500.470406	0.078822
500.688910	0.078126
500.907395	0.078498
501.125862	0.079997
501.344311	0.081377
501.562742	0.082292
501.781154	0.082081
501.999548	0.082301
502.217924	0.083402
502.436282	0.083127
502.654621	0.084099
502.872942	0.083708
503.091245	0.083178
503.309530	0.082518
503.527797	0.082036
503.746045	0.081834
503.964275	0.080108
504.182487	0.079038
504.400681	0.079703
504.618856	0.079253
504.837013	0.080014
505.055152	0.079856
505.273273	0.080069
505.491376	0.079835
505.709460	0.080318
505.927526	0.081248
506.145574	0.081956
506.363604	0.082474
506.581615	0.082973
506.799608	0.082807
507.017583	0.083913
507.235540	0.083642
507.453478	0.083951
507.671399	0.083548
507.889301	0.083917
508.107185	0.084516
508.325050	0.084547
508.542898	0.083963
508.760727	0.084832
508.978538	0.084209
509.196330	0.084908
509.414105	0.085501
509.631861	0.085466
509.849599	0.085894
510.067319	0.085727
510.285021	0.084839
510.502704	0.085794
510.720369	0.084695
510.938016	0.085060
511.155645	0.084507
511.373255	0.084187
511.590848	0.084104
511.808422	0.083739
512.025977	0.083119
512.243515	0.083895
512.461034	0.082995
512.678536	0.084059
512.896018	0.083944
513.113483	0.084361
513.330930	0.083973
513.548358	0.083626
513.765768	0.084174
513.983160	0.085400
514.200533	0.085216
514.417889	0.085747
514.635226	0.085720
514.852545	0.085592
515.069845	0.085484
515.287128	0.085693
515.504392	0.086824
515.721638	0.086740
515.938866	0.085202
516.156075	0.085252
516.373267	0.085330
516.590440	0.084516
516.807594	0.084761
517.024731	0.084773
517.241850	0.084703
517.458950	0.084095
517.676032	0.084381
517.893095	0.085228
518.110141	0.086055
518.327168	0.086046
518.544177	0.086447
518.761168	0.086744
518.978141	0.087490
519.195095	0.087692
519.412031	0.087825
519.628949	0.087742
519.845849	0.087979
520.062731	0.087392
520.279594	0.087639
520.496439	0.088436
520.713266	0.088398
520.930074	0.087691
521.146865	0.087870
521.363637	0.088628
521.580391	0.088723
521.797127	0.088587
522.013844	0.088558
522.230543	0.087931
522.447224	0.087713
522.663887	0.088215
522.880532	0.088395
523.097158	0.088788
523.313766	0.088610
523.530356	0.088783
523.746928	0.088923
523.963481	0.089656
524.180017	0.090479
524.396534	0.090799
524.613032	0.090729
524.829513	0.091341
525.045975	0.091447
525.262420	0.091788
525.478845	0.091505
525.695253	0.091831
525.911643	0.091926
526.128014	0.092094
526.344367	0.091475
526.560702	0.091733
526.777018	0.092003
526.993316	0.092246
527.209597	0.091836
527.425858	0.092708
527.642102	0.093246
527.858328	0.093323
528.074535	0.093622
528.290724	0.094875
528.506894	0.094737
528.723047	0.094900
528.939181	0.094820
529.155297	0.095120
529.371395	0.094538
529.587475	0.093750
529.803536	0.093220
530.019579	0.093285
530.235604	0.093097
530.451611	0.093598
530.667600	0.093473
530.883570	0.093729
531.099522	0.094274
531.315456	0.095029
531.531372	0.096017
531.747269	0.096904
531.963148	0.097413
532.179009	0.097983
532.394852	0.097791
532.610676	0.098278
532.826482	0.098785
533.042271	0.099223
533.258040	0.099609
533.473792	0.099762
533.689525	0.099487
533.905240	0.099055
534.120937	0.098295
534.336616	0.098348
534.552277	0.098302
534.767919	0.097920
534.983543	0.097837
535.199149	0.097863
535.414736	0.098030
535.630306	0.098669
535.845857	0.099120
536.061390	0.099156
536.276904	0.099602
536.492401	0.099516
536.707879	0.099927
536.923339	0.100099
537.138781	0.100081
537.354204	0.099850
537.569610	0.099685
537.784997	0.099686
538.000366	0.100426
538.215716	0.100142
538.431049	0.100242
538.646363	0.099992
538.861659	0.099632
539.076937	0.099321
539.292196	0.099636
539.507438	0.099869
539.722661	0.100239
539.937866	0.099890
540.153052	0.100250
540.368221	0.100440
540.583371	0.101021
540.798503	0.101626
541.013617	0.101792
541.228712	0.101825
541.443789	0.101664
541.658848	0.101244
541.873889	0.101731
542.088912	0.101757
542.303916	0.101888
542.518902	0.101951
542.733870	0.101775
542.948820	0.102010
543.163752	0.102070
543.378665	0.102707
543.593560	0.103139
543.808437	0.103783
544.023295	0.104079
544.238136	0.104247
544.452958	0.103896
544.667762	0.104311
544.882548	0.104734
545.097315	0.104750
545.312064	0.104366
545.526795	0.104203
545.741508	0.103815
545.956203	0.103726
546.170879	0.104012
546.385537	0.104549
546.600177	0.104373
546.814799	0.104437
547.029402	0.104945
547.243988	0.105885
547.458555	0.106443
547.673103	0.106774
547.887634	0.107055
548.102146	0.107146
548.316640	0.107296
548.531116	0.107583
548.745574	0.107595
548.960013	0.107429
549.174435	0.106931
549.388838	0.106838
549.603222	0.106444
549.817589	0.106600
550.031937	0.106710
550.246267	0.106963
550.460579	0.107098
550.674873	0.107320
550.889148	0.107524
551.103405	0.107621
551.317644	0.107927
551.531865	0.108273
551.746068	0.108308
551.960252	0.108142
552.174418	0.108201
552.388566	0.108151
552.602696	0.108412
552.816807	0.108562
553.030900	0.109018
553.244975	0.108749
553.459032	0.109035
553.673070	0.109398
553.887091	0.109672
554.101093	0.109694
554.315077	0.110088
554.529042	0.109931
554.742990	0.109818
554.956919	0.109749
555.170830	0.110031
555.384722	0.109946
555.598597	0.109695
555.812453	0.109641
556.026291	0.109840
556.240111	0.109593
556.453913	0.110010
556.667696	0.110279
556.881461	0.110054
557.095208	0.110294
557.308937	0.110544
557.522647	0.110543
557.736339	0.110797
557.950013	0.110681
558.163669	0.111039
558.377307	0.110645
558.590926	0.110848
558.804527	0.111141
559.018110	0.110723
559.231675	0.110634
559.445221	0.110804
559.658749	0.110735
559.872259	0.110899
560.085751	0.110690
560.299225	0.111235
560.512680	0.110859
560.726117	0.111428
560.939536	0.112127
561.152937	0.112319
561.366319	0.112519
561.579683	0.112585
561.793029	0.112740
562.006357	0.112889
562.219667	0.112905
562.432958	0.113210
562.646231	0.112853
562.859486	0.112724
563.072723	0.112867
563.285941	0.112718
563.499141	0.112858
563.712323	0.113027
563.925487	0.112982
564.138632	0.113023
564.351760	0.113524
564.564869	0.113376
564.777960	0.113587
564.991032	0.113400
565.204087	0.113907
565.417123	0.114421
565.630141	0.114380
565.843140	0.114606
566.056122	0.114590
566.269085	0.114411
566.482030	0.114394
566.694957	0.114481
566.907866	0.114809
567.120756	0.114815
567.333628	0.114637
567.546482	0.114645
567.759318	0.114731
567.972135	0.114699
568.184935	0.114833
568.397716	0.115094
568.610478	0.114965
568.823223	0.114796
569.035949	0.114656
569.248657	0.114522
569.461347	0.114798
569.674019	0.114974
569.886672	0.115280
570.099308	0.115048
570.311925	0.115206
570.524523	0.115189
570.737104	0.115236
570.949666	0.115180
571.162210	0.115306
571.374736	0.115157
571.587244	0.115297
571.799733	0.115343
572.012205	0.115564
572.224658	0.115593
572.437092	0.115870
572.649509	0.115963
572.861907	0.115831
573.074287	0.115958
573.286649	0.116066
573.498993	0.116018
573.711318	0.115843
573.923625	0.115817
574.135914	0.115819
574.348185	0.115574
574.560438	0.115751
574.772672	0.116078
574.984888	0.116226
575.197086	0.116374
575.409266	0.116755
575.621427	0.116685
575.833570	0.116822
576.045695	0.117023
576.257802	0.117135
576.469890	0.117198
576.681961	0.117373
576.894013	0.117272
577.106046	0.117178
577.318062	0.116872
577.530059	0.117322
577.742039	0.117574
577.954000	0.117799
578.165942	0.118230
578.377867	0.118119
578.589773	0.118238
578.801661	0.118506
579.013531	0.118603
579.225382	0.118910
579.437216	0.118781
579.649031	0.118697
579.860828	0.118831
580.072606	0.118866
580.284367	0.119244
580.496109	0.119473
580.707833	0.119545
580.919539	0.119725
581.131227	0.119584
581.342896	0.120037
581.554547	0.120254
581.766180	0.120255
581.977795	0.120521
582.189391	0.120538
582.400969	0.120523
582.612529	0.120679
582.824071	0.120743
583.035595	0.120835
583.247100	0.120888
583.458587	0.121071
583.670056	0.121287
583.881506	0.121429
584.092939	0.121535
584.304353	0.121726
584.515749	0.121823
584.727127	0.121748
584.938486	0.122123
585.149828	0.121929
585.361151	0.121757
585.572456	0.121585
585.783742	0.121323
585.995011	0.121391
586.206261	0.121668
586.417493	0.121911
586.628706	0.121972
586.839902	0.121859
587.051079	0.121969
587.262238	0.122337
587.473379	0.122504
587.684502	0.122614
587.895606	0.122730
588.106692	0.122525
588.317760	0.122425
588.528810	0.122561
588.739841	0.122419
588.950855	0.122668
589.161850	0.122803
589.372827	0.122565
589.583785	0.122688
589.794726	0.122848
590.005648	0.122897
590.216552	0.122935
590.427437	0.122999
590.638305	0.123488
590.849154	0.123518
591.059985	0.123232
591.270798	0.123622
591.481592	0.123636
591.692369	0.123714
591.903127	0.123678
592.113867	0.123471
592.324588	0.123416
592.535292	0.123227
592.745977	0.123210
592.956644	0.123438
593.167293	0.123203
593.377923	0.123217
593.588536	0.123292
593.799130	0.123362
594.009706	0.123595
594.220263	0.123661
594.430803	0.123934
594.641324	0.123975
594.851827	0.123910
595.062312	0.124264
595.272778	0.124268
595.483227	0.124300
595.693657	0.124254
595.904069	0.124020
596.114462	0.124465
596.324838	0.124436
596.535195	0.124587
596.745534	0.124843
596.955855	0.124881
597.166157	0.124917
597.376441	0.124928
597.586707	0.125394
597.796955	0.125703
598.007185	0.125760
598.217396	0.125615
598.427589	0.125702
598.637764	0.125567
598.847921	0.125595
599.058060	0.125815
599.268180	0.126106
599.478282	0.126023
599.688366	0.125848
599.898431	0.125776
600.108479	0.126129
600.318508	0.125816
600.528519	0.125899
600.738511	0.125916
600.948486	0.125994
601.158442	0.125842
601.368380	0.126019
601.578300	0.126474
601.788202	0.126610
601.998085	0.126518
602.207950	0.126681
602.417797	0.126904
602.627626	0.126966
602.837436	0.127046
603.047228	0.127282
603.257002	0.127113
603.466758	0.127136
603.676496	0.127268
603.886215	0.127374
604.095916	0.127529
604.305599	0.127490
604.515264	0.127419
604.724910	0.127577
604.934538	0.127408
605.144148	0.127597
605.353740	0.127809
605.563314	0.127667
605.772869	0.127509
605.982406	0.127547
606.191925	0.127509
606.401425	0.127587
606.610908	0.127550
606.820372	0.127644
607.029818	0.127495
607.239246	0.127126
607.448655	0.127278
607.658047	0.127826
607.867420	0.128121
608.076775	0.128492
608.286111	0.128596
608.495430	0.128632
608.704730	0.128597
608.914012	0.128732
609.123275	0.128849
609.332521	0.128721
609.541748	0.128495
609.750957	0.128370
609.960148	0.127833
610.169321	0.127979
610.378475	0.128198
610.587611	0.128386
610.796729	0.128554
611.005829	0.128543
611.214910	0.128709
611.423974	0.128750
611.633019	0.128774
611.842045	0.129209
612.051054	0.129130
612.260044	0.129212
612.469017	0.129296
612.677970	0.129338
612.886906	0.129595
613.095824	0.129569
613.304723	0.129657
613.513604	0.129531
613.722467	0.129505
613.931311	0.129723
614.140138	0.129570
614.348946	0.129503
614.557736	0.129505
614.766507	0.129668
614.975261	0.129900
615.183996	0.130045
615.392713	0.130527
615.601412	0.130608
615.810092	0.130611
616.018754	0.130724
616.227399	0.130896
616.436024	0.130971
616.644632	0.131012
616.853222	0.130881
617.061793	0.131028
617.270346	0.131053
617.478880	0.131273
617.687397	0.131365
617.895895	0.131283
618.104375	0.131417
618.312837	0.131619
618.521281	0.131759
618.729706	0.132218
618.938113	0.132279
619.146502	0.132352
619.354873	0.132352
619.563226	0.132344
619.771560	0.132496
619.979876	0.132599
620.188174	0.132772
620.396453	0.132628
620.604715	0.132522
620.812958	0.132354
621.021183	0.132314
621.229390	0.132273
621.437578	0.132586
621.645748	0.132931
621.853900	0.132857
622.062034	0.132871
622.270150	0.133118
622.478247	0.133319
622.686326	0.133326
622.894387	0.133513
623.102430	0.133709
623.310454	0.133649
623.518461	0.133543
623.726449	0.133837
623.934418	0.133753
624.142370	0.133769
624.350303	0.133761
624.558218	0.134026
624.766115	0.133892
624.973994	0.134052
625.181855	0.134286
625.389697	0.134202
625.597521	0.134267
625.805327	0.134245
626.013114	0.134363
626.220883	0.134459
626.428634	0.134496
626.636367	0.134918
626.844082	0.135018
627.051778	0.135219
627.259457	0.135365
627.467117	0.135431
627.674758	0.135738
627.882382	0.135779
628.089987	0.135961
628.297574	0.136040
628.505143	0.135772
628.712694	0.135695
628.920226	0.135642
629.127740	0.135731
629.335236	0.135514
629.542714	0.135237
629.750174	0.135231
629.957615	0.135172
630.165038	0.135236
630.372443	0.135417
630.579829	0.135435
630.787198	0.135226
630.994548	0.135448
631.201880	0.135772
631.409194	0.135890
631.616489	0.135969
631.823766	0.135639
632.031025	0.135742
632.238266	0.136047
632.445489	0.136245
632.652693	0.136245
632.859879	0.136402
633.067047	0.136668
633.274197	0.136870
633.481329	0.136961
633.688442	0.137679
633.895537	0.137695
634.102614	0.137770
634.309672	0.137767
634.516713	0.138240
634.723735	0.138257
634.930739	0.137913
635.137724	0.138007
635.344692	0.137981
635.551641	0.137658
635.758572	0.137701
635.965485	0.137563
636.172379	0.137688
636.379256	0.137284
636.586114	0.137088
636.792954	0.137239
636.999775	0.137154
637.206579	0.137354
637.413364	0.137397
637.620131	0.137569
637.826880	0.137419
638.033610	0.137523
638.240323	0.137903
638.447017	0.138251
638.653692	0.138281
638.860350	0.138594
639.066990	0.138502
639.273611	0.138673
639.480214	0.138310
639.686798	0.138687
639.893365	0.138684
640.099913	0.138742
640.306443	0.138526
640.512955	0.138534
640.719449	0.138516
640.925924	0.138569
641.132381	0.138659
641.338820	0.139056
641.545241	0.139157
641.751644	0.139221
641.958028	0.139267
642.164394	0.139325
642.370742	0.139436
642.577071	0.139555
642.783383	0.139681
642.989676	0.139823
643.195951	0.139958
643.402207	0.140018
643.608446	0.140077
643.814666	0.140368
644.020868	0.140704
644.227052	0.140762
644.433218	0.140768
644.639365	0.140864
644.845494	0.140925
645.051605	0.140920
645.257698	0.140950
645.463772	0.141123
645.669828	0.140846
645.875866	0.141032
646.081886	0.141237
646.287888	0.141349
646.493871	0.141422
646.699836	0.141337
646.905783	0.141479
647.111712	0.141416
647.317622	0.141324
647.523514	0.141632
647.729388	0.141305
647.935244	0.141448
648.141082	0.141398
648.346901	0.141601
648.552702	0.141669
648.758485	0.141860
648.964250	0.141835
649.169996	0.142146
649.375724	0.142095
649.581434	0.142425
649.787126	0.142432
649.992800	0.142807
650.198455	0.143096
650.404092	0.143352
650.609711	0.143501
650.815311	0.143879
651.020894	0.144142
651.226458	0.144254
651.432004	0.144139
651.637532	0.143961
651.843041	0.144009
652.048532	0.143917
652.254006	0.143779
652.459460	0.144063
652.664897	0.144204
652.870315	0.144184
653.075716	0.144560
653.281097	0.144947
653.486461	0.145457
653.691807	0.145689
653.897134	0.145919
654.102443	0.146084
654.307734	0.146037
654.513006	0.146061
654.718261	0.145916
654.923497	0.145852
655.128715	0.145944
655.333915	0.145700
655.539096	0.145589
655.744259	0.145616
655.949404	0.145795
656.154531	0.145584
656.359640	0.145654
656.564730	0.145751
656.769802	0.145894
656.974856	0.145738
657.179892	0.145932
657.384909	0.146004
657.589908	0.146170
657.794889	0.146381
657.999852	0.146610
658.204797	0.146746
658.409723	0.146889
658.614631	0.146831
658.819521	0.147022
659.024393	0.146986
659.229246	0.147129
659.434081	0.146949
659.638898	0.146904
659.843697	0.147001
660.048478	0.147098
660.253240	0.147301
660.457984	0.147454
660.662710	0.147485
660.867417	0.147801
661.072107	0.147853
661.276778	0.147937
661.481431	0.148101
661.686066	0.148296
661.890682	0.148078
662.095281	0.148131
662.299861	0.148248
662.504422	0.148569
662.708966	0.148695
662.913491	0.148912
663.117999	0.149132
663.322488	0.149104
663.526958	0.148960
663.731411	0.149201
663.935845	0.149354
664.140261	0.149523
664.344659	0.149310
664.549038	0.149319
664.753400	0.149243
664.957743	0.149386
665.162068	0.149588
665.366375	0.149803
665.570663	0.149945
665.774933	0.149836
665.979185	0.149765
666.183419	0.149846
666.387635	0.149842
666.591832	0.149839
666.796011	0.149773
667.000172	0.149884
667.204315	0.149916
667.408439	0.149974
667.612545	0.150063
667.816634	0.150083
668.020703	0.150026
668.224755	0.150222
668.428788	0.150318
668.632803	0.150389
668.836800	0.150271
669.040779	0.150393
669.244739	0.150294
669.448681	0.150498
669.652605	0.150545
669.856511	0.150900
670.060399	0.151080
670.264268	0.151167
670.468119	0.151447
670.671952	0.151700
670.875767	0.151753
671.079563	0.152088
671.283341	0.152109
671.487101	0.152461
671.690843	0.152773
671.894567	0.152767
672.098272	0.152873
672.301959	0.153041
672.505628	0.153161
672.709278	0.153473
672.912911	0.153523
673.116525	0.153628
673.320121	0.153508
673.523699	0.153643
673.727258	0.153908
673.930799	0.154165
674.134322	0.154195
674.337827	0.154320
674.541314	0.154400
674.744782	0.154611
674.948232	0.154799
675.151664	0.155059
675.355078	0.154976
675.558474	0.154991
675.761851	0.155010
675.965210	0.155030
676.168551	0.155154
676.371873	0.155160
676.575178	0.155212
676.778464	0.155434
676.981732	0.155565
677.184981	0.155713
677.388213	0.155943
677.591426	0.156187
677.794621	0.156298
677.997798	0.156406
678.200956	0.156666
678.404097	0.156854
678.607219	0.156920
678.810323	0.157076
679.013408	0.157100
679.216476	0.157172
679.419525	0.157367
679.622556	0.157426
679.825569	0.157620
680.028563	0.157561
680.231540	0.157607
680.434498	0.157521
680.637438	0.157699
680.840359	0.157993
681.043263	0.158064
681.246148	0.157962
681.449015	0.158174
681.651864	0.158261
681.854694	0.158399
682.057506	0.158430
682.260301	0.158749
682.463076	0.158591
682.665834	0.158695
682.868573	0.158758
683.071295	0.158968
683.273998	0.159219
683.476682	0.159028
683.679349	0.159094
683.881997	0.159306
684.084627	0.159141
684.287239	0.159116
684.489833	0.158931
684.692408	0.158750
684.894965	0.158535
685.097504	0.158466
685.300025	0.158703
685.502527	0.158761
685.705012	0.158529
685.907478	0.158764
686.109925	0.158989
686.312355	0.159113
686.514766	0.159377
686.717159	0.159681
686.919534	0.159624
687.121891	0.159723
687.324230	0.159926
687.526550	0.160167
687.728852	0.160118
687.931136	0.160235
688.133401	0.160374
688.335649	0.160571
688.537878	0.160606
688.740089	0.160600
688.942281	0.160682
689.144456	0.160614
689.346612	0.160753
689.548750	0.160783
689.750870	0.161017
689.952971	0.161047
690.155055	0.161174
690.357120	0.161232
690.559167	0.161514
690.761195	0.161570
690.963206	0.161489
691.165198	0.161399
691.367172	0.161739
691.569128	0.161320
691.771065	0.161421
691.972984	0.161205
692.174885	0.161280
692.376768	0.161356
692.578633	0.161347
692.780479	0.161747
692.982308	0.162031
693.184118	0.161882
693.385909	0.162201
