sample name	sample
index	951
start time	 04-12-2021  02:50:46 PM


Wavelength (nm)	Absorbance
494.344910	1.000000
494.563924	1.000000
494.782919	1.000000
495.001897	0.018309
495.220856	0.037403
495.439797	0.000026
495.658719	-0.074130
495.877624	-0.103999
496.096510	-0.124069
496.315378	-0.108099
496.534227	-0.080636
496.753059	-0.056066
496.971872	-0.035191
497.190667	0.133306
497.409444	0.149292
497.628203	0.155880
497.846943	0.156368
498.065665	0.160001
498.284369	0.160175
498.503055	0.159701
498.721723	0.159563
498.940372	0.161137
499.159003	0.159476
499.377616	0.159931
499.596210	0.160762
499.814787	0.161533
500.033345	0.161210
500.251885	0.161427
500.470406	0.163117
500.688910	0.164318
500.907395	0.164182
501.125862	0.165912
501.344311	0.165854
501.562742	0.166927
501.781154	0.167982
501.999548	0.168035
502.217924	0.168395
502.436282	0.167928
502.654621	0.167773
502.872942	0.168053
503.091245	0.166774
503.309530	0.167609
503.527797	0.167058
503.746045	0.167138
503.964275	0.166953
504.182487	0.167287
504.400681	0.167312
504.618856	0.167063
504.837013	0.166711
505.055152	0.168860
505.273273	0.168691
505.491376	0.168802
505.709460	0.168493
505.927526	0.168847
506.145574	0.169496
506.363604	0.170444
506.581615	0.171779
506.799608	0.173435
507.017583	0.173230
507.235540	0.173873
507.453478	0.174916
507.671399	0.174686
507.889301	0.174969
508.107185	0.174322
508.325050	0.173851
508.542898	0.173957
508.760727	0.173293
508.978538	0.173743
509.196330	0.173982
509.414105	0.173635
509.631861	0.174833
509.849599	0.175008
510.067319	0.175122
510.285021	0.175400
510.502704	0.175645
510.720369	0.175269
510.938016	0.175198
511.155645	0.175288
511.373255	0.174700
511.590848	0.174466
511.808422	0.175903
512.025977	0.177323
512.243515	0.177877
512.461034	0.178249
512.678536	0.178783
512.896018	0.178295
513.113483	0.179036
513.330930	0.180167
513.548358	0.180582
513.765768	0.180044
513.983160	0.179863
514.200533	0.179920
514.417889	0.179835
514.635226	0.180218
514.852545	0.181656
515.069845	0.181652
515.287128	0.182051
515.504392	0.182914
515.721638	0.183603
515.938866	0.183949
516.156075	0.183891
516.373267	0.184373
516.590440	0.185498
516.807594	0.185149
517.024731	0.184754
517.241850	0.184455
517.458950	0.184116
517.676032	0.185064
517.893095	0.185431
518.110141	0.186363
518.327168	0.186629
518.544177	0.186663
518.761168	0.187572
518.978141	0.188167
519.195095	0.188701
519.412031	0.189016
519.628949	0.187512
519.845849	0.187899
520.062731	0.187716
520.279594	0.188340
520.496439	0.188135
520.713266	0.187957
520.930074	0.188752
521.146865	0.189259
521.363637	0.190027
521.580391	0.191155
521.797127	0.191279
522.013844	0.191860
522.230543	0.192139
522.447224	0.192729
522.663887	0.193668
522.880532	0.192809
523.097158	0.192288
523.313766	0.192362
523.530356	0.192708
523.746928	0.192602
523.963481	0.192982
524.180017	0.192379
524.396534	0.192909
524.613032	0.192262
524.829513	0.193591
525.045975	0.194959
525.262420	0.195502
525.478845	0.195658
525.695253	0.196805
525.911643	0.197113
526.128014	0.198094
526.344367	0.198020
526.560702	0.198914
526.777018	0.199132
526.993316	0.199831
527.209597	0.200194
527.425858	0.200945
527.642102	0.200312
527.858328	0.200419
528.074535	0.200635
528.290724	0.201421
528.506894	0.201688
528.723047	0.201990
528.939181	0.201829
529.155297	0.201938
529.371395	0.202276
529.587475	0.204089
529.803536	0.205110
530.019579	0.205865
530.235604	0.205825
530.451611	0.206528
530.667600	0.207847
530.883570	0.208519
531.099522	0.208533
531.315456	0.209508
531.531372	0.209007
531.747269	0.208867
531.963148	0.208977
532.179009	0.209182
532.394852	0.209393
532.610676	0.208321
532.826482	0.208005
533.042271	0.209136
533.258040	0.209176
533.473792	0.209664
533.689525	0.210712
533.905240	0.211749
534.120937	0.212939
534.336616	0.212935
534.552277	0.214325
534.767919	0.215471
534.983543	0.215234
535.199149	0.214832
535.414736	0.215341
535.630306	0.215496
535.845857	0.214951
536.061390	0.215005
536.276904	0.215490
536.492401	0.216098
536.707879	0.216399
536.923339	0.217411
537.138781	0.218679
537.354204	0.218986
537.569610	0.219001
537.784997	0.220088
538.000366	0.220718
538.215716	0.220945
538.431049	0.220909
538.646363	0.221164
538.861659	0.220828
539.076937	0.220736
539.292196	0.220937
539.507438	0.221171
539.722661	0.221424
539.937866	0.221368
540.153052	0.221580
540.368221	0.221504
540.583371	0.221776
540.798503	0.221846
541.013617	0.222124
541.228712	0.221739
541.443789	0.221937
541.658848	0.222063
541.873889	0.222308
542.088912	0.222751
542.303916	0.223427
542.518902	0.223950
542.733870	0.224886
542.948820	0.225669
543.163752	0.226496
543.378665	0.227162
543.593560	0.227654
543.808437	0.228032
544.023295	0.228605
544.238136	0.228721
544.452958	0.228330
544.667762	0.228175
544.882548	0.228429
545.097315	0.228981
545.312064	0.229572
545.526795	0.229834
545.741508	0.229913
545.956203	0.229892
546.170879	0.230217
546.385537	0.230938
546.600177	0.231454
546.814799	0.231852
547.029402	0.232055
547.243988	0.231866
547.458555	0.231661
547.673103	0.232720
547.887634	0.233668
548.102146	0.234048
548.316640	0.234535
548.531116	0.235459
548.745574	0.235144
548.960013	0.235595
549.174435	0.236082
549.388838	0.236735
549.603222	0.236684
549.817589	0.236346
550.031937	0.236574
550.246267	0.236649
550.460579	0.236808
550.674873	0.237407
550.889148	0.237653
551.103405	0.237557
551.317644	0.238080
551.531865	0.238723
551.746068	0.239267
551.960252	0.239477
552.174418	0.240088
552.388566	0.240003
552.602696	0.240293
552.816807	0.240131
553.030900	0.240466
553.244975	0.240188
553.459032	0.240276
553.673070	0.240465
553.887091	0.241126
554.101093	0.241359
554.315077	0.241333
554.529042	0.241617
554.742990	0.242084
554.956919	0.242609
555.170830	0.243094
555.384722	0.242927
555.598597	0.242756
555.812453	0.242891
556.026291	0.242688
556.240111	0.242775
556.453913	0.242580
556.667696	0.243296
556.881461	0.243332
557.095208	0.243362
557.308937	0.243869
557.522647	0.244337
557.736339	0.244628
557.950013	0.244770
558.163669	0.245145
558.377307	0.245848
558.590926	0.245487
558.804527	0.246091
559.018110	0.246516
559.231675	0.246556
559.445221	0.246892
559.658749	0.246705
559.872259	0.247375
560.085751	0.247466
560.299225	0.247588
560.512680	0.247829
560.726117	0.247751
560.939536	0.248180
561.152937	0.248290
561.366319	0.248694
561.579683	0.249222
561.793029	0.249181
562.006357	0.249620
562.219667	0.249775
562.432958	0.250161
562.646231	0.250520
562.859486	0.250002
563.072723	0.249964
563.285941	0.249748
563.499141	0.249704
563.712323	0.249646
563.925487	0.249821
564.138632	0.249844
564.351760	0.249848
564.564869	0.250191
564.777960	0.251096
564.991032	0.251699
565.204087	0.252167
565.417123	0.252298
565.630141	0.252466
565.843140	0.252875
566.056122	0.253205
566.269085	0.253580
566.482030	0.253636
566.694957	0.253534
566.907866	0.253503
567.120756	0.253590
567.333628	0.253827
567.546482	0.254012
567.759318	0.254140
567.972135	0.254371
568.184935	0.254498
568.397716	0.254712
568.610478	0.255140
568.823223	0.255437
569.035949	0.255587
569.248657	0.255253
569.461347	0.255538
569.674019	0.255637
569.886672	0.255778
570.099308	0.256128
570.311925	0.256172
570.524523	0.255790
570.737104	0.256157
570.949666	0.256533
571.162210	0.257286
571.374736	0.257816
571.587244	0.257808
571.799733	0.258307
572.012205	0.257845
572.224658	0.258032
572.437092	0.258736
572.649509	0.258672
572.861907	0.258959
573.074287	0.258792
573.286649	0.258522
573.498993	0.259015
573.711318	0.258594
573.923625	0.259032
574.135914	0.259011
574.348185	0.258840
574.560438	0.259522
574.772672	0.259168
574.984888	0.259846
575.197086	0.260383
575.409266	0.260601
575.621427	0.260860
575.833570	0.261293
576.045695	0.261636
576.257802	0.261711
576.469890	0.261461
576.681961	0.261698
576.894013	0.261881
577.106046	0.261810
577.318062	0.262099
577.530059	0.262250
577.742039	0.262316
577.954000	0.262671
578.165942	0.263376
578.377867	0.263724
578.589773	0.264585
578.801661	0.264367
579.013531	0.264770
579.225382	0.264982
579.437216	0.265341
579.649031	0.265543
579.860828	0.265539
580.072606	0.265431
580.284367	0.265972
580.496109	0.265565
580.707833	0.265889
580.919539	0.266498
581.131227	0.266572
581.342896	0.266524
581.554547	0.266561
581.766180	0.266945
581.977795	0.267050
582.189391	0.266449
582.400969	0.266891
582.612529	0.267333
582.824071	0.267571
583.035595	0.267816
583.247100	0.268169
583.458587	0.268727
583.670056	0.268979
583.881506	0.269116
584.092939	0.269094
584.304353	0.269341
584.515749	0.269218
584.727127	0.268286
584.938486	0.268319
585.149828	0.268765
585.361151	0.269244
585.572456	0.268939
585.783742	0.269340
585.995011	0.270232
586.206261	0.270595
586.417493	0.271016
586.628706	0.271608
586.839902	0.271577
587.051079	0.271605
587.262238	0.271382
587.473379	0.271636
587.684502	0.271782
587.895606	0.271731
588.106692	0.271605
588.317760	0.271603
588.528810	0.271941
588.739841	0.272444
588.950855	0.272487
589.161850	0.272567
589.372827	0.272803
589.583785	0.272845
589.794726	0.272620
590.005648	0.272521
590.216552	0.272783
590.427437	0.272948
590.638305	0.273113
590.849154	0.273286
591.059985	0.273347
591.270798	0.273843
591.481592	0.274246
591.692369	0.274751
591.903127	0.275500
592.113867	0.275394
592.324588	0.275667
592.535292	0.275473
592.745977	0.275752
592.956644	0.276296
593.167293	0.276611
593.377923	0.276883
593.588536	0.277051
593.799130	0.276804
594.009706	0.277211
594.220263	0.277041
594.430803	0.277787
594.641324	0.277671
594.851827	0.277619
595.062312	0.277451
595.272778	0.277311
595.483227	0.277345
595.693657	0.277687
595.904069	0.277828
596.114462	0.278337
596.324838	0.278211
596.535195	0.278672
596.745534	0.278995
596.955855	0.279259
597.166157	0.279327
597.376441	0.279809
597.586707	0.279880
597.796955	0.280280
598.007185	0.280572
598.217396	0.280576
598.427589	0.280676
598.637764	0.280718
598.847921	0.280691
599.058060	0.280849
599.268180	0.280906
599.478282	0.281112
599.688366	0.281025
599.898431	0.281060
600.108479	0.281282
600.318508	0.281530
600.528519	0.282091
600.738511	0.282399
600.948486	0.282973
601.158442	0.282951
601.368380	0.283028
601.578300	0.283289
601.788202	0.283216
601.998085	0.283594
602.207950	0.283650
602.417797	0.283293
602.627626	0.283571
602.837436	0.283917
603.047228	0.284431
603.257002	0.284576
603.466758	0.284552
603.676496	0.284650
603.886215	0.284833
604.095916	0.285385
604.305599	0.285492
604.515264	0.285649
604.724910	0.285332
604.934538	0.285350
605.144148	0.285491
605.353740	0.286219
605.563314	0.286593
605.772869	0.286686
605.982406	0.286841
606.191925	0.287505
606.401425	0.287738
606.610908	0.287815
606.820372	0.287640
607.029818	0.287608
607.239246	0.287265
607.448655	0.287671
607.658047	0.287671
607.867420	0.287857
608.076775	0.287573
608.286111	0.287782
608.495430	0.288085
608.704730	0.288580
608.914012	0.289275
609.123275	0.289798
609.332521	0.289951
609.541748	0.290239
609.750957	0.290083
609.960148	0.290503
610.169321	0.290242
610.378475	0.290427
610.587611	0.290947
610.796729	0.290847
611.005829	0.290893
611.214910	0.290744
611.423974	0.290838
611.633019	0.291058
611.842045	0.291138
612.051054	0.291481
612.260044	0.291646
612.469017	0.291344
612.677970	0.291436
612.886906	0.291554
613.095824	0.291960
613.304723	0.292228
613.513604	0.292565
613.722467	0.292797
613.931311	0.292991
614.140138	0.293121
614.348946	0.293162
614.557736	0.293303
614.766507	0.293295
614.975261	0.293148
615.183996	0.292828
615.392713	0.292975
615.601412	0.293262
615.810092	0.293433
616.018754	0.293942
616.227399	0.294213
616.436024	0.294627
616.644632	0.294931
616.853222	0.295070
617.061793	0.295648
617.270346	0.295356
617.478880	0.295381
617.687397	0.295671
617.895895	0.295292
618.104375	0.295427
618.312837	0.295281
618.521281	0.295239
618.729706	0.295819
618.938113	0.295737
619.146502	0.296254
619.354873	0.296610
619.563226	0.296854
619.771560	0.297317
619.979876	0.297574
620.188174	0.298026
620.396453	0.298443
620.604715	0.298221
620.812958	0.298626
621.021183	0.298690
621.229390	0.298329
621.437578	0.298269
621.645748	0.298150
621.853900	0.298464
622.062034	0.298385
622.270150	0.298675
622.478247	0.299361
622.686326	0.299534
622.894387	0.299670
623.102430	0.299964
623.310454	0.300186
623.518461	0.300546
623.726449	0.300630
623.934418	0.301030
624.142370	0.300730
624.350303	0.300459
624.558218	0.300675
624.766115	0.300850
624.973994	0.301026
625.181855	0.301190
625.389697	0.301290
625.597521	0.301385
625.805327	0.301483
626.013114	0.301972
626.220883	0.302151
626.428634	0.302279
626.636367	0.302604
626.844082	0.302891
627.051778	0.302839
627.259457	0.303137
627.467117	0.303348
627.674758	0.303378
627.882382	0.303247
628.089987	0.303441
628.297574	0.303302
628.505143	0.303353
628.712694	0.303428
628.920226	0.303445
629.127740	0.303550
629.335236	0.303567
629.542714	0.303837
629.750174	0.304191
629.957615	0.304395
630.165038	0.304871
630.372443	0.304909
630.579829	0.304840
630.787198	0.305202
630.994548	0.305024
631.201880	0.305443
631.409194	0.305755
631.616489	0.305940
631.823766	0.305935
632.031025	0.306022
632.238266	0.306587
632.445489	0.306761
632.652693	0.307013
632.859879	0.307593
633.067047	0.307724
633.274197	0.307641
633.481329	0.307910
633.688442	0.308352
633.895537	0.308644
634.102614	0.308528
634.309672	0.309099
634.516713	0.309345
634.723735	0.309574
634.930739	0.309574
635.137724	0.309915
635.344692	0.310034
635.551641	0.310199
635.758572	0.310253
635.965485	0.310497
636.172379	0.310851
636.379256	0.310892
636.586114	0.311177
636.792954	0.311492
636.999775	0.311446
637.206579	0.311610
637.413364	0.311813
637.620131	0.312276
637.826880	0.312207
638.033610	0.312128
638.240323	0.312186
638.447017	0.312108
638.653692	0.312220
638.860350	0.312511
639.066990	0.312495
639.273611	0.312545
639.480214	0.312509
639.686798	0.312993
639.893365	0.313143
640.099913	0.313391
640.306443	0.313533
640.512955	0.313687
640.719449	0.313818
640.925924	0.314074
641.132381	0.314324
641.338820	0.314721
641.545241	0.314836
641.751644	0.314983
641.958028	0.315249
642.164394	0.315577
642.370742	0.315563
642.577071	0.315660
642.783383	0.315921
642.989676	0.316099
643.195951	0.315784
643.402207	0.315661
643.608446	0.315687
643.814666	0.315817
644.020868	0.315924
644.227052	0.316042
644.433218	0.316200
644.639365	0.316530
644.845494	0.316563
645.051605	0.316962
645.257698	0.317298
645.463772	0.317465
645.669828	0.317530
645.875866	0.317679
646.081886	0.318044
646.287888	0.318573
646.493871	0.318613
646.699836	0.319107
646.905783	0.319581
647.111712	0.319856
647.317622	0.320529
647.523514	0.320863
647.729388	0.321039
647.935244	0.321208
648.141082	0.321373
648.346901	0.321692
648.552702	0.321913
648.758485	0.321982
648.964250	0.322021
649.169996	0.322160
649.375724	0.322201
649.581434	0.322411
649.787126	0.322799
649.992800	0.322787
650.198455	0.322934
650.404092	0.322818
650.609711	0.322852
650.815311	0.323336
651.020894	0.323309
651.226458	0.323768
651.432004	0.324071
651.637532	0.324347
651.843041	0.324629
652.048532	0.324742
652.254006	0.324865
652.459460	0.325037
652.664897	0.325286
652.870315	0.325876
653.075716	0.326315
653.281097	0.326615
653.486461	0.326840
653.691807	0.327279
653.897134	0.327658
654.102443	0.328119
654.307734	0.328464
654.513006	0.328535
654.718261	0.328347
654.923497	0.328368
655.128715	0.328454
655.333915	0.328912
655.539096	0.328808
655.744259	0.328988
655.949404	0.329394
656.154531	0.329496
656.359640	0.329693
656.564730	0.329996
656.769802	0.330227
656.974856	0.330555
657.179892	0.330541
657.384909	0.330822
657.589908	0.331095
657.794889	0.331028
657.999852	0.331069
658.204797	0.331480
658.409723	0.331749
658.614631	0.331829
658.819521	0.332050
659.024393	0.332284
659.229246	0.332410
659.434081	0.332536
659.638898	0.332920
659.843697	0.333377
660.048478	0.333650
660.253240	0.333665
660.457984	0.333960
660.662710	0.334128
660.867417	0.334123
661.072107	0.334375
661.276778	0.334538
661.481431	0.334513
661.686066	0.334825
661.890682	0.334701
662.095281	0.335085
662.299861	0.335367
662.504422	0.335495
662.708966	0.335824
662.913491	0.336214
663.117999	0.336467
663.322488	0.336751
663.526958	0.336895
663.731411	0.337389
663.935845	0.337665
664.140261	0.338144
664.344659	0.338538
664.549038	0.338666
664.753400	0.338813
664.957743	0.339162
665.162068	0.339539
665.366375	0.339628
665.570663	0.339569
665.774933	0.339743
665.979185	0.339733
666.183419	0.339878
666.387635	0.340237
666.591832	0.340653
666.796011	0.340542
667.000172	0.340731
667.204315	0.341207
667.408439	0.341758
667.612545	0.341984
667.816634	0.342030
668.020703	0.342193
668.224755	0.342499
668.428788	0.342489
668.632803	0.342984
668.836800	0.343079
669.040779	0.343343
669.244739	0.343403
669.448681	0.343621
669.652605	0.343955
669.856511	0.344255
670.060399	0.344347
670.264268	0.344787
670.468119	0.345129
670.671952	0.345586
670.875767	0.345986
671.079563	0.346320
671.283341	0.346556
671.487101	0.347173
671.690843	0.347376
671.894567	0.347790
672.098272	0.347856
672.301959	0.347959
672.505628	0.348057
672.709278	0.348242
672.912911	0.348542
673.116525	0.348715
673.320121	0.348812
673.523699	0.349157
673.727258	0.349323
673.930799	0.349880
674.134322	0.350594
674.337827	0.350702
674.541314	0.350893
674.744782	0.351109
674.948232	0.351395
675.151664	0.351509
675.355078	0.351928
675.558474	0.351896
675.761851	0.352113
675.965210	0.352064
676.168551	0.352306
676.371873	0.352434
676.575178	0.352625
676.778464	0.352701
676.981732	0.352794
677.184981	0.352814
677.388213	0.353248
677.591426	0.353346
677.794621	0.353364
677.997798	0.353739
678.200956	0.353873
678.404097	0.354138
678.607219	0.354768
678.810323	0.355113
679.013408	0.355330
679.216476	0.355633
679.419525	0.355806
679.622556	0.356026
679.825569	0.356233
680.028563	0.356629
680.231540	0.356619
680.434498	0.356705
680.637438	0.356608
680.840359	0.356957
681.043263	0.357294
681.246148	0.357871
681.449015	0.358112
681.651864	0.358446
681.854694	0.358654
682.057506	0.358984
682.260301	0.359251
682.463076	0.359899
682.665834	0.360045
682.868573	0.360235
683.071295	0.360199
683.273998	0.360666
683.476682	0.360854
683.679349	0.360927
683.881997	0.361380
684.084627	0.361402
684.287239	0.361653
684.489833	0.362066
684.692408	0.362341
684.894965	0.362515
685.097504	0.362661
685.300025	0.363095
685.502527	0.363404
685.705012	0.363372
685.907478	0.363668
686.109925	0.363894
686.312355	0.364031
686.514766	0.364241
686.717159	0.364510
686.919534	0.364568
687.121891	0.364756
687.324230	0.365027
687.526550	0.365363
687.728852	0.365910
687.931136	0.366024
688.133401	0.366055
688.335649	0.365967
688.537878	0.365998
688.740089	0.366142
688.942281	0.366093
689.144456	0.366166
689.346612	0.366357
689.548750	0.366385
689.750870	0.366825
689.952971	0.367374
690.155055	0.367993
690.357120	0.368114
690.559167	0.368579
690.761195	0.368821
690.963206	0.368975
691.165198	0.369159
691.367172	0.369268
691.569128	0.369341
691.771065	0.369037
691.972984	0.368920
692.174885	0.369520
692.376768	0.369589
692.578633	0.369901
692.780479	0.370125
692.982308	0.370228
693.184118	0.370480
693.385909	0.370406
