sample name	sample
index	1395
start time	 05-10-2021  10:50:54 AM


Wavelength (nm)	Absorbance
494.344910	0.030831
494.563924	0.030831
494.782919	0.030831
495.001897	-0.043049
495.220856	-0.022592
495.439797	-0.020856
495.658719	-0.024740
495.877624	-0.029887
496.096510	-0.019044
496.315378	-0.004171
496.534227	-0.016844
496.753059	0.008636
496.971872	0.021736
497.190667	0.084917
497.409444	0.097782
497.628203	0.101264
497.846943	0.104898
498.065665	0.105924
498.284369	0.105044
498.503055	0.107835
498.721723	0.107284
498.940372	0.108407
499.159003	0.108547
499.377616	0.108630
499.596210	0.107667
499.814787	0.107077
500.033345	0.106692
500.251885	0.108352
500.470406	0.107755
500.688910	0.108967
500.907395	0.108385
501.125862	0.108391
501.344311	0.108745
501.562742	0.109115
501.781154	0.109120
501.999548	0.110093
502.217924	0.108288
502.436282	0.108292
502.654621	0.108641
502.872942	0.107664
503.091245	0.107312
503.309530	0.106389
503.527797	0.107872
503.746045	0.108471
503.964275	0.108263
504.182487	0.108891
504.400681	0.108023
504.618856	0.106489
504.837013	0.107696
505.055152	0.108411
505.273273	0.109143
505.491376	0.108479
505.709460	0.108688
505.927526	0.109476
506.145574	0.111005
506.363604	0.111172
506.581615	0.112690
506.799608	0.112323
507.017583	0.111806
507.235540	0.111891
507.453478	0.112663
507.671399	0.112058
507.889301	0.111268
508.107185	0.111326
508.325050	0.112195
508.542898	0.111041
508.760727	0.111354
508.978538	0.112631
509.196330	0.113284
509.414105	0.112668
509.631861	0.112712
509.849599	0.113165
510.067319	0.112270
510.285021	0.111877
510.502704	0.112501
510.720369	0.112397
510.938016	0.111647
511.155645	0.111373
511.373255	0.112186
511.590848	0.112784
511.808422	0.112776
512.025977	0.113580
512.243515	0.113593
512.461034	0.113801
512.678536	0.113821
512.896018	0.114739
513.113483	0.115089
513.330930	0.114430
513.548358	0.114408
513.765768	0.114721
513.983160	0.114511
514.200533	0.114764
514.417889	0.114791
514.635226	0.114971
514.852545	0.115014
515.069845	0.115132
515.287128	0.115551
515.504392	0.116220
515.721638	0.116542
515.938866	0.116058
516.156075	0.116322
516.373267	0.116545
516.590440	0.117228
516.807594	0.116563
517.024731	0.115975
517.241850	0.116297
517.458950	0.116168
517.676032	0.116076
517.893095	0.117068
518.110141	0.117349
518.327168	0.117875
518.544177	0.118251
518.761168	0.119342
518.978141	0.120375
519.195095	0.120988
519.412031	0.120832
519.628949	0.120962
519.845849	0.121083
520.062731	0.121370
520.279594	0.120834
520.496439	0.120271
520.713266	0.120897
520.930074	0.120598
521.146865	0.120830
521.363637	0.121072
521.580391	0.121020
521.797127	0.120932
522.013844	0.120779
522.230543	0.121230
522.447224	0.121875
522.663887	0.121368
522.880532	0.121729
523.097158	0.121181
523.313766	0.121514
523.530356	0.121760
523.746928	0.121633
523.963481	0.122222
524.180017	0.122938
524.396534	0.122785
524.613032	0.122877
524.829513	0.122739
525.045975	0.123151
525.262420	0.123489
525.478845	0.123350
525.695253	0.123569
525.911643	0.123691
526.128014	0.124296
526.344367	0.124514
526.560702	0.124811
526.777018	0.126138
526.993316	0.126956
527.209597	0.127216
527.425858	0.128087
527.642102	0.128627
527.858328	0.129334
528.074535	0.128847
528.290724	0.129570
528.506894	0.129788
528.723047	0.129337
528.939181	0.128956
529.155297	0.129502
529.371395	0.129688
529.587475	0.130229
529.803536	0.130017
530.019579	0.129945
530.235604	0.130526
530.451611	0.131086
530.667600	0.131519
530.883570	0.132349
531.099522	0.132811
531.315456	0.132279
531.531372	0.132310
531.747269	0.132451
531.963148	0.133072
532.179009	0.132149
532.394852	0.132253
532.610676	0.132730
532.826482	0.132647
533.042271	0.132444
533.258040	0.133637
533.473792	0.134173
533.689525	0.134714
533.905240	0.135181
534.120937	0.135650
534.336616	0.135956
534.552277	0.136057
534.767919	0.136015
534.983543	0.136132
535.199149	0.135374
535.414736	0.135307
535.630306	0.135174
535.845857	0.135340
536.061390	0.135494
536.276904	0.135606
536.492401	0.135721
536.707879	0.135676
536.923339	0.136123
537.138781	0.136936
537.354204	0.136975
537.569610	0.137475
537.784997	0.137807
538.000366	0.138372
538.215716	0.138842
538.431049	0.139097
538.646363	0.139817
538.861659	0.139989
539.076937	0.140115
539.292196	0.140371
539.507438	0.140291
539.722661	0.139672
539.937866	0.139680
540.153052	0.139641
540.368221	0.140036
540.583371	0.140529
540.798503	0.140930
541.013617	0.141697
541.228712	0.142202
541.443789	0.142815
541.658848	0.143763
541.873889	0.144338
542.088912	0.144512
542.303916	0.144312
542.518902	0.144305
542.733870	0.144575
542.948820	0.144600
543.163752	0.144692
543.378665	0.144710
543.593560	0.144472
543.808437	0.144531
544.023295	0.145092
544.238136	0.145233
544.452958	0.145262
544.667762	0.144984
544.882548	0.144928
545.097315	0.144999
545.312064	0.144976
545.526795	0.145231
545.741508	0.145371
545.956203	0.145129
546.170879	0.145546
546.385537	0.145722
546.600177	0.146106
546.814799	0.146685
547.029402	0.147295
547.243988	0.147627
547.458555	0.148184
547.673103	0.148562
547.887634	0.148835
548.102146	0.148996
548.316640	0.149239
548.531116	0.149192
548.745574	0.149037
548.960013	0.148950
549.174435	0.149217
549.388838	0.149545
549.603222	0.150279
549.817589	0.150377
550.031937	0.150512
550.246267	0.150740
550.460579	0.150836
550.674873	0.151280
550.889148	0.150913
551.103405	0.150935
551.317644	0.150623
551.531865	0.150004
551.746068	0.150063
551.960252	0.150132
552.174418	0.150373
552.388566	0.150578
552.602696	0.150726
552.816807	0.150909
553.030900	0.151307
553.244975	0.151968
553.459032	0.152090
553.673070	0.152166
553.887091	0.152376
554.101093	0.152265
554.315077	0.152448
554.529042	0.152661
554.742990	0.153380
554.956919	0.153117
555.170830	0.152918
555.384722	0.153132
555.598597	0.153275
555.812453	0.153680
556.026291	0.154224
556.240111	0.154603
556.453913	0.154451
556.667696	0.154560
556.881461	0.154827
557.095208	0.155028
557.308937	0.155440
557.522647	0.156017
557.736339	0.155722
557.950013	0.155740
558.163669	0.155925
558.377307	0.155886
558.590926	0.155999
558.804527	0.156577
559.018110	0.156836
559.231675	0.156632
559.445221	0.156687
559.658749	0.156910
559.872259	0.157036
560.085751	0.156913
560.299225	0.157584
560.512680	0.157711
560.726117	0.157662
560.939536	0.157723
561.152937	0.157820
561.366319	0.158031
561.579683	0.157972
561.793029	0.158327
562.006357	0.159145
562.219667	0.158852
562.432958	0.158721
562.646231	0.158864
562.859486	0.159013
563.072723	0.159524
563.285941	0.159571
563.499141	0.160127
563.712323	0.160007
563.925487	0.160082
564.138632	0.160575
564.351760	0.161180
564.564869	0.161114
564.777960	0.161582
564.991032	0.161582
565.204087	0.162105
565.417123	0.161993
565.630141	0.162205
565.843140	0.162065
566.056122	0.162055
566.269085	0.161867
566.482030	0.162095
566.694957	0.161719
566.907866	0.162085
567.120756	0.161917
567.333628	0.162294
567.546482	0.162275
567.759318	0.162372
567.972135	0.162385
568.184935	0.162375
568.397716	0.162821
568.610478	0.163208
568.823223	0.163210
569.035949	0.163525
569.248657	0.163595
569.461347	0.164047
569.674019	0.164240
569.886672	0.164475
570.099308	0.165174
570.311925	0.165458
570.524523	0.165460
570.737104	0.165674
570.949666	0.165846
571.162210	0.165674
571.374736	0.165792
571.587244	0.165659
571.799733	0.165530
572.012205	0.165818
572.224658	0.165597
572.437092	0.165978
572.649509	0.165723
572.861907	0.165653
573.074287	0.166632
573.286649	0.166387
573.498993	0.167108
573.711318	0.167612
573.923625	0.167313
574.135914	0.167574
574.348185	0.167558
574.560438	0.168295
574.772672	0.168482
574.984888	0.168428
575.197086	0.169098
575.409266	0.168791
575.621427	0.168665
575.833570	0.168852
576.045695	0.169004
576.257802	0.169040
576.469890	0.169495
576.681961	0.169348
576.894013	0.169690
577.106046	0.169705
577.318062	0.169692
577.530059	0.170290
577.742039	0.170467
577.954000	0.170638
578.165942	0.171111
578.377867	0.170747
578.589773	0.170982
578.801661	0.170794
579.013531	0.170885
579.225382	0.171414
579.437216	0.171262
579.649031	0.171413
579.860828	0.171832
580.072606	0.171656
580.284367	0.171619
580.496109	0.171987
580.707833	0.172235
580.919539	0.172071
581.131227	0.172090
581.342896	0.172334
581.554547	0.172723
581.766180	0.172533
581.977795	0.172887
582.189391	0.173217
582.400969	0.173342
582.612529	0.173197
582.824071	0.173808
583.035595	0.173900
583.247100	0.174102
583.458587	0.174167
583.670056	0.174720
583.881506	0.174951
584.092939	0.174974
584.304353	0.175006
584.515749	0.175788
584.727127	0.175959
584.938486	0.176311
585.149828	0.176721
585.361151	0.176814
585.572456	0.176590
585.783742	0.176814
585.995011	0.177449
586.206261	0.177826
586.417493	0.177877
586.628706	0.178043
586.839902	0.177818
587.051079	0.177926
587.262238	0.177967
587.473379	0.178154
587.684502	0.178267
587.895606	0.178318
588.106692	0.178585
588.317760	0.178519
588.528810	0.178402
588.739841	0.178893
588.950855	0.178786
589.161850	0.179023
589.372827	0.179065
589.583785	0.179005
589.794726	0.179126
590.005648	0.179084
590.216552	0.179340
590.427437	0.179643
590.638305	0.179668
590.849154	0.180022
591.059985	0.180237
591.270798	0.180125
591.481592	0.180163
591.692369	0.180271
591.903127	0.180313
592.113867	0.180573
592.324588	0.180651
592.535292	0.180462
592.745977	0.180502
592.956644	0.180655
593.167293	0.180969
593.377923	0.181295
593.588536	0.181467
593.799130	0.181636
594.009706	0.181395
594.220263	0.181984
594.430803	0.182538
594.641324	0.182515
594.851827	0.182383
595.062312	0.182590
595.272778	0.182981
595.483227	0.182612
595.693657	0.182938
595.904069	0.183195
596.114462	0.183074
596.324838	0.183359
596.535195	0.183721
596.745534	0.184251
596.955855	0.184510
597.166157	0.184471
597.376441	0.184908
597.586707	0.185085
597.796955	0.185029
598.007185	0.184710
598.217396	0.184670
598.427589	0.184674
598.637764	0.184811
598.847921	0.185078
599.058060	0.184981
599.268180	0.185232
599.478282	0.185085
599.688366	0.185021
599.898431	0.185133
600.108479	0.185233
600.318508	0.185360
600.528519	0.185126
600.738511	0.185139
600.948486	0.185262
601.158442	0.185455
601.368380	0.185431
601.578300	0.185898
601.788202	0.186134
601.998085	0.186418
602.207950	0.186539
602.417797	0.186796
602.627626	0.186793
602.837436	0.187503
603.047228	0.187374
603.257002	0.187992
603.466758	0.188143
603.676496	0.188855
603.886215	0.188709
604.095916	0.188840
604.305599	0.189230
604.515264	0.189480
604.724910	0.189120
604.934538	0.189398
605.144148	0.189224
605.353740	0.189519
605.563314	0.189564
605.772869	0.189926
605.982406	0.190118
606.191925	0.190025
606.401425	0.190271
606.610908	0.190434
606.820372	0.190391
607.029818	0.190833
607.239246	0.190825
607.448655	0.190671
607.658047	0.190511
607.867420	0.190712
608.076775	0.190750
608.286111	0.190591
608.495430	0.190930
608.704730	0.191124
608.914012	0.191002
609.123275	0.191105
609.332521	0.191022
609.541748	0.191331
609.750957	0.191150
609.960148	0.191257
610.169321	0.191481
610.378475	0.191597
610.587611	0.191622
610.796729	0.191671
611.005829	0.191625
611.214910	0.191768
611.423974	0.191623
611.633019	0.191766
611.842045	0.191932
612.051054	0.192029
612.260044	0.192000
612.469017	0.192144
612.677970	0.192286
612.886906	0.192643
613.095824	0.192764
613.304723	0.193068
613.513604	0.193211
613.722467	0.193361
613.931311	0.193578
614.140138	0.193891
614.348946	0.194018
614.557736	0.194241
614.766507	0.194068
614.975261	0.194475
615.183996	0.194447
615.392713	0.194781
615.601412	0.194975
615.810092	0.195006
616.018754	0.194797
616.227399	0.194781
616.436024	0.194402
616.644632	0.194569
616.853222	0.194376
617.061793	0.194567
617.270346	0.194304
617.478880	0.194281
617.687397	0.194092
617.895895	0.194177
618.104375	0.194573
618.312837	0.194816
618.521281	0.194715
618.729706	0.195074
618.938113	0.195170
619.146502	0.195395
619.354873	0.195451
619.563226	0.195952
619.771560	0.196175
619.979876	0.196086
620.188174	0.196395
620.396453	0.196743
620.604715	0.196596
620.812958	0.196759
621.021183	0.196849
621.229390	0.197146
621.437578	0.197066
621.645748	0.197205
621.853900	0.197354
622.062034	0.197325
622.270150	0.197301
622.478247	0.197489
622.686326	0.197778
622.894387	0.198136
623.102430	0.198236
623.310454	0.198236
623.518461	0.198167
623.726449	0.198246
623.934418	0.198476
624.142370	0.198710
624.350303	0.199066
624.558218	0.198904
624.766115	0.199086
624.973994	0.199184
625.181855	0.199577
625.389697	0.199740
625.597521	0.200062
625.805327	0.200449
626.013114	0.200700
626.220883	0.200898
626.428634	0.201109
626.636367	0.201246
626.844082	0.201238
627.051778	0.201239
627.259457	0.201549
627.467117	0.201560
627.674758	0.201392
627.882382	0.201278
628.089987	0.201292
628.297574	0.201190
628.505143	0.200913
628.712694	0.201213
628.920226	0.201481
629.127740	0.201531
629.335236	0.201637
629.542714	0.201685
629.750174	0.202058
629.957615	0.201795
630.165038	0.202274
630.372443	0.202685
630.579829	0.202701
630.787198	0.202524
630.994548	0.202545
631.201880	0.202859
631.409194	0.203038
631.616489	0.203009
631.823766	0.203123
632.031025	0.203117
632.238266	0.203302
632.445489	0.203411
632.652693	0.203878
632.859879	0.203963
633.067047	0.203889
633.274197	0.204327
633.481329	0.204594
633.688442	0.205173
633.895537	0.205348
634.102614	0.205370
634.309672	0.205505
634.516713	0.205585
634.723735	0.205906
634.930739	0.205925
635.137724	0.205899
635.344692	0.205752
635.551641	0.205700
635.758572	0.205927
635.965485	0.205884
636.172379	0.206124
636.379256	0.206276
636.586114	0.206642
636.792954	0.207004
636.999775	0.207314
637.206579	0.207578
637.413364	0.207715
637.620131	0.207909
637.826880	0.208134
638.033610	0.208263
638.240323	0.208042
638.447017	0.207795
638.653692	0.207861
638.860350	0.207776
639.066990	0.208004
639.273611	0.208169
639.480214	0.208258
639.686798	0.208456
639.893365	0.208536
640.099913	0.208867
640.306443	0.208990
640.512955	0.209255
640.719449	0.209451
640.925924	0.209703
641.132381	0.209729
641.338820	0.209768
641.545241	0.210037
641.751644	0.210104
641.958028	0.210113
642.164394	0.210360
642.370742	0.210419
642.577071	0.210391
642.783383	0.210408
642.989676	0.210696
643.195951	0.210903
643.402207	0.210827
643.608446	0.211229
643.814666	0.211327
644.020868	0.211879
644.227052	0.212179
644.433218	0.212641
644.639365	0.212851
644.845494	0.213241
645.051605	0.213114
645.257698	0.213391
645.463772	0.213271
645.669828	0.213902
645.875866	0.213626
646.081886	0.213614
646.287888	0.213422
646.493871	0.213673
646.699836	0.213488
646.905783	0.213850
647.111712	0.213953
647.317622	0.213862
647.523514	0.213971
647.729388	0.214121
647.935244	0.214458
648.141082	0.215039
648.346901	0.215216
648.552702	0.215402
648.758485	0.215635
648.964250	0.216086
649.169996	0.216653
649.375724	0.216417
649.581434	0.216538
649.787126	0.216512
649.992800	0.216297
650.198455	0.215985
650.404092	0.216045
650.609711	0.215879
650.815311	0.215851
651.020894	0.216011
651.226458	0.216542
651.432004	0.216847
651.637532	0.216864
651.843041	0.217026
652.048532	0.217525
652.254006	0.217819
652.459460	0.218389
652.664897	0.218686
652.870315	0.218791
653.075716	0.218602
653.281097	0.218646
653.486461	0.218853
653.691807	0.219004
653.897134	0.218956
654.102443	0.219287
654.307734	0.219241
654.513006	0.219080
654.718261	0.219133
654.923497	0.219275
655.128715	0.219569
655.333915	0.219688
655.539096	0.219806
655.744259	0.220129
655.949404	0.220055
656.154531	0.220306
656.359640	0.220812
656.564730	0.221004
656.769802	0.221315
656.974856	0.221371
657.179892	0.221773
657.384909	0.222270
657.589908	0.222372
657.794889	0.222689
657.999852	0.222803
658.204797	0.222708
658.409723	0.222889
658.614631	0.223287
658.819521	0.223503
659.024393	0.223516
659.229246	0.223596
659.434081	0.223875
659.638898	0.223920
659.843697	0.224236
660.048478	0.224440
660.253240	0.224672
660.457984	0.224633
660.662710	0.224907
660.867417	0.225042
661.072107	0.225178
661.276778	0.225535
661.481431	0.225457
661.686066	0.225441
661.890682	0.225571
662.095281	0.225663
662.299861	0.225901
662.504422	0.225845
662.708966	0.226059
662.913491	0.226187
663.117999	0.226170
663.322488	0.226658
663.526958	0.226857
663.731411	0.226958
663.935845	0.227126
664.140261	0.227142
664.344659	0.227412
664.549038	0.227667
664.753400	0.228075
664.957743	0.228142
665.162068	0.228466
665.366375	0.228680
665.570663	0.229049
665.774933	0.229261
665.979185	0.229566
666.183419	0.229678
666.387635	0.229915
666.591832	0.229661
666.796011	0.229948
667.000172	0.229894
667.204315	0.230205
667.408439	0.230321
667.612545	0.230615
667.816634	0.230885
668.020703	0.231261
668.224755	0.231205
668.428788	0.231514
668.632803	0.231610
668.836800	0.232026
669.040779	0.232201
669.244739	0.232221
669.448681	0.232378
669.652605	0.232571
669.856511	0.232712
670.060399	0.233107
670.264268	0.233552
670.468119	0.233753
670.671952	0.233655
670.875767	0.233712
671.079563	0.234185
671.283341	0.234516
671.487101	0.234711
671.690843	0.234949
671.894567	0.234857
672.098272	0.234769
672.301959	0.235184
672.505628	0.235535
672.709278	0.236165
672.912911	0.236337
673.116525	0.236262
673.320121	0.236608
673.523699	0.237022
673.727258	0.237417
673.930799	0.237736
674.134322	0.237709
674.337827	0.237756
674.541314	0.237581
674.744782	0.237755
674.948232	0.237962
675.151664	0.237983
675.355078	0.237995
675.558474	0.238316
675.761851	0.238610
675.965210	0.238668
676.168551	0.238938
676.371873	0.239174
676.575178	0.239094
676.778464	0.239409
676.981732	0.239699
677.184981	0.239947
677.388213	0.240125
677.591426	0.240422
677.794621	0.240903
677.997798	0.241337
678.200956	0.241616
678.404097	0.242158
678.607219	0.242579
678.810323	0.242562
679.013408	0.242670
679.216476	0.242958
679.419525	0.243196
679.622556	0.243443
679.825569	0.243466
680.028563	0.243711
680.231540	0.243844
680.434498	0.243925
680.637438	0.244366
680.840359	0.244605
681.043263	0.244639
681.246148	0.244546
681.449015	0.244699
681.651864	0.244848
681.854694	0.245010
682.057506	0.245221
682.260301	0.245440
682.463076	0.245461
682.665834	0.245582
682.868573	0.246064
683.071295	0.246359
683.273998	0.246495
683.476682	0.246838
683.679349	0.247158
683.881997	0.247189
684.084627	0.247288
684.287239	0.247482
684.489833	0.247831
684.692408	0.247647
684.894965	0.247928
685.097504	0.248171
685.300025	0.248201
685.502527	0.248130
685.705012	0.248383
685.907478	0.248484
686.109925	0.248823
686.312355	0.248575
686.514766	0.248755
686.717159	0.248504
686.919534	0.248497
687.121891	0.248644
687.324230	0.248809
687.526550	0.248987
687.728852	0.249013
687.931136	0.248875
688.133401	0.249008
688.335649	0.249152
688.537878	0.249594
688.740089	0.249776
688.942281	0.249805
689.144456	0.249867
689.346612	0.249855
689.548750	0.249791
689.750870	0.249964
689.952971	0.250317
690.155055	0.250444
690.357120	0.250532
690.559167	0.250648
690.761195	0.250979
690.963206	0.251149
691.165198	0.251474
691.367172	0.251966
691.569128	0.252159
691.771065	0.252277
691.972984	0.252538
692.174885	0.252640
692.376768	0.252884
692.578633	0.252773
692.780479	0.252998
692.982308	0.252930
693.184118	0.253068
693.385909	0.253157
