sample name	sample
index	827
start time	 03-31-2021  04:14:59 PM


Wavelength (nm)	Absorbance
494.344910	NaN
494.563924	NaN
494.782919	NaN
495.001897	NaN
495.220856	-1.351730
495.439797	-0.706171
495.658719	-0.003806
495.877624	NaN
496.096510	NaN
496.315378	-0.815994
496.534227	-0.814769
496.753059	-1.336795
496.971872	NaN
497.190667	0.191334
497.409444	0.165321
497.628203	0.162777
497.846943	0.158331
498.065665	0.161008
498.284369	0.161106
498.503055	0.160127
498.721723	0.160538
498.940372	0.160697
499.159003	0.160505
499.377616	0.160664
499.596210	0.159621
499.814787	0.159650
500.033345	0.159583
500.251885	0.159686
500.470406	0.160313
500.688910	0.160100
500.907395	0.159918
501.125862	0.158910
501.344311	0.159367
501.562742	0.159847
501.781154	0.159867
501.999548	0.159705
502.217924	0.159011
502.436282	0.157975
502.654621	0.157637
502.872942	0.156901
503.091245	0.157946
503.309530	0.157065
503.527797	0.157299
503.746045	0.156779
503.964275	0.156777
504.182487	0.157004
504.400681	0.157377
504.618856	0.157485
504.837013	0.158271
505.055152	0.157846
505.273273	0.158340
505.491376	0.158102
505.709460	0.159202
505.927526	0.158539
506.145574	0.159371
506.363604	0.159675
506.581615	0.160112
506.799608	0.159872
507.017583	0.160563
507.235540	0.160406
507.453478	0.161512
507.671399	0.161624
507.889301	0.162545
508.107185	0.162334
508.325050	0.163351
508.542898	0.162740
508.760727	0.163714
508.978538	0.163713
509.196330	0.164597
509.414105	0.164191
509.631861	0.163674
509.849599	0.164091
510.067319	0.163930
510.285021	0.162708
510.502704	0.162810
510.720369	0.162865
510.938016	0.162293
511.155645	0.161977
511.373255	0.161716
511.590848	0.162494
511.808422	0.162038
512.025977	0.162830
512.243515	0.162778
512.461034	0.163522
512.678536	0.163016
512.896018	0.162803
513.113483	0.163424
513.330930	0.164224
513.548358	0.164783
513.765768	0.164062
513.983160	0.162968
514.200533	0.164829
514.417889	0.165234
514.635226	0.165243
514.852545	0.165489
515.069845	0.165736
515.287128	0.166164
515.504392	0.165789
515.721638	0.167637
515.938866	0.168302
516.156075	0.167059
516.373267	0.166897
516.590440	0.167255
516.807594	0.168512
517.024731	0.167701
517.241850	0.167570
517.458950	0.167206
517.676032	0.167193
517.893095	0.167094
518.110141	0.167339
518.327168	0.167687
518.544177	0.167409
518.761168	0.167708
518.978141	0.168434
519.195095	0.168385
519.412031	0.169530
519.628949	0.169352
519.845849	0.170018
520.062731	0.170550
520.279594	0.170492
520.496439	0.171402
520.713266	0.171347
520.930074	0.172058
521.146865	0.172194
521.363637	0.172104
521.580391	0.172686
521.797127	0.172668
522.013844	0.173148
522.230543	0.174184
522.447224	0.174640
522.663887	0.173456
522.880532	0.173491
523.097158	0.173497
523.313766	0.173412
523.530356	0.173044
523.746928	0.173646
523.963481	0.173980
524.180017	0.173086
524.396534	0.173560
524.613032	0.174937
524.829513	0.174766
525.045975	0.175051
525.262420	0.175525
525.478845	0.176069
525.695253	0.176306
525.911643	0.175800
526.128014	0.176162
526.344367	0.175489
526.560702	0.175240
526.777018	0.175798
526.993316	0.176777
527.209597	0.176753
527.425858	0.176951
527.642102	0.176945
527.858328	0.177562
528.074535	0.177706
528.290724	0.178815
528.506894	0.178988
528.723047	0.179234
528.939181	0.179840
529.155297	0.180402
529.371395	0.180471
529.587475	0.180916
529.803536	0.180822
530.019579	0.180981
530.235604	0.181177
530.451611	0.182038
530.667600	0.182376
530.883570	0.181629
531.099522	0.182147
531.315456	0.182882
531.531372	0.182567
531.747269	0.183592
531.963148	0.183851
532.179009	0.184222
532.394852	0.183680
532.610676	0.184219
532.826482	0.184862
533.042271	0.184768
533.258040	0.184655
533.473792	0.186217
533.689525	0.185882
533.905240	0.186273
534.120937	0.185896
534.336616	0.186497
534.552277	0.186070
534.767919	0.186146
534.983543	0.186254
535.199149	0.186632
535.414736	0.186034
535.630306	0.186035
535.845857	0.186956
536.061390	0.187228
536.276904	0.187647
536.492401	0.187665
536.707879	0.187912
536.923339	0.189022
537.138781	0.189119
537.354204	0.189736
537.569610	0.190248
537.784997	0.190116
538.000366	0.190686
538.215716	0.190726
538.431049	0.191493
538.646363	0.192199
538.861659	0.192427
539.076937	0.193029
539.292196	0.192919
539.507438	0.193605
539.722661	0.194097
539.937866	0.194169
540.153052	0.194680
540.368221	0.194931
540.583371	0.194831
540.798503	0.194449
541.013617	0.194720
541.228712	0.194990
541.443789	0.195261
541.658848	0.195842
541.873889	0.196026
542.088912	0.196254
542.303916	0.197091
542.518902	0.196882
542.733870	0.197224
542.948820	0.197701
543.163752	0.198448
543.378665	0.198900
543.593560	0.199016
543.808437	0.199581
544.023295	0.199797
544.238136	0.200001
544.452958	0.200763
544.667762	0.201065
544.882548	0.201066
545.097315	0.200791
545.312064	0.200301
545.526795	0.200258
545.741508	0.200254
545.956203	0.200505
546.170879	0.200505
546.385537	0.200272
546.600177	0.200204
546.814799	0.200823
547.029402	0.201352
547.243988	0.201798
547.458555	0.202357
547.673103	0.203220
547.887634	0.203514
548.102146	0.203665
548.316640	0.204963
548.531116	0.205592
548.745574	0.205047
548.960013	0.205367
549.174435	0.206261
549.388838	0.205790
549.603222	0.205539
549.817589	0.205964
550.031937	0.206163
550.246267	0.205791
550.460579	0.206038
550.674873	0.206680
550.889148	0.207018
551.103405	0.206741
551.317644	0.207139
551.531865	0.207695
551.746068	0.208522
551.960252	0.208708
552.174418	0.208828
552.388566	0.209350
552.602696	0.209281
552.816807	0.209867
553.030900	0.209774
553.244975	0.210128
553.459032	0.210491
553.673070	0.210049
553.887091	0.210026
554.101093	0.210964
554.315077	0.210364
554.529042	0.211035
554.742990	0.210493
554.956919	0.211273
555.170830	0.211675
555.384722	0.211325
555.598597	0.211775
555.812453	0.212558
556.026291	0.212136
556.240111	0.212903
556.453913	0.212930
556.667696	0.212998
556.881461	0.212769
557.095208	0.213070
557.308937	0.213555
557.522647	0.213069
557.736339	0.212550
557.950013	0.212800
558.163669	0.212954
558.377307	0.212771
558.590926	0.213381
558.804527	0.213360
559.018110	0.213424
559.231675	0.213122
559.445221	0.213450
559.658749	0.213751
559.872259	0.214143
560.085751	0.214917
560.299225	0.215374
560.512680	0.215185
560.726117	0.215687
560.939536	0.216222
561.152937	0.216894
561.366319	0.217353
561.579683	0.217371
561.793029	0.217535
562.006357	0.217152
562.219667	0.217369
562.432958	0.217611
562.646231	0.217438
562.859486	0.217302
563.072723	0.217406
563.285941	0.217516
563.499141	0.218102
563.712323	0.217960
563.925487	0.217758
564.138632	0.218160
564.351760	0.218361
564.564869	0.218643
564.777960	0.218416
564.991032	0.218801
565.204087	0.218896
565.417123	0.219170
565.630141	0.219238
565.843140	0.219516
566.056122	0.219365
566.269085	0.219374
566.482030	0.219461
566.694957	0.219945
566.907866	0.220158
567.120756	0.220369
567.333628	0.220391
567.546482	0.220995
567.759318	0.220827
567.972135	0.221253
568.184935	0.221903
568.397716	0.222478
568.610478	0.222992
568.823223	0.222490
569.035949	0.222781
569.248657	0.223024
569.461347	0.222744
569.674019	0.223507
569.886672	0.223490
570.099308	0.223480
570.311925	0.223158
570.524523	0.222434
570.737104	0.222807
570.949666	0.223014
571.162210	0.222918
571.374736	0.223148
571.587244	0.222787
571.799733	0.222832
572.012205	0.222792
572.224658	0.223489
572.437092	0.224026
572.649509	0.224016
572.861907	0.223991
573.074287	0.224472
573.286649	0.225058
573.498993	0.225576
573.711318	0.226073
573.923625	0.226330
574.135914	0.226319
574.348185	0.226232
574.560438	0.226208
574.772672	0.226412
574.984888	0.226570
575.197086	0.226505
575.409266	0.226890
575.621427	0.226891
575.833570	0.226671
576.045695	0.226536
576.257802	0.227107
576.469890	0.227129
576.681961	0.227380
576.894013	0.227008
577.106046	0.226989
577.318062	0.226650
577.530059	0.226587
577.742039	0.227272
577.954000	0.227856
578.165942	0.227995
578.377867	0.229021
578.589773	0.228976
578.801661	0.228841
579.013531	0.228929
579.225382	0.229128
579.437216	0.228996
579.649031	0.229148
579.860828	0.228959
580.072606	0.228989
580.284367	0.228768
580.496109	0.229267
580.707833	0.230001
580.919539	0.229841
581.131227	0.230097
581.342896	0.230308
581.554547	0.230679
581.766180	0.231052
581.977795	0.231354
582.189391	0.231560
582.400969	0.231340
582.612529	0.231710
582.824071	0.231962
583.035595	0.231934
583.247100	0.232626
583.458587	0.232406
583.670056	0.232506
583.881506	0.232486
584.092939	0.232990
584.304353	0.233244
584.515749	0.233573
584.727127	0.233903
584.938486	0.234327
585.149828	0.234390
585.361151	0.234370
585.572456	0.234366
585.783742	0.234688
585.995011	0.234311
586.206261	0.234260
586.417493	0.234125
586.628706	0.234182
586.839902	0.234359
587.051079	0.234465
587.262238	0.234365
587.473379	0.234657
587.684502	0.234840
587.895606	0.234908
588.106692	0.234766
588.317760	0.234425
588.528810	0.234484
588.739841	0.234643
588.950855	0.234560
589.161850	0.235072
589.372827	0.235196
589.583785	0.235054
589.794726	0.235538
590.005648	0.235955
590.216552	0.236243
590.427437	0.236603
590.638305	0.236746
590.849154	0.236655
591.059985	0.236778
591.270798	0.236765
591.481592	0.236757
591.692369	0.236355
591.903127	0.236804
592.113867	0.237330
592.324588	0.237441
592.535292	0.237516
592.745977	0.238086
592.956644	0.238514
593.167293	0.239023
593.377923	0.239593
593.588536	0.240493
593.799130	0.240440
594.009706	0.240220
594.220263	0.240162
594.430803	0.240245
594.641324	0.240035
594.851827	0.240007
595.062312	0.239624
595.272778	0.239685
595.483227	0.239513
595.693657	0.239811
595.904069	0.239851
596.114462	0.240013
596.324838	0.240511
596.535195	0.240961
596.745534	0.241006
596.955855	0.241331
597.166157	0.241505
597.376441	0.241880
597.586707	0.241939
597.796955	0.242550
598.007185	0.243328
598.217396	0.242960
598.427589	0.243003
598.637764	0.243035
598.847921	0.243105
599.058060	0.242903
599.268180	0.242800
599.478282	0.242795
599.688366	0.242516
599.898431	0.242488
600.108479	0.242684
600.318508	0.242651
600.528519	0.242963
600.738511	0.243038
600.948486	0.243434
601.158442	0.243355
601.368380	0.243338
601.578300	0.243561
601.788202	0.243486
601.998085	0.243660
602.207950	0.243924
602.417797	0.243862
602.627626	0.244061
602.837436	0.244386
603.047228	0.244441
603.257002	0.244889
603.466758	0.245040
603.676496	0.244972
603.886215	0.244989
604.095916	0.245010
604.305599	0.244907
604.515264	0.245198
604.724910	0.245227
604.934538	0.245466
605.144148	0.245311
605.353740	0.245526
605.563314	0.245668
605.772869	0.245924
605.982406	0.245890
606.191925	0.246571
606.401425	0.246779
606.610908	0.246587
606.820372	0.246968
607.029818	0.247397
607.239246	0.247283
607.448655	0.247322
607.658047	0.247405
607.867420	0.247704
608.076775	0.247481
608.286111	0.247250
608.495430	0.247588
608.704730	0.247692
608.914012	0.247741
609.123275	0.247784
609.332521	0.248330
609.541748	0.248238
609.750957	0.248334
609.960148	0.248565
610.169321	0.248752
610.378475	0.248462
610.587611	0.248510
610.796729	0.248481
611.005829	0.248667
611.214910	0.248715
611.423974	0.249251
611.633019	0.249303
611.842045	0.249450
612.051054	0.249826
612.260044	0.250374
612.469017	0.250478
612.677970	0.250405
612.886906	0.250540
613.095824	0.250361
613.304723	0.250232
613.513604	0.250452
613.722467	0.250506
613.931311	0.250551
614.140138	0.250428
614.348946	0.250379
614.557736	0.250612
614.766507	0.250731
614.975261	0.251175
615.183996	0.251460
615.392713	0.251546
615.601412	0.251563
615.810092	0.251490
616.018754	0.251510
616.227399	0.251645
616.436024	0.251659
616.644632	0.252052
616.853222	0.252047
617.061793	0.252089
617.270346	0.252280
617.478880	0.252484
617.687397	0.252444
617.895895	0.252665
618.104375	0.253088
618.312837	0.253276
618.521281	0.253023
618.729706	0.253242
618.938113	0.253404
619.146502	0.253526
619.354873	0.253628
619.563226	0.253987
619.771560	0.254381
619.979876	0.254154
620.188174	0.254561
620.396453	0.254816
620.604715	0.254938
620.812958	0.255142
621.021183	0.255388
621.229390	0.255468
621.437578	0.255574
621.645748	0.255526
621.853900	0.255895
622.062034	0.255798
622.270150	0.256220
622.478247	0.256232
622.686326	0.256247
622.894387	0.256208
623.102430	0.256116
623.310454	0.256285
623.518461	0.256518
623.726449	0.256920
623.934418	0.257254
624.142370	0.257158
624.350303	0.257169
624.558218	0.257241
624.766115	0.257423
624.973994	0.257811
625.181855	0.257923
625.389697	0.257707
625.597521	0.257174
625.805327	0.257466
626.013114	0.257609
626.220883	0.257464
626.428634	0.257627
626.636367	0.257821
626.844082	0.257852
627.051778	0.258287
627.259457	0.258200
627.467117	0.258817
627.674758	0.258756
627.882382	0.258850
628.089987	0.259304
628.297574	0.259511
628.505143	0.259559
628.712694	0.259641
628.920226	0.259292
629.127740	0.260100
629.335236	0.260041
629.542714	0.260389
629.750174	0.260566
629.957615	0.260730
630.165038	0.260915
630.372443	0.260922
630.579829	0.261138
630.787198	0.261369
630.994548	0.261194
631.201880	0.261085
631.409194	0.260990
631.616489	0.260936
631.823766	0.261030
632.031025	0.261004
632.238266	0.261251
632.445489	0.261604
632.652693	0.262091
632.859879	0.262179
633.067047	0.262514
633.274197	0.262699
633.481329	0.263013
633.688442	0.263149
633.895537	0.263335
634.102614	0.263513
634.309672	0.263616
634.516713	0.263447
634.723735	0.263759
634.930739	0.263905
635.137724	0.263807
635.344692	0.263735
635.551641	0.264118
635.758572	0.264160
635.965485	0.264272
636.172379	0.264150
636.379256	0.264474
636.586114	0.264712
636.792954	0.264503
636.999775	0.264913
637.206579	0.265285
637.413364	0.265292
637.620131	0.265359
637.826880	0.265535
638.033610	0.265295
638.240323	0.265345
638.447017	0.265434
638.653692	0.265788
638.860350	0.265934
639.066990	0.266277
639.273611	0.266482
639.480214	0.266568
639.686798	0.266870
639.893365	0.267417
640.099913	0.267739
640.306443	0.267545
640.512955	0.267558
640.719449	0.267804
640.925924	0.267712
641.132381	0.267740
641.338820	0.268148
641.545241	0.268091
641.751644	0.268690
641.958028	0.268713
642.164394	0.269012
642.370742	0.269423
642.577071	0.269266
642.783383	0.269520
642.989676	0.269373
643.195951	0.269494
643.402207	0.269608
643.608446	0.269407
643.814666	0.269546
644.020868	0.269746
644.227052	0.269944
644.433218	0.270274
644.639365	0.270351
644.845494	0.270517
645.051605	0.270784
645.257698	0.270984
645.463772	0.271320
645.669828	0.271511
645.875866	0.271642
646.081886	0.271680
646.287888	0.271536
646.493871	0.271782
646.699836	0.272047
646.905783	0.271945
647.111712	0.272460
647.317622	0.272426
647.523514	0.272446
647.729388	0.272562
647.935244	0.272797
648.141082	0.273128
648.346901	0.272979
648.552702	0.272905
648.758485	0.272975
648.964250	0.272428
649.169996	0.272384
649.375724	0.272515
649.581434	0.273017
649.787126	0.273155
649.992800	0.272943
650.198455	0.273234
650.404092	0.273515
650.609711	0.273712
650.815311	0.274268
651.020894	0.274736
651.226458	0.274935
651.432004	0.274906
651.637532	0.274733
651.843041	0.275026
652.048532	0.275029
652.254006	0.275072
652.459460	0.275420
652.664897	0.275305
652.870315	0.275418
653.075716	0.275341
653.281097	0.275546
653.486461	0.275986
653.691807	0.276398
653.897134	0.277038
654.102443	0.277554
654.307734	0.277683
654.513006	0.277900
654.718261	0.277865
654.923497	0.278162
655.128715	0.278286
655.333915	0.278468
655.539096	0.278537
655.744259	0.278354
655.949404	0.278476
656.154531	0.278495
656.359640	0.278872
656.564730	0.279201
656.769802	0.279510
656.974856	0.279471
657.179892	0.279581
657.384909	0.279915
657.589908	0.280343
657.794889	0.280370
657.999852	0.280675
658.204797	0.280656
658.409723	0.280874
658.614631	0.280903
658.819521	0.281061
659.024393	0.281061
659.229246	0.281176
659.434081	0.281290
659.638898	0.281640
659.843697	0.281709
660.048478	0.282152
660.253240	0.282214
660.457984	0.282282
660.662710	0.282391
660.867417	0.282751
661.072107	0.282662
661.276778	0.282536
661.481431	0.282710
661.686066	0.282765
661.890682	0.282534
662.095281	0.282911
662.299861	0.283216
662.504422	0.283682
662.708966	0.284011
662.913491	0.284216
663.117999	0.284589
663.322488	0.284471
663.526958	0.284705
663.731411	0.285213
663.935845	0.285036
664.140261	0.285402
664.344659	0.285479
664.549038	0.285289
664.753400	0.285746
664.957743	0.286070
665.162068	0.286315
665.366375	0.286704
665.570663	0.286825
665.774933	0.287137
665.979185	0.287061
666.183419	0.287210
666.387635	0.287640
666.591832	0.287477
666.796011	0.287249
667.000172	0.287719
667.204315	0.287694
667.408439	0.287729
667.612545	0.288007
667.816634	0.288171
668.020703	0.288401
668.224755	0.288502
668.428788	0.288825
668.632803	0.289164
668.836800	0.289213
669.040779	0.289578
669.244739	0.289946
669.448681	0.289927
669.652605	0.290179
669.856511	0.290209
670.060399	0.290345
670.264268	0.290443
670.468119	0.290701
670.671952	0.290869
670.875767	0.290965
671.079563	0.291357
671.283341	0.291497
671.487101	0.291700
671.690843	0.291990
671.894567	0.292247
672.098272	0.292601
672.301959	0.292819
672.505628	0.293088
672.709278	0.293245
672.912911	0.293181
673.116525	0.293481
673.320121	0.293844
673.523699	0.294135
673.727258	0.294110
673.930799	0.294170
674.134322	0.294179
674.337827	0.294043
674.541314	0.294266
674.744782	0.294388
674.948232	0.294719
675.151664	0.294724
675.355078	0.294920
675.558474	0.295304
675.761851	0.295480
675.965210	0.295758
676.168551	0.296223
676.371873	0.296356
676.575178	0.296439
676.778464	0.296479
676.981732	0.296932
677.184981	0.297061
677.388213	0.297370
677.591426	0.297635
677.794621	0.297936
677.997798	0.298041
678.200956	0.298364
678.404097	0.298738
678.607219	0.299057
678.810323	0.299063
679.013408	0.299145
679.216476	0.299317
679.419525	0.299461
679.622556	0.299693
679.825569	0.299937
680.028563	0.299937
680.231540	0.299831
680.434498	0.299737
680.637438	0.299910
680.840359	0.300135
681.043263	0.300334
681.246148	0.300595
681.449015	0.300514
681.651864	0.300472
681.854694	0.300763
682.057506	0.301363
682.260301	0.301602
682.463076	0.301783
682.665834	0.301894
682.868573	0.301996
683.071295	0.301947
683.273998	0.302214
683.476682	0.302464
683.679349	0.302295
683.881997	0.302423
684.084627	0.302632
684.287239	0.302871
684.489833	0.303130
684.692408	0.303176
684.894965	0.303311
685.097504	0.303548
685.300025	0.303737
685.502527	0.304144
685.705012	0.304032
685.907478	0.304342
686.109925	0.304502
686.312355	0.304672
686.514766	0.304987
686.717159	0.305148
686.919534	0.305210
687.121891	0.305434
687.324230	0.305591
687.526550	0.306016
687.728852	0.306114
687.931136	0.306169
688.133401	0.306117
688.335649	0.305970
688.537878	0.306303
688.740089	0.306539
688.942281	0.306821
689.144456	0.307090
689.346612	0.306960
689.548750	0.307161
689.750870	0.307249
689.952971	0.307529
690.155055	0.307777
690.357120	0.307842
690.559167	0.308033
690.761195	0.307931
690.963206	0.308183
691.165198	0.308334
691.367172	0.308031
691.569128	0.308054
691.771065	0.308150
691.972984	0.308439
692.174885	0.308634
692.376768	0.308846
692.578633	0.309030
692.780479	0.308956
692.982308	0.309024
693.184118	0.309447
693.385909	0.309662
693.587683	0.309701
693.789438	0.309761
