sample name	sample
index	951
start time	 04-12-2021  02:48:38 PM
880	0.534137
Peak Time (s)	122.539
Peak Height 	0.5341
calc peak height	120,123
Baseline Time (s)	9.037
Baseline Value 	-0.003222
subtract baseline	10,4
Abs	0.382091
Peak Time (s)	122.036
Peak Height 	0.3821
calc peak height	120,123
Baseline Time (s)	11.036
Baseline Value 	0.003871
subtract baseline	10,3
PK_550	0.209418
Peak Time (s)	122.036
Peak Height 	0.2094
calc peak height	120,123
Baseline Time (s)	11.535
Baseline Value 	2.8646E-4
subtract baseline	10,2
PK_880	0.359065
Peak Time (s)	122.036
Peak Height 	0.3591
calc peak height	120,123
Baseline Time (s)	11.036
Baseline Value 	0.001179
subtract baseline	10,1


Time (s)	A880-A510	A880-A775	A880-A975	A880	I510	I775	I975	I880	
0.037500	-0.000654	-0.000396	-0.002333	0.004758	7109.173312	42745.260602	3935.518249	22993.106669
0.538000	-0.002258	-0.000699	-0.008271	0.005228	7089.083094	42674.644537	3919.587060	22971.384517
1.035500	-0.001564	0.000553	-0.002589	0.004634	7101.551317	42843.705071	3935.188640	22998.860433
1.536500	-0.000350	-0.000216	-0.008276	0.001980	7139.223582	43017.078961	3927.619108	23122.112826
2.035500	-0.001979	-0.000496	-0.007934	0.003282	7110.639854	42871.492167	3925.234175	23061.525118
2.536500	-0.001083	-0.000395	-0.004736	0.001648	7135.303960	43031.245439	3937.291594	23137.573998
3.036500	0.002117	0.001293	0.000445	-0.000238	7185.295580	43362.222011	3955.165340	23225.684456
3.536500	0.000045	0.000296	-0.004807	0.000826	7154.398202	43170.983729	3939.176829	23175.926107
4.039500	-0.001237	0.000549	-0.004280	0.003819	7112.642230	42918.201810	3932.997395	23036.639835
4.537500	0.000014	-0.000018	0.002287	0.000476	7157.532872	43174.281299	3958.045324	23192.272160
5.035000	-0.003104	-0.000269	-0.001709	0.000243	7129.286208	43172.632807	3948.467273	23203.174613
5.535000	0.002557	0.000655	-0.003321	0.001036	7177.052571	43184.739223	3942.386336	23166.110078
6.035500	0.000304	0.000544	-0.001513	0.000275	7162.369416	43245.051101	3948.884930	23201.704544
6.535500	0.002495	0.000539	0.001569	0.000298	7183.732099	43242.357106	3956.663936	23200.591412
7.036000	0.001525	0.001072	0.002007	0.001114	7166.116059	43216.131417	3955.701342	23162.472037
7.536500	-0.001427	0.000076	-0.002687	0.000503	7143.142068	43180.559207	3945.334091	23191.032748
8.036500	-0.000129	0.000131	-0.004817	0.000207	7158.774457	43212.996500	3940.708562	23204.851096
8.536500	0.001232	-0.000362	-0.002858	-0.000068	7174.872768	43192.799108	3946.343868	23217.714174
9.037000	0.000459	-0.000139	0.000086	0.000000	7166.592406	43207.195531	3953.643832	23214.546687
9.537500	0.000932	0.000722	0.002095	0.000234	7168.940642	43265.362422	3958.173050	23203.597607
10.035000	-0.001194	0.000452	0.002443	0.000073	7149.634437	43255.229092	3959.477200	23211.144359
10.535000	-0.000998	0.000619	-0.001530	0.000438	7147.970360	43236.809245	3948.424152	23194.042135
11.035500	0.000000	-0.000066	0.000000	-0.000318	7165.201064	43243.374538	3954.234522	23229.419120
11.535000	-0.000135	0.000000	-0.005554	-0.000239	7163.090533	43242.200403	3939.975342	23225.715051
12.036000	0.000360	0.000396	-0.000434	0.000507	7160.638045	43209.884088	3951.033346	23190.855936
12.536500	-0.000491	0.001110	0.004163	0.000302	7154.280116	43294.986793	3963.300171	23200.418206
13.036500	0.000575	0.000120	-0.005710	-0.000166	7169.375732	43246.658467	3939.400126	23222.334681
13.537000	0.000866	0.000854	-0.003866	0.000690	7163.803645	43235.342541	3941.886414	23182.292700
14.040000	-0.002015	-0.000271	-0.006411	0.004373	7099.719054	42792.073591	3926.309622	23010.961688
14.535000	-0.000321	0.001320	-0.003850	0.006058	7099.792525	42783.409069	3928.484410	22933.023923
15.038000	0.002713	0.000916	0.001470	0.001338	7175.623678	43180.988812	3953.762469	23152.048135
15.535500	0.000461	0.001177	-0.000698	0.001017	7156.606464	43234.875326	3949.067586	23166.991018
16.035500	-0.002519	0.000661	-0.004880	0.005475	7084.174414	42776.410069	3927.372676	22959.957367
16.536000	-0.002453	0.000375	-0.001394	0.004620	7093.083252	42828.662135	3938.219640	22999.510686
17.036500	0.002549	0.000190	0.000022	-0.002717	7214.177587	43490.361786	3960.419740	23342.087703
17.537000	-0.001604	-0.000284	-0.004011	0.000752	7138.970216	43124.168598	3941.364545	23179.381288
18.036500	-0.001457	0.000178	-0.001344	0.001663	7131.505488	43082.734407	3945.797210	23136.881662
18.539500	-0.000943	-0.000197	0.000635	0.003286	7120.692251	42898.627512	3946.697972	23061.373962
19.035000	0.000449	0.000013	-0.001050	0.001364	7153.087594	43095.166662	3947.296633	23150.841359
19.535000	-0.001389	0.000012	-0.000155	0.001270	7136.009365	43103.727124	3949.803199	23155.221732
20.035500	0.000539	0.000179	0.004044	0.001693	7150.744299	43080.062385	3959.428141	23135.495248
20.535500	-0.001122	-0.000363	-0.001783	0.003032	7121.414701	42906.672730	3941.232756	23073.153115
21.036000	-0.000553	-0.000516	-0.002979	0.000887	7147.928610	43090.195514	3943.625280	23173.062133
21.536000	0.000148	0.000102	-0.002178	0.001071	7153.003995	43130.389120	3945.183298	23164.484430
22.036500	-0.001369	-0.000053	0.000310	0.000916	7139.659216	43130.346785	3951.882570	23171.711991
22.536500	-0.001953	-0.000036	-0.005953	0.003352	7110.219932	42907.293535	3929.985261	23058.280622
23.042000	0.001632	0.000665	0.003260	0.002098	7157.499769	43087.515124	3956.389101	23116.624195
23.534500	0.001518	0.001498	-0.003516	0.002296	7154.427897	43146.238147	3938.726861	23107.391367
24.040000	0.000723	0.000064	-0.003612	0.001448	7154.949848	43092.093563	3940.617949	23146.917885
24.537000	-0.002866	0.000269	-0.004685	0.003294	7101.914667	42940.699042	3933.294850	23060.975636
25.035500	0.001539	0.000127	-0.000880	0.001442	7163.022843	43098.385899	3947.526988	23147.158982
25.536000	-0.001514	0.001208	-0.009072	0.001796	7129.651979	43165.673193	3926.099029	23130.700786
26.036000	0.001407	0.000955	0.002169	0.002001	7156.238964	43123.287580	3953.851499	23121.113756
26.536000	0.000802	-0.000067	-0.001839	0.001510	7155.119418	43074.263136	3944.931238	23144.018021
27.036500	0.001063	0.000590	-0.000849	-0.001416	7186.526592	43406.373085	3954.871501	23280.923170
27.537000	0.000871	0.000782	-0.007859	-0.000482	7175.401735	43337.404724	3934.801640	23237.114767
28.037500	0.000301	0.001166	-0.001208	0.001085	7154.373745	43227.561381	3947.602126	23163.833666
28.537500	-0.001174	0.001109	-0.003296	0.000847	7142.249702	43244.369724	3942.929241	23174.971136
29.037000	0.001949	0.001415	0.001063	0.001561	7165.895055	43206.604957	3952.159661	23141.650944
29.535000	-0.000569	0.000283	0.002299	0.000336	7153.180827	43215.208833	3958.432926	23198.825256
30.035500	-0.002773	-0.000236	0.000357	0.005257	7083.822083	42714.279466	3941.019081	22970.026707
30.536000	0.000635	0.000456	0.000424	0.002927	7139.591379	42991.711237	3947.070857	23078.034357
31.038500	0.000105	0.000939	-0.000563	0.003204	7131.708359	43010.764231	3943.875018	23065.163671
31.536000	0.001634	0.000035	-0.000837	0.001208	7166.261369	43111.563966	3948.231892	23158.092779
32.036500	-0.001958	0.000822	0.001094	0.005918	7085.316441	42750.620065	3941.211565	22939.496343
32.537000	0.000476	0.000474	-0.000947	0.001060	7156.338522	43165.824384	3948.328358	23165.001965
33.034500	0.000556	0.000055	0.000279	0.000697	7160.693778	43160.676209	3952.360718	23181.962540
33.537500	0.001131	0.000495	0.003706	-0.000838	7181.476900	43343.791489	3965.054736	23253.776514
34.040500	-0.002190	0.000458	-0.001816	0.004572	7096.089411	42840.673848	3937.281989	23001.730968
34.535500	0.000684	0.000064	-0.001145	0.002438	7144.863804	43000.733422	3944.340461	23100.793545
35.036000	-0.000156	0.000905	0.001525	0.003096	7130.216520	43017.608524	3949.432500	23070.189874
35.535500	-0.001393	0.000151	-0.001420	0.002491	7124.052075	43003.805312	3943.513098	23098.325307
36.036000	-0.000980	0.000723	-0.000147	0.004261	7110.839958	42893.629704	3942.259970	23016.146143
36.536500	-0.000738	0.000620	0.001104	0.004389	7111.953229	42872.329295	3945.094871	23010.211657
37.039500	-0.000350	0.000728	-0.002130	0.002521	7133.933913	43054.297521	3941.647487	23096.916179
37.536500	0.001303	0.000036	-0.005853	0.002557	7149.760478	42987.157829	3932.221589	23095.269384
38.034500	-0.000932	0.000183	-0.002642	0.003455	7119.153523	42918.059646	3938.011147	23053.536186
38.534500	-0.001921	0.000406	0.000570	0.004526	7099.140827	42840.147398	3943.398833	23003.866420
39.035500	-0.000887	-0.000079	-0.001954	0.002222	7131.609147	43007.389829	3942.844274	23110.843180
39.535500	-0.001204	0.000237	-0.001288	0.002708	7123.768470	42991.729988	3943.298529	23088.207659
40.038500	-0.001805	0.000283	0.003677	0.002758	7117.439544	42991.379906	3955.766995	23085.903692
40.536000	-0.002277	0.000270	-0.001249	0.004160	7099.240780	42861.223539	3939.739943	23020.812943
41.036500	-0.001528	0.000096	-0.001523	0.002336	7124.240222	43013.049971	3943.643389	23105.531871
41.539000	-0.000726	0.000295	0.001646	0.002350	7131.928622	43030.094777	3951.633212	23104.856743
42.037000	0.000784	0.000041	0.000567	0.002423	7145.991601	42999.959997	3948.711984	23101.497368
42.537500	-0.002524	-0.000070	-0.003665	0.003714	7101.162819	42871.001990	3934.798025	23041.505770
43.034500	-0.001232	0.000783	-0.004204	0.002912	7121.514407	43023.300564	3935.456262	23078.741494
43.535000	-0.001035	0.000223	0.000081	0.001737	7134.907408	43080.088862	3949.216795	23133.438663
44.036500	0.000755	-0.000135	0.002398	0.000009	7169.410664	43206.705812	3959.523556	23214.104980
44.536000	-0.005197	-0.000496	-0.001938	0.004162	7071.011113	42790.699521	3938.002574	23020.712172
45.036500	0.001976	0.000010	0.004581	0.001220	7169.516695	43108.128755	3962.014733	23157.537187
45.536500	0.002225	0.000498	-0.002387	0.001392	7170.274472	43137.351114	3943.847372	23149.522776
46.036500	0.000796	-0.000248	-0.000592	0.000585	7164.156026	43142.961543	3950.432070	23187.199604
46.536500	-0.003274	0.000906	-0.006312	0.005421	7077.410743	42803.819983	3923.953918	22962.454599
47.039000	-0.001632	0.000202	-0.003496	0.001634	7130.081339	43087.589557	3940.440716	23138.238717
47.537000	-0.002165	-0.000203	-0.002987	0.002846	7113.075888	42938.541861	3938.674273	23081.822080
48.037500	-0.003619	-0.000202	-0.003383	0.002654	7100.827928	42956.301846	3938.161182	23090.745713
48.535000	-0.001438	0.000549	0.000510	0.005197	7097.318051	42791.643748	3941.557184	22972.805133
49.035500	-0.000524	0.000556	-0.007009	0.001340	7143.785168	43147.508084	3932.370195	23151.928050
49.535500	0.001819	0.000440	0.002218	-0.000752	7187.427851	43330.645557	3961.012909	23249.753054
50.036000	-0.000736	0.000510	-0.000071	0.005013	7105.908797	42804.975698	3940.555359	22981.303151
50.536000	-0.005098	-0.001013	0.002469	0.010890	7007.699617	42132.039681	3932.191154	22711.301151
51.036500	-0.049689	-0.006678	0.014866	0.215762	5208.817031	27089.445013	3543.935595	15257.712473
51.537000	-0.039356	-0.015016	-0.001473	-0.079587	7576.639968	49671.354786	4171.309746	27301.795487
52.037500	-0.021425	-0.017280	-0.004537	-0.143354	8546.460438	56775.397508	4369.866362	31162.323678
52.534500	-0.018577	-0.013088	-0.001241	-0.111032	8175.379149	53401.121126	4271.460043	29134.731562
53.034500	-0.014468	-0.010473	-0.000732	-0.091394	7989.760686	51462.772246	4210.108808	27974.505894
53.535000	0.003019	-0.009429	-0.002221	-0.123042	8600.529837	55253.635698	4308.080789	29870.575460
54.035500	0.012748	-0.008912	-0.000379	-0.139261	8952.066674	57307.625704	4370.095443	30897.150464
54.535500	0.018384	-0.005910	0.005477	-0.123990	8819.077551	55794.158666	4337.448238	29929.539598
55.036000	0.011522	-0.004214	0.010327	-0.084064	8213.612694	51343.444319	4221.859392	27554.759160
55.539500	0.014848	-0.001861	0.011966	-0.069298	8075.234936	49980.523377	4180.945945	26730.320715
56.036500	0.010161	-0.000063	0.014637	-0.032067	7598.231708	46297.696444	4078.961435	24771.851048
56.537000	0.014386	0.001189	0.022408	-0.013701	7447.433506	44623.819532	4049.289561	23865.908149
57.037000	0.022615	0.004199	0.023172	-0.003734	7429.229406	43962.010475	4024.095058	23390.039506
57.534500	0.024381	0.005853	0.031544	0.006782	7338.711245	43134.119975	4018.301350	22899.664449
58.035500	0.029178	0.009662	0.031821	0.030070	7153.318381	41372.759622	3957.893258	21855.079031
58.536000	0.038662	0.012823	0.042546	0.041144	7137.730656	40679.397934	3956.999329	21377.628596
59.035500	0.045332	0.015925	0.049023	0.057347	7045.529396	39558.976732	3932.432784	20700.673483
59.536500	0.054363	0.020687	0.053305	0.071786	6994.121384	38752.918951	3907.360515	20118.358796
60.039000	0.059685	0.024284	0.068911	0.103477	6752.394682	36511.763123	3868.830349	18906.088404
60.536500	0.066555	0.029241	0.077459	0.115518	6706.698436	35969.225632	3860.652708	18468.218813
61.036000	0.079950	0.037142	0.091320	0.122572	6762.816901	36033.593911	3876.654352	18217.277463
61.537500	0.091008	0.043594	0.103905	0.141151	6696.341782	35123.321563	3862.550990	17575.502849
62.037500	0.102931	0.050243	0.113364	0.146499	6754.393600	35219.702840	3872.203353	17395.792423
62.535500	0.114953	0.057076	0.128969	0.165053	6696.718077	34361.123918	3865.270645	16789.219090
63.035000	0.130277	0.065008	0.139507	0.173693	6755.737609	34310.008726	3869.726533	16515.463659
63.535500	0.142156	0.072806	0.149233	0.178133	6822.512539	34553.260961	3882.242716	16376.919748
64.035500	0.153781	0.079432	0.169300	0.187628	6841.844238	34345.288276	3907.732264	16085.282766
64.539000	0.163068	0.086651	0.173046	0.194349	6865.254407	34381.310434	3900.497231	15882.699664
65.036000	0.169159	0.092171	0.185012	0.198689	6881.311413	34466.814344	3919.148815	15753.533749
65.536500	0.189672	0.100274	0.195396	0.196287	7097.517759	35237.807670	3951.160625	15824.864092
66.039500	0.194777	0.104363	0.193615	0.210347	7011.663509	34505.511656	3911.636829	15412.880567
66.537000	0.199522	0.106471	0.202736	0.218285	6981.472178	34085.056511	3914.536885	15186.087310
67.037500	0.203460	0.108660	0.202336	0.225810	6947.823293	33705.124143	3895.247341	14974.909962
67.535500	0.209581	0.112767	0.211343	0.233606	6932.205725	33445.202873	3898.170669	14759.946548
68.045000	0.212524	0.115040	0.216385	0.243281	6870.058144	32930.379436	3887.026182	14498.506968
68.535500	0.215183	0.116788	0.214455	0.255548	6782.987457	32213.477520	3853.600002	14175.249532
69.036000	0.223731	0.119119	0.229078	0.258072	6837.345154	32200.496531	3882.016338	14109.872265
69.536500	0.226206	0.123083	0.226865	0.267564	6774.097147	31830.864524	3854.512779	13867.350243
70.036500	0.230200	0.125367	0.230468	0.278131	6715.772150	31285.766632	3838.497226	13603.537543
70.536000	0.230571	0.127087	0.232575	0.290274	6613.485043	30614.429265	3815.865715	13308.193904
71.037000	0.236412	0.127640	0.237473	0.291456	6653.637217	30574.420488	3824.182892	13279.883401
71.537000	0.239186	0.130242	0.245930	0.300100	6603.117173	30193.126703	3823.765079	13075.181299
72.037000	0.239720	0.131904	0.247118	0.309372	6529.182366	29720.397922	3805.765862	12860.093231
72.535000	0.239763	0.133257	0.246051	0.321149	6432.189078	29086.026098	3777.843975	12593.407858
73.035500	0.245990	0.135306	0.256376	0.322258	6474.174701	29142.623141	3797.794596	12568.669101
73.535500	0.248549	0.138342	0.257254	0.329921	6432.311809	28865.318372	3783.066133	12399.438194
74.036000	0.251895	0.140514	0.263384	0.338955	6386.229682	28459.494760	3776.833372	12203.715129
74.536000	0.250364	0.139877	0.263264	0.347131	6308.969982	27947.558697	3759.253241	12030.047933
75.037000	0.254553	0.141831	0.263920	0.347010	6343.060085	28067.181242	3760.885124	12032.603584
75.536500	0.256702	0.143280	0.273497	0.352228	6318.751818	27850.349502	3770.095472	11923.431509
76.037000	0.260002	0.147046	0.274350	0.360642	6278.626720	27585.543694	3754.179087	11750.161799
76.537500	0.255377	0.144854	0.273683	0.367217	6192.377597	27093.726690	3739.189456	11617.068378
77.035000	0.262258	0.147421	0.275740	0.366560	6250.177334	27273.425967	3744.776839	11630.265831
77.535000	0.264218	0.149944	0.278810	0.371619	6226.288693	27131.956841	3740.675659	11529.061815
78.035500	0.264896	0.150592	0.280668	0.377199	6188.857294	26859.187353	3733.057671	11418.814117
78.538500	0.265917	0.152612	0.286003	0.385442	6134.466148	26519.408984	3727.148786	11258.497365
79.036000	0.269696	0.153944	0.290867	0.383045	6180.928769	26722.432055	3741.975677	11304.810285
79.536500	0.273334	0.154588	0.291259	0.386540	6182.012791	26567.068219	3735.609319	11237.382871
80.036500	0.274892	0.155076	0.295835	0.389805	6169.102757	26416.676978	3738.294254	11174.879270
80.537000	0.267924	0.155543	0.288402	0.396754	6065.715917	26069.413112	3709.283992	11043.397237
81.037000	0.278959	0.158004	0.299241	0.395372	6157.792026	26274.650805	3733.872106	11069.377483
81.535000	0.281726	0.160162	0.299435	0.399321	6148.922616	26178.836792	3726.245098	10995.372999
82.035000	0.281395	0.160953	0.298800	0.401695	6128.691486	26094.359617	3720.178586	10951.194246
82.535500	0.280806	0.161812	0.298814	0.409816	6064.395427	25710.980300	3704.043122	10801.894465
83.038500	0.284922	0.163537	0.303077	0.406352	6120.271841	25984.286566	3719.415621	10865.237288
83.535500	0.289167	0.164834	0.301849	0.408971	6132.387534	25914.302842	3711.727004	10817.291504
84.036500	0.289948	0.165941	0.312156	0.411502	6119.355956	25839.245669	3727.336468	10771.250155
84.536500	0.291013	0.166802	0.315214	0.413626	6111.491119	25772.827565	3729.230860	10732.805126
85.036000	0.295370	0.168335	0.315534	0.416678	6121.176114	25693.219674	3723.701488	10677.894447
85.537500	0.295432	0.169196	0.312128	0.417483	6115.659908	25696.199774	3715.250422	10663.477553
86.034500	0.299310	0.171604	0.319721	0.422072	6110.386346	25582.410132	3721.272074	10581.809279
86.538000	0.301297	0.171263	0.324347	0.422889	6119.068053	25522.181495	3728.966319	10567.351929
87.035000	0.297808	0.171644	0.321606	0.424200	6083.586757	25473.946059	3720.784012	10544.221368
87.535500	0.304590	0.172240	0.321678	0.426588	6116.057547	25381.328945	3716.140890	10502.263586
88.035500	0.304129	0.171835	0.320827	0.428347	6099.612537	25269.945802	3710.937288	10471.502412
88.536000	0.302232	0.174399	0.322265	0.436445	6026.603100	24987.636230	3697.799154	10331.480009
89.036500	0.307665	0.175066	0.331441	0.433058	6090.938339	25194.083105	3722.748051	10389.718541
89.553500	0.308330	0.175480	0.331952	0.434392	6086.015182	25147.087779	3721.093257	10366.729964
90.037000	0.311214	0.176453	0.323941	0.436227	6093.742812	25103.142462	3701.515503	10335.219905
90.537000	0.316124	0.179883	0.327856	0.440741	6096.664977	25047.966272	3700.337651	10258.254945
91.034500	0.313438	0.178877	0.331672	0.441564	6070.863833	24955.193041	3706.235037	10244.308575
91.535000	0.317001	0.180340	0.331625	0.443424	6083.359033	24935.076728	3702.472623	10212.882080
92.035000	0.318707	0.181718	0.336785	0.446652	6072.194057	24841.766170	3706.283873	10158.683557
92.535500	0.319163	0.182482	0.332394	0.448502	6061.994670	24787.141278	3694.034106	10127.783202
93.036000	0.322203	0.184849	0.343052	0.451552	6061.918730	24752.848911	3708.990600	10077.148902
93.536000	0.323223	0.183748	0.339932	0.452797	6060.278320	24635.592454	3700.378000	10056.589122
94.036500	0.324073	0.184866	0.338608	0.453970	6057.922179	24632.776528	3695.488446	10037.256664
94.537000	0.324103	0.186298	0.342160	0.456485	6039.855534	24578.903234	3697.515678	9996.008273
95.037000	0.325013	0.185922	0.341622	0.457654	6037.973961	24502.143552	3694.182644	9976.905119
95.537000	0.324326	0.186597	0.345203	0.459658	6018.537713	24436.395820	3697.261878	9944.289689
96.035000	0.328867	0.187026	0.347283	0.462720	6029.204998	24306.637783	3695.342387	9894.740307
96.535000	0.325913	0.188836	0.341139	0.469452	5959.986870	24066.275522	3670.582377	9787.039537
97.038000	0.329070	0.187987	0.344210	0.465247	6012.458399	24229.882038	3684.482427	9854.118614
97.535500	0.329348	0.187718	0.350047	0.466388	6006.258280	24160.991278	3693.579628	9835.852453
