sample name	sample
index	53
start time	 02-11-2021  02:37:36 PM


Wavelength (nm)	Absorbance
494.344910	NaN
494.563924	NaN
494.782919	NaN
495.001897	-0.336711
495.220856	0.685108
495.439797	0.586091
495.658719	0.475918
495.877624	0.109561
496.096510	0.171119
496.315378	0.329025
496.534227	0.197431
496.753059	0.217616
496.971872	0.413495
497.190667	0.161650
497.409444	0.120153
497.628203	0.120619
497.846943	0.127241
498.065665	0.132995
498.284369	0.130327
498.503055	0.128649
498.721723	0.128079
498.940372	0.128241
499.159003	0.127727
499.377616	0.131148
499.596210	0.131233
499.814787	0.129905
500.033345	0.128548
500.251885	0.129726
500.470406	0.130337
500.688910	0.126426
500.907395	0.122352
501.125862	0.120988
501.344311	0.123136
501.562742	0.123289
501.781154	0.123549
501.999548	0.121057
502.217924	0.119510
502.436282	0.121438
502.654621	0.123136
502.872942	0.125422
503.091245	0.125822
503.309530	0.122782
503.527797	0.121031
503.746045	0.121407
503.964275	0.123309
504.182487	0.123914
504.400681	0.122378
504.618856	0.123656
504.837013	0.123268
505.055152	0.124529
505.273273	0.124610
505.491376	0.126907
505.709460	0.127868
505.927526	0.128095
506.145574	0.126875
506.363604	0.126782
506.581615	0.126807
506.799608	0.126781
507.017583	0.127775
507.235540	0.128779
507.453478	0.127852
507.671399	0.126112
507.889301	0.124596
508.107185	0.126947
508.325050	0.127200
508.542898	0.127106
508.760727	0.128709
508.978538	0.128921
509.196330	0.128313
509.414105	0.129582
509.631861	0.129709
509.849599	0.131634
510.067319	0.129560
510.285021	0.129255
510.502704	0.130065
510.720369	0.130784
510.938016	0.129181
511.155645	0.128938
511.373255	0.127806
511.590848	0.130249
511.808422	0.130213
512.025977	0.131357
512.243515	0.131933
512.461034	0.130613
512.678536	0.130132
512.896018	0.131907
513.113483	0.132556
513.330930	0.132022
513.548358	0.130807
513.765768	0.130346
513.983160	0.130261
514.200533	0.131052
514.417889	0.132951
514.635226	0.131355
514.852545	0.131500
515.069845	0.132372
515.287128	0.133714
515.504392	0.133843
515.721638	0.133801
515.938866	0.134460
516.156075	0.133696
516.373267	0.132698
516.590440	0.132760
516.807594	0.132659
517.024731	0.133091
517.241850	0.133727
517.458950	0.134729
517.676032	0.135019
517.893095	0.134480
518.110141	0.135191
518.327168	0.135839
518.544177	0.137521
518.761168	0.137177
518.978141	0.135810
519.195095	0.134478
519.412031	0.133156
519.628949	0.133509
519.845849	0.134472
520.062731	0.134433
520.279594	0.135034
520.496439	0.134976
520.713266	0.134286
520.930074	0.135590
521.146865	0.136856
521.363637	0.137918
521.580391	0.137812
521.797127	0.138278
522.013844	0.138715
522.230543	0.138667
522.447224	0.137966
522.663887	0.138490
522.880532	0.138576
523.097158	0.139092
523.313766	0.139672
523.530356	0.140295
523.746928	0.140561
523.963481	0.139482
524.180017	0.140073
524.396534	0.141456
524.613032	0.142680
524.829513	0.141923
525.045975	0.141560
525.262420	0.142376
525.478845	0.141537
525.695253	0.141975
525.911643	0.143257
526.128014	0.142828
526.344367	0.142078
526.560702	0.141937
526.777018	0.143231
526.993316	0.144769
527.209597	0.144622
527.425858	0.146749
527.642102	0.146386
527.858328	0.146126
528.074535	0.145784
528.290724	0.147362
528.506894	0.148688
528.723047	0.147823
528.939181	0.146217
529.155297	0.145869
529.371395	0.145248
529.587475	0.146210
529.803536	0.146668
530.019579	0.147530
530.235604	0.148573
530.451611	0.147829
530.667600	0.150050
530.883570	0.152166
531.099522	0.152807
531.315456	0.153715
531.531372	0.153275
531.747269	0.154299
531.963148	0.155112
532.179009	0.153682
532.394852	0.153503
532.610676	0.152985
532.826482	0.151885
533.042271	0.151832
533.258040	0.151252
533.473792	0.150926
533.689525	0.151827
533.905240	0.152296
534.120937	0.152478
534.336616	0.153323
534.552277	0.153994
534.767919	0.154365
534.983543	0.155207
535.199149	0.155750
535.414736	0.156845
535.630306	0.156053
535.845857	0.155078
536.061390	0.155248
536.276904	0.155950
536.492401	0.155000
536.707879	0.155122
536.923339	0.154030
537.138781	0.154230
537.354204	0.155427
537.569610	0.155410
537.784997	0.157267
538.000366	0.157881
538.215716	0.157007
538.431049	0.158240
538.646363	0.159395
538.861659	0.160733
539.076937	0.161802
539.292196	0.160657
539.507438	0.160216
539.722661	0.159015
539.937866	0.158887
540.153052	0.159907
540.368221	0.159780
540.583371	0.159786
540.798503	0.159751
541.013617	0.158885
541.228712	0.159748
541.443789	0.161556
541.658848	0.162049
541.873889	0.163121
542.088912	0.163233
542.303916	0.163555
542.518902	0.163392
542.733870	0.164339
542.948820	0.165283
543.163752	0.165171
543.378665	0.164406
543.593560	0.164299
543.808437	0.163127
544.023295	0.163294
544.238136	0.163808
544.452958	0.164322
544.667762	0.163660
544.882548	0.163945
545.097315	0.163429
545.312064	0.164404
545.526795	0.164199
545.741508	0.165141
545.956203	0.165770
546.170879	0.165126
546.385537	0.163766
546.600177	0.163672
546.814799	0.163160
547.029402	0.164412
547.243988	0.165272
547.458555	0.166225
547.673103	0.166457
547.887634	0.165135
548.102146	0.164722
548.316640	0.166445
548.531116	0.166834
548.745574	0.167535
548.960013	0.167295
549.174435	0.166366
549.388838	0.166592
549.603222	0.167240
549.817589	0.168925
550.031937	0.169226
550.246267	0.169015
550.460579	0.169924
550.674873	0.170609
550.889148	0.170898
551.103405	0.171494
551.317644	0.171528
551.531865	0.171477
551.746068	0.170654
551.960252	0.171777
552.174418	0.171938
552.388566	0.171766
552.602696	0.170617
552.816807	0.170792
553.030900	0.170288
553.244975	0.170670
553.459032	0.170429
553.673070	0.170467
553.887091	0.170558
554.101093	0.170931
554.315077	0.171153
554.529042	0.171872
554.742990	0.171992
554.956919	0.171808
555.170830	0.171583
555.384722	0.172095
555.598597	0.173073
555.812453	0.173809
556.026291	0.173438
556.240111	0.172432
556.453913	0.172000
556.667696	0.171220
556.881461	0.171792
557.095208	0.171368
557.308937	0.171235
557.522647	0.170654
557.736339	0.170007
557.950013	0.170935
558.163669	0.172154
558.377307	0.172704
558.590926	0.174028
558.804527	0.174418
559.018110	0.175931
559.231675	0.176126
559.445221	0.176156
559.658749	0.176324
559.872259	0.176189
560.085751	0.176273
560.299225	0.176254
560.512680	0.175716
560.726117	0.175769
560.939536	0.176231
561.152937	0.177149
561.366319	0.177944
561.579683	0.177167
561.793029	0.176929
562.006357	0.176452
562.219667	0.177157
562.432958	0.177456
562.646231	0.177224
562.859486	0.176378
563.072723	0.175624
563.285941	0.175428
563.499141	0.176658
563.712323	0.176844
563.925487	0.177491
564.138632	0.177160
564.351760	0.177038
564.564869	0.176782
564.777960	0.176975
564.991032	0.177124
565.204087	0.177547
565.417123	0.177014
565.630141	0.177214
565.843140	0.177118
566.056122	0.177739
566.269085	0.177495
566.482030	0.177839
566.694957	0.177962
566.907866	0.178057
567.120756	0.177986
567.333628	0.177920
567.546482	0.177997
567.759318	0.178026
567.972135	0.178325
568.184935	0.179063
568.397716	0.180183
568.610478	0.180008
568.823223	0.180178
569.035949	0.180563
569.248657	0.181302
569.461347	0.181614
569.674019	0.181903
569.886672	0.181337
570.099308	0.182032
570.311925	0.181097
570.524523	0.181809
570.737104	0.182219
570.949666	0.181912
571.162210	0.182401
571.374736	0.182539
571.587244	0.183054
571.799733	0.183573
572.012205	0.183615
572.224658	0.184438
572.437092	0.184534
572.649509	0.184551
572.861907	0.184524
573.074287	0.184510
573.286649	0.184288
573.498993	0.184399
573.711318	0.184319
573.923625	0.183910
574.135914	0.184028
574.348185	0.183558
574.560438	0.183503
574.772672	0.184226
574.984888	0.184376
575.197086	0.185490
575.409266	0.185052
575.621427	0.185193
575.833570	0.185983
576.045695	0.185671
576.257802	0.186626
576.469890	0.186446
576.681961	0.186463
576.894013	0.185644
577.106046	0.185114
577.318062	0.185504
577.530059	0.185361
577.742039	0.185318
577.954000	0.185936
578.165942	0.185231
578.377867	0.185366
578.589773	0.185148
578.801661	0.185919
579.013531	0.186038
579.225382	0.186174
579.437216	0.186584
579.649031	0.186706
579.860828	0.186665
580.072606	0.187384
580.284367	0.187526
580.496109	0.188166
580.707833	0.189058
580.919539	0.189228
581.131227	0.189750
581.342896	0.189282
581.554547	0.189545
581.766180	0.189317
581.977795	0.188745
582.189391	0.189511
582.400969	0.189393
582.612529	0.189032
582.824071	0.189017
583.035595	0.188373
583.247100	0.189003
583.458587	0.188534
583.670056	0.189624
583.881506	0.190524
584.092939	0.190946
584.304353	0.191745
584.515749	0.191907
584.727127	0.192497
584.938486	0.192822
585.149828	0.193313
585.361151	0.193583
585.572456	0.192444
585.783742	0.192426
585.995011	0.191670
586.206261	0.191322
586.417493	0.191438
586.628706	0.190703
586.839902	0.190864
587.051079	0.190346
587.262238	0.190727
587.473379	0.192409
587.684502	0.192672
587.895606	0.193082
588.106692	0.193304
588.317760	0.193067
588.528810	0.193687
588.739841	0.193731
588.950855	0.193732
589.161850	0.193337
589.372827	0.192226
589.583785	0.192281
589.794726	0.192610
590.005648	0.192266
590.216552	0.192500
590.427437	0.192564
590.638305	0.192580
590.849154	0.192857
591.059985	0.193052
591.270798	0.192995
591.481592	0.192939
591.692369	0.193289
591.903127	0.193818
592.113867	0.194260
592.324588	0.194570
592.535292	0.194742
592.745977	0.195347
592.956644	0.195968
593.167293	0.196167
593.377923	0.196125
593.588536	0.195309
593.799130	0.195154
594.009706	0.195578
594.220263	0.195060
594.430803	0.195224
594.641324	0.194929
594.851827	0.194709
595.062312	0.195075
595.272778	0.195300
595.483227	0.195970
595.693657	0.196332
595.904069	0.195651
596.114462	0.196517
596.324838	0.196925
596.535195	0.197277
596.745534	0.197654
596.955855	0.198013
597.166157	0.197934
597.376441	0.198017
597.586707	0.197993
597.796955	0.198327
598.007185	0.198068
598.217396	0.198169
598.427589	0.197720
598.637764	0.197345
598.847921	0.197207
599.058060	0.197721
599.268180	0.197722
599.478282	0.197769
599.688366	0.197732
599.898431	0.198005
600.108479	0.197496
600.318508	0.197923
600.528519	0.198112
600.738511	0.198402
600.948486	0.197980
601.158442	0.197984
601.368380	0.197847
601.578300	0.197955
601.788202	0.197941
601.998085	0.198363
602.207950	0.198344
602.417797	0.199025
602.627626	0.199447
602.837436	0.199752
603.047228	0.199707
603.257002	0.200035
603.466758	0.200121
603.676496	0.200468
603.886215	0.200384
604.095916	0.200710
604.305599	0.200418
604.515264	0.200172
604.724910	0.200292
604.934538	0.200555
605.144148	0.201051
605.353740	0.201749
605.563314	0.201622
605.772869	0.202148
605.982406	0.202385
606.191925	0.202897
606.401425	0.203076
606.610908	0.203185
606.820372	0.203310
607.029818	0.202807
607.239246	0.202767
607.448655	0.203183
607.658047	0.203341
607.867420	0.203559
608.076775	0.203185
608.286111	0.203292
608.495430	0.203648
608.704730	0.204025
608.914012	0.204483
609.123275	0.204399
609.332521	0.203720
609.541748	0.203673
609.750957	0.204036
609.960148	0.204247
610.169321	0.204828
610.378475	0.205071
610.587611	0.204982
610.796729	0.204747
611.005829	0.204429
611.214910	0.204940
611.423974	0.205002
611.633019	0.204480
611.842045	0.204231
612.051054	0.204182
612.260044	0.203901
612.469017	0.203682
612.677970	0.203820
612.886906	0.204217
613.095824	0.204525
613.304723	0.204553
613.513604	0.204989
613.722467	0.205058
613.931311	0.204468
614.140138	0.204972
614.348946	0.204963
614.557736	0.205556
614.766507	0.205620
614.975261	0.205689
615.183996	0.205412
615.392713	0.205345
615.601412	0.205714
615.810092	0.205884
616.018754	0.205325
616.227399	0.206446
616.436024	0.205946
616.644632	0.206136
616.853222	0.206586
617.061793	0.207043
617.270346	0.207253
617.478880	0.207846
617.687397	0.208613
617.895895	0.209403
618.104375	0.209293
618.312837	0.210619
618.521281	0.211136
618.729706	0.211330
618.938113	0.211831
619.146502	0.212179
619.354873	0.212004
619.563226	0.211970
619.771560	0.212214
619.979876	0.212399
620.188174	0.211607
620.396453	0.211653
620.604715	0.211396
620.812958	0.211177
621.021183	0.210872
621.229390	0.211050
621.437578	0.210969
621.645748	0.210773
621.853900	0.210826
622.062034	0.210875
622.270150	0.211144
622.478247	0.211385
622.686326	0.211938
622.894387	0.212132
623.102430	0.212338
623.310454	0.212509
623.518461	0.212756
623.726449	0.212972
623.934418	0.213287
624.142370	0.213076
624.350303	0.212808
624.558218	0.212681
624.766115	0.213010
624.973994	0.213455
625.181855	0.213761
625.389697	0.213983
625.597521	0.213893
625.805327	0.214300
626.013114	0.214784
626.220883	0.215007
626.428634	0.215267
626.636367	0.215596
626.844082	0.215429
627.051778	0.215012
627.259457	0.214929
627.467117	0.215287
627.674758	0.215087
627.882382	0.214814
628.089987	0.215155
628.297574	0.215415
628.505143	0.215508
628.712694	0.215515
628.920226	0.216096
629.127740	0.216207
629.335236	0.216263
629.542714	0.216082
629.750174	0.215907
629.957615	0.216231
630.165038	0.215975
630.372443	0.215998
630.579829	0.215829
630.787198	0.215835
630.994548	0.215920
631.201880	0.215819
631.409194	0.216548
631.616489	0.217050
631.823766	0.217026
632.031025	0.217483
632.238266	0.217034
632.445489	0.217520
632.652693	0.218199
632.859879	0.218301
633.067047	0.218737
633.274197	0.218790
633.481329	0.218691
633.688442	0.218793
633.895537	0.219022
634.102614	0.219642
634.309672	0.219829
634.516713	0.219897
634.723735	0.220216
634.930739	0.220715
635.137724	0.220644
635.344692	0.220626
635.551641	0.220570
635.758572	0.220627
635.965485	0.220856
636.172379	0.220641
636.379256	0.220525
636.586114	0.220583
636.792954	0.220070
636.999775	0.220497
637.206579	0.221005
637.413364	0.221327
637.620131	0.221614
637.826880	0.221449
638.033610	0.221472
638.240323	0.221857
638.447017	0.222288
638.653692	0.222774
638.860350	0.222571
639.066990	0.222890
639.273611	0.222983
639.480214	0.223085
639.686798	0.223523
639.893365	0.224120
640.099913	0.223924
640.306443	0.223854
640.512955	0.223701
640.719449	0.224319
640.925924	0.224294
641.132381	0.224557
641.338820	0.224250
641.545241	0.224369
641.751644	0.224238
641.958028	0.224590
642.164394	0.224869
642.370742	0.224970
642.577071	0.224833
642.783383	0.225056
642.989676	0.224803
643.195951	0.225251
643.402207	0.225517
643.608446	0.225824
643.814666	0.225558
644.020868	0.225532
644.227052	0.225767
644.433218	0.225942
644.639365	0.225973
644.845494	0.226622
645.051605	0.226595
645.257698	0.226688
645.463772	0.226989
645.669828	0.227037
645.875866	0.227063
646.081886	0.227306
646.287888	0.227348
646.493871	0.227556
646.699836	0.227375
646.905783	0.227769
647.111712	0.227999
647.317622	0.227947
647.523514	0.228450
647.729388	0.228759
647.935244	0.228921
648.141082	0.229032
648.346901	0.229111
648.552702	0.229377
648.758485	0.229555
648.964250	0.229376
649.169996	0.229485
649.375724	0.229776
649.581434	0.230008
649.787126	0.230137
649.992800	0.230313
650.198455	0.230817
650.404092	0.230820
650.609711	0.230840
650.815311	0.231066
651.020894	0.231435
651.226458	0.231496
651.432004	0.232142
651.637532	0.232212
651.843041	0.232461
652.048532	0.232295
652.254006	0.232736
652.459460	0.233004
652.664897	0.232919
652.870315	0.233115
653.075716	0.233385
653.281097	0.232895
653.486461	0.232859
653.691807	0.233110
653.897134	0.233419
654.102443	0.233716
654.307734	0.233888
654.513006	0.234737
654.718261	0.234545
654.923497	0.234649
655.128715	0.234658
655.333915	0.235017
655.539096	0.234839
655.744259	0.235099
655.949404	0.235330
656.154531	0.235180
656.359640	0.235068
656.564730	0.235555
656.769802	0.235636
656.974856	0.236066
657.179892	0.236162
657.384909	0.236573
657.589908	0.236353
657.794889	0.236299
657.999852	0.236840
658.204797	0.236992
658.409723	0.237141
658.614631	0.237231
658.819521	0.237472
659.024393	0.237809
659.229246	0.237990
659.434081	0.238465
659.638898	0.238900
659.843697	0.239415
660.048478	0.239553
660.253240	0.239770
660.457984	0.240067
660.662710	0.240224
660.867417	0.239963
661.072107	0.239864
661.276778	0.240214
661.481431	0.239949
661.686066	0.239532
661.890682	0.239761
662.095281	0.239899
662.299861	0.240002
662.504422	0.240141
662.708966	0.240561
662.913491	0.240907
663.117999	0.240755
663.322488	0.241077
663.526958	0.241118
663.731411	0.241488
663.935845	0.241985
664.140261	0.242532
664.344659	0.242558
664.549038	0.242711
664.753400	0.243259
664.957743	0.243592
665.162068	0.244028
665.366375	0.244220
665.570663	0.244096
665.774933	0.243885
665.979185	0.243872
666.183419	0.244676
666.387635	0.244937
666.591832	0.244601
666.796011	0.244777
667.000172	0.244959
667.204315	0.245579
667.408439	0.245772
667.612545	0.246106
667.816634	0.246503
668.020703	0.246277
668.224755	0.246900
668.428788	0.247397
668.632803	0.247247
668.836800	0.247118
669.040779	0.247143
669.244739	0.247431
669.448681	0.247777
669.652605	0.247613
669.856511	0.247991
670.060399	0.247687
670.264268	0.247977
670.468119	0.248692
670.671952	0.248799
670.875767	0.249048
671.079563	0.249397
671.283341	0.249389
671.487101	0.249811
671.690843	0.250009
671.894567	0.250536
672.098272	0.250667
672.301959	0.250563
672.505628	0.250787
672.709278	0.250741
672.912911	0.250824
673.116525	0.251093
673.320121	0.251056
673.523699	0.250901
673.727258	0.250826
673.930799	0.251029
674.134322	0.251023
674.337827	0.251300
674.541314	0.251400
674.744782	0.251476
674.948232	0.250921
675.151664	0.251155
675.355078	0.250854
675.558474	0.250920
675.761851	0.250720
675.965210	0.250779
676.168551	0.251208
676.371873	0.251957
676.575178	0.252014
676.778464	0.252971
676.981732	0.252820
677.184981	0.253395
677.388213	0.253408
677.591426	0.253943
677.794621	0.254367
677.997798	0.254200
678.200956	0.253911
678.404097	0.254007
678.607219	0.254139
678.810323	0.254433
679.013408	0.254714
679.216476	0.255131
679.419525	0.255141
679.622556	0.255325
679.825569	0.255848
680.028563	0.256308
680.231540	0.256991
680.434498	0.257048
680.637438	0.257444
680.840359	0.257498
681.043263	0.257670
681.246148	0.257885
681.449015	0.258102
681.651864	0.258428
681.854694	0.258371
682.057506	0.258030
682.260301	0.257873
682.463076	0.257992
682.665834	0.258317
682.868573	0.258888
683.071295	0.259505
683.273998	0.259409
683.476682	0.259393
683.679349	0.259423
683.881997	0.259771
684.084627	0.260158
684.287239	0.260353
684.489833	0.260210
684.692408	0.260476
684.894965	0.260581
685.097504	0.261398
685.300025	0.261481
685.502527	0.261957
685.705012	0.261924
685.907478	0.262062
686.109925	0.262314
686.312355	0.262703
686.514766	0.262185
686.717159	0.261814
686.919534	0.261676
687.121891	0.261736
687.324230	0.261821
687.526550	0.262328
687.728852	0.262553
687.931136	0.262682
688.133401	0.262805
688.335649	0.263525
688.537878	0.263573
688.740089	0.263415
688.942281	0.263011
689.144456	0.263097
689.346612	0.262619
689.548750	0.262712
689.750870	0.262835
689.952971	0.262846
690.155055	0.262983
690.357120	0.263306
690.559167	0.263675
690.761195	0.264269
690.963206	0.264374
691.165198	0.265173
691.367172	0.265560
691.569128	0.265561
691.771065	0.265908
691.972984	0.265941
692.174885	0.266180
692.376768	0.265907
692.578633	0.266134
692.780479	0.266350
692.982308	0.266169
693.184118	0.265894
693.385909	0.266143
693.587683	0.266216
