sample name	sample
index	1314
start time	 04-29-2021  04:31:10 PM


Wavelength (nm)	Absorbance
494.344910	-0.422764
494.563924	-0.422764
494.782919	-0.422764
495.001897	0.172830
495.220856	-0.113268
495.439797	-0.086706
495.658719	0.087853
495.877624	0.190411
496.096510	0.342702
496.315378	0.329452
496.534227	0.428572
496.753059	0.934041
496.971872	0.516615
497.190667	0.203590
497.409444	0.197342
497.628203	0.191449
497.846943	0.188490
498.065665	0.188385
498.284369	0.186676
498.503055	0.186532
498.721723	0.187013
498.940372	0.186668
499.159003	0.187845
499.377616	0.186045
499.596210	0.185940
499.814787	0.183772
500.033345	0.181762
500.251885	0.181107
500.470406	0.182115
500.688910	0.180218
500.907395	0.180371
501.125862	0.180331
501.344311	0.182594
501.562742	0.181864
501.781154	0.184151
501.999548	0.184335
502.217924	0.184663
502.436282	0.184456
502.654621	0.185206
502.872942	0.185168
503.091245	0.184621
503.309530	0.183720
503.527797	0.183535
503.746045	0.183192
503.964275	0.184008
504.182487	0.183657
504.400681	0.183436
504.618856	0.183813
504.837013	0.183524
505.055152	0.182503
505.273273	0.182373
505.491376	0.182716
505.709460	0.182045
505.927526	0.182903
506.145574	0.183934
506.363604	0.183959
506.581615	0.184255
506.799608	0.184855
507.017583	0.187106
507.235540	0.187734
507.453478	0.188269
507.671399	0.189733
507.889301	0.187655
508.107185	0.188624
508.325050	0.189731
508.542898	0.190460
508.760727	0.190905
508.978538	0.189958
509.196330	0.190475
509.414105	0.190400
509.631861	0.190336
509.849599	0.192354
510.067319	0.192330
510.285021	0.191465
510.502704	0.191758
510.720369	0.192208
510.938016	0.192811
511.155645	0.192533
511.373255	0.192858
511.590848	0.193390
511.808422	0.192772
512.025977	0.193091
512.243515	0.194169
512.461034	0.193829
512.678536	0.193508
512.896018	0.193113
513.113483	0.193809
513.330930	0.193232
513.548358	0.194049
513.765768	0.194687
513.983160	0.193456
514.200533	0.192465
514.417889	0.192487
514.635226	0.193354
514.852545	0.194333
515.069845	0.194428
515.287128	0.195236
515.504392	0.194249
515.721638	0.193142
515.938866	0.194257
516.156075	0.196306
516.373267	0.196440
516.590440	0.196229
516.807594	0.196738
517.024731	0.196358
517.241850	0.197235
517.458950	0.198288
517.676032	0.199668
517.893095	0.199951
518.110141	0.199817
518.327168	0.200169
518.544177	0.199917
518.761168	0.199084
518.978141	0.199290
519.195095	0.198923
519.412031	0.198729
519.628949	0.198193
519.845849	0.198558
520.062731	0.198360
520.279594	0.198471
520.496439	0.199390
520.713266	0.200088
520.930074	0.200000
521.146865	0.199761
521.363637	0.201270
521.580391	0.202489
521.797127	0.202751
522.013844	0.202487
522.230543	0.202847
522.447224	0.202857
522.663887	0.203716
522.880532	0.203692
523.097158	0.204677
523.313766	0.203758
523.530356	0.204028
523.746928	0.204254
523.963481	0.204721
524.180017	0.206046
524.396534	0.205999
524.613032	0.205640
524.829513	0.206517
525.045975	0.206998
525.262420	0.208022
525.478845	0.207857
525.695253	0.207791
525.911643	0.208886
526.128014	0.207898
526.344367	0.209127
526.560702	0.209151
526.777018	0.209979
526.993316	0.209951
527.209597	0.209773
527.425858	0.210984
527.642102	0.212215
527.858328	0.213054
528.074535	0.213289
528.290724	0.212609
528.506894	0.213250
528.723047	0.212897
528.939181	0.213885
529.155297	0.213977
529.371395	0.214424
529.587475	0.213714
529.803536	0.213142
530.019579	0.214029
530.235604	0.214760
530.451611	0.215375
530.667600	0.216263
530.883570	0.216690
531.099522	0.217528
531.315456	0.216809
531.531372	0.217665
531.747269	0.217939
531.963148	0.218922
532.179009	0.219701
532.394852	0.219940
532.610676	0.220705
532.826482	0.220908
533.042271	0.221332
533.258040	0.222370
533.473792	0.223014
533.689525	0.223372
533.905240	0.223232
534.120937	0.223294
534.336616	0.223243
534.552277	0.223835
534.767919	0.223966
534.983543	0.224354
535.199149	0.224647
535.414736	0.225357
535.630306	0.226081
535.845857	0.226991
536.061390	0.227362
536.276904	0.228661
536.492401	0.229318
536.707879	0.230132
536.923339	0.230655
537.138781	0.230756
537.354204	0.230379
537.569610	0.231040
537.784997	0.230949
538.000366	0.231311
538.215716	0.231359
538.431049	0.230781
538.646363	0.230352
538.861659	0.230091
539.076937	0.230919
539.292196	0.231308
539.507438	0.230914
539.722661	0.231281
539.937866	0.231650
540.153052	0.231903
540.368221	0.232353
540.583371	0.232903
540.798503	0.232977
541.013617	0.233656
541.228712	0.234035
541.443789	0.234628
541.658848	0.234845
541.873889	0.235445
542.088912	0.235407
542.303916	0.235737
542.518902	0.236051
542.733870	0.236448
542.948820	0.236135
543.163752	0.236701
543.378665	0.236734
543.593560	0.236585
543.808437	0.236912
544.023295	0.237534
544.238136	0.238277
544.452958	0.238508
544.667762	0.238953
544.882548	0.239556
545.097315	0.240264
545.312064	0.240820
545.526795	0.241494
545.741508	0.241142
545.956203	0.241373
546.170879	0.240701
546.385537	0.241310
546.600177	0.241724
546.814799	0.241912
547.029402	0.241247
547.243988	0.241592
547.458555	0.241769
547.673103	0.242279
547.887634	0.242484
548.102146	0.243745
548.316640	0.243947
548.531116	0.244599
548.745574	0.244909
548.960013	0.245859
549.174435	0.245776
549.388838	0.246001
549.603222	0.246604
549.817589	0.246920
550.031937	0.246298
550.246267	0.246916
550.460579	0.246680
550.674873	0.246962
550.889148	0.246913
551.103405	0.247403
551.317644	0.247424
551.531865	0.247784
551.746068	0.247431
551.960252	0.247750
552.174418	0.247990
552.388566	0.248877
552.602696	0.249247
552.816807	0.249648
553.030900	0.250293
553.244975	0.250565
553.459032	0.250721
553.673070	0.251456
553.887091	0.252178
554.101093	0.251740
554.315077	0.251068
554.529042	0.251121
554.742990	0.251587
554.956919	0.251424
555.170830	0.251809
555.384722	0.251829
555.598597	0.252177
555.812453	0.252514
556.026291	0.253197
556.240111	0.253971
556.453913	0.254169
556.667696	0.253693
556.881461	0.253772
557.095208	0.253707
557.308937	0.254072
557.522647	0.254473
557.736339	0.254568
557.950013	0.254536
558.163669	0.254688
558.377307	0.254685
558.590926	0.255723
558.804527	0.255370
559.018110	0.255905
559.231675	0.255700
559.445221	0.255606
559.658749	0.255585
559.872259	0.255920
560.085751	0.255786
560.299225	0.255980
560.512680	0.256077
560.726117	0.256923
560.939536	0.256415
561.152937	0.256876
561.366319	0.257012
561.579683	0.257429
561.793029	0.257476
562.006357	0.257969
562.219667	0.258000
562.432958	0.257949
562.646231	0.257870
562.859486	0.258696
563.072723	0.258493
563.285941	0.258874
563.499141	0.258875
563.712323	0.259192
563.925487	0.259221
564.138632	0.259576
564.351760	0.259529
564.564869	0.259831
564.777960	0.259797
564.991032	0.260213
565.204087	0.260083
565.417123	0.260061
565.630141	0.260558
565.843140	0.261056
566.056122	0.260948
566.269085	0.260868
566.482030	0.260815
566.694957	0.261417
566.907866	0.261740
567.120756	0.262355
567.333628	0.263348
567.546482	0.263016
567.759318	0.262732
567.972135	0.263058
568.184935	0.263531
568.397716	0.263584
568.610478	0.263529
568.823223	0.263603
569.035949	0.263282
569.248657	0.262812
569.461347	0.263453
569.674019	0.263489
569.886672	0.263788
570.099308	0.263725
570.311925	0.263940
570.524523	0.264014
570.737104	0.263858
570.949666	0.264159
571.162210	0.263678
571.374736	0.263378
571.587244	0.263906
571.799733	0.264093
572.012205	0.264369
572.224658	0.264944
572.437092	0.265306
572.649509	0.265506
572.861907	0.265422
573.074287	0.265821
573.286649	0.265616
573.498993	0.265755
573.711318	0.265714
573.923625	0.265510
574.135914	0.265365
574.348185	0.265179
574.560438	0.265568
574.772672	0.265961
574.984888	0.266420
575.197086	0.266832
575.409266	0.266913
575.621427	0.266905
575.833570	0.267693
576.045695	0.268085
576.257802	0.268487
576.469890	0.268468
576.681961	0.268368
576.894013	0.268336
577.106046	0.268582
577.318062	0.268679
577.530059	0.269267
577.742039	0.269259
577.954000	0.268948
578.165942	0.268887
578.377867	0.269120
578.589773	0.269780
578.801661	0.269839
579.013531	0.269714
579.225382	0.269446
579.437216	0.269202
579.649031	0.269274
579.860828	0.269427
580.072606	0.269611
580.284367	0.269933
580.496109	0.270006
580.707833	0.270246
580.919539	0.270466
581.131227	0.270321
581.342896	0.270565
581.554547	0.270290
581.766180	0.270720
581.977795	0.270923
582.189391	0.270917
582.400969	0.271151
582.612529	0.271085
582.824071	0.271153
583.035595	0.271892
583.247100	0.271894
583.458587	0.272553
583.670056	0.272668
583.881506	0.272758
584.092939	0.272507
584.304353	0.272165
584.515749	0.272632
584.727127	0.273150
584.938486	0.273423
585.149828	0.273667
585.361151	0.273487
585.572456	0.273850
585.783742	0.274421
585.995011	0.274996
586.206261	0.275531
586.417493	0.275756
586.628706	0.275442
586.839902	0.275457
587.051079	0.276092
587.262238	0.276142
587.473379	0.276228
587.684502	0.276163
587.895606	0.275925
588.106692	0.275857
588.317760	0.275991
588.528810	0.276544
588.739841	0.276892
588.950855	0.276811
589.161850	0.276976
589.372827	0.277145
589.583785	0.277081
589.794726	0.277896
590.005648	0.277886
590.216552	0.278053
590.427437	0.278016
590.638305	0.278088
590.849154	0.277933
591.059985	0.278127
591.270798	0.277722
591.481592	0.277668
591.692369	0.277422
591.903127	0.277350
592.113867	0.277181
592.324588	0.277332
592.535292	0.277456
592.745977	0.277736
592.956644	0.278288
593.167293	0.278726
593.377923	0.279226
593.588536	0.279344
593.799130	0.279478
594.009706	0.280070
594.220263	0.280255
594.430803	0.280628
594.641324	0.280651
594.851827	0.280710
595.062312	0.281026
595.272778	0.280774
595.483227	0.280849
595.693657	0.281137
595.904069	0.280984
596.114462	0.281552
596.324838	0.281700
596.535195	0.282018
596.745534	0.281590
596.955855	0.281692
597.166157	0.282222
597.376441	0.282420
597.586707	0.282637
597.796955	0.283111
598.007185	0.282982
598.217396	0.282640
598.427589	0.283049
598.637764	0.283734
598.847921	0.284193
599.058060	0.283666
599.268180	0.283843
599.478282	0.284012
599.688366	0.284244
599.898431	0.284162
600.108479	0.284176
600.318508	0.284048
600.528519	0.284207
600.738511	0.284060
600.948486	0.284715
601.158442	0.285115
601.368380	0.285500
601.578300	0.285264
601.788202	0.285440
601.998085	0.286254
602.207950	0.286587
602.417797	0.286583
602.627626	0.286904
602.837436	0.287396
603.047228	0.287530
603.257002	0.287592
603.466758	0.287620
603.676496	0.287873
603.886215	0.287949
604.095916	0.288551
604.305599	0.288704
604.515264	0.288706
604.724910	0.288493
604.934538	0.288060
605.144148	0.288266
605.353740	0.288635
605.563314	0.288786
605.772869	0.288850
605.982406	0.288521
606.191925	0.288921
606.401425	0.288931
606.610908	0.289119
606.820372	0.289653
607.029818	0.289459
607.239246	0.289472
607.448655	0.289599
607.658047	0.289754
607.867420	0.290117
608.076775	0.290208
608.286111	0.290605
608.495430	0.290833
608.704730	0.290841
608.914012	0.291397
609.123275	0.291691
609.332521	0.292155
609.541748	0.292221
609.750957	0.292107
609.960148	0.292327
610.169321	0.292482
610.378475	0.292712
610.587611	0.293038
610.796729	0.293210
611.005829	0.293318
611.214910	0.293084
611.423974	0.293442
611.633019	0.293910
611.842045	0.293631
612.051054	0.293339
612.260044	0.293572
612.469017	0.293851
612.677970	0.294253
612.886906	0.294476
613.095824	0.294734
613.304723	0.294799
613.513604	0.294412
613.722467	0.294819
613.931311	0.295343
614.140138	0.295202
614.348946	0.295200
614.557736	0.295008
614.766507	0.295339
614.975261	0.295494
615.183996	0.295691
615.392713	0.296024
615.601412	0.296119
615.810092	0.296218
616.018754	0.296538
616.227399	0.296849
616.436024	0.296859
616.644632	0.296828
616.853222	0.296577
617.061793	0.296738
617.270346	0.296925
617.478880	0.297028
617.687397	0.296996
617.895895	0.297249
618.104375	0.297114
618.312837	0.297143
618.521281	0.297167
618.729706	0.297656
618.938113	0.297484
619.146502	0.297714
619.354873	0.297784
619.563226	0.298204
619.771560	0.298127
619.979876	0.298293
620.188174	0.298510
620.396453	0.298731
620.604715	0.298771
620.812958	0.299039
621.021183	0.298866
621.229390	0.298920
621.437578	0.298930
621.645748	0.298873
621.853900	0.299260
622.062034	0.299455
622.270150	0.299294
622.478247	0.299182
622.686326	0.299204
622.894387	0.299123
623.102430	0.299159
623.310454	0.299141
623.518461	0.299650
623.726449	0.299657
623.934418	0.300025
624.142370	0.300412
624.350303	0.300662
624.558218	0.300734
624.766115	0.300910
624.973994	0.301194
625.181855	0.301474
625.389697	0.301503
625.597521	0.301396
625.805327	0.301606
626.013114	0.301829
626.220883	0.302003
626.428634	0.302419
626.636367	0.303073
626.844082	0.303291
627.051778	0.303603
627.259457	0.303833
627.467117	0.304139
627.674758	0.304178
627.882382	0.304150
628.089987	0.304386
628.297574	0.304306
628.505143	0.304076
628.712694	0.304420
628.920226	0.304449
629.127740	0.304589
629.335236	0.304986
629.542714	0.305006
629.750174	0.305538
629.957615	0.305721
630.165038	0.306180
630.372443	0.306499
630.579829	0.306662
630.787198	0.306595
630.994548	0.306958
631.201880	0.306982
631.409194	0.307141
631.616489	0.307025
631.823766	0.307111
632.031025	0.307159
632.238266	0.307275
632.445489	0.307350
632.652693	0.307640
632.859879	0.307555
633.067047	0.307829
633.274197	0.308115
633.481329	0.308603
633.688442	0.309199
633.895537	0.309260
634.102614	0.309657
634.309672	0.309832
634.516713	0.310176
634.723735	0.310410
634.930739	0.310457
635.137724	0.310811
635.344692	0.310802
635.551641	0.310878
635.758572	0.311309
635.965485	0.311372
636.172379	0.311721
636.379256	0.311769
636.586114	0.311909
636.792954	0.312080
636.999775	0.312047
637.206579	0.312259
637.413364	0.312210
637.620131	0.312447
637.826880	0.312968
638.033610	0.312956
638.240323	0.313432
638.447017	0.314026
638.653692	0.314353
638.860350	0.314701
639.066990	0.314907
639.273611	0.315263
639.480214	0.315499
639.686798	0.315521
639.893365	0.315918
640.099913	0.315818
640.306443	0.315708
640.512955	0.315928
640.719449	0.316028
640.925924	0.316074
641.132381	0.316268
641.338820	0.316276
641.545241	0.316274
641.751644	0.316173
641.958028	0.316480
642.164394	0.316605
642.370742	0.316872
642.577071	0.316892
642.783383	0.317236
642.989676	0.317166
643.195951	0.317168
643.402207	0.317593
643.608446	0.318078
643.814666	0.318257
644.020868	0.318381
644.227052	0.318188
644.433218	0.318498
644.639365	0.318905
644.845494	0.319123
645.051605	0.319572
645.257698	0.319617
645.463772	0.319961
645.669828	0.320464
645.875866	0.320622
646.081886	0.321015
646.287888	0.321016
646.493871	0.320914
646.699836	0.320948
646.905783	0.320926
647.111712	0.320958
647.317622	0.320778
647.523514	0.320680
647.729388	0.321070
647.935244	0.321075
648.141082	0.321353
648.346901	0.321514
648.552702	0.322080
648.758485	0.322523
648.964250	0.322800
649.169996	0.323032
649.375724	0.323163
649.581434	0.323189
649.787126	0.323566
649.992800	0.323633
650.198455	0.324060
650.404092	0.324255
650.609711	0.324109
650.815311	0.324338
651.020894	0.324625
651.226458	0.324885
651.432004	0.324997
651.637532	0.325280
651.843041	0.325446
652.048532	0.325453
652.254006	0.325636
652.459460	0.326146
652.664897	0.326304
652.870315	0.326300
653.075716	0.326462
653.281097	0.326680
653.486461	0.326847
653.691807	0.327369
653.897134	0.327293
654.102443	0.327341
654.307734	0.327461
654.513006	0.327455
654.718261	0.327710
654.923497	0.328056
655.128715	0.328324
655.333915	0.328325
655.539096	0.328381
655.744259	0.328611
655.949404	0.328648
656.154531	0.328547
656.359640	0.329042
656.564730	0.329126
656.769802	0.329041
656.974856	0.329084
657.179892	0.329637
657.384909	0.329914
657.589908	0.330241
657.794889	0.330695
657.999852	0.331343
658.204797	0.331724
658.409723	0.332048
658.614631	0.332177
658.819521	0.332310
659.024393	0.332582
659.229246	0.333069
659.434081	0.333315
659.638898	0.333703
659.843697	0.333612
660.048478	0.333728
660.253240	0.333842
660.457984	0.334406
660.662710	0.335044
660.867417	0.335000
661.072107	0.334843
661.276778	0.335308
661.481431	0.335563
661.686066	0.335949
661.890682	0.336274
662.095281	0.336776
662.299861	0.337328
662.504422	0.337646
662.708966	0.337921
662.913491	0.338500
663.117999	0.338487
663.322488	0.338632
663.526958	0.338943
663.731411	0.338946
663.935845	0.339133
664.140261	0.339089
664.344659	0.339318
664.549038	0.339336
664.753400	0.339517
664.957743	0.339895
665.162068	0.340002
665.366375	0.339998
665.570663	0.340607
665.774933	0.340924
665.979185	0.340708
666.183419	0.340743
666.387635	0.341197
666.591832	0.341367
666.796011	0.341623
667.000172	0.341885
667.204315	0.342139
667.408439	0.342140
667.612545	0.342065
667.816634	0.342481
668.020703	0.342311
668.224755	0.342420
668.428788	0.342443
668.632803	0.342309
668.836800	0.342723
669.040779	0.342977
669.244739	0.342821
669.448681	0.343061
669.652605	0.343329
669.856511	0.343830
670.060399	0.344298
670.264268	0.344685
670.468119	0.344856
670.671952	0.345007
670.875767	0.345173
671.079563	0.345508
671.283341	0.345810
671.487101	0.346288
671.690843	0.346438
671.894567	0.346478
672.098272	0.346569
672.301959	0.347026
672.505628	0.347297
672.709278	0.347700
672.912911	0.347876
673.116525	0.347873
673.320121	0.347780
673.523699	0.347991
673.727258	0.348147
673.930799	0.348161
674.134322	0.348371
674.337827	0.348319
674.541314	0.348063
674.744782	0.348578
674.948232	0.349192
675.151664	0.349377
675.355078	0.349641
675.558474	0.349788
675.761851	0.350186
675.965210	0.350371
676.168551	0.350633
676.371873	0.351164
676.575178	0.351141
676.778464	0.351029
676.981732	0.351136
677.184981	0.351469
677.388213	0.351793
677.591426	0.352180
677.794621	0.352519
677.997798	0.352587
678.200956	0.352936
678.404097	0.353322
678.607219	0.353603
678.810323	0.354083
679.013408	0.354178
679.216476	0.354313
679.419525	0.354082
679.622556	0.354180
679.825569	0.354786
680.028563	0.355122
680.231540	0.355246
680.434498	0.355710
680.637438	0.355811
680.840359	0.355924
681.043263	0.356210
681.246148	0.356665
681.449015	0.356821
681.651864	0.356843
681.854694	0.356922
682.057506	0.357141
682.260301	0.357189
682.463076	0.357393
682.665834	0.357826
682.868573	0.358204
683.071295	0.358327
683.273998	0.358558
683.476682	0.358909
683.679349	0.359000
683.881997	0.359274
684.084627	0.359475
684.287239	0.359871
684.489833	0.359964
684.692408	0.359963
684.894965	0.360245
685.097504	0.360771
685.300025	0.360889
685.502527	0.361055
685.705012	0.361082
685.907478	0.361166
686.109925	0.361270
686.312355	0.361979
686.514766	0.362607
686.717159	0.362970
686.919534	0.362852
687.121891	0.363109
687.324230	0.363507
687.526550	0.363975
687.728852	0.364443
687.931136	0.364576
688.133401	0.364444
688.335649	0.364510
688.537878	0.364755
688.740089	0.365293
688.942281	0.365432
689.144456	0.365630
689.346612	0.365611
689.548750	0.365986
689.750870	0.366453
689.952971	0.366821
690.155055	0.366871
690.357120	0.366812
690.559167	0.366862
690.761195	0.366770
690.963206	0.366814
691.165198	0.367037
691.367172	0.367131
691.569128	0.367278
691.771065	0.367123
691.972984	0.367246
692.174885	0.367685
692.376768	0.367793
692.578633	0.368022
692.780479	0.368308
692.982308	0.368770
693.184118	0.368541
693.385909	0.368378
