sample name	sample
index	613
start time	 03-19-2021  02:02:13 PM


Wavelength (nm)	Absorbance
494.344910	-0.015939
494.563924	-0.015939
494.782919	-0.015939
495.001897	-0.088178
495.220856	-0.040265
495.439797	-0.051600
495.658719	-0.059768
495.877624	-0.094947
496.096510	-0.053982
496.315378	-0.047848
496.534227	-0.044957
496.753059	-0.052519
496.971872	-0.014244
497.190667	0.054849
497.409444	0.064870
497.628203	0.070598
497.846943	0.070525
498.065665	0.070697
498.284369	0.071863
498.503055	0.072263
498.721723	0.073105
498.940372	0.073867
499.159003	0.073517
499.377616	0.074441
499.596210	0.073660
499.814787	0.075065
500.033345	0.074602
500.251885	0.074477
500.470406	0.074648
500.688910	0.074923
500.907395	0.074636
501.125862	0.075272
501.344311	0.075475
501.562742	0.075097
501.781154	0.074509
501.999548	0.074852
502.217924	0.074420
502.436282	0.073756
502.654621	0.073544
502.872942	0.073636
503.091245	0.073626
503.309530	0.072763
503.527797	0.074060
503.746045	0.073603
503.964275	0.073861
504.182487	0.074551
504.400681	0.075843
504.618856	0.075269
504.837013	0.075127
505.055152	0.075650
505.273273	0.076176
505.491376	0.074702
505.709460	0.075378
505.927526	0.075301
506.145574	0.074948
506.363604	0.074294
506.581615	0.074981
506.799608	0.074884
507.017583	0.073816
507.235540	0.073017
507.453478	0.073119
507.671399	0.072455
507.889301	0.072115
508.107185	0.072004
508.325050	0.071474
508.542898	0.070584
508.760727	0.070310
508.978538	0.070468
509.196330	0.070787
509.414105	0.071488
509.631861	0.071584
509.849599	0.072015
510.067319	0.072204
510.285021	0.072716
510.502704	0.073345
510.720369	0.073202
510.938016	0.073095
511.155645	0.073366
511.373255	0.073153
511.590848	0.073361
511.808422	0.073647
512.025977	0.073445
512.243515	0.073296
512.461034	0.073398
512.678536	0.074157
512.896018	0.074241
513.113483	0.074046
513.330930	0.074776
513.548358	0.075011
513.765768	0.074629
513.983160	0.074822
514.200533	0.074931
514.417889	0.074906
514.635226	0.074192
514.852545	0.073805
515.069845	0.073952
515.287128	0.073528
515.504392	0.073353
515.721638	0.073369
515.938866	0.073877
516.156075	0.073853
516.373267	0.073673
516.590440	0.074481
516.807594	0.074602
517.024731	0.074719
517.241850	0.074393
517.458950	0.074425
517.676032	0.074657
517.893095	0.074743
518.110141	0.074583
518.327168	0.074560
518.544177	0.074080
518.761168	0.074638
518.978141	0.075008
519.195095	0.075017
519.412031	0.075192
519.628949	0.075711
519.845849	0.075274
520.062731	0.075206
520.279594	0.075615
520.496439	0.075652
520.713266	0.075481
520.930074	0.074861
521.146865	0.075631
521.363637	0.075844
521.580391	0.075191
521.797127	0.074981
522.013844	0.075627
522.230543	0.075406
522.447224	0.075443
522.663887	0.075344
522.880532	0.075954
523.097158	0.075173
523.313766	0.074979
523.530356	0.075381
523.746928	0.075431
523.963481	0.075142
524.180017	0.075483
524.396534	0.075655
524.613032	0.076011
524.829513	0.075544
525.045975	0.075866
525.262420	0.076434
525.478845	0.076070
525.695253	0.076822
525.911643	0.077324
526.128014	0.076895
526.344367	0.077301
526.560702	0.077636
526.777018	0.077954
526.993316	0.078183
527.209597	0.077870
527.425858	0.077913
527.642102	0.077532
527.858328	0.077172
528.074535	0.078332
528.290724	0.077848
528.506894	0.077884
528.723047	0.078391
528.939181	0.078395
529.155297	0.078441
529.371395	0.078951
529.587475	0.079820
529.803536	0.080103
530.019579	0.079784
530.235604	0.080132
530.451611	0.079931
530.667600	0.079306
530.883570	0.079234
531.099522	0.079335
531.315456	0.079287
531.531372	0.078686
531.747269	0.078745
531.963148	0.078187
532.179009	0.077965
532.394852	0.077887
532.610676	0.078441
532.826482	0.078488
533.042271	0.078682
533.258040	0.078411
533.473792	0.078790
533.689525	0.078932
533.905240	0.079878
534.120937	0.080128
534.336616	0.080577
534.552277	0.080510
534.767919	0.080920
534.983543	0.080696
535.199149	0.081410
535.414736	0.081732
535.630306	0.081372
535.845857	0.080629
536.061390	0.080869
536.276904	0.081073
536.492401	0.081526
536.707879	0.081351
536.923339	0.081257
537.138781	0.081300
537.354204	0.081141
537.569610	0.081578
537.784997	0.081639
538.000366	0.081863
538.215716	0.081664
538.431049	0.081225
538.646363	0.081475
538.861659	0.082421
539.076937	0.082497
539.292196	0.082332
539.507438	0.082322
539.722661	0.082933
539.937866	0.083156
540.153052	0.083357
540.368221	0.083331
540.583371	0.083314
540.798503	0.083272
541.013617	0.083115
541.228712	0.082893
541.443789	0.083537
541.658848	0.083601
541.873889	0.083324
542.088912	0.082951
542.303916	0.082942
542.518902	0.083224
542.733870	0.082898
542.948820	0.082744
543.163752	0.083019
543.378665	0.082973
543.593560	0.082773
543.808437	0.082935
544.023295	0.083583
544.238136	0.084231
544.452958	0.084285
544.667762	0.084411
544.882548	0.085356
545.097315	0.085138
545.312064	0.084915
545.526795	0.084771
545.741508	0.084806
545.956203	0.085036
546.170879	0.085134
546.385537	0.085078
546.600177	0.085338
546.814799	0.084891
547.029402	0.085198
547.243988	0.085115
547.458555	0.085607
547.673103	0.085932
547.887634	0.085759
548.102146	0.085423
548.316640	0.085425
548.531116	0.085932
548.745574	0.086045
548.960013	0.086132
549.174435	0.086275
549.388838	0.086371
549.603222	0.086041
549.817589	0.086037
550.031937	0.086433
550.246267	0.086768
550.460579	0.086465
550.674873	0.086819
550.889148	0.087304
551.103405	0.087300
551.317644	0.087025
551.531865	0.087728
551.746068	0.087795
551.960252	0.087919
552.174418	0.088157
552.388566	0.088010
552.602696	0.087350
552.816807	0.087017
553.030900	0.087204
553.244975	0.087396
553.459032	0.086873
553.673070	0.086904
553.887091	0.087274
554.101093	0.086834
554.315077	0.086794
554.529042	0.087018
554.742990	0.087112
554.956919	0.087055
555.170830	0.087332
555.384722	0.087532
555.598597	0.087532
555.812453	0.087420
556.026291	0.087845
556.240111	0.087871
556.453913	0.088084
556.667696	0.088281
556.881461	0.088927
557.095208	0.088854
557.308937	0.089065
557.522647	0.089417
557.736339	0.089315
557.950013	0.089245
558.163669	0.089367
558.377307	0.089433
558.590926	0.089715
558.804527	0.089331
559.018110	0.089899
559.231675	0.089777
559.445221	0.089452
559.658749	0.089367
559.872259	0.089629
560.085751	0.089988
560.299225	0.090073
560.512680	0.089898
560.726117	0.090000
560.939536	0.089456
561.152937	0.089551
561.366319	0.089739
561.579683	0.090068
561.793029	0.089954
562.006357	0.089886
562.219667	0.089649
562.432958	0.089533
562.646231	0.089512
562.859486	0.089482
563.072723	0.089904
563.285941	0.089854
563.499141	0.089469
563.712323	0.089318
563.925487	0.089018
564.138632	0.089537
564.351760	0.089811
564.564869	0.090034
564.777960	0.090311
564.991032	0.090102
565.204087	0.090365
565.417123	0.090748
565.630141	0.090807
565.843140	0.090907
566.056122	0.090761
566.269085	0.090683
566.482030	0.090456
566.694957	0.090771
566.907866	0.090287
567.120756	0.090294
567.333628	0.090203
567.546482	0.090678
567.759318	0.090868
567.972135	0.090806
568.184935	0.090697
568.397716	0.090730
568.610478	0.090703
568.823223	0.091367
569.035949	0.091602
569.248657	0.091398
569.461347	0.091282
569.674019	0.091320
569.886672	0.091577
570.099308	0.092022
570.311925	0.091935
570.524523	0.091522
570.737104	0.091232
570.949666	0.091196
571.162210	0.091539
571.374736	0.091505
571.587244	0.091509
571.799733	0.091412
572.012205	0.091084
572.224658	0.091229
572.437092	0.091470
572.649509	0.091590
572.861907	0.091621
573.074287	0.091555
573.286649	0.091736
573.498993	0.091526
573.711318	0.091832
573.923625	0.092111
574.135914	0.092460
574.348185	0.092565
574.560438	0.092672
574.772672	0.092737
574.984888	0.092627
575.197086	0.092662
575.409266	0.093070
575.621427	0.092944
575.833570	0.093016
576.045695	0.092858
576.257802	0.092774
576.469890	0.092820
576.681961	0.092942
576.894013	0.093320
577.106046	0.093178
577.318062	0.093408
577.530059	0.093751
577.742039	0.093769
577.954000	0.093870
578.165942	0.093959
578.377867	0.094258
578.589773	0.094303
578.801661	0.094486
579.013531	0.094717
579.225382	0.094638
579.437216	0.094302
579.649031	0.094124
579.860828	0.094375
580.072606	0.094511
580.284367	0.094186
580.496109	0.093959
580.707833	0.093714
580.919539	0.093732
581.131227	0.094045
581.342896	0.093995
581.554547	0.094297
581.766180	0.093934
581.977795	0.093786
582.189391	0.093995
582.400969	0.093866
582.612529	0.093869
582.824071	0.093558
583.035595	0.093288
583.247100	0.093511
583.458587	0.093247
583.670056	0.093729
583.881506	0.093995
584.092939	0.094261
584.304353	0.094476
584.515749	0.094523
584.727127	0.094978
584.938486	0.095143
585.149828	0.095178
585.361151	0.095580
585.572456	0.095396
585.783742	0.095369
585.995011	0.095046
586.206261	0.095318
586.417493	0.095732
586.628706	0.095356
586.839902	0.095182
587.051079	0.095133
587.262238	0.095000
587.473379	0.095131
587.684502	0.094972
587.895606	0.095523
588.106692	0.095521
588.317760	0.095248
588.528810	0.095475
588.739841	0.095624
588.950855	0.095677
589.161850	0.095878
589.372827	0.095926
589.583785	0.096122
589.794726	0.096047
590.005648	0.096095
590.216552	0.096504
590.427437	0.096697
590.638305	0.096716
590.849154	0.096785
591.059985	0.096969
591.270798	0.097082
591.481592	0.097133
591.692369	0.096995
591.903127	0.097088
592.113867	0.096925
592.324588	0.097015
592.535292	0.097329
592.745977	0.097361
592.956644	0.097343
593.167293	0.097253
593.377923	0.097685
593.588536	0.097417
593.799130	0.097511
594.009706	0.097646
594.220263	0.097371
594.430803	0.097163
594.641324	0.097254
594.851827	0.097327
595.062312	0.097298
595.272778	0.097123
595.483227	0.097542
595.693657	0.097436
595.904069	0.097359
596.114462	0.097572
596.324838	0.097533
596.535195	0.097687
596.745534	0.097506
596.955855	0.097373
597.166157	0.097581
597.376441	0.097615
597.586707	0.097394
597.796955	0.097473
598.007185	0.097856
598.217396	0.097795
598.427589	0.098039
598.637764	0.097982
598.847921	0.098237
599.058060	0.098186
599.268180	0.098241
599.478282	0.098559
599.688366	0.098489
599.898431	0.098297
600.108479	0.098511
600.318508	0.098577
600.528519	0.098887
600.738511	0.099045
600.948486	0.098906
601.158442	0.098703
601.368380	0.098592
601.578300	0.098476
601.788202	0.098623
601.998085	0.098703
602.207950	0.098459
602.417797	0.098401
602.627626	0.098460
602.837436	0.098569
603.047228	0.098698
603.257002	0.098684
603.466758	0.098982
603.676496	0.098811
603.886215	0.098747
604.095916	0.098789
604.305599	0.098630
604.515264	0.098574
604.724910	0.098723
604.934538	0.098613
605.144148	0.098734
605.353740	0.098505
605.563314	0.098584
605.772869	0.098820
605.982406	0.098649
606.191925	0.098804
606.401425	0.098799
606.610908	0.098572
606.820372	0.098562
607.029818	0.098494
607.239246	0.098877
607.448655	0.099006
607.658047	0.099033
607.867420	0.099131
608.076775	0.099002
608.286111	0.099291
608.495430	0.099284
608.704730	0.099480
608.914012	0.099839
609.123275	0.099462
609.332521	0.099401
609.541748	0.099404
609.750957	0.099720
609.960148	0.099874
610.169321	0.099917
610.378475	0.100222
610.587611	0.100476
610.796729	0.100435
611.005829	0.100647
611.214910	0.100814
611.423974	0.100715
611.633019	0.100609
611.842045	0.100694
612.051054	0.100451
612.260044	0.100398
612.469017	0.100350
612.677970	0.100331
612.886906	0.100299
613.095824	0.100205
613.304723	0.100301
613.513604	0.100315
613.722467	0.100436
613.931311	0.100415
614.140138	0.100268
614.348946	0.100166
614.557736	0.100167
614.766507	0.100303
614.975261	0.100250
615.183996	0.100264
615.392713	0.100148
615.601412	0.100132
615.810092	0.100125
616.018754	0.100446
616.227399	0.100586
616.436024	0.100370
616.644632	0.100215
616.853222	0.100375
617.061793	0.100307
617.270346	0.100410
617.478880	0.100559
617.687397	0.100699
617.895895	0.100769
618.104375	0.100682
618.312837	0.100966
618.521281	0.101290
618.729706	0.101314
618.938113	0.101542
619.146502	0.101591
619.354873	0.101436
619.563226	0.101442
619.771560	0.101387
619.979876	0.101443
620.188174	0.101439
620.396453	0.101540
620.604715	0.101472
620.812958	0.101434
621.021183	0.101598
621.229390	0.101752
621.437578	0.101815
621.645748	0.101820
621.853900	0.101691
622.062034	0.101944
622.270150	0.101895
622.478247	0.101950
622.686326	0.102076
622.894387	0.102036
623.102430	0.102019
623.310454	0.102228
623.518461	0.102211
623.726449	0.102385
623.934418	0.102321
624.142370	0.102352
624.350303	0.102429
624.558218	0.102363
624.766115	0.102519
624.973994	0.102530
625.181855	0.102458
625.389697	0.102542
625.597521	0.102463
625.805327	0.102853
626.013114	0.102763
626.220883	0.102877
626.428634	0.102854
626.636367	0.102876
626.844082	0.102741
627.051778	0.102790
627.259457	0.102787
627.467117	0.103088
627.674758	0.102852
627.882382	0.102815
628.089987	0.102795
628.297574	0.103024
628.505143	0.102829
628.712694	0.103171
628.920226	0.103261
629.127740	0.103427
629.335236	0.103576
629.542714	0.103511
629.750174	0.103628
629.957615	0.103807
630.165038	0.103897
630.372443	0.104023
630.579829	0.103957
630.787198	0.103972
630.994548	0.104147
631.201880	0.104034
631.409194	0.103961
631.616489	0.104116
631.823766	0.104031
632.031025	0.103865
632.238266	0.103932
632.445489	0.103908
632.652693	0.103946
632.859879	0.103798
633.067047	0.103883
633.274197	0.103901
633.481329	0.103823
633.688442	0.103779
633.895537	0.103777
634.102614	0.103944
634.309672	0.103872
634.516713	0.103904
634.723735	0.103740
634.930739	0.103698
635.137724	0.103838
635.344692	0.103914
635.551641	0.103848
635.758572	0.103887
635.965485	0.104076
636.172379	0.104397
636.379256	0.104290
636.586114	0.104482
636.792954	0.104591
636.999775	0.104563
637.206579	0.104559
637.413364	0.104786
637.620131	0.104961
637.826880	0.104605
638.033610	0.104520
638.240323	0.104372
638.447017	0.104516
638.653692	0.104591
638.860350	0.104582
639.066990	0.104588
639.273611	0.104600
639.480214	0.104626
639.686798	0.104891
639.893365	0.104955
640.099913	0.105379
640.306443	0.105266
640.512955	0.105159
640.719449	0.105416
640.925924	0.105628
641.132381	0.105736
641.338820	0.105682
641.545241	0.105615
641.751644	0.105537
641.958028	0.105729
642.164394	0.105932
642.370742	0.105937
642.577071	0.105753
642.783383	0.105671
642.989676	0.105492
643.195951	0.105517
643.402207	0.105678
643.608446	0.105831
643.814666	0.105691
644.020868	0.105578
644.227052	0.105806
644.433218	0.105991
644.639365	0.106127
644.845494	0.106560
645.051605	0.106667
645.257698	0.106527
645.463772	0.106545
645.669828	0.106539
645.875866	0.106592
646.081886	0.106425
646.287888	0.106540
646.493871	0.106666
646.699836	0.106386
646.905783	0.106495
647.111712	0.106616
647.317622	0.106629
647.523514	0.106801
647.729388	0.106934
647.935244	0.107340
648.141082	0.107374
648.346901	0.107313
648.552702	0.107373
648.758485	0.107510
648.964250	0.107797
649.169996	0.107951
649.375724	0.107992
649.581434	0.108147
649.787126	0.107957
649.992800	0.107943
650.198455	0.107977
650.404092	0.108215
650.609711	0.108206
650.815311	0.107967
651.020894	0.107871
651.226458	0.107659
651.432004	0.107536
651.637532	0.107672
651.843041	0.107656
652.048532	0.107615
652.254006	0.107639
652.459460	0.107713
652.664897	0.107847
652.870315	0.108061
653.075716	0.108202
653.281097	0.108180
653.486461	0.108098
653.691807	0.108002
653.897134	0.108014
654.102443	0.107723
654.307734	0.107742
654.513006	0.108067
654.718261	0.107987
654.923497	0.108023
655.128715	0.108077
655.333915	0.108268
655.539096	0.108480
655.744259	0.108749
655.949404	0.109061
656.154531	0.108989
656.359640	0.108641
656.564730	0.108855
656.769802	0.109083
656.974856	0.109317
657.179892	0.109248
657.384909	0.109267
657.589908	0.109136
657.794889	0.109340
657.999852	0.109526
658.204797	0.109705
658.409723	0.109602
658.614631	0.109607
658.819521	0.109590
659.024393	0.109721
659.229246	0.109778
659.434081	0.109789
659.638898	0.109726
659.843697	0.109457
660.048478	0.109527
660.253240	0.109571
660.457984	0.109506
660.662710	0.109448
660.867417	0.109199
661.072107	0.109354
661.276778	0.109505
661.481431	0.109356
661.686066	0.109608
661.890682	0.109610
662.095281	0.109705
662.299861	0.109852
662.504422	0.109975
662.708966	0.110203
662.913491	0.110384
663.117999	0.110455
663.322488	0.110648
663.526958	0.110717
663.731411	0.110846
663.935845	0.110782
664.140261	0.110896
664.344659	0.111009
664.549038	0.111192
664.753400	0.111100
664.957743	0.111150
665.162068	0.111287
665.366375	0.111141
665.570663	0.111205
665.774933	0.111623
665.979185	0.111659
666.183419	0.111654
666.387635	0.111658
666.591832	0.111684
666.796011	0.111866
667.000172	0.111907
667.204315	0.112281
667.408439	0.112431
667.612545	0.112169
667.816634	0.111934
668.020703	0.111994
668.224755	0.112093
668.428788	0.112201
668.632803	0.112036
668.836800	0.112084
669.040779	0.112069
669.244739	0.111879
669.448681	0.112180
669.652605	0.112420
669.856511	0.112383
670.060399	0.112408
670.264268	0.112472
670.468119	0.112474
670.671952	0.112480
670.875767	0.112690
671.079563	0.112689
671.283341	0.112617
671.487101	0.112752
671.690843	0.112931
671.894567	0.112982
672.098272	0.112939
672.301959	0.113025
672.505628	0.112872
672.709278	0.112612
672.912911	0.112794
673.116525	0.112753
673.320121	0.112548
673.523699	0.112492
673.727258	0.112483
673.930799	0.112479
674.134322	0.112692
674.337827	0.112871
674.541314	0.112986
674.744782	0.113204
674.948232	0.113295
675.151664	0.113602
675.355078	0.113816
675.558474	0.113968
675.761851	0.114111
675.965210	0.114091
676.168551	0.114259
676.371873	0.114338
676.575178	0.114304
676.778464	0.114403
676.981732	0.114193
677.184981	0.114095
677.388213	0.114024
677.591426	0.113899
677.794621	0.113965
677.997798	0.113986
678.200956	0.114039
678.404097	0.114019
678.607219	0.114014
678.810323	0.114227
679.013408	0.114353
679.216476	0.114549
679.419525	0.114707
679.622556	0.114844
679.825569	0.114995
680.028563	0.115066
680.231540	0.115073
680.434498	0.115094
680.637438	0.115275
680.840359	0.115297
681.043263	0.115390
681.246148	0.115375
681.449015	0.115429
681.651864	0.115537
681.854694	0.115595
682.057506	0.115790
682.260301	0.115992
682.463076	0.115963
682.665834	0.115948
682.868573	0.115830
683.071295	0.116039
683.273998	0.115861
683.476682	0.115684
683.679349	0.115735
683.881997	0.115628
684.084627	0.115524
684.287239	0.115468
684.489833	0.115607
684.692408	0.115835
684.894965	0.115749
685.097504	0.115841
685.300025	0.115970
685.502527	0.115946
685.705012	0.116088
685.907478	0.116155
686.109925	0.116212
686.312355	0.116167
686.514766	0.116057
686.717159	0.116248
686.919534	0.116315
687.121891	0.116295
687.324230	0.116282
687.526550	0.116279
687.728852	0.116182
687.931136	0.116199
688.133401	0.116382
688.335649	0.116412
688.537878	0.116204
688.740089	0.116456
688.942281	0.116755
689.144456	0.116799
689.346612	0.116731
689.548750	0.116875
689.750870	0.117041
689.952971	0.116966
690.155055	0.116979
690.357120	0.117346
690.559167	0.117496
690.761195	0.117251
690.963206	0.117296
691.165198	0.117449
691.367172	0.117681
691.569128	0.117625
691.771065	0.117742
691.972984	0.117811
692.174885	0.117844
692.376768	0.117684
692.578633	0.117573
692.780479	0.117663
692.982308	0.117483
693.184118	0.117464
693.385909	0.117590
