sample name	sample
index	1462
start time	 05-10-2021  01:59:17 PM


Wavelength (nm)	Absorbance
494.344910	-0.016986
494.563924	-0.016986
494.782919	-0.016986
495.001897	-0.002060
495.220856	-0.024569
495.439797	-0.013760
495.658719	-0.008246
495.877624	-0.007561
496.096510	-0.011831
496.315378	-0.007510
496.534227	-0.004289
496.753059	0.006863
496.971872	0.001101
497.190667	0.056564
497.409444	0.074547
497.628203	0.082090
497.846943	0.084263
498.065665	0.091198
498.284369	0.092624
498.503055	0.094859
498.721723	0.097023
498.940372	0.096738
499.159003	0.096969
499.377616	0.098053
499.596210	0.098779
499.814787	0.100800
500.033345	0.099793
500.251885	0.099468
500.470406	0.099860
500.688910	0.099157
500.907395	0.100020
501.125862	0.099950
501.344311	0.099499
501.562742	0.099274
501.781154	0.099019
501.999548	0.099285
502.217924	0.100295
502.436282	0.099304
502.654621	0.100334
502.872942	0.099720
503.091245	0.100142
503.309530	0.100616
503.527797	0.101961
503.746045	0.102049
503.964275	0.101019
504.182487	0.100429
504.400681	0.101728
504.618856	0.100860
504.837013	0.102764
505.055152	0.102646
505.273273	0.102987
505.491376	0.101446
505.709460	0.101710
505.927526	0.102241
506.145574	0.103397
506.363604	0.102388
506.581615	0.103365
506.799608	0.102676
507.017583	0.102602
507.235540	0.101588
507.453478	0.102203
507.671399	0.102330
507.889301	0.102011
508.107185	0.102267
508.325050	0.102231
508.542898	0.101697
508.760727	0.101606
508.978538	0.101479
509.196330	0.102177
509.414105	0.102726
509.631861	0.102888
509.849599	0.104279
510.067319	0.104304
510.285021	0.104620
510.502704	0.104632
510.720369	0.104806
510.938016	0.105582
511.155645	0.105290
511.373255	0.105863
511.590848	0.105733
511.808422	0.105676
512.025977	0.105336
512.243515	0.106090
512.461034	0.105799
512.678536	0.106436
512.896018	0.106254
513.113483	0.107004
513.330930	0.106271
513.548358	0.106395
513.765768	0.106488
513.983160	0.107199
514.200533	0.106702
514.417889	0.107055
514.635226	0.106963
514.852545	0.107458
515.069845	0.107399
515.287128	0.108107
515.504392	0.108236
515.721638	0.107993
515.938866	0.107830
516.156075	0.108880
516.373267	0.109382
516.590440	0.109220
516.807594	0.108581
517.024731	0.108524
517.241850	0.108266
517.458950	0.109059
517.676032	0.109601
517.893095	0.109869
518.110141	0.109959
518.327168	0.110315
518.544177	0.111132
518.761168	0.111904
518.978141	0.111503
519.195095	0.111077
519.412031	0.111010
519.628949	0.111210
519.845849	0.111995
520.062731	0.112448
520.279594	0.112216
520.496439	0.112273
520.713266	0.112679
520.930074	0.113166
521.146865	0.113969
521.363637	0.114702
521.580391	0.114430
521.797127	0.114488
522.013844	0.114742
522.230543	0.114998
522.447224	0.114825
522.663887	0.114960
522.880532	0.115308
523.097158	0.115495
523.313766	0.115416
523.530356	0.115652
523.746928	0.115746
523.963481	0.116250
524.180017	0.116854
524.396534	0.118535
524.613032	0.118598
524.829513	0.119443
525.045975	0.120042
525.262420	0.120208
525.478845	0.120588
525.695253	0.120981
525.911643	0.120731
526.128014	0.121217
526.344367	0.120237
526.560702	0.120621
526.777018	0.120989
526.993316	0.121603
527.209597	0.122114
527.425858	0.122806
527.642102	0.123615
527.858328	0.123893
528.074535	0.123108
528.290724	0.123934
528.506894	0.124251
528.723047	0.124290
528.939181	0.124398
529.155297	0.124072
529.371395	0.124834
529.587475	0.123877
529.803536	0.123851
530.019579	0.125209
530.235604	0.125244
530.451611	0.125781
530.667600	0.125947
530.883570	0.125773
531.099522	0.126061
531.315456	0.125816
531.531372	0.126265
531.747269	0.127202
531.963148	0.127868
532.179009	0.127829
532.394852	0.128070
532.610676	0.128897
532.826482	0.129298
533.042271	0.129765
533.258040	0.130144
533.473792	0.130675
533.689525	0.130960
533.905240	0.130466
534.120937	0.131379
534.336616	0.131800
534.552277	0.131247
534.767919	0.131692
534.983543	0.131878
535.199149	0.132050
535.414736	0.132518
535.630306	0.132656
535.845857	0.133306
536.061390	0.133267
536.276904	0.133385
536.492401	0.133533
536.707879	0.134116
536.923339	0.134854
537.138781	0.135004
537.354204	0.135382
537.569610	0.135534
537.784997	0.135963
538.000366	0.136293
538.215716	0.136576
538.431049	0.137368
538.646363	0.137291
538.861659	0.137991
539.076937	0.138513
539.292196	0.138382
539.507438	0.138456
539.722661	0.138942
539.937866	0.139660
540.153052	0.139809
540.368221	0.140054
540.583371	0.140727
540.798503	0.140852
541.013617	0.141041
541.228712	0.141531
541.443789	0.141763
541.658848	0.141103
541.873889	0.140848
542.088912	0.141221
542.303916	0.141759
542.518902	0.140943
542.733870	0.140638
542.948820	0.141131
543.163752	0.141508
543.378665	0.142205
543.593560	0.142800
543.808437	0.143149
544.023295	0.143360
544.238136	0.143808
544.452958	0.144574
544.667762	0.144715
544.882548	0.144785
545.097315	0.144635
545.312064	0.144419
545.526795	0.144706
545.741508	0.144993
545.956203	0.144766
546.170879	0.144655
546.385537	0.145269
546.600177	0.145640
546.814799	0.145382
547.029402	0.145974
547.243988	0.146122
547.458555	0.146709
547.673103	0.146826
547.887634	0.147697
548.102146	0.147628
548.316640	0.147838
548.531116	0.147602
548.745574	0.148150
548.960013	0.148292
549.174435	0.148729
549.388838	0.148564
549.603222	0.148442
549.817589	0.148519
550.031937	0.149198
550.246267	0.149367
550.460579	0.150081
550.674873	0.150185
550.889148	0.150497
551.103405	0.150815
551.317644	0.151173
551.531865	0.151946
551.746068	0.152096
551.960252	0.152132
552.174418	0.152094
552.388566	0.152029
552.602696	0.152399
552.816807	0.152056
553.030900	0.151858
553.244975	0.151884
553.459032	0.151529
553.673070	0.151147
553.887091	0.151115
554.101093	0.151212
554.315077	0.151310
554.529042	0.151600
554.742990	0.151936
554.956919	0.152181
555.170830	0.151970
555.384722	0.152155
555.598597	0.152353
555.812453	0.152936
556.026291	0.153495
556.240111	0.153395
556.453913	0.153131
556.667696	0.153166
556.881461	0.153193
557.095208	0.153725
557.308937	0.153879
557.522647	0.154546
557.736339	0.154130
557.950013	0.153681
558.163669	0.154098
558.377307	0.154158
558.590926	0.154271
558.804527	0.154058
559.018110	0.154062
559.231675	0.154258
559.445221	0.154056
559.658749	0.154052
559.872259	0.153853
560.085751	0.154061
560.299225	0.154129
560.512680	0.154669
560.726117	0.155148
560.939536	0.155526
561.152937	0.155538
561.366319	0.155804
561.579683	0.155964
561.793029	0.156456
562.006357	0.156635
562.219667	0.157041
562.432958	0.156692
562.646231	0.156927
562.859486	0.156530
563.072723	0.156634
563.285941	0.156428
563.499141	0.156643
563.712323	0.156987
563.925487	0.156824
564.138632	0.156874
564.351760	0.157471
564.564869	0.157706
564.777960	0.158253
564.991032	0.158723
565.204087	0.159254
565.417123	0.159256
565.630141	0.159311
565.843140	0.159679
566.056122	0.159703
566.269085	0.159327
566.482030	0.159254
566.694957	0.158965
566.907866	0.158832
567.120756	0.158608
567.333628	0.159087
567.546482	0.159059
567.759318	0.159121
567.972135	0.159439
568.184935	0.159864
568.397716	0.160196
568.610478	0.160344
568.823223	0.160640
569.035949	0.160832
569.248657	0.160859
569.461347	0.161150
569.674019	0.161165
569.886672	0.161338
570.099308	0.161053
570.311925	0.160849
570.524523	0.160939
570.737104	0.161088
570.949666	0.161107
571.162210	0.161347
571.374736	0.161346
571.587244	0.161847
571.799733	0.161676
572.012205	0.161896
572.224658	0.162221
572.437092	0.162287
572.649509	0.162409
572.861907	0.162575
573.074287	0.162550
573.286649	0.162201
573.498993	0.162039
573.711318	0.162141
573.923625	0.162344
574.135914	0.162271
574.348185	0.163022
574.560438	0.162536
574.772672	0.162670
574.984888	0.162612
575.197086	0.163142
575.409266	0.163210
575.621427	0.163612
575.833570	0.163794
576.045695	0.163832
576.257802	0.163541
576.469890	0.164126
576.681961	0.164265
576.894013	0.164649
577.106046	0.164685
577.318062	0.164654
577.530059	0.164687
577.742039	0.164952
577.954000	0.164961
578.165942	0.165267
578.377867	0.165537
578.589773	0.165405
578.801661	0.165151
579.013531	0.165269
579.225382	0.165762
579.437216	0.165894
579.649031	0.165926
579.860828	0.166056
580.072606	0.166012
580.284367	0.165940
580.496109	0.166334
580.707833	0.166345
580.919539	0.166614
581.131227	0.166682
581.342896	0.167141
581.554547	0.166933
581.766180	0.167108
581.977795	0.167223
582.189391	0.167336
582.400969	0.167703
582.612529	0.167983
582.824071	0.168031
583.035595	0.167710
583.247100	0.167490
583.458587	0.167723
583.670056	0.167705
583.881506	0.167690
584.092939	0.167967
584.304353	0.167976
584.515749	0.168341
584.727127	0.168529
584.938486	0.168895
585.149828	0.169280
585.361151	0.169789
585.572456	0.170860
585.783742	0.171294
585.995011	0.171435
586.206261	0.171526
586.417493	0.171746
586.628706	0.172059
586.839902	0.172267
587.051079	0.172361
587.262238	0.172954
587.473379	0.172923
587.684502	0.172659
587.895606	0.172862
588.106692	0.173079
588.317760	0.173012
588.528810	0.173272
588.739841	0.173511
588.950855	0.173672
589.161850	0.173381
589.372827	0.173059
589.583785	0.173603
589.794726	0.173478
590.005648	0.173733
590.216552	0.174121
590.427437	0.174061
590.638305	0.174381
590.849154	0.174564
591.059985	0.174604
591.270798	0.175141
591.481592	0.175345
591.692369	0.175467
591.903127	0.175252
592.113867	0.175125
592.324588	0.175453
592.535292	0.175259
592.745977	0.175172
592.956644	0.175074
593.167293	0.174829
593.377923	0.175240
593.588536	0.175413
593.799130	0.175773
594.009706	0.176165
594.220263	0.175812
594.430803	0.176272
594.641324	0.176151
594.851827	0.176341
595.062312	0.176790
595.272778	0.176491
595.483227	0.176602
595.693657	0.176825
595.904069	0.176525
596.114462	0.176713
596.324838	0.176430
596.535195	0.176826
596.745534	0.176791
596.955855	0.176652
597.166157	0.176971
597.376441	0.177299
597.586707	0.177666
597.796955	0.178228
598.007185	0.178605
598.217396	0.178530
598.427589	0.178632
598.637764	0.178807
598.847921	0.179379
599.058060	0.179418
599.268180	0.179431
599.478282	0.179440
599.688366	0.179229
599.898431	0.179270
600.108479	0.179689
600.318508	0.179639
600.528519	0.180274
600.738511	0.180265
600.948486	0.180110
601.158442	0.180419
601.368380	0.180298
601.578300	0.180658
601.788202	0.180668
601.998085	0.181069
602.207950	0.181260
602.417797	0.181159
602.627626	0.181170
602.837436	0.181694
603.047228	0.181522
603.257002	0.181723
603.466758	0.181996
603.676496	0.182146
603.886215	0.182064
604.095916	0.182384
604.305599	0.182573
604.515264	0.182761
604.724910	0.182690
604.934538	0.182907
605.144148	0.183071
605.353740	0.183366
605.563314	0.183811
605.772869	0.184209
605.982406	0.184495
606.191925	0.184710
606.401425	0.184793
606.610908	0.185085
606.820372	0.185407
607.029818	0.185317
607.239246	0.185284
607.448655	0.185324
607.658047	0.185176
607.867420	0.185371
608.076775	0.185222
608.286111	0.185503
608.495430	0.185502
608.704730	0.185298
608.914012	0.185258
609.123275	0.185331
609.332521	0.185377
609.541748	0.185957
609.750957	0.185791
609.960148	0.185890
610.169321	0.185897
610.378475	0.185934
610.587611	0.186214
610.796729	0.186594
611.005829	0.186546
611.214910	0.186594
611.423974	0.186382
611.633019	0.186520
611.842045	0.186828
612.051054	0.186977
612.260044	0.187220
612.469017	0.187578
612.677970	0.187616
612.886906	0.187838
613.095824	0.188195
613.304723	0.188473
613.513604	0.188606
613.722467	0.188723
613.931311	0.188843
614.140138	0.189204
614.348946	0.189421
614.557736	0.189816
614.766507	0.190258
614.975261	0.190394
615.183996	0.190390
615.392713	0.190710
615.601412	0.190901
615.810092	0.191246
616.018754	0.191292
616.227399	0.191199
616.436024	0.191401
616.644632	0.191766
616.853222	0.191972
617.061793	0.192259
617.270346	0.192377
617.478880	0.192518
617.687397	0.192218
617.895895	0.192287
618.104375	0.192419
618.312837	0.192775
618.521281	0.192765
618.729706	0.192901
618.938113	0.192958
619.146502	0.192983
619.354873	0.192968
619.563226	0.193393
619.771560	0.193359
619.979876	0.193735
620.188174	0.193711
620.396453	0.193671
620.604715	0.193782
620.812958	0.193939
621.021183	0.194195
621.229390	0.194378
621.437578	0.194548
621.645748	0.194855
621.853900	0.194866
622.062034	0.194849
622.270150	0.195026
622.478247	0.195199
622.686326	0.195245
622.894387	0.195332
623.102430	0.195603
623.310454	0.195802
623.518461	0.195909
623.726449	0.195979
623.934418	0.196015
624.142370	0.196119
624.350303	0.196193
624.558218	0.196280
624.766115	0.196161
624.973994	0.196391
625.181855	0.196322
625.389697	0.196551
625.597521	0.196541
625.805327	0.196625
626.013114	0.196575
626.220883	0.196714
626.428634	0.196825
626.636367	0.197150
626.844082	0.196843
627.051778	0.196885
627.259457	0.196968
627.467117	0.196891
627.674758	0.196993
627.882382	0.197115
628.089987	0.196982
628.297574	0.197254
628.505143	0.197135
628.712694	0.197509
628.920226	0.197615
629.127740	0.197608
629.335236	0.198046
629.542714	0.198253
629.750174	0.198317
629.957615	0.198605
630.165038	0.198623
630.372443	0.198918
630.579829	0.199042
630.787198	0.199137
630.994548	0.199487
631.201880	0.199530
631.409194	0.199765
631.616489	0.199986
631.823766	0.200169
632.031025	0.200336
632.238266	0.200550
632.445489	0.200752
632.652693	0.200960
632.859879	0.200767
633.067047	0.201283
633.274197	0.201346
633.481329	0.201573
633.688442	0.201746
633.895537	0.202138
634.102614	0.202420
634.309672	0.202390
634.516713	0.202698
634.723735	0.202934
634.930739	0.202805
635.137724	0.203015
635.344692	0.203033
635.551641	0.203077
635.758572	0.203208
635.965485	0.203101
636.172379	0.203196
636.379256	0.203256
636.586114	0.203307
636.792954	0.203378
636.999775	0.203554
637.206579	0.203644
637.413364	0.204162
637.620131	0.204266
637.826880	0.204726
638.033610	0.205300
638.240323	0.205595
638.447017	0.205907
638.653692	0.206017
638.860350	0.206267
639.066990	0.206527
639.273611	0.206304
639.480214	0.206518
639.686798	0.206452
639.893365	0.206420
640.099913	0.206510
640.306443	0.206514
640.512955	0.206822
640.719449	0.206954
640.925924	0.207153
641.132381	0.207155
641.338820	0.206924
641.545241	0.207047
641.751644	0.207112
641.958028	0.206780
642.164394	0.207157
642.370742	0.207314
642.577071	0.207349
642.783383	0.207527
642.989676	0.207932
643.195951	0.208318
643.402207	0.208359
643.608446	0.208530
643.814666	0.208887
644.020868	0.209314
644.227052	0.209465
644.433218	0.209810
644.639365	0.209706
644.845494	0.209948
645.051605	0.209932
645.257698	0.210169
645.463772	0.210479
645.669828	0.210694
645.875866	0.210308
646.081886	0.210291
646.287888	0.210036
646.493871	0.210377
646.699836	0.210485
646.905783	0.210742
647.111712	0.210800
647.317622	0.210885
647.523514	0.211127
647.729388	0.211368
647.935244	0.211602
648.141082	0.211869
648.346901	0.211934
648.552702	0.211912
648.758485	0.211920
648.964250	0.212236
649.169996	0.212162
649.375724	0.212345
649.581434	0.212538
649.787126	0.212702
649.992800	0.212780
650.198455	0.212860
650.404092	0.212990
650.609711	0.213133
650.815311	0.212988
651.020894	0.213224
651.226458	0.213318
651.432004	0.213304
651.637532	0.213145
651.843041	0.213306
652.048532	0.213661
652.254006	0.213747
652.459460	0.213764
652.664897	0.214042
652.870315	0.214185
653.075716	0.214318
653.281097	0.215012
653.486461	0.215456
653.691807	0.215743
653.897134	0.216135
654.102443	0.216536
654.307734	0.216925
654.513006	0.217162
654.718261	0.217403
654.923497	0.217746
655.128715	0.217533
655.333915	0.217581
655.539096	0.217921
655.744259	0.217803
655.949404	0.217941
656.154531	0.217968
656.359640	0.218219
656.564730	0.218470
656.769802	0.218393
656.974856	0.218574
657.179892	0.218827
657.384909	0.218719
657.589908	0.218676
657.794889	0.218802
657.999852	0.219061
658.204797	0.219251
658.409723	0.219325
658.614631	0.219690
658.819521	0.220001
659.024393	0.220307
659.229246	0.220604
659.434081	0.220895
659.638898	0.221031
659.843697	0.221304
660.048478	0.221425
660.253240	0.221525
660.457984	0.221477
660.662710	0.221470
660.867417	0.221656
661.072107	0.221730
661.276778	0.221871
661.481431	0.221925
661.686066	0.222115
661.890682	0.222246
662.095281	0.222488
662.299861	0.222691
662.504422	0.223118
662.708966	0.223061
662.913491	0.223265
663.117999	0.223584
663.322488	0.223767
663.526958	0.223731
663.731411	0.223844
663.935845	0.224226
664.140261	0.224588
664.344659	0.224514
664.549038	0.224780
664.753400	0.224861
664.957743	0.224860
665.162068	0.225125
665.366375	0.225403
665.570663	0.225782
665.774933	0.225598
665.979185	0.225362
666.183419	0.225517
666.387635	0.225744
666.591832	0.225939
666.796011	0.226356
667.000172	0.226548
667.204315	0.226574
667.408439	0.226527
667.612545	0.226693
667.816634	0.227054
668.020703	0.227282
668.224755	0.227424
668.428788	0.227640
668.632803	0.227722
668.836800	0.227756
669.040779	0.227917
669.244739	0.228124
669.448681	0.228600
669.652605	0.228987
669.856511	0.229320
670.060399	0.229441
670.264268	0.229622
670.468119	0.229721
670.671952	0.229940
670.875767	0.230584
671.079563	0.231049
671.283341	0.231308
671.487101	0.231440
671.690843	0.231528
671.894567	0.231845
672.098272	0.231895
672.301959	0.232284
672.505628	0.232557
672.709278	0.232707
672.912911	0.232764
673.116525	0.232719
673.320121	0.232964
673.523699	0.233093
673.727258	0.233323
673.930799	0.233740
674.134322	0.233781
674.337827	0.233835
674.541314	0.233963
674.744782	0.234131
674.948232	0.234470
675.151664	0.234667
675.355078	0.234903
675.558474	0.234939
675.761851	0.235168
675.965210	0.235312
676.168551	0.235374
676.371873	0.235211
676.575178	0.235411
676.778464	0.235546
676.981732	0.235497
677.184981	0.235362
677.388213	0.235625
677.591426	0.235745
677.794621	0.235973
677.997798	0.236265
678.200956	0.236557
678.404097	0.236590
678.607219	0.236517
678.810323	0.236855
679.013408	0.237335
679.216476	0.237627
679.419525	0.237589
679.622556	0.237775
679.825569	0.238022
680.028563	0.238337
680.231540	0.238386
680.434498	0.238830
680.637438	0.238978
680.840359	0.239394
681.043263	0.239428
681.246148	0.239786
681.449015	0.240004
681.651864	0.239848
681.854694	0.239833
682.057506	0.240192
682.260301	0.240256
682.463076	0.240326
682.665834	0.240342
682.868573	0.240559
683.071295	0.240613
683.273998	0.240663
683.476682	0.241134
683.679349	0.241319
683.881997	0.241628
684.084627	0.241833
684.287239	0.241951
684.489833	0.241924
684.692408	0.241971
684.894965	0.242337
685.097504	0.242512
685.300025	0.242545
685.502527	0.243069
685.705012	0.243078
685.907478	0.243196
686.109925	0.243448
686.312355	0.243646
686.514766	0.243743
686.717159	0.243646
686.919534	0.243791
687.121891	0.243882
687.324230	0.243448
687.526550	0.243552
687.728852	0.243450
687.931136	0.243419
688.133401	0.243149
688.335649	0.243164
688.537878	0.243215
688.740089	0.243154
688.942281	0.243492
689.144456	0.243635
689.346612	0.243706
689.548750	0.244037
689.750870	0.244463
689.952971	0.244802
690.155055	0.244958
690.357120	0.245182
690.559167	0.245515
690.761195	0.245585
690.963206	0.246114
691.165198	0.246531
691.367172	0.246689
691.569128	0.246567
691.771065	0.246937
691.972984	0.247293
692.174885	0.247536
692.376768	0.247684
692.578633	0.247911
692.780479	0.247518
692.982308	0.247364
693.184118	0.247304
693.385909	0.247416
