sample name	sample
index	1265
start time	 04-29-2021  01:28:56 PM
880	0.533683
Peak Time (s)	102.535
Peak Height 	0.5337
calc peak height	100,103
Baseline Time (s)	10.537
Baseline Value 	-0.003315
subtract baseline	10,4
Abs	0.340792
Peak Time (s)	102.041
Peak Height 	0.3408
calc peak height	100,103
Baseline Time (s)	9.537
Baseline Value 	0.001409
subtract baseline	10,3
PK_550	0.187180
Peak Time (s)	101.537
Peak Height 	0.1872
calc peak height	100,103
Baseline Time (s)	10.537
Baseline Value 	7.9422E-4
subtract baseline	10,2
PK_880	0.326118
Peak Time (s)	102.041
Peak Height 	0.3261
calc peak height	100,103
Baseline Time (s)	10.537
Baseline Value 	0.001849
subtract baseline	10,1


Time (s)	A880-A510	A880-A775	A880-A975	A880	I510	I775	I975	I880	
0.036500	-0.000086	0.000264	0.004263	0.003456	6190.142111	43769.235890	3920.191883	22637.750648
0.537000	-0.000251	-0.000231	0.000538	0.004284	6182.732672	43645.167806	3909.728321	22600.234569
1.037500	-0.001031	0.000303	-0.002168	0.004043	6178.711614	43717.733573	3904.107578	22611.111336
1.536000	-0.005016	-0.000939	-0.000078	0.005807	6136.167330	43436.737738	3904.850335	22531.374176
2.035000	-0.003010	-0.000099	0.000434	0.001103	6185.877619	43956.626568	3916.786122	22744.750390
2.535500	0.001285	0.000154	0.004071	0.001153	6217.721218	43975.819656	3925.079027	22742.489108
3.038500	-0.001023	-0.000495	0.003179	-0.001858	6223.028674	44199.377677	3930.009378	22880.279620
3.535500	-0.002805	-0.000220	-0.004176	0.004634	6161.144538	43613.391381	3898.217628	22584.370497
4.035500	-0.001896	-0.000616	0.003740	0.000110	6201.645733	44001.587926	3926.734871	22790.127769
4.536500	-0.001807	-0.000976	0.003350	-0.000085	6203.774398	43986.000027	3926.280548	22799.031392
5.037000	-0.000753	0.000827	0.000952	0.000810	6204.969638	44071.775539	3918.654745	22758.119271
5.537000	-0.000399	0.000138	0.003324	0.000621	6209.047959	44024.512914	3924.579776	22766.763420
6.037500	-0.002258	0.000053	0.000143	0.000179	6198.415903	44058.269272	3918.245350	22786.961031
6.535000	-0.001002	0.000100	0.003184	0.000782	6203.315838	44005.806230	3923.882016	22759.432921
7.035000	0.000026	0.000114	-0.003162	0.000418	6213.773878	44041.463823	3910.107885	22776.054454
7.538000	-0.000154	0.000308	0.002070	0.000430	6212.326309	44058.668115	3922.117002	22775.472276
8.035500	-0.001071	-0.000659	-0.001158	-0.000312	6211.013180	44037.418975	3916.379274	22809.422627
8.536500	-0.001209	0.000207	-0.002018	-0.000131	6208.611880	44102.287172	3913.987283	22801.147383
9.036500	0.000925	-0.000243	-0.000592	-0.000077	6224.284389	44054.516846	3917.141568	22798.662364
9.536500	0.000632	-0.000384	0.000000	-0.000333	6224.004738	44065.370134	3919.095090	22810.349560
10.037000	0.000201	0.000758	0.001724	0.000613	6213.623478	44083.985466	3920.893688	22767.127429
10.537000	0.000000	0.000000	-0.002493	0.000000	6216.726379	44070.218216	3912.596428	22795.138208
11.034500	-0.000467	0.000238	0.000315	0.000326	6210.760012	44061.932469	3918.303722	22780.247307
11.535000	-0.003233	-0.000647	0.001540	0.003487	6166.470621	43680.812782	3913.847611	22636.309786
12.038000	0.001834	-0.000180	0.003305	0.000250	6228.685151	44029.471482	3925.395640	22783.690757
12.535500	-0.001776	0.000103	0.000099	0.000812	6197.283313	44003.165409	3916.684612	22758.038777
13.036000	-0.000416	-0.000203	0.002913	-0.001778	6227.006351	44219.458412	3929.203137	22876.587947
13.536500	0.000951	0.000183	0.002916	0.000244	6222.054882	44064.402873	3924.508924	22783.982233
14.036500	0.002041	0.000220	0.002923	0.000439	6228.823297	44049.560768	3924.072779	22775.094373
14.536000	-0.001844	-0.000095	0.002671	0.002388	6184.993158	43835.961430	3918.982168	22686.260143
15.037500	0.000815	0.000747	0.001138	0.001232	6213.585137	44024.334165	3918.112666	22738.896367
15.553000	-0.000557	0.000263	0.003890	0.001533	6201.013157	43950.178481	3923.776375	22725.157763
16.037500	-0.001475	0.000716	0.005697	0.000383	6202.749765	44101.740306	3930.654464	22777.616633
16.541000	-0.000722	0.000189	0.000713	-0.000221	6212.953450	44109.071425	3920.485051	22805.251196
17.035500	-0.000044	0.000114	-0.001590	-0.000251	6218.290304	44104.765321	3915.246797	22806.626238
17.536000	-0.004093	0.000676	-0.002619	0.005811	6142.931397	43587.114257	3899.077146	22531.199831
18.038500	0.003023	-0.000357	-0.000159	-0.000602	6244.152220	44093.344145	3919.350095	22822.664539
18.536000	-0.001611	-0.000746	-0.004852	0.000135	6203.597812	43986.966813	3906.895451	22788.975831
19.036500	-0.001899	-0.000172	0.004630	0.000886	6195.804123	43970.182146	3926.996934	22754.658346
19.537000	0.000348	0.000603	0.004100	0.001738	6206.268289	43962.873054	3923.787271	22715.807591
20.037000	-0.002445	-0.000476	-0.000454	0.000913	6191.521645	43939.023524	3915.180455	22753.436470
20.540500	0.001122	-0.000337	0.000998	0.000979	6217.802050	43945.839198	3918.371492	22750.400733
21.038000	-0.001859	0.000132	0.001525	0.001567	6191.006957	43934.569909	3918.231217	22723.594806
21.535500	-0.000576	-0.000182	0.004229	0.001504	6201.084305	43910.895538	3924.630264	22726.464859
22.035500	-0.000263	-0.000396	0.000146	0.001162	6206.006227	43923.032094	3915.988659	22742.085635
22.535500	-0.002463	-0.000201	0.001470	0.001122	6189.825552	43945.190634	3919.132135	22743.910327
23.036000	0.001228	-0.000339	0.005466	0.001211	6216.854248	43923.816542	3928.187403	22739.838010
23.536000	-0.000857	0.000458	0.003031	0.003124	6186.865096	43818.767008	3918.114543	22652.824232
24.037000	-0.001733	0.000040	-0.001071	0.001293	6194.002641	43951.833107	3912.893503	22736.114451
24.537000	-0.000554	0.000883	0.001580	0.001871	6198.499947	43976.769486	3917.656381	22709.763551
25.034500	0.001050	0.000646	0.000180	0.001556	6212.910366	43984.186556	3915.159196	22724.105962
25.540000	-0.000874	0.000059	0.002284	0.002429	6191.928919	43846.490309	3917.994098	22684.366775
26.035500	0.001165	-0.000096	0.001192	0.001494	6214.251213	43919.993804	3917.631059	22726.944885
26.535500	-0.000303	0.000590	0.007065	0.001690	6201.741635	43966.221839	3930.796994	22717.997613
27.035500	-0.000443	0.000379	0.000633	0.001756	6200.197028	43940.067544	3915.740798	22714.989188
27.538000	-0.001216	0.000620	0.002030	0.002010	6192.506751	43938.869476	3918.374574	22703.435490
28.036000	0.003104	0.000148	0.003329	-0.001891	6254.582344	44263.554298	3930.437261	22881.777756
28.539000	-0.000129	0.000038	0.002270	-0.000439	6219.066017	44115.412559	3924.594717	22815.238745
29.036500	0.001563	0.000978	0.002738	0.000533	6224.497142	44112.310126	3923.425507	22770.762675
29.537000	-0.001930	-0.000211	-0.000563	0.003699	6174.577659	43701.907398	3908.549109	22626.723000
30.038000	0.000843	0.000817	0.009669	0.000919	6216.154921	44060.524964	3938.708528	22753.161446
30.537500	-0.000850	-0.000520	0.004283	-0.000684	6215.477629	44085.814208	3929.846862	22826.456295
31.035500	0.000176	0.000530	-0.000852	0.000499	6214.293259	44073.195606	3915.218257	22772.354900
31.563000	0.000157	0.000170	0.003070	0.001102	6209.614378	43982.158556	3922.877421	22744.814912
32.035500	-0.002778	-0.000043	0.002945	0.002467	6177.441817	43833.403502	3919.431689	22682.659252
32.535500	-0.000865	0.000074	-0.002058	0.000160	6209.011101	44062.100268	3913.227691	22787.828918
33.067500	-0.000511	0.000121	0.000527	0.000160	6211.675451	44066.557454	3919.174807	22787.822778
33.537000	-0.001109	-0.000828	-0.001360	0.001111	6200.039761	43887.204102	3912.646468	22744.414960
34.037000	-0.000127	0.000534	0.000834	0.000068	6215.261863	44114.365134	3920.096381	22792.045227
34.540000	-0.000245	0.000120	0.003731	0.000081	6214.277547	44073.953521	3926.780780	22791.455495
35.037500	0.002366	-0.000314	0.004794	-0.001898	6249.018063	44220.426845	3933.879756	22882.128919
35.535000	-0.001552	0.000196	0.003400	0.004303	6172.897080	43683.373091	3916.248914	22599.364666
36.035500	0.000042	0.000379	0.002382	0.002618	6197.371655	43858.856627	3917.782523	22675.777914
36.536000	-0.000022	0.000330	0.001318	0.001905	6202.239475	43921.452981	3916.975903	22708.229258
37.035000	0.000366	0.000714	0.003886	0.002454	6201.030055	43905.889490	3921.635326	22683.231356
37.537000	-0.000610	-0.000495	0.003523	0.001469	6201.099671	43884.806758	3923.074415	22728.081869
38.036500	0.001046	-0.000193	-0.000188	0.001881	6210.439944	43874.416913	3913.568265	22709.300458
38.536500	0.000483	0.000054	0.002974	0.001616	6208.202235	43922.638103	3921.463499	22721.382161
39.039500	0.002256	0.001230	0.005272	0.002953	6211.479942	43907.536646	3923.691029	22660.585304
39.535000	-0.001204	-0.000052	0.004332	0.002095	6191.956341	43867.526678	3923.500111	22699.563960
40.035000	0.000892	-0.000002	0.002309	0.001769	6210.122840	43902.990342	3919.574442	22714.407307
40.535000	0.000178	-0.000162	-0.001198	0.001786	6204.631832	43886.258502	3911.470492	22713.634807
41.035500	0.000405	0.000374	0.005472	0.002337	6202.200244	43884.924954	3925.582943	22688.569763
41.535500	-0.000692	-0.000999	-0.000354	0.001686	6198.856725	43816.969101	3913.635434	22718.215545
42.036000	-0.000878	-0.000438	0.003887	0.001641	6197.791726	43873.911850	3923.518599	22720.224090
42.536500	0.000166	0.001012	-0.000856	0.002352	6200.295548	43943.623496	3910.957109	22687.874540
43.037000	-0.000553	0.000008	0.004478	0.001606	6200.502224	43919.307775	3924.973473	22721.855633
43.539500	-0.001758	0.000024	0.005779	0.001944	6188.943710	43888.922651	3927.208508	22706.430015
44.034500	-0.002311	-0.000543	0.004312	0.001195	6190.408769	43906.075582	3925.539668	22740.554473
44.535000	-0.001139	0.000482	0.003328	0.002174	6191.857820	43910.383993	3920.993390	22695.978259
45.035000	-0.000214	-0.000594	-0.001551	0.001510	6203.765998	43871.668774	3911.295652	22726.233837
45.535500	-0.000168	0.000434	0.001254	0.004143	6184.393389	43720.674048	3911.687695	22606.585673
46.035500	0.003089	0.000839	0.005333	0.000584	6235.660439	44094.387378	3929.338747	22768.455698
46.544500	-0.000865	-0.000414	-0.002726	-0.000981	6217.606788	44123.951598	3914.313880	22840.068076
47.036500	0.000690	-0.000412	0.004039	-0.000698	6227.206059	44097.324557	3929.311617	22827.092319
47.536500	-0.003709	-0.000578	0.000555	0.005994	6144.412465	43452.970648	3905.863795	22522.925251
48.038500	0.002585	-0.000036	0.007092	-0.000378	6239.134446	44102.654429	3935.701644	22812.446480
48.537000	0.000365	0.000220	-0.002880	-0.000373	6222.289079	44126.372141	3912.564049	22812.191666
49.035000	-0.000904	0.000027	0.001200	-0.000702	6215.202918	44139.274724	3922.723391	22827.248799
49.535000	-0.003015	0.000016	0.002252	0.004816	6158.241495	43618.474425	3912.433689	22576.157285
50.041000	0.000356	0.000848	0.004843	0.000975	6212.068298	44058.250082	3927.288157	22750.621559
50.535000	-0.000045	-0.000213	0.002397	-0.000858	6222.859055	44131.309762	3925.862891	22834.421253
51.035500	-0.000817	-0.000188	0.002485	-0.000438	6213.876252	44093.898098	3925.091731	22815.186885
51.538500	-0.003434	0.000080	0.003366	0.006569	6142.204994	43460.709089	3910.969881	22497.031876
52.041000	0.000496	-0.000540	0.005574	-0.003044	6243.510206	44307.840614	3938.396357	22934.803735
52.539500	0.002641	0.000080	0.002011	0.002010	6221.490292	43888.012079	3918.331746	22703.460786
53.036500	0.034075	-0.029778	0.093159	0.681961	3680.128913	10952.785935	3175.032237	7067.048939
53.534000	-0.001635	-0.026197	-0.026756	0.079609	5658.325048	35183.718658	3700.792887	19469.109049
54.037000	0.000650	-0.069799	-0.023685	-0.233912	8560.684934	62942.630656	4541.863990	36966.308206
54.534500	0.016606	-0.090851	0.002509	-0.266940	9231.320824	64619.407723	4779.266111	39655.204179
55.034500	0.016506	-0.073678	0.007375	-0.244456	8912.712348	63870.129269	4705.227381	37802.607801
55.536000	0.006262	-0.044027	0.011359	-0.178273	7949.556732	58957.073753	4466.605492	32874.381953
56.035500	0.022180	-0.023658	0.018118	-0.152409	7836.211767	58253.038275	4399.906697	31143.480663
56.535500	0.022733	-0.022285	0.014612	-0.146984	7781.635981	57739.708605	4369.725037	30793.365951
57.036000	0.027760	-0.020901	0.029663	-0.162963	8021.375919	59973.584217	4477.323078	31837.347013
57.536000	0.045037	-0.015239	0.042309	-0.155197	8133.806383	59698.151147	4494.958723	31325.177102
58.040000	0.064090	0.008315	0.062540	-0.065294	7352.582371	51661.282320	4261.062823	26016.872233
58.536500	0.077567	0.021376	0.081982	0.021607	6666.821862	44048.364220	4067.684040	21831.306763
59.035000	0.095736	0.032970	0.104718	0.102023	6169.693930	38028.528536	3924.562941	18637.526151
59.535000	0.120954	0.048975	0.127711	0.154771	5971.548695	35184.522112	3857.838221	16841.818827
60.035500	0.147929	0.063044	0.151085	0.199977	5847.078873	32955.790098	3811.706145	15467.199079
60.535500	0.171402	0.079331	0.177877	0.251237	5667.140751	30635.790594	3762.687027	14072.159639
61.035500	0.191554	0.092186	0.193272	0.288181	5563.857718	29143.180647	3721.746606	13164.092776
61.538500	0.204335	0.100433	0.216511	0.323104	5433.624944	27583.952239	3700.382889	12373.871344
62.036000	0.222531	0.111285	0.226924	0.363879	5307.488427	25945.173602	3647.479105	11528.152479
62.536500	0.235701	0.115488	0.249499	0.407010	5149.923391	23975.504856	3613.706188	10715.913380
63.034500	0.248887	0.128576	0.262940	0.409791	5203.419553	24479.985782	3631.022741	10666.270147
63.537500	0.260625	0.134975	0.272771	0.411865	5254.260899	24695.236669	3643.889879	10629.433741
64.035000	0.271650	0.145054	0.281476	0.452535	5101.812998	23217.661820	3592.305651	9941.747274
64.535000	0.282608	0.147040	0.303712	0.462833	5105.095597	22833.870477	3611.129063	9777.599302
65.035500	0.290438	0.152384	0.300562	0.484293	5038.322050	22110.328542	3572.885231	9447.790397
65.535500	0.293019	0.154822	0.309278	0.487406	5035.758888	22080.583925	3581.401055	9401.279608
66.039000	0.298120	0.160700	0.314257	0.503747	4982.310752	21625.686816	3564.243110	9162.560738
66.540500	0.300434	0.163534	0.318722	0.504386	4990.189226	21720.238252	3569.971370	9153.411504
67.036500	0.296819	0.164073	0.313991	0.503757	4976.163945	21770.671848	3563.831081	9162.411598
67.536500	0.295726	0.166690	0.310594	0.504233	4968.838500	21863.625531	3558.088395	9155.601435
68.037000	0.304663	0.172110	0.322061	0.500773	5027.471460	22253.846358	3580.508331	9205.335060
68.534500	0.304449	0.173416	0.312935	0.498892	5035.485906	22395.885055	3569.530112	9232.549516
69.035000	0.303039	0.175060	0.320207	0.497026	5037.684385	22553.525806	3583.408146	9259.658840
69.535500	0.304979	0.178522	0.326228	0.498083	5041.947643	22662.255419	3591.068359	9244.286646
70.035500	0.310653	0.180030	0.318573	0.498873	5065.673285	22694.883565	3578.087112	9232.829175
70.539000	0.307924	0.179849	0.320162	0.498365	5054.854316	22709.717998	3581.288132	9240.198780
71.036000	0.309534	0.180832	0.323906	0.498857	5060.290530	22732.051642	3586.280091	9233.054088
71.536500	0.306860	0.179575	0.317222	0.505632	5014.742904	22369.923388	3565.855454	9135.597277
72.036500	0.311956	0.181774	0.328825	0.504053	5046.815363	22539.399355	3585.853792	9158.174652
72.537000	0.312253	0.183367	0.323998	0.503280	5052.006907	22646.315699	3579.638451	9169.259545
73.034500	0.313830	0.183678	0.323631	0.501285	5069.413949	22751.043881	3582.126684	9197.950928
73.535000	0.307482	0.183683	0.321134	0.504815	5021.611914	22591.168440	3572.959009	9147.266785
74.035000	0.317448	0.186906	0.323174	0.500284	5092.142974	22944.624153	3582.961035	9212.407828
74.535500	0.314257	0.185588	0.322894	0.498193	5086.706512	22980.209456	3585.743796	9242.686868
75.038500	0.312338	0.186027	0.328446	0.498035	5078.033155	23007.696805	3594.594634	9244.980396
75.536000	0.311828	0.186512	0.326201	0.504485	5044.107286	22734.405755	3581.162282	9151.987880
76.036000	0.316363	0.187546	0.334726	0.500753	5084.467124	22952.482016	3600.177439	9205.628887
76.536500	0.315974	0.186349	0.325075	0.499474	5088.859387	22956.259674	3587.131570	9224.114308
77.037000	0.316902	0.188936	0.326503	0.503085	5075.651569	22909.186875	3583.771718	9172.061975
77.537000	0.315863	0.188229	0.333703	0.506680	5053.022349	22712.638808	3589.329046	9120.651898
78.037000	0.317572	0.188655	0.333471	0.501522	5086.635611	22968.118786	3596.999484	9194.535394
78.535000	0.319473	0.188904	0.329854	0.501722	5095.046560	22970.408225	3591.048305	9191.656557
79.035000	0.320805	0.188350	0.326246	0.501551	5102.506693	22952.749315	3585.734931	9194.118929
79.538000	0.315108	0.189132	0.329869	0.502230	5071.047986	22957.525509	3590.284135	9184.349703
80.035000	0.318996	0.189254	0.333860	0.501443	5094.070447	22999.376176	3597.733979	9195.681345
80.536500	0.318915	0.189456	0.328562	0.501406	5093.848998	23010.397740	3589.535886	9196.209892
81.035500	0.315660	0.190545	0.329625	0.501480	5077.430619	23057.302648	3591.068514	9195.144136
81.536500	0.320329	0.192579	0.337968	0.502682	5094.532564	23095.814931	3602.245467	9177.847504
82.034000	0.318966	0.192079	0.325773	0.501788	5092.215110	23114.075676	3584.643251	9190.711033
82.537500	0.316346	0.190612	0.332997	0.501174	5082.310593	23074.570131	3596.802559	9199.555098
83.035000	0.315126	0.190604	0.326385	0.501075	5076.798981	23078.759047	3586.682652	9200.988231
83.534000	0.316057	0.190316	0.330341	0.501886	5077.389659	23027.936532	3591.550793	9189.294986
84.038500	0.320570	0.190579	0.332510	0.503271	5092.805887	22976.161715	3592.768994	9169.381884
84.536000	0.316921	0.189180	0.326126	0.503050	5075.918918	22922.044285	3583.246991	9172.565616
85.036000	0.316463	0.188156	0.330478	0.503125	5073.299232	22871.589193	3589.841827	9171.487106
85.536000	0.317185	0.189069	0.334518	0.504637	5069.430353	22844.149213	3593.768477	9149.810765
86.036500	0.314332	0.187761	0.330026	0.503481	5061.141542	22837.202325	3588.590644	9166.378362
86.536500	0.321219	0.188796	0.336701	0.506143	5081.839385	22762.912075	3594.825076	9128.302514
87.034000	0.317167	0.189028	0.338187	0.506537	5060.059052	22755.507969	3596.531115	9122.684928
87.537500	0.314992	0.187861	0.333946	0.511127	5027.356289	22495.030970	3582.852245	9057.663904
88.035500	0.320500	0.188541	0.334563	0.508803	5065.270309	22630.495731	3587.376282	9090.498534
88.538000	0.319925	0.187822	0.327750	0.509374	5059.679150	22572.199292	3576.074684	9082.415720
89.036000	0.319158	0.189723	0.328795	0.515066	5028.440607	22401.846518	3569.058507	9002.389368
89.536000	0.319701	0.187053	0.332023	0.511587	5047.839502	22438.060755	3579.207866	9051.175453
90.036000	0.321520	0.187275	0.333298	0.512240	5053.497758	22418.764486	3580.157308	9041.993041
90.536500	0.321231	0.187334	0.342487	0.514104	5043.062742	22338.120010	3591.438765	9015.842897
91.036500	0.318730	0.188483	0.333266	0.520456	5000.702307	22107.450287	3567.679598	8927.577281
91.537000	0.317870	0.186237	0.331331	0.520201	4997.841656	22019.931872	3565.168212	8931.096114
92.037500	0.324976	0.187862	0.338096	0.518034	5042.166621	22187.002347	3578.638658	8961.082527
92.537500	0.323577	0.187761	0.341711	0.518581	5032.789440	22158.356701	3583.328963	8953.500977
93.038000	0.317663	0.185421	0.341192	0.521967	4988.527867	21907.041724	3577.364632	8906.769972
93.535500	0.319868	0.185035	0.338590	0.523292	4992.678176	21832.578402	3571.419013	8888.583915
94.036000	0.322949	0.187365	0.337225	0.521395	5016.296899	22017.052115	3572.221812	8914.637979
94.535000	0.323685	0.186479	0.334798	0.521892	5017.438432	21956.488356	3567.823333	8907.800832
95.036000	0.320151	0.185995	0.333618	0.526204	4980.315787	21747.996856	3559.645897	8848.814376
95.536500	0.321015	0.186499	0.340513	0.528431	4973.930683	21673.625582	3566.589949	8818.565237
96.036500	0.324510	0.187310	0.332397	0.525066	5006.253544	21854.367395	3559.522457	8864.323948
96.536000	0.325883	0.185848	0.341740	0.525033	5012.942164	21792.314630	3573.546015	8864.772391
97.037000	0.320117	0.186078	0.331712	0.530226	4961.378367	21578.455867	3550.930066	8794.305903
97.538000	0.325590	0.185879	0.340542	0.526555	5004.309964	21727.765735	3569.445214	8844.026681
98.035000	0.323354	0.187485	0.337533	0.526994	4991.662833	21778.298666	3564.287435	8838.070718
