sample name	sample
index	887
start time	 04-08-2021  02:33:47 PM
880	0.490659
Peak Time (s)	122.536
Peak Height 	0.4907
calc peak height	120,123
Baseline Time (s)	10.035
Baseline Value 	-0.00528
subtract baseline	10,4
Abs	0.363164
Peak Time (s)	121.035
Peak Height 	0.3632
calc peak height	120,123
Baseline Time (s)	9.537
Baseline Value 	7.1808E-4
subtract baseline	10,3
PK_550	0.182751
Peak Time (s)	121.035
Peak Height 	0.1828
calc peak height	120,123
Baseline Time (s)	9.537
Baseline Value 	8.4079E-4
subtract baseline	10,2
PK_880	0.325415
Peak Time (s)	121.035
Peak Height 	0.3254
calc peak height	120,123
Baseline Time (s)	9.537
Baseline Value 	0.001573
subtract baseline	10,1


Time (s)	A880-A510	A880-A775	A880-A975	A880	I510	I775	I975	I880	
0.034000	0.000460	-0.000116	0.000201	0.001948	6876.095363	42440.419502	3934.890514	22733.725720
0.535000	-0.002829	-0.001806	-0.000455	0.003121	6833.393170	42179.469337	3929.572338	22679.660183
1.035500	-0.002219	-0.000589	-0.005411	0.006652	6805.678733	41969.785189	3905.187828	22517.751833
1.535500	-0.000517	-0.001123	-0.002241	0.000458	6881.045151	42484.648782	3932.120905	22802.661612
2.036000	0.001385	-0.000216	0.001161	0.000893	6895.188765	42527.867457	3940.776333	22782.504343
2.536500	-0.000503	-0.000566	-0.000075	0.000419	6881.547141	42539.240677	3938.546547	22804.453935
3.036500	-0.001748	-0.001368	-0.001259	0.004031	6835.025822	42136.577928	3924.610658	22637.813422
3.536500	-0.001040	0.000638	0.001537	0.001033	6870.485774	42593.429830	3941.467552	22776.041462
4.037000	-0.000074	-0.000667	-0.001960	0.000197	6887.828289	42550.354271	3933.695982	22814.735646
4.537500	-0.000390	-0.000446	0.000256	0.000032	6886.369850	42585.745003	3940.647178	22822.389875
5.037500	-0.001079	-0.000347	0.004557	0.000162	6878.483471	42582.913275	3952.913537	22816.364028
5.535000	0.000751	-0.000201	-0.001500	-0.000034	6898.024514	42614.296075	3935.712317	22825.469376
6.035500	-0.001542	-0.001092	0.001954	-0.000016	6875.734582	42530.869072	3945.768808	22824.625494
6.535500	-0.000878	-0.000263	0.001852	0.000107	6880.942579	42595.619000	3945.106818	22818.889510
7.036000	0.001785	-0.000450	0.002479	0.000154	6906.212087	42574.206437	3946.812926	22816.732880
7.536500	-0.000832	-0.000772	0.000064	-0.000053	6882.924204	42563.599465	3940.331994	22826.316206
8.036500	0.000467	-0.000643	0.001677	-0.000503	6899.809987	42616.795446	3946.383322	22847.204465
8.537000	-0.001335	-0.001403	-0.000097	-0.000940	6886.626972	42587.105157	3942.458772	22867.493850
9.037000	0.000844	0.000333	0.001743	0.000789	6890.968246	42587.773991	3942.785971	22787.308253
9.537500	0.000000	0.000000	0.000000	0.000244	6888.085954	42607.224674	3939.278184	22812.560846
10.035000	0.000254	-0.000133	0.000289	0.000000	6892.896559	42617.414091	3940.836581	22823.872095
10.535500	-0.001294	-0.000250	-0.001509	-0.000911	6886.739327	42690.422794	3938.242707	22866.150841
11.035500	0.001145	0.000579	0.004060	0.000211	6899.468723	42663.490770	3951.301950	22814.113065
11.536000	-0.000456	0.000284	-0.000132	-0.000260	6888.546688	42679.626305	3940.367385	22835.929434
12.036500	0.000104	0.000363	0.000477	-0.000241	6893.772620	42685.207967	3942.092429	22835.043079
12.539500	-0.001500	-0.000557	-0.001622	0.002121	6855.631123	42384.260542	3929.086376	22725.734740
13.036500	0.000661	-0.000455	0.000866	-0.002417	6920.256192	42810.330418	3949.632731	22936.256238
13.537000	0.000633	-0.000168	0.003488	-0.000015	6896.701849	42615.623306	3950.282259	22824.570717
14.037000	0.001017	0.000277	0.001760	0.000100	6899.306120	42645.869508	3944.857528	22819.237664
14.534500	-0.000808	-0.000615	0.000298	0.002943	6854.387611	42304.019212	3932.277103	22687.853453
15.037000	0.000491	-0.000326	-0.001756	-0.000111	6896.255197	42609.833250	3935.186540	22829.000513
15.535500	0.001098	-0.000379	0.001112	-0.000396	6904.882456	42631.143620	3944.408989	22842.231145
16.035500	-0.000689	-0.000235	0.003611	-0.000510	6888.710477	42654.887736	3952.103991	22847.526628
16.538500	0.000001	-0.000594	-0.001173	0.002171	6869.543753	42376.347857	3930.246721	22723.429299
17.040000	0.000556	0.000508	0.000437	0.000406	6891.882994	42639.010034	3940.080001	22805.036778
17.567000	0.000557	-0.000382	0.001456	-0.003687	6931.608130	42934.506902	3955.126419	22995.567628
18.036500	0.000863	0.000497	0.002076	0.000972	6889.394339	42586.043906	3943.226627	22778.865401
18.540000	-0.000439	-0.000356	-0.000883	0.001748	6869.379519	42436.778516	3932.318502	22742.976955
19.037500	-0.000291	-0.000438	-0.000780	0.000745	6880.447803	42521.084450	3935.537563	22789.335746
19.535000	0.000749	-0.001414	0.001122	0.000061	6897.081455	42494.315959	3943.097695	22821.025778
20.035500	-0.000675	-0.000082	0.002127	0.001104	6873.302995	42520.783257	3942.987631	22772.725432
20.535500	-0.001307	-0.000358	0.000828	0.001662	6861.885146	42444.516498	3937.555172	22746.968564
21.035000	-0.000402	-0.000186	-0.000298	0.000632	6880.467863	42554.528483	3937.274621	22794.591193
21.536000	-0.000028	-0.001004	-0.000105	0.000245	6887.809020	42515.017133	3938.968938	22812.512989
22.036500	-0.001185	-0.000570	-0.000610	0.000655	6872.723137	42517.206413	3936.296553	22793.531541
22.536500	0.000515	-0.000381	-0.002156	0.002132	6874.861535	42399.426892	3927.510696	22725.250981
23.037000	0.000494	-0.000395	-0.002107	0.000597	6889.446515	42538.625622	3932.106859	22796.224722
23.537000	-0.000103	-0.000457	-0.000388	0.000653	6883.148568	42527.810768	3936.949298	22793.612247
24.034500	0.000550	0.000040	-0.001898	0.001058	6885.542209	42536.184039	3931.374533	22774.869637
24.537500	0.000482	0.001274	0.001861	0.003879	6857.783948	42391.016120	3934.102674	22644.809760
25.035500	0.000560	0.000189	0.001329	0.001239	6883.896266	42533.252811	3940.254532	22766.505451
25.535500	0.000370	0.000304	0.003295	0.001550	6879.065453	42515.269619	3945.106370	22752.121224
26.036500	-0.000877	0.000171	0.000241	0.001193	6870.507761	42535.836814	3937.209261	22768.611727
26.535500	-0.000614	-0.001154	0.001758	0.000591	6878.823796	42469.574936	3943.410780	22796.470990
27.036500	0.000069	-0.000289	0.000448	0.000954	6881.909799	42515.579985	3938.513410	22779.703417
27.536500	0.001173	-0.000330	0.000815	0.001401	6888.243715	42470.931868	3938.279751	22759.015225
28.036000	0.001339	0.000188	-0.002266	-0.000437	6907.618894	42687.129472	3934.652723	22844.141476
28.537500	0.002579	0.000956	0.001380	0.000765	6907.989754	42647.210307	3941.793925	22788.435729
29.034500	0.000748	0.001030	-0.000398	0.001239	6885.707333	42610.520706	3935.212240	22766.521842
29.535000	0.000746	-0.000280	0.001600	-0.000253	6900.097692	42627.147333	3945.424481	22835.621408
30.035000	0.000855	-0.000330	-0.001935	-0.000154	6900.188406	42613.499268	3934.790967	22831.009806
30.535500	-0.000229	0.000064	-0.001469	-0.000187	6890.034129	42652.720503	3936.246581	22832.544160
31.036500	0.001225	0.000107	0.002291	-0.000183	6904.048491	42656.322396	3947.249829	22832.351402
31.536500	-0.001188	-0.000313	0.000572	0.002206	6857.803069	42398.783584	3935.220279	22721.814634
32.037000	0.000284	-0.000286	-0.001797	-0.000439	6897.427956	42643.667996	3936.025694	22844.233312
32.539500	-0.002599	-0.000845	0.001756	0.003033	6836.425811	42274.828786	3936.260713	22683.709426
33.037500	0.003172	0.000855	-0.000855	0.000781	6913.590943	42636.470783	3935.215390	22787.707510
33.537500	0.001719	0.000940	-0.003227	0.000394	6903.252817	42679.882691	3929.444078	22805.611502
34.035000	-0.000035	0.000093	0.002385	-0.001462	6904.239949	42772.791513	3951.294738	22891.786453
34.535500	-0.000794	0.000159	-0.000226	0.001711	6866.329535	42487.304635	3934.337315	22744.694650
35.035500	0.000941	0.000693	0.001325	0.001963	6880.585059	42513.059337	3938.126927	22733.036843
35.536000	-0.000177	-0.000109	-0.000700	0.001443	6874.836633	42487.293796	3933.738810	22757.076558
36.036000	0.001222	-0.000859	-0.002738	0.000788	6894.631388	42478.546180	3929.716210	22787.344616
36.536500	-0.000669	0.000513	0.002813	0.003009	6855.089409	42400.939592	3939.420111	22684.844998
37.039500	0.001728	0.000387	0.000496	0.001899	6888.791606	42490.987407	3935.894060	22736.015574
37.537000	0.000045	-0.000118	-0.000494	0.001237	6878.948454	42505.287534	3934.936647	22766.587090
38.037000	0.000207	-0.000125	0.003986	0.001176	6881.097623	42510.312515	3948.240602	22769.434850
38.535000	0.001167	0.000287	0.001927	0.001936	6883.026825	42478.363220	3939.966321	22734.296740
39.034500	-0.000124	-0.000013	0.000697	0.002168	6868.371636	42429.702793	3935.696997	22723.587222
39.535500	0.000444	-0.000217	0.000715	0.001666	6878.662725	42456.961955	3937.211963	22746.773820
40.035500	0.000550	0.000424	0.004242	0.001696	6879.390759	42512.908292	3947.462075	22745.377539
40.536000	-0.000984	-0.000132	0.000569	0.003141	6850.804066	42329.985329	3932.488901	22678.724253
41.036000	0.000719	0.000432	0.003744	0.002337	6874.850715	42455.034665	3944.115219	22715.804192
41.539000	0.001469	-0.000470	-0.000959	0.001381	6891.293156	42459.922114	3933.164645	22759.932895
42.036500	0.000670	0.000720	0.003921	0.002067	6876.976908	42506.052207	3945.424928	22728.233507
42.537000	-0.000602	0.000365	0.000007	0.003004	6855.783943	42387.942709	3931.255535	22685.068887
43.037500	-0.000329	-0.000536	-0.001364	0.001202	6875.687743	42470.184261	3932.505960	22768.188702
43.535000	0.000787	0.000421	0.003050	0.002243	6876.409057	42462.562588	3942.354112	22720.117392
44.035500	0.002766	0.000812	0.002061	-0.001291	6929.780808	42823.373407	3949.836490	22883.827422
44.535500	-0.000206	-0.000494	0.000113	0.002146	6867.796571	42387.761580	3934.058418	22724.595825
45.036000	0.001899	0.000667	0.002468	0.000674	6902.286240	42629.064406	3945.252050	22792.653756
45.536000	0.000704	0.000026	0.002048	-0.000244	6899.606325	42654.501491	3946.715255	22835.192998
46.036500	0.001002	0.000671	-0.002866	0.000611	6894.214875	42635.151645	3929.862424	22795.569353
46.537000	0.000560	-0.000110	-0.002275	0.002913	6867.789802	42352.796168	3924.905168	22689.242906
47.037000	0.001512	-0.000253	0.002506	0.000070	6904.381504	42600.002540	3947.139454	22820.636443
47.537500	-0.000394	-0.000176	0.001669	0.001890	6868.454346	42440.214478	3939.345954	22736.425485
48.034500	0.000296	0.000582	0.000322	0.002797	6866.369951	42426.660071	3932.772377	22694.587782
48.535000	-0.000816	-0.000648	0.001956	0.002377	6859.734149	42352.613922	3938.761203	22713.941718
49.035500	0.001716	0.000006	-0.002529	-0.000530	6912.173316	42678.891132	3934.157896	22848.469173
49.535500	0.000787	0.000340	0.003940	0.000354	6894.615182	42628.342471	3950.525609	22807.444915
50.036000	0.002844	0.000139	0.002925	-0.002484	6942.187616	42871.377616	3955.913588	22939.382549
50.536500	0.001472	0.000153	0.000408	0.002656	6879.021579	42400.274072	3933.431888	22701.068474
51.036500	-0.006913	-0.003303	0.005455	-0.000644	6830.363097	42386.073299	3957.960718	22853.770675
51.536500	-0.029586	-0.016707	0.081882	0.334544	4510.931984	20496.303892	3379.594428	12006.594217
52.034000	-0.048738	-0.012879	0.004382	0.015311	6315.625646	40121.454442	3908.419351	22126.263863
52.537500	-0.054901	-0.029237	-0.033461	-0.177291	8255.096326	58841.384232	4438.789762	32976.865600
53.035000	-0.026560	-0.026063	-0.011584	-0.177849	8637.444917	59325.764115	4532.593755	33015.853551
53.535000	-0.009044	-0.013252	-0.011823	-0.127949	8210.696804	54692.431825	4329.456607	29723.637578
54.035500	-0.000587	-0.012091	-0.006915	-0.140063	8478.073755	56305.399564	4395.805740	30488.400934
54.536000	0.005472	-0.010242	-0.009887	-0.144938	8625.446816	57141.583996	4403.390746	30802.316378
55.036000	0.018452	-0.003385	0.005076	-0.118846	8449.172973	54783.910436	4359.521885	29162.785203
55.539000	0.032383	0.005731	0.015808	-0.084139	8180.518913	51804.561255	4268.753092	27129.088403
56.036500	0.038895	0.011819	0.030570	-0.039012	7714.125409	47584.979727	4160.755794	24716.637002
56.537000	0.047803	0.018424	0.039754	0.002337	7353.100024	44135.590195	4054.304208	22715.787740
57.037000	0.063857	0.025556	0.060308	0.030000	7230.325060	42223.366881	4031.819737	21479.679893
57.537500	0.077839	0.034582	0.080757	0.070558	6961.321435	39456.992698	3970.182615	19803.960013
58.037500	0.092657	0.042751	0.099606	0.097823	6840.866247	37876.588541	3945.218311	18762.237461
58.535500	0.105244	0.051928	0.115281	0.113135	6814.961742	37383.513648	3946.285135	18205.301915
59.035500	0.112752	0.058195	0.129517	0.131201	6716.085350	36454.461375	3935.073015	17572.898859
59.536000	0.123511	0.064388	0.143604	0.151000	6633.320955	35414.046210	3918.540239	16909.430904
60.039000	0.132473	0.071121	0.157165	0.198591	6298.433827	32478.555334	3824.406481	15433.053387
60.536500	0.136177	0.074659	0.170190	0.253761	5896.109498	29142.978643	3717.599069	13912.258213
61.036500	0.150504	0.081378	0.171165	0.255442	5990.599902	29451.272698	3715.899037	13868.887630
61.537000	0.158298	0.085272	0.179621	0.262546	5995.833443	29254.419483	3719.159789	13687.433464
62.034500	0.162085	0.087294	0.180583	0.268264	5981.201179	29029.567373	3707.728142	13543.512943
62.540500	0.166518	0.090083	0.188204	0.280212	5924.875791	28480.494471	3697.435134	13248.842720
63.035000	0.174322	0.093428	0.195983	0.281943	5970.319363	28576.420105	3711.848792	13206.827091
63.535500	0.176939	0.095581	0.197752	0.287834	5945.737571	28354.850386	3702.001620	13065.061184
64.036000	0.182009	0.098244	0.205265	0.293404	5942.005849	28183.863916	3706.632038	12932.787548
64.536000	0.187241	0.101634	0.208084	0.305575	5890.592057	27674.208485	3684.541332	12649.596153
65.036000	0.189020	0.102107	0.209311	0.304748	5909.799296	27748.990724	3689.350946	12668.568336
65.536500	0.194396	0.104724	0.216462	0.311273	5901.317890	27524.835976	3690.822189	12519.707703
66.037000	0.198425	0.106174	0.223616	0.317638	5884.142574	27245.721837	3692.679761	12376.627482
66.537500	0.199792	0.109046	0.225729	0.330050	5804.133590	26712.826181	3668.700533	12103.542819
67.037500	0.205869	0.110648	0.228468	0.330726	5843.005492	26764.022399	3673.459056	12088.908322
67.535000	0.208031	0.112661	0.232045	0.336489	5817.039522	26557.322342	3668.417883	11964.940160
68.037500	0.211183	0.113473	0.239272	0.341296	5805.172600	26339.031955	3673.999706	11862.784663
68.535500	0.211561	0.114605	0.239733	0.350396	5743.403043	25909.696974	3654.218347	11672.493077
69.036000	0.217216	0.116428	0.247065	0.350133	5785.178482	26021.299735	3671.587196	11677.919683
69.536000	0.221206	0.119598	0.249249	0.355236	5777.278663	25917.891168	3664.875151	11572.879635
70.036500	0.224035	0.120705	0.250452	0.359548	5766.784110	25747.317439	3657.776933	11485.070552
70.536500	0.222819	0.121537	0.253950	0.368153	5698.173311	25338.819130	3646.221914	11312.413342
71.037500	0.231398	0.125129	0.257355	0.367383	5763.445828	25567.157538	3655.656541	11327.727542
71.539500	0.233665	0.125162	0.261332	0.369756	5762.700700	25444.404435	3659.305119	11280.632979
72.038000	0.236325	0.126763	0.261178	0.371902	5766.330442	25415.909046	3654.076643	11238.263001
72.538000	0.237762	0.128882	0.266751	0.379922	5720.178550	25109.615085	3648.545842	11081.765646
73.035500	0.241523	0.130120	0.273696	0.378202	5758.559085	25262.664433	3668.277900	11115.094561
73.535500	0.242481	0.132049	0.271763	0.380737	5747.468864	25231.227397	3658.054918	11066.028816
74.039000	0.247720	0.134034	0.275095	0.383386	5765.707006	25196.840804	3659.609786	11015.062760
74.536000	0.248128	0.134857	0.278032	0.390750	5716.963790	24860.843571	3649.567273	10874.996434
75.036500	0.251963	0.137647	0.282458	0.388540	5759.276743	25117.224655	3664.658998	10916.783270
75.536500	0.254648	0.138805	0.285454	0.390018	5767.796984	25100.697364	3668.141240	10888.815866
76.040000	0.256763	0.139304	0.285155	0.391315	5773.580737	25059.617320	3664.478976	10864.353546
76.534500	0.257358	0.140450	0.285124	0.397763	5732.419247	24788.588975	3649.747656	10743.815177
77.035000	0.261983	0.142381	0.289283	0.395398	5781.644789	25007.975897	3664.584170	10787.822564
77.534500	0.261957	0.142771	0.295932	0.395985	5777.295067	24997.821051	3678.569634	10776.869787
78.036000	0.265987	0.145495	0.292878	0.398362	5789.029475	25015.624267	3666.027837	10732.695663
78.539000	0.267848	0.146576	0.296513	0.400745	5785.320482	24948.911123	3668.905119	10688.664631
79.038000	0.267396	0.145464	0.294558	0.400206	5785.941200	24919.567803	3665.653455	10698.604085
79.536500	0.267767	0.145943	0.297185	0.401889	5776.628695	24858.148990	3667.821253	10667.611079
80.038000	0.271270	0.148672	0.293559	0.404311	5784.297233	24873.805005	3654.014812	10623.213096
80.537000	0.270528	0.149113	0.301082	0.405756	5768.796616	24822.628838	3667.889627	10596.842461
81.037500	0.273477	0.152132	0.300990	0.408525	5770.073231	24835.386913	3661.335432	10546.568198
81.534500	0.273642	0.151325	0.301619	0.408603	5770.683722	24790.328655	3662.591796	10545.145025
82.035000	0.274529	0.151060	0.301421	0.409463	5770.872561	24733.222153	3660.177410	10529.595837
82.535500	0.276109	0.153819	0.305461	0.418194	5720.705739	24432.647606	3649.535634	10373.474971
83.038000	0.280898	0.154354	0.306321	0.414010	5783.790796	24669.818170	3660.981414	10447.892368
83.536000	0.279254	0.154869	0.303329	0.414279	5770.233759	24682.261356	3653.565446	10443.085395
84.036000	0.283421	0.154959	0.309098	0.416195	5786.196148	24590.080237	3662.333573	10408.931158
84.536500	0.281565	0.156479	0.309864	0.423245	5723.518364	24313.387868	3648.072205	10284.559553
85.036500	0.287248	0.158717	0.311948	0.420589	5782.165653	24558.085348	3658.811876	10331.178178
85.537000	0.285129	0.158484	0.315213	0.420419	5768.355645	24554.944297	3666.666089	10334.176467
86.035000	0.289437	0.160266	0.318041	0.423645	5776.021959	24482.488705	3665.753604	10277.572365
86.535000	0.288442	0.159833	0.317147	0.430400	5721.582146	24125.233105	3648.359434	10160.379653
87.035000	0.291960	0.159848	0.313886	0.425490	5780.827129	24369.387142	3652.086611	10245.389041
87.535000	0.292273	0.161378	0.319718	0.428269	5763.378139	24307.233302	3659.016841	10197.163207
88.036000	0.292595	0.161191	0.317556	0.429384	5757.778926	24242.552295	3651.578272	10177.888023
88.536000	0.291475	0.161452	0.321972	0.436850	5697.889508	23888.507875	3644.706862	10050.186732
89.036000	0.296998	0.163218	0.319816	0.433938	5756.716249	24117.706940	3646.404862	10099.736084
89.536500	0.297222	0.164245	0.327266	0.436010	5743.727953	24066.312620	3658.576564	10064.442334
90.037000	0.299152	0.165106	0.328292	0.438151	5742.248960	24003.442649	3656.039564	10028.146626
90.537500	0.295127	0.164035	0.324429	0.444685	5669.134234	23634.055858	3632.703012	9918.498376
91.037000	0.302425	0.165797	0.329824	0.441735	5740.076619	23862.194918	3651.392311	9967.808287
91.535000	0.300485	0.166284	0.333672	0.442331	5722.361959	23856.859552	3658.769874	9957.812765
92.034500	0.300868	0.166084	0.330322	0.443474	5717.079306	23791.652718	3648.590012	9938.706030
92.535000	0.299112	0.166786	0.333687	0.451775	5647.973928	23426.124042	3637.523969	9801.364863
93.036000	0.302111	0.167725	0.333499	0.447397	5698.505632	23681.237038	3646.910276	9873.477513
93.536000	0.302010	0.167837	0.334793	0.447307	5698.434533	23690.960594	3650.029256	9874.967799
94.036000	0.306574	0.168372	0.335411	0.449103	5717.609113	23630.150300	3647.370916	9845.282790
94.537000	0.299662	0.166579	0.336279	0.453899	5637.301554	23315.300162	3638.567261	9766.650496
95.037000	0.305788	0.168816	0.335223	0.451737	5693.928581	23524.955105	3641.037988	9801.991592
95.537500	0.305419	0.168613	0.333710	0.451716	5691.523279	23516.252570	3637.705867	9802.331024
96.037500	0.308787	0.171865	0.337586	0.455489	5688.742769	23491.358104	3637.937943	9740.774055
96.535000	0.303069	0.168162	0.339423	0.458183	5631.370070	23187.591457	3636.026422	9697.132151
97.038500	0.307116	0.169302	0.333256	0.455475	5677.356640	23369.781059	3628.361630	9741.006551
97.536000	0.310399	0.170878	0.338348	0.456972	5689.626587	23373.524366	3636.329281	9716.718790
