sample name	sample
index	1427
start time	 05-10-2021  12:24:24 PM


Wavelength (nm)	Absorbance
494.344910	0.065408
494.563924	0.065408
494.782919	0.065408
495.001897	0.003569
495.220856	-0.012628
495.439797	-0.020157
495.658719	-0.028126
495.877624	-0.040388
496.096510	-0.044718
496.315378	-0.040869
496.534227	-0.036439
496.753059	-0.033141
496.971872	-0.037108
497.190667	0.024170
497.409444	0.058119
497.628203	0.068862
497.846943	0.073375
498.065665	0.078818
498.284369	0.081496
498.503055	0.084126
498.721723	0.084912
498.940372	0.086056
499.159003	0.087194
499.377616	0.086598
499.596210	0.087069
499.814787	0.087997
500.033345	0.086594
500.251885	0.086353
500.470406	0.086721
500.688910	0.087342
500.907395	0.088083
501.125862	0.088065
501.344311	0.087972
501.562742	0.087696
501.781154	0.087673
501.999548	0.088365
502.217924	0.088588
502.436282	0.088316
502.654621	0.088072
502.872942	0.087953
503.091245	0.088000
503.309530	0.087936
503.527797	0.087677
503.746045	0.087505
503.964275	0.087792
504.182487	0.087657
504.400681	0.087188
504.618856	0.086634
504.837013	0.086624
505.055152	0.086185
505.273273	0.086742
505.491376	0.086373
505.709460	0.086754
505.927526	0.086184
506.145574	0.085872
506.363604	0.086435
506.581615	0.086770
506.799608	0.086968
507.017583	0.087332
507.235540	0.087189
507.453478	0.087948
507.671399	0.087839
507.889301	0.087815
508.107185	0.088219
508.325050	0.088220
508.542898	0.088491
508.760727	0.088462
508.978538	0.088278
509.196330	0.088445
509.414105	0.087936
509.631861	0.088009
509.849599	0.087749
510.067319	0.088066
510.285021	0.087494
510.502704	0.088096
510.720369	0.088072
510.938016	0.088701
511.155645	0.089205
511.373255	0.090222
511.590848	0.090561
511.808422	0.091745
512.025977	0.092015
512.243515	0.092376
512.461034	0.092058
512.678536	0.092508
512.896018	0.092480
513.113483	0.091811
513.330930	0.091134
513.548358	0.091267
513.765768	0.091464
513.983160	0.090862
514.200533	0.090857
514.417889	0.091304
514.635226	0.090718
514.852545	0.091527
515.069845	0.092182
515.287128	0.092408
515.504392	0.092050
515.721638	0.091899
515.938866	0.092466
516.156075	0.092782
516.373267	0.092347
516.590440	0.092054
516.807594	0.090838
517.024731	0.090433
517.241850	0.090631
517.458950	0.091108
517.676032	0.091065
517.893095	0.091123
518.110141	0.090862
518.327168	0.091195
518.544177	0.091788
518.761168	0.091940
518.978141	0.091864
519.195095	0.091185
519.412031	0.091110
519.628949	0.091605
519.845849	0.091197
520.062731	0.090808
520.279594	0.090492
520.496439	0.089792
520.713266	0.089309
520.930074	0.089279
521.146865	0.090042
521.363637	0.089935
521.580391	0.089494
521.797127	0.089900
522.013844	0.091323
522.230543	0.091165
522.447224	0.091417
522.663887	0.092073
522.880532	0.092311
523.097158	0.091849
523.313766	0.091929
523.530356	0.092116
523.746928	0.092349
523.963481	0.091801
524.180017	0.092065
524.396534	0.092569
524.613032	0.093165
524.829513	0.093224
525.045975	0.093824
525.262420	0.094002
525.478845	0.093992
525.695253	0.093377
525.911643	0.093351
526.128014	0.094169
526.344367	0.094166
526.560702	0.093815
526.777018	0.094242
526.993316	0.094181
527.209597	0.094210
527.425858	0.094591
527.642102	0.095348
527.858328	0.095442
528.074535	0.095099
528.290724	0.095282
528.506894	0.095616
528.723047	0.094992
528.939181	0.095334
529.155297	0.095614
529.371395	0.095122
529.587475	0.095137
529.803536	0.095335
530.019579	0.095175
530.235604	0.095260
530.451611	0.095405
530.667600	0.095608
530.883570	0.094825
531.099522	0.094988
531.315456	0.095062
531.531372	0.095170
531.747269	0.095748
531.963148	0.095421
532.179009	0.095558
532.394852	0.095794
532.610676	0.096108
532.826482	0.096805
533.042271	0.096744
533.258040	0.097026
533.473792	0.096717
533.689525	0.096024
533.905240	0.096333
534.120937	0.096638
534.336616	0.096244
534.552277	0.096348
534.767919	0.096713
534.983543	0.096636
535.199149	0.096432
535.414736	0.097473
535.630306	0.097658
535.845857	0.098670
536.061390	0.098490
536.276904	0.098743
536.492401	0.098850
536.707879	0.098820
536.923339	0.098969
537.138781	0.098932
537.354204	0.098694
537.569610	0.099150
537.784997	0.098507
538.000366	0.098422
538.215716	0.097935
538.431049	0.097910
538.646363	0.097617
538.861659	0.097745
539.076937	0.098210
539.292196	0.097958
539.507438	0.097929
539.722661	0.097996
539.937866	0.098288
540.153052	0.099085
540.368221	0.099200
540.583371	0.099556
540.798503	0.099495
541.013617	0.099293
541.228712	0.099051
541.443789	0.098629
541.658848	0.098650
541.873889	0.098779
542.088912	0.098731
542.303916	0.098561
542.518902	0.098843
542.733870	0.099020
542.948820	0.099228
543.163752	0.099718
543.378665	0.100116
543.593560	0.100556
543.808437	0.100414
544.023295	0.100608
544.238136	0.101162
544.452958	0.101124
544.667762	0.101191
544.882548	0.101477
545.097315	0.101467
545.312064	0.101505
545.526795	0.101406
545.741508	0.101674
545.956203	0.101313
546.170879	0.100957
546.385537	0.100889
546.600177	0.101032
546.814799	0.101176
547.029402	0.100846
547.243988	0.100624
547.458555	0.100660
547.673103	0.100906
547.887634	0.101259
548.102146	0.102085
548.316640	0.102358
548.531116	0.102386
548.745574	0.102344
548.960013	0.102780
549.174435	0.102908
549.388838	0.102866
549.603222	0.102603
549.817589	0.102276
550.031937	0.102198
550.246267	0.102209
550.460579	0.102415
550.674873	0.102600
550.889148	0.102927
551.103405	0.103780
551.317644	0.103776
551.531865	0.104081
551.746068	0.104897
551.960252	0.104801
552.174418	0.104620
552.388566	0.104835
552.602696	0.104632
552.816807	0.104393
553.030900	0.104025
553.244975	0.104293
553.459032	0.104633
553.673070	0.104408
553.887091	0.104566
554.101093	0.104811
554.315077	0.104656
554.529042	0.104953
554.742990	0.105297
554.956919	0.105278
555.170830	0.105318
555.384722	0.105111
555.598597	0.105137
555.812453	0.104895
556.026291	0.104850
556.240111	0.105235
556.453913	0.105137
556.667696	0.104691
556.881461	0.104968
557.095208	0.105152
557.308937	0.105209
557.522647	0.105345
557.736339	0.105225
557.950013	0.105443
558.163669	0.104830
558.377307	0.104994
558.590926	0.105309
558.804527	0.105483
559.018110	0.105621
559.231675	0.105769
559.445221	0.105640
559.658749	0.106108
559.872259	0.106136
560.085751	0.106322
560.299225	0.106219
560.512680	0.106227
560.726117	0.105968
560.939536	0.106160
561.152937	0.106212
561.366319	0.106323
561.579683	0.106135
561.793029	0.106029
562.006357	0.106431
562.219667	0.106850
562.432958	0.106961
562.646231	0.107285
562.859486	0.107426
563.072723	0.107490
563.285941	0.107708
563.499141	0.108093
563.712323	0.108317
563.925487	0.108380
564.138632	0.108435
564.351760	0.109114
564.564869	0.109145
564.777960	0.108909
564.991032	0.108825
565.204087	0.109301
565.417123	0.109264
565.630141	0.109447
565.843140	0.109441
566.056122	0.109509
566.269085	0.109110
566.482030	0.109152
566.694957	0.109080
566.907866	0.109006
567.120756	0.108777
567.333628	0.109096
567.546482	0.108942
567.759318	0.109039
567.972135	0.108939
568.184935	0.109064
568.397716	0.109210
568.610478	0.109646
568.823223	0.109933
569.035949	0.109843
569.248657	0.109794
569.461347	0.110084
569.674019	0.110188
569.886672	0.110378
570.099308	0.110586
570.311925	0.110575
570.524523	0.110648
570.737104	0.110726
570.949666	0.110806
571.162210	0.110783
571.374736	0.111009
571.587244	0.111087
571.799733	0.111235
572.012205	0.111215
572.224658	0.111255
572.437092	0.111031
572.649509	0.111184
572.861907	0.111523
573.074287	0.111767
573.286649	0.111665
573.498993	0.111960
573.711318	0.111869
573.923625	0.111940
574.135914	0.112325
574.348185	0.112614
574.560438	0.112915
574.772672	0.112584
574.984888	0.112669
575.197086	0.112724
575.409266	0.112778
575.621427	0.112951
575.833570	0.113146
576.045695	0.113252
576.257802	0.113351
576.469890	0.113348
576.681961	0.113268
576.894013	0.113264
577.106046	0.113485
577.318062	0.113584
577.530059	0.113883
577.742039	0.113828
577.954000	0.113815
578.165942	0.113890
578.377867	0.113865
578.589773	0.114588
578.801661	0.114919
579.013531	0.115448
579.225382	0.115661
579.437216	0.115487
579.649031	0.115679
579.860828	0.115689
580.072606	0.116018
580.284367	0.116146
580.496109	0.116025
580.707833	0.115864
580.919539	0.115328
581.131227	0.115131
581.342896	0.115380
581.554547	0.115727
581.766180	0.115665
581.977795	0.115693
582.189391	0.115697
582.400969	0.115919
582.612529	0.115996
582.824071	0.116357
583.035595	0.116536
583.247100	0.116595
583.458587	0.116633
583.670056	0.116924
583.881506	0.116585
584.092939	0.116959
584.304353	0.117126
584.515749	0.117549
584.727127	0.117344
584.938486	0.117633
585.149828	0.117788
585.361151	0.117915
585.572456	0.118400
585.783742	0.118809
585.995011	0.119160
586.206261	0.119205
586.417493	0.119109
586.628706	0.119788
586.839902	0.120203
587.051079	0.120387
587.262238	0.120566
587.473379	0.120502
587.684502	0.120517
587.895606	0.120316
588.106692	0.120004
588.317760	0.119998
588.528810	0.119619
588.739841	0.119231
588.950855	0.119029
589.161850	0.119033
589.372827	0.118943
589.583785	0.119234
589.794726	0.119212
590.005648	0.119842
590.216552	0.120208
590.427437	0.120343
590.638305	0.120374
590.849154	0.120829
591.059985	0.120524
591.270798	0.120790
591.481592	0.121073
591.692369	0.121277
591.903127	0.121284
592.113867	0.120843
592.324588	0.120801
592.535292	0.121040
592.745977	0.120637
592.956644	0.120916
593.167293	0.120871
593.377923	0.120648
593.588536	0.120673
593.799130	0.120484
594.009706	0.120478
594.220263	0.120412
594.430803	0.120440
594.641324	0.120812
594.851827	0.120854
595.062312	0.120731
595.272778	0.120587
595.483227	0.120566
595.693657	0.120633
595.904069	0.121003
596.114462	0.121308
596.324838	0.121354
596.535195	0.121112
596.745534	0.121057
596.955855	0.121180
597.166157	0.121360
597.376441	0.121374
597.586707	0.121526
597.796955	0.121523
598.007185	0.121924
598.217396	0.121727
598.427589	0.122174
598.637764	0.122348
598.847921	0.122567
599.058060	0.122762
599.268180	0.122852
599.478282	0.122588
599.688366	0.122610
599.898431	0.122506
600.108479	0.122794
600.318508	0.122601
600.528519	0.122628
600.738511	0.122343
600.948486	0.122206
601.158442	0.122226
601.368380	0.122789
601.578300	0.122863
601.788202	0.122712
601.998085	0.122960
602.207950	0.123059
602.417797	0.122953
602.627626	0.123104
602.837436	0.123473
603.047228	0.123284
603.257002	0.123290
603.466758	0.123268
603.676496	0.123416
603.886215	0.123101
604.095916	0.123021
604.305599	0.123217
604.515264	0.123123
604.724910	0.122946
604.934538	0.123356
605.144148	0.123344
605.353740	0.123447
605.563314	0.123503
605.772869	0.123545
605.982406	0.123914
606.191925	0.123929
606.401425	0.123975
606.610908	0.124077
606.820372	0.124149
607.029818	0.124407
607.239246	0.124435
607.448655	0.124495
607.658047	0.124785
607.867420	0.124615
608.076775	0.124726
608.286111	0.125093
608.495430	0.125003
608.704730	0.125047
608.914012	0.124904
609.123275	0.125100
609.332521	0.125198
609.541748	0.125278
609.750957	0.125599
609.960148	0.125643
610.169321	0.125750
610.378475	0.125968
610.587611	0.126282
610.796729	0.126095
611.005829	0.126470
611.214910	0.126552
611.423974	0.126536
611.633019	0.126490
611.842045	0.126763
612.051054	0.126544
612.260044	0.126888
612.469017	0.126744
612.677970	0.127392
612.886906	0.127120
613.095824	0.127231
613.304723	0.127335
613.513604	0.127360
613.722467	0.127558
613.931311	0.127881
614.140138	0.127829
614.348946	0.127663
614.557736	0.127321
614.766507	0.127293
614.975261	0.127270
615.183996	0.127146
615.392713	0.127326
615.601412	0.127016
615.810092	0.127085
616.018754	0.127053
616.227399	0.127236
616.436024	0.127258
616.644632	0.127448
616.853222	0.127585
617.061793	0.128197
617.270346	0.128034
617.478880	0.128199
617.687397	0.128341
617.895895	0.128448
618.104375	0.128729
618.312837	0.129095
618.521281	0.129088
618.729706	0.129100
618.938113	0.128903
619.146502	0.129062
619.354873	0.129292
619.563226	0.129181
619.771560	0.129265
619.979876	0.129113
620.188174	0.128891
620.396453	0.129050
620.604715	0.129135
620.812958	0.129114
621.021183	0.129249
621.229390	0.129274
621.437578	0.129689
621.645748	0.129763
621.853900	0.130025
622.062034	0.130182
622.270150	0.130195
622.478247	0.130436
622.686326	0.130558
622.894387	0.130691
623.102430	0.130899
623.310454	0.130728
623.518461	0.130865
623.726449	0.131013
623.934418	0.131030
624.142370	0.131290
624.350303	0.131174
624.558218	0.131054
624.766115	0.131061
624.973994	0.131026
625.181855	0.130924
625.389697	0.130653
625.597521	0.130522
625.805327	0.130536
626.013114	0.130316
626.220883	0.130199
626.428634	0.130193
626.636367	0.130029
626.844082	0.130038
627.051778	0.130151
627.259457	0.130325
627.467117	0.130268
627.674758	0.130309
627.882382	0.130482
628.089987	0.130624
628.297574	0.130637
628.505143	0.130884
628.712694	0.130863
628.920226	0.130779
629.127740	0.130746
629.335236	0.130934
629.542714	0.130880
629.750174	0.130877
629.957615	0.131039
630.165038	0.131173
630.372443	0.131062
630.579829	0.131047
630.787198	0.131123
630.994548	0.131346
631.201880	0.131365
631.409194	0.131701
631.616489	0.131853
631.823766	0.131743
632.031025	0.132158
632.238266	0.132306
632.445489	0.132323
632.652693	0.132403
632.859879	0.132249
633.067047	0.132184
633.274197	0.132175
633.481329	0.132246
633.688442	0.132325
633.895537	0.131995
634.102614	0.132314
634.309672	0.132524
634.516713	0.132728
634.723735	0.132871
634.930739	0.133020
635.137724	0.133103
635.344692	0.132989
635.551641	0.133030
635.758572	0.133005
635.965485	0.132802
636.172379	0.132756
636.379256	0.132763
636.586114	0.132667
636.792954	0.132791
636.999775	0.132929
637.206579	0.132893
637.413364	0.133134
637.620131	0.133362
637.826880	0.133723
638.033610	0.134000
638.240323	0.134113
638.447017	0.134583
638.653692	0.134927
638.860350	0.135118
639.066990	0.135598
639.273611	0.135625
639.480214	0.135912
639.686798	0.136063
639.893365	0.136234
640.099913	0.136587
640.306443	0.136700
640.512955	0.136419
640.719449	0.136460
640.925924	0.136480
641.132381	0.136649
641.338820	0.136605
641.545241	0.136600
641.751644	0.136493
641.958028	0.136407
642.164394	0.136262
642.370742	0.136411
642.577071	0.136437
642.783383	0.136648
642.989676	0.136748
643.195951	0.136746
643.402207	0.136681
643.608446	0.136789
643.814666	0.136700
644.020868	0.136771
644.227052	0.136935
644.433218	0.136816
644.639365	0.136789
644.845494	0.136643
645.051605	0.136566
645.257698	0.136840
645.463772	0.136769
645.669828	0.136806
645.875866	0.136733
646.081886	0.136527
646.287888	0.136647
646.493871	0.136493
646.699836	0.136621
646.905783	0.136858
647.111712	0.136653
647.317622	0.136792
647.523514	0.136673
647.729388	0.136883
647.935244	0.137100
648.141082	0.137187
648.346901	0.137281
648.552702	0.137226
648.758485	0.137358
648.964250	0.137206
649.169996	0.137074
649.375724	0.137389
649.581434	0.137484
649.787126	0.137548
649.992800	0.137515
650.198455	0.137585
650.404092	0.137912
650.609711	0.137992
650.815311	0.138260
651.020894	0.138426
651.226458	0.138287
651.432004	0.138345
651.637532	0.138316
651.843041	0.138319
652.048532	0.138235
652.254006	0.138140
652.459460	0.138216
652.664897	0.138279
652.870315	0.138326
653.075716	0.138539
653.281097	0.138744
653.486461	0.138960
653.691807	0.139124
653.897134	0.139557
654.102443	0.139783
654.307734	0.139934
654.513006	0.140223
654.718261	0.140562
654.923497	0.140627
655.128715	0.140556
655.333915	0.140617
655.539096	0.140610
655.744259	0.140652
655.949404	0.140596
656.154531	0.140371
656.359640	0.140209
656.564730	0.140176
656.769802	0.140183
656.974856	0.140531
657.179892	0.140655
657.384909	0.140893
657.589908	0.140950
657.794889	0.141051
657.999852	0.141270
658.204797	0.141384
658.409723	0.141576
658.614631	0.141885
658.819521	0.141822
659.024393	0.141791
659.229246	0.141881
659.434081	0.141691
659.638898	0.141969
659.843697	0.142047
660.048478	0.141949
660.253240	0.141856
660.457984	0.141731
660.662710	0.141714
660.867417	0.141777
661.072107	0.141667
661.276778	0.141977
661.481431	0.141846
661.686066	0.141949
661.890682	0.142236
662.095281	0.142383
662.299861	0.142437
662.504422	0.142774
662.708966	0.143031
662.913491	0.143286
663.117999	0.143370
663.322488	0.143491
663.526958	0.143499
663.731411	0.143744
663.935845	0.143620
664.140261	0.143881
664.344659	0.143788
664.549038	0.143611
664.753400	0.143700
664.957743	0.143702
665.162068	0.143960
665.366375	0.144231
665.570663	0.144176
665.774933	0.144421
665.979185	0.144721
666.183419	0.144796
666.387635	0.145021
666.591832	0.144881
666.796011	0.145036
667.000172	0.145025
667.204315	0.145049
667.408439	0.144983
667.612545	0.144970
667.816634	0.144924
668.020703	0.144813
668.224755	0.144925
668.428788	0.145176
668.632803	0.145075
668.836800	0.145118
669.040779	0.145146
669.244739	0.145323
669.448681	0.145525
669.652605	0.145620
669.856511	0.145850
670.060399	0.145944
670.264268	0.146115
670.468119	0.146410
670.671952	0.146484
670.875767	0.146740
671.079563	0.146999
671.283341	0.147106
671.487101	0.147032
671.690843	0.147263
671.894567	0.147536
672.098272	0.147903
672.301959	0.147992
672.505628	0.148140
672.709278	0.147973
672.912911	0.148163
673.116525	0.148282
673.320121	0.148388
673.523699	0.148376
673.727258	0.148309
673.930799	0.147904
674.134322	0.147911
674.337827	0.147849
674.541314	0.147785
674.744782	0.147240
674.948232	0.147127
675.151664	0.147093
675.355078	0.146952
675.558474	0.147071
675.761851	0.147183
675.965210	0.147011
676.168551	0.147060
676.371873	0.147238
676.575178	0.147497
676.778464	0.147394
676.981732	0.147407
677.184981	0.147613
677.388213	0.147451
677.591426	0.147406
677.794621	0.147756
677.997798	0.148009
678.200956	0.148181
678.404097	0.148459
678.607219	0.148912
678.810323	0.149276
679.013408	0.149414
679.216476	0.149832
679.419525	0.150229
679.622556	0.150538
679.825569	0.150553
680.028563	0.150557
680.231540	0.150559
680.434498	0.150614
680.637438	0.150386
680.840359	0.150402
681.043263	0.150321
681.246148	0.150194
681.449015	0.150014
681.651864	0.150127
681.854694	0.150350
682.057506	0.150756
682.260301	0.150781
682.463076	0.151008
682.665834	0.151222
682.868573	0.151296
683.071295	0.151503
683.273998	0.151683
683.476682	0.151789
683.679349	0.151846
683.881997	0.151816
684.084627	0.151864
684.287239	0.151943
684.489833	0.151943
684.692408	0.151994
684.894965	0.152212
685.097504	0.152313
685.300025	0.152419
685.502527	0.152386
685.705012	0.152351
685.907478	0.152450
686.109925	0.152402
686.312355	0.152594
686.514766	0.152508
686.717159	0.152400
686.919534	0.152352
687.121891	0.152221
687.324230	0.152373
687.526550	0.152380
687.728852	0.152464
687.931136	0.152668
688.133401	0.152551
688.335649	0.152764
688.537878	0.152701
688.740089	0.152610
688.942281	0.152712
689.144456	0.152745
689.346612	0.152827
689.548750	0.152754
689.750870	0.152633
689.952971	0.152725
690.155055	0.152733
690.357120	0.152879
690.559167	0.153084
690.761195	0.153294
690.963206	0.153178
691.165198	0.153201
691.367172	0.153336
691.569128	0.153376
691.771065	0.153438
691.972984	0.153461
692.174885	0.153657
692.376768	0.153756
692.578633	0.153545
692.780479	0.153677
692.982308	0.153729
693.184118	0.153650
693.385909	0.153921
