sample name	sample
index	925
start time	 04-12-2021  12:03:11 PM


Wavelength (nm)	Absorbance
494.344910	NaN
494.563924	NaN
494.782919	NaN
495.001897	0.367063
495.220856	NaN
495.439797	NaN
495.658719	-0.194380
495.877624	-0.403867
496.096510	-0.685561
496.315378	-0.785628
496.534227	-0.628844
496.753059	-0.629153
496.971872	-0.307067
497.190667	0.032620
497.409444	0.046270
497.628203	0.052881
497.846943	0.054163
498.065665	0.055976
498.284369	0.056542
498.503055	0.056835
498.721723	0.056590
498.940372	0.056035
499.159003	0.056272
499.377616	0.057175
499.596210	0.057084
499.814787	0.058110
500.033345	0.057522
500.251885	0.057785
500.470406	0.057877
500.688910	0.058825
500.907395	0.059509
501.125862	0.058329
501.344311	0.057581
501.562742	0.057352
501.781154	0.056224
501.999548	0.056697
502.217924	0.056593
502.436282	0.058195
502.654621	0.057732
502.872942	0.057925
503.091245	0.059929
503.309530	0.059822
503.527797	0.060232
503.746045	0.060698
503.964275	0.060912
504.182487	0.061952
504.400681	0.060368
504.618856	0.060961
504.837013	0.061126
505.055152	0.060199
505.273273	0.060901
505.491376	0.061425
505.709460	0.061864
505.927526	0.062833
506.145574	0.062195
506.363604	0.062711
506.581615	0.062384
506.799608	0.062835
507.017583	0.062806
507.235540	0.063034
507.453478	0.062795
507.671399	0.062787
507.889301	0.061960
508.107185	0.062466
508.325050	0.062141
508.542898	0.062176
508.760727	0.062516
508.978538	0.062119
509.196330	0.062384
509.414105	0.063035
509.631861	0.063347
509.849599	0.063608
510.067319	0.063831
510.285021	0.063989
510.502704	0.063966
510.720369	0.064294
510.938016	0.065790
511.155645	0.066159
511.373255	0.066087
511.590848	0.066270
511.808422	0.065871
512.025977	0.065618
512.243515	0.066117
512.461034	0.066428
512.678536	0.065016
512.896018	0.064959
513.113483	0.065076
513.330930	0.065513
513.548358	0.065544
513.765768	0.066760
513.983160	0.067073
514.200533	0.066956
514.417889	0.067896
514.635226	0.068438
514.852545	0.069356
515.069845	0.069363
515.287128	0.069064
515.504392	0.069460
515.721638	0.069757
515.938866	0.070266
516.156075	0.070994
516.373267	0.071247
516.590440	0.072140
516.807594	0.070983
517.024731	0.070706
517.241850	0.071724
517.458950	0.071485
517.676032	0.070950
517.893095	0.070728
518.110141	0.070806
518.327168	0.070395
518.544177	0.070452
518.761168	0.071211
518.978141	0.071658
519.195095	0.071311
519.412031	0.071401
519.628949	0.071879
519.845849	0.072187
520.062731	0.072420
520.279594	0.072651
520.496439	0.072850
520.713266	0.073568
520.930074	0.073951
521.146865	0.073600
521.363637	0.073950
521.580391	0.074578
521.797127	0.074991
522.013844	0.074499
522.230543	0.074938
522.447224	0.075678
522.663887	0.075570
522.880532	0.075443
523.097158	0.075905
523.313766	0.076461
523.530356	0.076102
523.746928	0.076592
523.963481	0.077993
524.180017	0.078122
524.396534	0.077920
524.613032	0.077894
524.829513	0.078270
525.045975	0.078587
525.262420	0.079035
525.478845	0.079541
525.695253	0.079441
525.911643	0.078600
526.128014	0.079042
526.344367	0.079467
526.560702	0.080022
526.777018	0.081032
526.993316	0.081979
527.209597	0.082305
527.425858	0.083031
527.642102	0.083763
527.858328	0.084521
528.074535	0.084960
528.290724	0.085144
528.506894	0.085694
528.723047	0.086015
528.939181	0.086285
529.155297	0.086390
529.371395	0.086404
529.587475	0.086409
529.803536	0.086835
530.019579	0.087467
530.235604	0.087606
530.451611	0.087517
530.667600	0.087179
530.883570	0.087178
531.099522	0.087563
531.315456	0.088159
531.531372	0.088492
531.747269	0.089145
531.963148	0.089045
532.179009	0.089744
532.394852	0.090195
532.610676	0.090928
532.826482	0.091674
533.042271	0.091922
533.258040	0.092307
533.473792	0.092618
533.689525	0.093367
533.905240	0.093620
534.120937	0.094085
534.336616	0.094807
534.552277	0.094861
534.767919	0.095030
534.983543	0.095346
535.199149	0.095272
535.414736	0.095799
535.630306	0.095610
535.845857	0.096305
536.061390	0.096510
536.276904	0.096488
536.492401	0.097156
536.707879	0.097278
536.923339	0.097773
537.138781	0.097677
537.354204	0.098190
537.569610	0.098681
537.784997	0.099280
538.000366	0.099792
538.215716	0.100164
538.431049	0.099865
538.646363	0.100446
538.861659	0.100616
539.076937	0.101199
539.292196	0.101201
539.507438	0.101371
539.722661	0.101283
539.937866	0.101338
540.153052	0.101770
540.368221	0.102821
540.583371	0.102970
540.798503	0.103518
541.013617	0.104054
541.228712	0.104279
541.443789	0.104419
541.658848	0.104784
541.873889	0.104755
542.088912	0.105273
542.303916	0.105109
542.518902	0.105440
542.733870	0.105736
542.948820	0.106290
543.163752	0.106454
543.378665	0.106510
543.593560	0.107071
543.808437	0.107809
544.023295	0.107670
544.238136	0.107804
544.452958	0.107984
544.667762	0.107942
544.882548	0.108083
545.097315	0.108638
545.312064	0.109029
545.526795	0.109253
545.741508	0.109057
545.956203	0.109745
546.170879	0.110578
546.385537	0.111103
546.600177	0.111516
546.814799	0.111929
547.029402	0.112189
547.243988	0.112896
547.458555	0.112983
547.673103	0.113072
547.887634	0.112837
548.102146	0.113130
548.316640	0.113498
548.531116	0.113982
548.745574	0.114048
548.960013	0.114456
549.174435	0.114599
549.388838	0.114773
549.603222	0.115554
549.817589	0.116532
550.031937	0.116616
550.246267	0.116619
550.460579	0.117133
550.674873	0.117089
550.889148	0.117176
551.103405	0.117476
551.317644	0.117951
551.531865	0.118532
551.746068	0.118645
551.960252	0.118994
552.174418	0.119701
552.388566	0.119647
552.602696	0.120242
552.816807	0.120662
553.030900	0.120746
553.244975	0.120914
553.459032	0.120795
553.673070	0.120758
553.887091	0.121038
554.101093	0.120962
554.315077	0.121174
554.529042	0.121745
554.742990	0.122095
554.956919	0.122644
555.170830	0.122749
555.384722	0.122844
555.598597	0.123184
555.812453	0.123139
556.026291	0.123293
556.240111	0.123223
556.453913	0.123100
556.667696	0.123139
556.881461	0.122822
557.095208	0.123062
557.308937	0.123467
557.522647	0.123395
557.736339	0.123830
557.950013	0.123923
558.163669	0.124218
558.377307	0.124056
558.590926	0.124309
558.804527	0.124583
559.018110	0.124644
559.231675	0.125076
559.445221	0.125205
559.658749	0.125243
559.872259	0.125816
560.085751	0.126020
560.299225	0.126388
560.512680	0.126217
560.726117	0.126562
560.939536	0.126963
561.152937	0.126670
561.366319	0.127072
561.579683	0.127537
561.793029	0.127514
562.006357	0.128150
562.219667	0.128467
562.432958	0.128946
562.646231	0.128937
562.859486	0.128989
563.072723	0.129472
563.285941	0.129682
563.499141	0.129715
563.712323	0.130318
563.925487	0.130094
564.138632	0.130086
564.351760	0.130593
564.564869	0.131067
564.777960	0.131521
564.991032	0.131964
565.204087	0.132130
565.417123	0.132289
565.630141	0.132035
565.843140	0.132388
566.056122	0.132881
566.269085	0.132830
566.482030	0.133120
566.694957	0.133074
566.907866	0.132849
567.120756	0.133031
567.333628	0.133165
567.546482	0.133514
567.759318	0.133700
567.972135	0.133777
568.184935	0.133901
568.397716	0.134233
568.610478	0.134572
568.823223	0.134834
569.035949	0.134941
569.248657	0.135241
569.461347	0.135122
569.674019	0.135186
569.886672	0.135048
570.099308	0.135057
570.311925	0.134810
570.524523	0.134801
570.737104	0.135021
570.949666	0.135371
571.162210	0.135321
571.374736	0.135588
571.587244	0.135744
571.799733	0.136122
572.012205	0.136465
572.224658	0.136926
572.437092	0.136876
572.649509	0.136765
572.861907	0.136867
573.074287	0.137091
573.286649	0.137327
573.498993	0.137371
573.711318	0.137641
573.923625	0.137760
574.135914	0.137833
574.348185	0.138554
574.560438	0.139021
574.772672	0.139096
574.984888	0.139418
575.197086	0.139529
575.409266	0.140004
575.621427	0.140415
575.833570	0.140589
576.045695	0.140520
576.257802	0.140701
576.469890	0.141093
576.681961	0.141029
576.894013	0.141536
577.106046	0.141356
577.318062	0.141635
577.530059	0.141566
577.742039	0.141820
577.954000	0.142309
578.165942	0.142403
578.377867	0.142790
578.589773	0.143274
578.801661	0.142919
579.013531	0.143235
579.225382	0.142786
579.437216	0.143139
579.649031	0.143231
579.860828	0.143306
580.072606	0.143291
580.284367	0.142964
580.496109	0.143055
580.707833	0.143480
580.919539	0.143701
581.131227	0.144403
581.342896	0.144304
581.554547	0.144399
581.766180	0.144271
581.977795	0.144298
582.189391	0.144535
582.400969	0.144914
582.612529	0.144666
582.824071	0.144812
583.035595	0.145011
583.247100	0.145635
583.458587	0.145817
583.670056	0.146252
583.881506	0.146691
584.092939	0.146831
584.304353	0.146814
584.515749	0.147366
584.727127	0.147778
584.938486	0.147968
585.149828	0.148097
585.361151	0.148318
585.572456	0.148517
585.783742	0.148558
585.995011	0.148816
586.206261	0.148803
586.417493	0.148644
586.628706	0.148700
586.839902	0.148513
587.051079	0.148378
587.262238	0.148147
587.473379	0.148292
587.684502	0.148620
587.895606	0.148508
588.106692	0.149411
588.317760	0.149971
588.528810	0.150304
588.739841	0.151016
588.950855	0.151495
589.161850	0.152399
589.372827	0.152760
589.583785	0.153062
589.794726	0.153742
590.005648	0.153992
590.216552	0.153853
590.427437	0.154267
590.638305	0.154345
590.849154	0.154642
591.059985	0.154704
591.270798	0.154669
591.481592	0.154567
591.692369	0.154741
591.903127	0.154810
592.113867	0.155494
592.324588	0.155353
592.535292	0.155723
592.745977	0.155758
592.956644	0.155698
593.167293	0.155855
593.377923	0.156211
593.588536	0.156249
593.799130	0.156177
594.009706	0.156064
594.220263	0.156213
594.430803	0.156032
594.641324	0.156155
594.851827	0.156495
595.062312	0.156665
595.272778	0.156742
595.483227	0.156846
595.693657	0.157007
595.904069	0.157123
596.114462	0.157333
596.324838	0.157318
596.535195	0.157479
596.745534	0.157406
596.955855	0.157582
597.166157	0.157872
597.376441	0.158059
597.586707	0.157963
597.796955	0.158190
598.007185	0.158651
598.217396	0.158698
598.427589	0.158785
598.637764	0.159187
598.847921	0.159551
599.058060	0.159330
599.268180	0.159396
599.478282	0.159545
599.688366	0.159702
599.898431	0.159343
600.108479	0.160126
600.318508	0.160117
600.528519	0.160182
600.738511	0.159985
600.948486	0.160695
601.158442	0.161109
601.368380	0.161295
601.578300	0.161631
601.788202	0.162146
601.998085	0.162127
602.207950	0.162472
602.417797	0.162836
602.627626	0.163345
602.837436	0.163342
603.047228	0.163367
603.257002	0.163444
603.466758	0.163667
603.676496	0.163819
603.886215	0.163803
604.095916	0.164182
604.305599	0.164397
604.515264	0.164893
604.724910	0.164905
604.934538	0.165112
605.144148	0.165823
605.353740	0.165904
605.563314	0.166140
605.772869	0.166512
605.982406	0.167025
606.191925	0.167199
606.401425	0.167016
606.610908	0.167347
606.820372	0.167334
607.029818	0.167389
607.239246	0.167394
607.448655	0.167643
607.658047	0.167631
607.867420	0.167316
608.076775	0.167314
608.286111	0.167496
608.495430	0.167476
608.704730	0.167858
608.914012	0.167760
609.123275	0.168037
609.332521	0.167890
609.541748	0.168012
609.750957	0.168145
609.960148	0.168384
610.169321	0.168564
610.378475	0.168996
610.587611	0.169099
610.796729	0.169446
611.005829	0.169419
611.214910	0.169455
611.423974	0.169566
611.633019	0.169812
611.842045	0.169771
612.051054	0.169768
612.260044	0.170049
612.469017	0.170201
612.677970	0.170346
612.886906	0.170402
613.095824	0.170992
613.304723	0.171428
613.513604	0.171527
613.722467	0.172029
613.931311	0.171979
614.140138	0.171720
614.348946	0.171805
614.557736	0.171917
614.766507	0.172363
614.975261	0.172100
615.183996	0.172032
615.392713	0.172247
615.601412	0.172099
615.810092	0.172711
616.018754	0.173059
616.227399	0.173245
616.436024	0.173345
616.644632	0.173352
616.853222	0.173831
617.061793	0.173969
617.270346	0.174198
617.478880	0.174518
617.687397	0.174452
617.895895	0.174369
618.104375	0.174405
618.312837	0.174719
618.521281	0.174869
618.729706	0.175095
618.938113	0.175264
619.146502	0.175493
619.354873	0.175602
619.563226	0.175909
619.771560	0.176407
619.979876	0.176522
620.188174	0.176676
620.396453	0.176881
620.604715	0.176986
620.812958	0.177327
621.021183	0.177467
621.229390	0.177498
621.437578	0.177389
621.645748	0.177484
621.853900	0.177861
622.062034	0.178126
622.270150	0.178300
622.478247	0.178500
622.686326	0.178613
622.894387	0.178759
623.102430	0.178929
623.310454	0.179173
623.518461	0.179347
623.726449	0.179406
623.934418	0.179562
624.142370	0.179779
624.350303	0.179809
624.558218	0.179834
624.766115	0.179840
624.973994	0.180410
625.181855	0.180626
625.389697	0.180788
625.597521	0.180992
625.805327	0.181008
626.013114	0.180841
626.220883	0.181090
626.428634	0.181449
626.636367	0.181621
626.844082	0.181585
627.051778	0.181757
627.259457	0.181721
627.467117	0.182046
627.674758	0.182371
627.882382	0.182931
628.089987	0.183319
628.297574	0.183474
628.505143	0.183632
628.712694	0.183531
628.920226	0.183903
629.127740	0.184312
629.335236	0.184575
629.542714	0.184737
629.750174	0.184885
629.957615	0.184713
630.165038	0.184721
630.372443	0.184717
630.579829	0.185095
630.787198	0.185343
630.994548	0.185502
631.201880	0.185215
631.409194	0.184942
631.616489	0.185175
631.823766	0.185533
632.031025	0.186014
632.238266	0.186585
632.445489	0.187125
632.652693	0.187257
632.859879	0.187315
633.067047	0.187879
633.274197	0.188200
633.481329	0.188310
633.688442	0.188504
633.895537	0.188448
634.102614	0.188393
634.309672	0.188038
634.516713	0.188010
634.723735	0.188244
634.930739	0.188358
635.137724	0.188767
635.344692	0.188768
635.551641	0.188776
635.758572	0.188995
635.965485	0.189144
636.172379	0.189532
636.379256	0.189680
636.586114	0.189933
636.792954	0.189902
636.999775	0.189939
637.206579	0.190303
637.413364	0.190532
637.620131	0.190647
637.826880	0.190799
638.033610	0.191003
638.240323	0.191295
638.447017	0.191463
638.653692	0.191882
638.860350	0.192028
639.066990	0.192124
639.273611	0.192225
639.480214	0.192518
639.686798	0.192790
639.893365	0.192723
640.099913	0.192801
640.306443	0.192775
640.512955	0.192914
640.719449	0.193263
640.925924	0.193475
641.132381	0.193719
641.338820	0.193555
641.545241	0.193651
641.751644	0.193968
641.958028	0.193934
642.164394	0.194045
642.370742	0.194154
642.577071	0.194082
642.783383	0.194253
642.989676	0.194386
643.195951	0.194877
643.402207	0.194877
643.608446	0.195025
643.814666	0.195489
644.020868	0.195883
644.227052	0.196087
644.433218	0.196756
644.639365	0.197070
644.845494	0.197255
645.051605	0.197273
645.257698	0.197543
645.463772	0.197754
645.669828	0.197946
645.875866	0.198155
646.081886	0.198438
646.287888	0.198120
646.493871	0.197911
646.699836	0.197942
646.905783	0.198272
647.111712	0.198459
647.317622	0.198705
647.523514	0.198799
647.729388	0.198819
647.935244	0.198850
648.141082	0.199000
648.346901	0.199464
648.552702	0.199869
648.758485	0.200138
648.964250	0.200331
649.169996	0.200432
649.375724	0.200546
649.581434	0.200919
649.787126	0.201331
649.992800	0.201629
650.198455	0.201955
650.404092	0.202112
650.609711	0.202227
650.815311	0.202663
651.020894	0.203073
651.226458	0.203672
651.432004	0.203790
651.637532	0.204043
651.843041	0.204227
652.048532	0.204498
652.254006	0.204454
652.459460	0.204389
652.664897	0.204560
652.870315	0.204789
653.075716	0.204811
653.281097	0.205121
653.486461	0.205171
653.691807	0.205467
653.897134	0.205656
654.102443	0.206178
654.307734	0.206989
654.513006	0.207232
654.718261	0.207254
654.923497	0.207389
655.128715	0.207581
655.333915	0.207909
655.539096	0.208282
655.744259	0.208214
655.949404	0.208331
656.154531	0.208310
656.359640	0.208533
656.564730	0.208947
656.769802	0.209556
656.974856	0.209670
657.179892	0.209744
657.384909	0.209987
657.589908	0.210309
657.794889	0.210340
657.999852	0.210547
658.204797	0.210597
658.409723	0.210732
658.614631	0.210714
658.819521	0.211126
659.024393	0.211480
659.229246	0.211587
659.434081	0.211872
659.638898	0.212536
659.843697	0.212554
660.048478	0.212823
660.253240	0.212980
660.457984	0.213008
660.662710	0.213187
660.867417	0.213409
661.072107	0.213614
661.276778	0.213699
661.481431	0.213777
661.686066	0.214141
661.890682	0.214548
662.095281	0.214985
662.299861	0.215441
662.504422	0.215438
662.708966	0.215645
662.913491	0.216090
663.117999	0.216481
663.322488	0.216751
663.526958	0.216967
663.731411	0.217126
663.935845	0.217052
664.140261	0.217156
664.344659	0.217508
664.549038	0.217530
664.753400	0.217594
664.957743	0.217924
665.162068	0.218225
665.366375	0.218571
665.570663	0.218607
665.774933	0.219068
665.979185	0.219333
666.183419	0.219848
666.387635	0.220269
666.591832	0.220607
666.796011	0.220655
667.000172	0.220689
667.204315	0.220748
667.408439	0.220952
667.612545	0.221275
667.816634	0.221400
668.020703	0.221402
668.224755	0.221362
668.428788	0.221263
668.632803	0.221671
668.836800	0.221895
669.040779	0.222035
669.244739	0.222405
669.448681	0.222606
669.652605	0.222952
669.856511	0.223253
670.060399	0.223375
670.264268	0.223860
670.468119	0.223894
670.671952	0.224380
670.875767	0.224940
671.079563	0.225429
671.283341	0.225761
671.487101	0.225985
671.690843	0.226353
671.894567	0.227115
672.098272	0.227387
672.301959	0.227618
672.505628	0.227611
672.709278	0.227827
672.912911	0.227941
673.116525	0.228001
673.320121	0.228330
673.523699	0.228533
673.727258	0.228834
673.930799	0.229152
674.134322	0.229583
674.337827	0.229916
674.541314	0.229939
674.744782	0.230340
674.948232	0.230439
675.151664	0.230973
675.355078	0.231262
675.558474	0.231333
675.761851	0.231466
675.965210	0.231640
676.168551	0.231766
676.371873	0.232062
676.575178	0.232111
676.778464	0.232373
676.981732	0.232183
677.184981	0.232189
677.388213	0.232273
677.591426	0.232615
677.794621	0.232859
677.997798	0.233012
678.200956	0.233498
678.404097	0.233975
678.607219	0.234056
678.810323	0.234400
679.013408	0.234540
679.216476	0.234750
679.419525	0.234810
679.622556	0.235002
679.825569	0.235321
680.028563	0.235529
680.231540	0.235530
680.434498	0.236021
680.637438	0.236158
680.840359	0.236273
681.043263	0.236371
681.246148	0.236602
681.449015	0.236974
681.651864	0.237324
681.854694	0.237547
682.057506	0.237939
682.260301	0.238067
682.463076	0.238359
682.665834	0.238651
682.868573	0.239165
683.071295	0.239102
683.273998	0.239090
683.476682	0.239389
683.679349	0.239344
683.881997	0.239291
684.084627	0.239355
684.287239	0.239322
684.489833	0.239572
684.692408	0.239750
684.894965	0.240358
685.097504	0.240688
685.300025	0.240871
685.502527	0.241072
685.705012	0.241295
685.907478	0.241595
686.109925	0.242080
686.312355	0.242583
686.514766	0.242818
686.717159	0.242904
686.919534	0.243090
687.121891	0.243503
687.324230	0.243888
687.526550	0.244001
687.728852	0.244356
687.931136	0.244657
688.133401	0.244698
688.335649	0.244822
688.537878	0.245216
688.740089	0.245550
688.942281	0.245616
689.144456	0.245939
689.346612	0.246207
689.548750	0.246318
689.750870	0.246228
689.952971	0.246429
690.155055	0.246646
690.357120	0.246550
690.559167	0.246748
690.761195	0.246808
690.963206	0.246953
691.165198	0.247392
691.367172	0.247753
691.569128	0.247927
691.771065	0.248181
691.972984	0.248515
692.174885	0.248918
692.376768	0.248953
692.578633	0.249366
692.780479	0.249599
692.982308	0.249448
693.184118	0.249786
693.385909	0.250047
693.587683	0.249991
