sample name	sample
index	1103
start time	 04-22-2021  12:45:35 PM


Wavelength (nm)	Absorbance
494.344910	NaN
494.563924	NaN
494.782919	NaN
495.001897	0.657215
495.220856	-0.171811
495.439797	-0.247218
495.658719	-0.180236
495.877624	-0.021805
496.096510	-0.075410
496.315378	-0.038777
496.534227	0.150450
496.753059	-0.002606
496.971872	-0.016473
497.190667	0.047100
497.409444	0.053528
497.628203	0.054140
497.846943	0.052395
498.065665	0.052458
498.284369	0.053476
498.503055	0.053137
498.721723	0.052803
498.940372	0.053809
499.159003	0.054108
499.377616	0.054997
499.596210	0.052656
499.814787	0.052807
500.033345	0.052323
500.251885	0.051532
500.470406	0.050561
500.688910	0.050953
500.907395	0.050820
501.125862	0.050370
501.344311	0.049982
501.562742	0.051266
501.781154	0.051245
501.999548	0.051116
502.217924	0.051794
502.436282	0.052295
502.654621	0.052189
502.872942	0.052525
503.091245	0.053164
503.309530	0.052215
503.527797	0.052188
503.746045	0.051131
503.964275	0.051830
504.182487	0.050857
504.400681	0.051939
504.618856	0.051948
504.837013	0.051156
505.055152	0.051014
505.273273	0.051888
505.491376	0.052125
505.709460	0.052513
505.927526	0.053521
506.145574	0.054131
506.363604	0.052504
506.581615	0.052995
506.799608	0.052868
507.017583	0.053152
507.235540	0.052971
507.453478	0.053056
507.671399	0.053130
507.889301	0.051820
508.107185	0.052353
508.325050	0.052705
508.542898	0.052430
508.760727	0.052252
508.978538	0.052081
509.196330	0.051863
509.414105	0.052011
509.631861	0.052128
509.849599	0.052756
510.067319	0.052063
510.285021	0.052243
510.502704	0.052415
510.720369	0.052994
510.938016	0.052850
511.155645	0.053215
511.373255	0.053741
511.590848	0.053784
511.808422	0.053491
512.025977	0.053545
512.243515	0.053220
512.461034	0.053022
512.678536	0.052760
512.896018	0.052852
513.113483	0.053014
513.330930	0.052417
513.548358	0.051640
513.765768	0.051643
513.983160	0.052590
514.200533	0.052528
514.417889	0.053431
514.635226	0.052748
514.852545	0.052671
515.069845	0.052196
515.287128	0.052285
515.504392	0.052503
515.721638	0.052737
515.938866	0.052407
516.156075	0.052846
516.373267	0.051913
516.590440	0.052522
516.807594	0.052177
517.024731	0.052293
517.241850	0.052742
517.458950	0.053555
517.676032	0.053160
517.893095	0.053274
518.110141	0.054028
518.327168	0.054094
518.544177	0.054684
518.761168	0.055715
518.978141	0.055223
519.195095	0.054912
519.412031	0.054792
519.628949	0.054824
519.845849	0.054697
520.062731	0.054243
520.279594	0.054010
520.496439	0.053853
520.713266	0.053912
520.930074	0.054770
521.146865	0.055265
521.363637	0.055766
521.580391	0.055643
521.797127	0.055670
522.013844	0.055573
522.230543	0.056001
522.447224	0.056000
522.663887	0.055499
522.880532	0.056087
523.097158	0.056173
523.313766	0.055936
523.530356	0.056226
523.746928	0.056086
523.963481	0.056322
524.180017	0.056607
524.396534	0.056963
524.613032	0.056977
524.829513	0.056313
525.045975	0.056211
525.262420	0.056770
525.478845	0.056891
525.695253	0.057539
525.911643	0.057944
526.128014	0.058829
526.344367	0.058652
526.560702	0.058850
526.777018	0.058673
526.993316	0.058312
527.209597	0.058239
527.425858	0.058763
527.642102	0.058506
527.858328	0.059069
528.074535	0.058568
528.290724	0.058809
528.506894	0.059568
528.723047	0.060598
528.939181	0.060794
529.155297	0.060162
529.371395	0.060214
529.587475	0.060251
529.803536	0.059649
530.019579	0.059747
530.235604	0.059591
530.451611	0.059451
530.667600	0.059065
530.883570	0.059238
531.099522	0.060001
531.315456	0.059952
531.531372	0.060333
531.747269	0.060357
531.963148	0.060577
532.179009	0.060821
532.394852	0.060954
532.610676	0.061244
532.826482	0.061922
533.042271	0.061944
533.258040	0.062720
533.473792	0.062574
533.689525	0.062773
533.905240	0.062740
534.120937	0.062671
534.336616	0.062763
534.552277	0.062849
534.767919	0.062585
534.983543	0.062785
535.199149	0.062480
535.414736	0.062632
535.630306	0.062715
535.845857	0.063135
536.061390	0.063542
536.276904	0.063598
536.492401	0.063949
536.707879	0.064064
536.923339	0.064760
537.138781	0.064991
537.354204	0.065004
537.569610	0.064892
537.784997	0.064950
538.000366	0.065040
538.215716	0.065026
538.431049	0.065034
538.646363	0.065201
538.861659	0.064245
539.076937	0.064170
539.292196	0.064127
539.507438	0.064383
539.722661	0.064161
539.937866	0.064237
540.153052	0.064232
540.368221	0.063936
540.583371	0.063900
540.798503	0.064301
541.013617	0.064090
541.228712	0.064675
541.443789	0.064882
541.658848	0.065288
541.873889	0.065176
542.088912	0.065676
542.303916	0.066351
542.518902	0.066573
542.733870	0.066811
542.948820	0.067085
543.163752	0.066818
543.378665	0.066714
543.593560	0.066666
543.808437	0.066891
544.023295	0.067180
544.238136	0.067029
544.452958	0.067037
544.667762	0.067117
544.882548	0.067446
545.097315	0.067809
545.312064	0.068296
545.526795	0.068600
545.741508	0.069069
545.956203	0.068637
546.170879	0.068569
546.385537	0.068718
546.600177	0.068916
546.814799	0.069578
547.029402	0.070065
547.243988	0.070178
547.458555	0.070092
547.673103	0.069739
547.887634	0.069836
548.102146	0.069855
548.316640	0.070211
548.531116	0.069999
548.745574	0.069858
548.960013	0.069552
549.174435	0.069891
549.388838	0.069603
549.603222	0.070136
549.817589	0.070466
550.031937	0.071268
550.246267	0.071291
550.460579	0.071977
550.674873	0.071644
550.889148	0.072094
551.103405	0.071790
551.317644	0.071982
551.531865	0.071425
551.746068	0.071441
551.960252	0.070915
552.174418	0.071122
552.388566	0.070583
552.602696	0.071077
552.816807	0.070704
553.030900	0.070843
553.244975	0.071102
553.459032	0.071487
553.673070	0.071557
553.887091	0.071967
554.101093	0.072092
554.315077	0.072253
554.529042	0.072205
554.742990	0.072653
554.956919	0.072894
555.170830	0.072974
555.384722	0.072806
555.598597	0.072917
555.812453	0.072775
556.026291	0.072758
556.240111	0.072575
556.453913	0.072362
556.667696	0.071938
556.881461	0.071688
557.095208	0.072046
557.308937	0.072414
557.522647	0.072138
557.736339	0.072266
557.950013	0.072258
558.163669	0.072455
558.377307	0.072882
558.590926	0.072827
558.804527	0.072770
559.018110	0.072260
559.231675	0.072346
559.445221	0.072670
559.658749	0.072634
559.872259	0.072475
560.085751	0.073058
560.299225	0.073213
560.512680	0.073780
560.726117	0.074043
560.939536	0.074335
561.152937	0.074546
561.366319	0.074395
561.579683	0.074386
561.793029	0.074676
562.006357	0.074320
562.219667	0.074224
562.432958	0.073840
562.646231	0.074160
562.859486	0.074371
563.072723	0.074067
563.285941	0.074401
563.499141	0.074335
563.712323	0.074054
563.925487	0.074444
564.138632	0.074565
564.351760	0.075130
564.564869	0.075128
564.777960	0.074966
564.991032	0.075034
565.204087	0.074923
565.417123	0.075033
565.630141	0.075502
565.843140	0.075597
566.056122	0.075369
566.269085	0.074908
566.482030	0.074915
566.694957	0.075021
566.907866	0.075462
567.120756	0.075384
567.333628	0.075493
567.546482	0.075350
567.759318	0.074931
567.972135	0.074597
568.184935	0.074858
568.397716	0.074769
568.610478	0.074843
568.823223	0.074886
569.035949	0.075474
569.248657	0.075502
569.461347	0.075660
569.674019	0.076069
569.886672	0.076930
570.099308	0.076973
570.311925	0.076948
570.524523	0.077283
570.737104	0.076836
570.949666	0.076470
571.162210	0.076575
571.374736	0.076658
571.587244	0.076936
571.799733	0.076793
572.012205	0.077195
572.224658	0.077414
572.437092	0.077626
572.649509	0.077762
572.861907	0.077959
573.074287	0.078157
573.286649	0.078462
573.498993	0.078405
573.711318	0.078201
573.923625	0.077950
574.135914	0.078019
574.348185	0.077745
574.560438	0.077963
574.772672	0.078121
574.984888	0.077914
575.197086	0.077626
575.409266	0.077678
575.621427	0.077865
575.833570	0.078088
576.045695	0.078072
576.257802	0.078036
576.469890	0.078224
576.681961	0.078449
576.894013	0.078797
577.106046	0.078924
577.318062	0.078897
577.530059	0.079088
577.742039	0.079036
577.954000	0.079241
578.165942	0.079433
578.377867	0.079407
578.589773	0.079473
578.801661	0.079627
579.013531	0.080077
579.225382	0.080292
579.437216	0.080181
579.649031	0.080372
579.860828	0.080617
580.072606	0.080575
580.284367	0.080589
580.496109	0.080340
580.707833	0.080185
580.919539	0.079759
581.131227	0.079732
581.342896	0.079649
581.554547	0.079832
581.766180	0.079636
581.977795	0.080030
582.189391	0.079973
582.400969	0.080256
582.612529	0.080338
582.824071	0.080500
583.035595	0.080419
583.247100	0.080503
583.458587	0.080539
583.670056	0.080468
583.881506	0.080239
584.092939	0.080735
584.304353	0.080717
584.515749	0.080965
584.727127	0.081023
584.938486	0.081279
585.149828	0.081445
585.361151	0.081618
585.572456	0.081991
585.783742	0.082082
585.995011	0.081809
586.206261	0.082039
586.417493	0.081795
586.628706	0.082075
586.839902	0.081976
587.051079	0.082268
587.262238	0.082397
587.473379	0.082187
587.684502	0.082354
587.895606	0.082699
588.106692	0.082703
588.317760	0.082971
588.528810	0.082899
588.739841	0.083043
588.950855	0.083200
589.161850	0.083096
589.372827	0.083367
589.583785	0.083331
589.794726	0.083344
590.005648	0.083648
590.216552	0.083959
590.427437	0.083853
590.638305	0.083860
590.849154	0.083983
591.059985	0.083957
591.270798	0.083992
591.481592	0.083928
591.692369	0.083937
591.903127	0.083713
592.113867	0.083508
592.324588	0.083651
592.535292	0.083483
592.745977	0.083291
592.956644	0.083376
593.167293	0.083779
593.377923	0.084025
593.588536	0.083935
593.799130	0.084125
594.009706	0.084182
594.220263	0.084413
594.430803	0.084785
594.641324	0.085022
594.851827	0.084943
595.062312	0.084707
595.272778	0.084808
595.483227	0.085325
595.693657	0.085225
595.904069	0.085500
596.114462	0.085527
596.324838	0.085383
596.535195	0.085004
596.745534	0.085086
596.955855	0.085356
597.166157	0.085517
597.376441	0.085323
597.586707	0.085613
597.796955	0.085652
598.007185	0.085788
598.217396	0.086089
598.427589	0.086299
598.637764	0.086677
598.847921	0.086757
599.058060	0.086817
599.268180	0.086740
599.478282	0.086828
599.688366	0.086880
599.898431	0.086708
600.108479	0.086671
600.318508	0.087090
600.528519	0.087031
600.738511	0.086870
600.948486	0.086921
601.158442	0.087240
601.368380	0.087057
601.578300	0.086898
601.788202	0.087030
601.998085	0.086901
602.207950	0.086774
602.417797	0.086943
602.627626	0.087021
602.837436	0.086842
603.047228	0.086699
603.257002	0.086944
603.466758	0.087224
603.676496	0.087465
603.886215	0.087747
604.095916	0.087986
604.305599	0.087948
604.515264	0.088161
604.724910	0.088599
604.934538	0.089058
605.144148	0.089230
605.353740	0.089303
605.563314	0.089163
605.772869	0.089452
605.982406	0.089527
606.191925	0.089570
606.401425	0.089208
606.610908	0.089195
606.820372	0.089281
607.029818	0.089220
607.239246	0.089168
607.448655	0.089263
607.658047	0.089005
607.867420	0.088863
608.076775	0.088751
608.286111	0.089368
608.495430	0.089385
608.704730	0.089201
608.914012	0.089069
609.123275	0.089404
609.332521	0.089379
609.541748	0.089958
609.750957	0.089869
609.960148	0.089934
610.169321	0.089796
610.378475	0.090001
610.587611	0.090162
610.796729	0.090476
611.005829	0.090426
611.214910	0.091175
611.423974	0.090654
611.633019	0.091025
611.842045	0.091292
612.051054	0.091290
612.260044	0.091495
612.469017	0.091584
612.677970	0.091545
612.886906	0.091659
613.095824	0.091412
613.304723	0.091809
613.513604	0.091846
613.722467	0.091969
613.931311	0.092051
614.140138	0.091781
614.348946	0.091507
614.557736	0.091552
614.766507	0.091570
614.975261	0.091442
615.183996	0.091563
615.392713	0.091586
615.601412	0.091706
615.810092	0.091803
616.018754	0.091971
616.227399	0.092462
616.436024	0.092814
616.644632	0.092841
616.853222	0.092940
617.061793	0.092862
617.270346	0.092860
617.478880	0.092904
617.687397	0.093043
617.895895	0.093209
618.104375	0.092868
618.312837	0.092660
618.521281	0.092645
618.729706	0.092873
618.938113	0.092929
619.146502	0.093354
619.354873	0.093260
619.563226	0.093474
619.771560	0.093440
619.979876	0.093823
620.188174	0.093918
620.396453	0.094027
620.604715	0.093740
620.812958	0.093804
621.021183	0.093486
621.229390	0.093913
621.437578	0.093666
621.645748	0.093622
621.853900	0.093658
622.062034	0.093753
622.270150	0.093643
622.478247	0.094003
622.686326	0.093860
622.894387	0.094213
623.102430	0.093953
623.310454	0.093865
623.518461	0.094046
623.726449	0.093804
623.934418	0.093643
624.142370	0.093907
624.350303	0.093833
624.558218	0.094070
624.766115	0.094002
624.973994	0.094179
625.181855	0.094309
625.389697	0.094187
625.597521	0.094596
625.805327	0.094897
626.013114	0.094775
626.220883	0.094770
626.428634	0.094725
626.636367	0.094469
626.844082	0.094348
627.051778	0.094574
627.259457	0.094711
627.467117	0.094504
627.674758	0.094386
627.882382	0.094515
628.089987	0.094677
628.297574	0.094823
628.505143	0.095032
628.712694	0.095217
628.920226	0.095405
629.127740	0.095502
629.335236	0.095662
629.542714	0.095753
629.750174	0.096008
629.957615	0.096221
630.165038	0.096247
630.372443	0.096437
630.579829	0.096401
630.787198	0.096421
630.994548	0.096551
631.201880	0.096693
631.409194	0.096922
631.616489	0.097051
631.823766	0.096934
632.031025	0.097043
632.238266	0.097083
632.445489	0.097130
632.652693	0.096966
632.859879	0.097122
633.067047	0.097282
633.274197	0.097437
633.481329	0.097417
633.688442	0.097424
633.895537	0.097638
634.102614	0.097658
634.309672	0.097788
634.516713	0.098156
634.723735	0.098010
634.930739	0.097762
635.137724	0.097825
635.344692	0.097873
635.551641	0.098184
635.758572	0.098212
635.965485	0.098556
636.172379	0.098631
636.379256	0.098532
636.586114	0.098564
636.792954	0.098756
636.999775	0.098596
637.206579	0.098390
637.413364	0.098327
637.620131	0.098371
637.826880	0.098161
638.033610	0.098357
638.240323	0.098300
638.447017	0.098588
638.653692	0.098825
638.860350	0.099106
639.066990	0.099327
639.273611	0.099412
639.480214	0.099570
639.686798	0.099721
639.893365	0.099602
640.099913	0.099920
640.306443	0.100014
640.512955	0.099980
640.719449	0.100003
640.925924	0.100114
641.132381	0.100035
641.338820	0.099782
641.545241	0.100041
641.751644	0.100115
641.958028	0.100108
642.164394	0.100170
642.370742	0.100354
642.577071	0.100314
642.783383	0.100480
642.989676	0.100596
643.195951	0.101013
643.402207	0.100795
643.608446	0.100756
643.814666	0.100898
644.020868	0.100894
644.227052	0.100921
644.433218	0.101062
644.639365	0.101243
644.845494	0.101461
645.051605	0.101682
645.257698	0.102022
645.463772	0.102458
645.669828	0.102526
645.875866	0.102682
646.081886	0.102834
646.287888	0.102964
646.493871	0.102901
646.699836	0.103032
646.905783	0.103000
647.111712	0.102860
647.317622	0.102950
647.523514	0.103058
647.729388	0.103096
647.935244	0.103286
648.141082	0.103318
648.346901	0.103453
648.552702	0.103547
648.758485	0.103515
648.964250	0.103677
649.169996	0.103548
649.375724	0.103678
649.581434	0.103746
649.787126	0.103618
649.992800	0.103842
650.198455	0.103932
650.404092	0.103762
650.609711	0.103838
650.815311	0.104122
651.020894	0.104347
651.226458	0.104238
651.432004	0.104388
651.637532	0.104695
651.843041	0.104547
652.048532	0.104515
652.254006	0.104787
652.459460	0.105027
652.664897	0.104818
652.870315	0.105024
653.075716	0.105273
653.281097	0.105216
653.486461	0.104934
653.691807	0.105170
653.897134	0.105398
654.102443	0.105660
654.307734	0.105663
654.513006	0.105835
654.718261	0.105682
654.923497	0.105681
655.128715	0.105789
655.333915	0.106018
655.539096	0.105935
655.744259	0.105954
655.949404	0.105700
656.154531	0.105859
656.359640	0.105853
656.564730	0.106210
656.769802	0.106303
656.974856	0.106402
657.179892	0.106459
657.384909	0.106726
657.589908	0.106842
657.794889	0.107194
657.999852	0.107213
658.204797	0.107315
658.409723	0.107414
658.614631	0.107540
658.819521	0.107580
659.024393	0.107692
659.229246	0.107577
659.434081	0.107493
659.638898	0.107454
659.843697	0.107681
660.048478	0.107844
660.253240	0.107721
660.457984	0.107790
660.662710	0.108015
660.867417	0.107937
661.072107	0.108147
661.276778	0.108369
661.481431	0.108455
661.686066	0.108282
661.890682	0.108364
662.095281	0.108532
662.299861	0.108620
662.504422	0.108821
662.708966	0.109125
662.913491	0.109190
663.117999	0.109250
663.322488	0.109258
663.526958	0.109329
663.731411	0.109427
663.935845	0.109343
664.140261	0.109503
664.344659	0.109532
664.549038	0.109734
664.753400	0.109893
664.957743	0.110149
665.162068	0.110421
665.366375	0.110519
665.570663	0.110698
665.774933	0.110999
665.979185	0.110834
666.183419	0.110903
666.387635	0.110805
666.591832	0.111041
666.796011	0.111194
667.000172	0.111257
667.204315	0.111595
667.408439	0.111845
667.612545	0.111775
667.816634	0.112231
668.020703	0.112293
668.224755	0.112652
668.428788	0.112562
668.632803	0.112571
668.836800	0.112888
669.040779	0.112855
669.244739	0.112689
669.448681	0.113075
669.652605	0.113154
669.856511	0.113298
670.060399	0.113187
670.264268	0.113493
670.468119	0.113675
670.671952	0.113518
670.875767	0.113615
671.079563	0.113651
671.283341	0.113504
671.487101	0.113525
671.690843	0.113682
671.894567	0.113824
672.098272	0.113518
672.301959	0.113815
672.505628	0.113786
672.709278	0.114151
672.912911	0.114285
673.116525	0.114541
673.320121	0.114658
673.523699	0.114744
673.727258	0.114836
673.930799	0.115235
674.134322	0.115015
674.337827	0.115365
674.541314	0.115415
674.744782	0.115589
674.948232	0.115707
675.151664	0.115743
675.355078	0.115750
675.558474	0.116042
675.761851	0.116278
675.965210	0.116553
676.168551	0.116462
676.371873	0.116424
676.575178	0.116606
676.778464	0.116468
676.981732	0.116512
677.184981	0.116584
677.388213	0.116526
677.591426	0.116430
677.794621	0.116392
677.997798	0.116470
678.200956	0.116311
678.404097	0.116265
678.607219	0.116483
678.810323	0.116444
679.013408	0.116420
679.216476	0.116436
679.419525	0.116427
679.622556	0.116300
679.825569	0.116419
680.028563	0.116755
680.231540	0.117060
680.434498	0.117066
680.637438	0.117171
680.840359	0.117477
681.043263	0.117651
681.246148	0.117921
681.449015	0.118076
681.651864	0.118150
681.854694	0.118140
682.057506	0.117850
682.260301	0.117789
682.463076	0.117948
682.665834	0.117878
682.868573	0.117894
683.071295	0.117897
683.273998	0.118044
683.476682	0.118079
683.679349	0.118063
683.881997	0.118278
684.084627	0.118487
684.287239	0.118328
684.489833	0.118363
684.692408	0.118401
684.894965	0.118246
685.097504	0.118266
685.300025	0.118243
685.502527	0.118461
685.705012	0.118571
685.907478	0.118760
686.109925	0.119127
686.312355	0.119326
686.514766	0.119342
686.717159	0.119436
686.919534	0.119403
687.121891	0.119630
687.324230	0.119700
687.526550	0.119550
687.728852	0.119633
687.931136	0.119733
688.133401	0.119670
688.335649	0.119862
688.537878	0.119932
688.740089	0.120245
688.942281	0.120346
689.144456	0.120475
689.346612	0.120892
689.548750	0.120783
689.750870	0.120714
689.952971	0.120744
690.155055	0.121046
690.357120	0.121362
690.559167	0.121317
690.761195	0.121451
690.963206	0.121428
691.165198	0.121216
691.367172	0.121489
691.569128	0.121631
691.771065	0.121860
691.972984	0.121581
692.174885	0.121395
692.376768	0.121444
692.578633	0.121445
692.780479	0.121576
692.982308	0.121736
693.184118	0.121723
693.385909	0.121778
