sample name	sample
index	408
start time	 03-08-2021  10:47:51 AM
880	0.491606
Peak Time (s)	92.038
Peak Height 	0.4916
calc peak height	90,93
Baseline Time (s)	9.037
Baseline Value 	-0.00603
subtract baseline	10,4
Abs	0.335578
Peak Time (s)	92.535
Peak Height 	0.3356
calc peak height	90,93
Baseline Time (s)	10.534
Baseline Value 	0.002587
subtract baseline	10,3
PK_550	0.164148
Peak Time (s)	91.035
Peak Height 	0.1641
calc peak height	90,93
Baseline Time (s)	10.037
Baseline Value 	7.0242E-4
subtract baseline	10,2
PK_880	0.314217
Peak Time (s)	91.535
Peak Height 	0.3142
calc peak height	90,93
Baseline Time (s)	10.534
Baseline Value 	0.001953
subtract baseline	10,1


Time (s)	A880-A510	A880-A775	A880-A975	A880	I510	I775	I975	I880	
0.034500	0.000434	-0.001345	-0.000632	0.001170	6969.908970	47012.405656	3957.883790	24767.259991
0.538000	0.001152	0.000327	-0.004718	0.006116	6929.495227	46680.673914	3933.371038	24518.414720
1.035500	-0.003298	-0.000909	-0.004208	0.006023	6888.239615	46565.360989	3934.992472	24523.043316
1.536500	-0.002249	-0.000161	-0.005581	0.005667	6901.502869	46676.675302	3932.259217	24540.876408
2.035500	-0.001497	-0.000294	0.002873	0.000589	6956.968945	47178.772817	3969.143007	24796.693737
2.539000	0.001763	0.000345	-0.000750	0.001057	6983.788989	47196.303498	3957.870036	24772.999198
3.036000	-0.002914	-0.000737	-0.003342	0.004698	6904.369251	46716.365876	3940.899394	24589.447027
3.536500	0.001274	0.000492	0.004927	0.000847	6981.106111	47232.695751	3974.123622	24783.621838
4.037500	0.000838	-0.000515	0.000290	0.000128	6983.826935	47203.302351	3963.281013	24820.065571
4.537500	0.002411	0.000211	-0.001534	0.000701	6993.471317	47218.899058	3956.695420	24790.988586
5.037500	0.001552	-0.000319	-0.003029	0.000480	6987.315221	47187.329416	3953.210389	24802.204418
5.535500	0.003178	-0.000139	-0.000587	0.000204	7005.701243	47233.892684	3960.658736	24816.186074
6.035500	-0.000193	-0.000326	-0.000915	-0.000383	6978.818400	47274.828292	3961.369561	24845.975909
6.535500	0.002087	0.000328	0.008350	0.000200	6995.186185	47282.113800	3985.488927	24816.406625
7.036000	0.000674	0.000419	0.001014	0.000140	6982.136820	47297.585683	3965.245344	24819.449252
7.536500	0.001100	-0.000843	-0.003398	-0.000045	6988.021861	47187.401835	3953.637669	24828.825682
8.037000	0.001253	-0.000214	-0.001366	0.000471	6984.520778	47199.002602	3957.788443	24802.653403
8.536500	-0.000306	0.000340	-0.000100	0.000818	6966.181300	47220.122907	3960.309744	24785.070850
9.037500	-0.000499	-0.000293	-0.000558	0.000000	6972.189318	47239.087826	3961.300069	24826.547827
9.534500	0.000532	-0.000369	-0.000025	-0.000014	6982.243345	47232.766266	3962.806102	24827.254904
10.037500	0.001181	0.000000	0.001605	-0.000067	6989.022431	47275.941948	3967.448535	24829.971213
10.534500	0.000000	0.000679	0.000000	0.000477	6972.398711	47289.636834	3961.521782	24802.342247
11.035500	0.001683	0.000261	0.006230	0.000483	6988.562192	47246.339367	3978.766365	24802.078619
11.536000	-0.000176	-0.000950	0.001621	-0.000626	6981.329783	47235.912535	3969.038950	24858.358244
12.036000	-0.000791	0.000116	-0.001883	0.004389	6927.434747	46833.940427	3945.689625	24604.976029
12.536000	-0.001720	-0.000221	0.001170	-0.000340	6963.725304	47281.165399	3966.999772	24843.801864
13.039500	0.002167	0.000152	0.004983	-0.001431	7011.766377	47431.329167	3980.630547	24899.301764
13.537500	0.001827	0.000091	0.003283	-0.000403	6998.509546	47319.653603	3973.028947	24847.020492
14.034500	-0.002909	-0.000830	-0.002635	0.004169	6909.430504	46760.480292	3944.246026	24616.046394
14.537500	-0.002021	0.000255	-0.001151	0.002972	6929.216811	46991.873654	3951.535610	24676.268924
15.034500	0.001054	0.000356	-0.000871	0.000090	6986.283128	47296.330870	3960.193361	24822.006882
15.554000	0.000323	-0.000785	0.003120	-0.001465	6994.226673	47338.664921	3975.526045	24900.994042
16.035000	-0.001237	0.000236	0.001278	0.004913	6918.213252	46792.940584	3952.866889	24578.641252
16.536000	0.004125	0.000592	0.005505	-0.000101	7017.856018	47340.034651	3978.372290	24831.687763
17.036500	0.000144	0.000707	0.002492	-0.000485	6983.045046	47391.141714	3971.060019	24851.157843
17.536500	0.001156	-0.000326	0.003068	-0.000837	6996.211262	47321.382021	3973.636678	24869.068449
18.037000	-0.002440	-0.000445	0.000329	0.002314	6931.481398	46987.609683	3957.382129	24709.434020
18.537000	0.002699	0.000012	0.003703	0.000797	6995.340191	47188.824611	3970.866019	24786.154599
19.035000	0.000341	0.000688	0.002985	0.001106	6969.630899	47226.308675	3968.019327	24770.491282
19.538000	-0.000956	0.000018	-0.003735	0.001066	6957.582104	47161.945890	3949.689226	24772.533638
20.035500	-0.001442	0.000061	-0.000070	0.003016	6934.312848	46967.687591	3954.369616	24674.065575
20.535500	-0.000817	0.000403	-0.003139	0.001388	6955.820890	47168.365302	3950.434170	24756.243806
21.035500	0.000473	-0.000850	0.002237	0.000615	6975.627850	47119.352615	3967.310756	24795.372686
21.536000	0.000238	0.001002	0.007980	0.001925	6960.780709	47174.628470	3979.625349	24729.070617
22.036500	0.000073	0.000693	0.000190	0.003209	6946.921144	47012.358396	3954.552788	24664.335934
22.539000	-0.000189	-0.000281	0.002282	0.000751	6967.956199	47163.626444	3967.058230	24788.487986
23.036500	-0.001510	-0.000121	0.003750	0.001197	6951.018883	47134.441127	3969.887726	24765.914004
23.537000	0.000811	0.000017	0.002627	0.001431	6971.029355	47124.597068	3966.134246	24754.074994
24.040500	-0.001711	-0.000449	0.002740	0.002379	6937.822182	46980.664955	3963.831888	24706.190845
24.538000	-0.000317	-0.000370	-0.000128	0.000944	6964.869851	47134.819352	3959.887508	24778.698696
25.035000	-0.001713	0.000420	-0.003358	0.001459	6946.580176	47162.892497	3949.644075	24752.647788
25.535500	-0.000348	0.000444	0.000691	0.001392	6960.278373	47172.132578	3960.905770	24756.035437
26.036000	-0.001222	-0.000597	0.004242	0.000701	6958.528671	47136.434519	3972.625852	24791.017311
26.536000	-0.002021	-0.000398	0.003503	0.000691	6950.974119	47157.699259	3970.604783	24791.515720
27.036000	-0.000713	0.000078	0.000557	0.000955	6960.967769	47179.437605	3961.740569	24778.165033
27.539000	-0.000970	0.000254	0.003754	0.001346	6954.763154	47157.401271	3969.483581	24758.349181
28.037000	0.002823	0.000426	0.001049	-0.001138	7015.275958	47429.280476	3968.871408	24884.344507
28.537500	0.000417	0.000846	0.006035	-0.000252	6983.424701	47381.513300	3980.272242	24839.315398
29.037500	0.002476	-0.000243	-0.001009	-0.000799	7008.624741	47325.949344	3962.257327	24867.139290
29.538000	-0.000107	0.000022	0.001823	-0.001044	6986.009800	47378.206391	3970.753854	24879.560394
30.035500	0.000562	0.000689	0.005042	0.000040	6982.018092	47335.541686	3976.689093	24824.536158
30.535500	0.000904	-0.000240	0.002337	-0.000682	6992.274150	47314.218810	3971.175420	24861.161698
31.036000	-0.002913	0.000278	0.000635	0.004292	6908.224938	46860.180618	3952.807536	24609.840727
31.543000	0.001539	0.001086	0.004583	0.000248	6989.428421	47354.851670	3974.831521	24813.962904
32.037000	-0.000189	-0.000120	0.000090	0.002888	6947.486722	46962.343217	3955.155872	24680.516937
32.537000	-0.000446	-0.000178	-0.000908	-0.000107	6973.724784	47261.810920	3960.632141	24831.981323
33.072000	-0.002005	0.000047	0.003184	0.005172	6908.493325	46747.760194	3957.373643	24565.697016
33.537500	0.001565	0.000403	0.003853	-0.000340	6995.358571	47345.084187	3974.436551	24843.787069
34.035000	0.001299	0.000416	0.004487	-0.000855	6997.766443	47399.249407	3977.635472	24869.970927
34.535500	0.001638	0.000091	0.004208	-0.000575	6998.337061	47337.255529	3976.080294	24855.743637
35.035500	-0.003167	-0.000609	0.001414	0.004637	6902.563866	46735.482554	3953.992824	24592.528782
35.536000	-0.001514	-0.000523	0.003109	0.000997	6952.891710	47113.733123	3968.665462	24775.999229
36.036000	-0.000138	-0.000384	0.002471	0.002373	6952.895515	46987.764536	3963.105053	24706.456787
36.536000	-0.000282	0.000024	0.003995	0.002457	6950.713934	47020.808847	3967.077613	24702.231603
37.037000	0.000599	0.000176	-0.001753	0.002176	6961.843040	47064.803273	3952.063263	24716.401053
37.537000	0.000725	0.000804	0.003643	0.002344	6961.437149	47111.803818	3966.418773	24707.944934
38.035000	-0.000215	0.000671	-0.000783	0.002667	6949.349470	47065.264025	3953.374781	24691.657600
38.535000	-0.001271	-0.000526	-0.003397	0.001748	6948.028535	47036.907577	3948.749475	24738.012870
39.035000	-0.000806	0.000051	-0.000308	0.002070	6949.399768	47062.840167	3956.304427	24721.740636
39.535500	-0.000117	0.000811	0.003805	0.002615	6950.784539	47084.878112	3966.117343	24694.272870
40.035500	-0.000339	0.000765	-0.001650	0.003528	6939.945263	46987.256103	3948.662701	24648.276759
40.536000	0.000512	0.000412	0.001681	0.002826	6954.784696	47022.800628	3959.688327	24683.643188
41.036000	-0.001279	0.000173	0.003083	0.002333	6942.371070	47048.595063	3964.902154	24708.476880
41.536500	-0.000217	0.000115	0.001582	0.002321	6952.635873	47043.921995	3960.802471	24709.101623
42.036500	-0.000230	0.000829	0.002260	0.004009	6936.394475	46944.812262	3958.029246	24624.049014
42.537000	-0.000587	0.000049	0.000817	0.002178	6950.468028	47051.722124	3959.094331	24716.325791
43.037500	0.000477	0.000159	-0.003197	0.002318	6959.308781	47048.749953	3947.746825	24709.262434
43.537000	-0.002211	-0.000175	0.004601	0.001898	6937.634529	47057.417496	3970.302526	24730.463987
44.035000	-0.001812	0.000004	0.003240	0.003646	6924.797768	46897.971313	3961.717882	24642.332771
44.535500	0.000911	0.000927	0.003299	0.002894	6957.946739	47068.230794	3963.951420	24680.197844
45.036500	-0.000595	0.000009	0.000480	0.001920	6952.858508	47073.914538	3958.876749	24729.336834
45.536000	0.002592	0.001096	0.006984	-0.002300	7024.337765	47617.898830	3988.676883	24943.582135
46.036500	-0.002535	0.000426	-0.001859	0.004875	6906.278739	46816.062576	3944.433639	24580.560696
46.537000	0.003081	0.000786	0.005739	-0.000012	7006.863478	47350.759252	3978.776056	24827.141348
47.037000	-0.001465	-0.000179	0.003227	0.001598	6947.615728	47087.554218	3967.328108	24745.609373
47.540000	0.003007	-0.000243	0.003936	-0.000802	7013.808083	47326.257404	3975.954375	24867.281029
48.037000	-0.001217	0.000305	0.003026	0.004861	6918.904377	46805.353503	3957.794984	24581.291839
48.535500	0.000384	0.000217	0.004425	-0.000418	6984.721278	47334.094649	3976.245667	24847.779970
49.037500	-0.000002	-0.000068	0.003999	0.001165	6965.774174	47143.040590	3970.664515	24767.501119
49.536000	0.000812	0.000281	0.004141	0.002921	6956.743544	46999.725639	3966.199160	24678.836483
50.036000	-0.002139	0.000501	0.002690	0.005321	6905.815288	46778.551998	3955.612381	24558.222585
50.536500	0.001725	0.000116	0.005210	-0.000331	6996.820716	47314.736471	3978.191821	24843.341964
51.036500	0.000842	0.000140	-0.000687	0.000512	6980.165374	47230.978173	3959.536105	24800.561204
51.537000	0.002381	0.000354	0.002166	-0.000774	7007.470411	47384.679802	3970.958888	24865.874941
52.037000	-0.002378	-0.000344	-0.001927	0.004769	6908.769320	46748.896060	3944.537765	24585.879460
52.537500	0.001910	0.000472	0.000520	0.004694	6950.281363	46839.085196	3951.395937	24589.633103
53.035000	0.007073	0.001469	0.004791	-0.002598	7071.106175	47687.151921	3983.356141	24958.776134
53.537500	-0.018664	-0.014379	-0.002381	0.155068	5598.999677	32912.877228	3599.169315	18209.783625
54.035500	-0.032134	-0.023124	-0.001708	-0.015140	6816.603881	46459.599371	4000.402817	25608.323551
54.535500	-0.018083	-0.032514	0.008273	-0.139661	8327.201934	59703.672348	4448.172317	33185.061269
55.035000	-0.020610	-0.025072	0.007113	-0.095097	7758.972867	55044.256733	4280.165804	30220.851378
55.536500	-0.013465	-0.017985	0.005019	-0.079908	7667.913733	54079.157125	4221.126240	29278.043164
56.036500	0.007888	-0.014983	0.012675	-0.097093	8119.866431	56517.649130	4306.730283	30347.219826
56.537000	0.022631	-0.009963	0.026733	-0.096369	8294.463944	57051.287375	4354.737972	30301.294676
57.039500	0.035686	-0.001500	0.032740	-0.062570	8038.077656	53978.668927	4256.312563	28241.451490
57.535000	0.049318	0.004091	0.047948	-0.046909	8013.650908	52806.287678	4254.761516	27340.022790
58.035000	0.065654	0.012841	0.063748	-0.001918	7680.593621	48805.108030	4158.042612	24924.067718
58.535000	0.084604	0.021510	0.083301	0.036753	7463.815422	45736.347367	4098.132652	23038.423107
59.036000	0.104304	0.034341	0.109995	0.096825	7049.581531	41314.063571	3999.656600	20422.750503
59.536000	0.130156	0.049225	0.139782	0.149191	6797.754161	38131.964991	3937.204975	18419.861108
60.035500	0.157157	0.065195	0.162387	0.190726	6666.100301	36113.907000	3887.289742	16994.355315
60.536500	0.178856	0.079606	0.186772	0.238208	6443.123416	33673.600901	3829.264259	15523.312898
61.036500	0.198239	0.093126	0.211733	0.282075	6243.278135	31591.902663	3784.011375	14299.999489
61.537000	0.213776	0.105308	0.230035	0.310378	6143.466342	30543.885418	3760.856497	13573.839719
62.037000	0.228949	0.116305	0.243157	0.341816	6020.468546	29269.648694	3719.810590	12820.818848
62.535000	0.242432	0.123579	0.252292	0.363391	5960.974100	28413.258429	3692.904419	12334.700892
63.035500	0.253533	0.131381	0.268934	0.383884	5893.297169	27676.454967	3684.729461	11894.796255
63.535500	0.266202	0.138742	0.282522	0.406385	5823.993663	26825.190117	3666.084642	11435.092279
64.035500	0.268949	0.143382	0.279290	0.399770	5889.944065	27455.187209	3673.115245	11567.774772
64.539500	0.272764	0.147365	0.284335	0.397871	5930.897248	27790.935507	3687.720113	11606.235741
65.036000	0.273416	0.149448	0.282648	0.401844	5907.027828	27682.548541	3675.797925	11525.956140
65.537000	0.277077	0.151517	0.295722	0.401777	5933.843376	27805.133681	3703.721328	11527.314883
66.036500	0.280964	0.154365	0.294375	0.405522	5934.869391	27753.591007	3692.802306	11452.298733
66.548000	0.282967	0.154864	0.296132	0.407958	5931.732795	27642.623974	3691.353148	11403.835651
67.033500	0.285760	0.157750	0.300465	0.412441	5919.570657	27551.635924	3691.036087	11315.395599
67.535500	0.287206	0.157544	0.296708	0.415177	5910.308845	27384.718966	3677.321843	11261.853310
68.035500	0.287044	0.158366	0.299977	0.422051	5860.281404	27044.854903	3669.794760	11128.813795
68.535500	0.290410	0.159439	0.303561	0.420849	5892.667162	27172.088209	3679.800384	11151.932953
69.036000	0.290272	0.159505	0.302708	0.423469	5873.073549	27029.343031	3672.528531	11101.634082
69.536500	0.289569	0.159198	0.305419	0.424599	5860.119789	26949.404028	3675.832335	11080.043741
70.036500	0.290231	0.160569	0.303899	0.433325	5803.776960	26544.381563	3654.640894	10915.142042
70.536500	0.294434	0.161903	0.313913	0.431228	5847.706014	26732.473942	3679.745094	10954.471257
71.037500	0.295064	0.161143	0.306857	0.432522	5843.044722	26619.663537	3662.362044	10930.176339
71.540000	0.294895	0.162571	0.314800	0.435473	5821.246800	26536.419256	3672.714560	10875.066853
72.034500	0.292115	0.162440	0.310661	0.442490	5753.795271	26149.392269	3649.741425	10745.479807
72.535500	0.298857	0.163328	0.313833	0.439497	5820.811117	26358.730657	3662.364299	10800.498360
73.035000	0.299212	0.163319	0.313463	0.443032	5798.761705	26167.548186	3654.349155	10735.568994
73.535500	0.298547	0.164673	0.311664	0.444675	5782.844525	26152.009964	3647.343495	10705.558485
74.036000	0.295179	0.162933	0.318407	0.451682	5712.381452	25687.026362	3646.809679	10578.888182
74.536500	0.297094	0.164250	0.313472	0.447848	5751.214766	25959.687910	3644.580272	10647.933117
75.036000	0.300771	0.163954	0.311305	0.450847	5755.838211	25784.928176	3634.202882	10593.876905
75.536500	0.300867	0.164973	0.320172	0.452913	5742.440369	25729.586037	3647.890755	10556.828700
76.039500	0.297029	0.163412	0.313960	0.458710	5677.828145	25344.893204	3623.863362	10453.848995
76.534500	0.302172	0.164073	0.321415	0.455871	5731.260273	25527.080206	3644.419788	10504.121936
77.035000	0.302300	0.165149	0.322215	0.457950	5718.103000	25474.713295	3641.836947	10467.271813
77.535500	0.303236	0.165405	0.319223	0.459693	5712.682201	25397.290199	3632.349510	10436.521469
78.035500	0.302369	0.164318	0.320697	0.466242	5663.331261	25004.025166	3622.298511	10322.100569
78.536000	0.301801	0.164559	0.319083	0.462308	5685.622971	25218.170510	3626.878285	10390.623517
79.036500	0.303676	0.164713	0.323207	0.464137	5685.937159	25132.035229	3631.437025	10358.695725
79.536000	0.306753	0.164397	0.319074	0.464893	5701.404673	25077.031965	3621.756793	10345.520352
80.035500	0.301483	0.163135	0.316064	0.472104	5619.143602	24647.224495	3601.874079	10221.111598
80.540000	0.305864	0.164866	0.329298	0.468211	5673.414093	24931.557233	3635.458867	10288.021745
81.037000	0.303923	0.163111	0.322571	0.467899	5662.651203	24858.257627	3622.725102	10293.414899
81.537000	0.305790	0.164538	0.325051	0.469798	5662.434596	24834.358548	3623.869972	10260.676739
82.035000	0.302789	0.163965	0.316289	0.476099	5601.723961	24488.791021	3594.658050	10153.072708
82.535000	0.310371	0.164499	0.326935	0.473031	5671.343632	24669.167921	3621.211856	10205.267139
83.035000	0.307975	0.164408	0.325139	0.473508	5652.396034	24640.637338	3616.752285	10197.130029
83.536000	0.312671	0.165569	0.329175	0.475423	5670.729831	24602.820496	3620.913955	10164.541728
84.035500	0.304837	0.164437	0.323972	0.481185	5582.176890	24259.909793	3599.622811	10067.357175
84.535500	0.309767	0.163824	0.322287	0.476586	5643.948621	24457.498035	3605.227701	10144.818856
85.036500	0.309473	0.163742	0.325008	0.476549	5642.266906	24455.286599	3610.570149	10145.450787
85.537000	0.309846	0.163994	0.325478	0.477585	5637.926077	24416.219137	3609.468932	10127.919106
86.037500	0.313346	0.165233	0.323901	0.479245	5649.987915	24395.333629	3603.213173	10099.932180
86.534000	0.307294	0.162643	0.322841	0.478899	5612.756720	24284.209180	3601.840203	10105.758226
87.035500	0.312904	0.164015	0.331975	0.480049	5641.817141	24295.177514	3617.329979	10086.406185
87.535500	0.309356	0.163834	0.331079	0.479898	5619.654782	24293.682868	3615.871887	10088.941864
88.035500	0.310982	0.162835	0.323467	0.479677	5631.685790	24255.300208	3601.548980	10092.672489
88.536500	0.314742	0.164018	0.329260	0.481458	5644.625419	24225.795626	3609.293800	10062.778514
89.036500	0.312234	0.162622	0.324738	0.481349	5628.942978	24162.452562	3600.777373	10064.601548
89.536500	0.313379	0.163919	0.333584	0.482789	5627.026869	24155.480222	3615.118905	10040.533048
90.039500	0.312485	0.163015	0.331445	0.482812	5621.058032	24110.016144	3610.908400	10040.149219
90.537000	0.312943	0.163877	0.333492	0.483756	5617.898806	24106.016304	3613.054716	10024.408808
91.034500	0.312582	0.164148	0.331893	0.485010	5607.426882	24057.869859	3607.512640	10003.536794
91.535000	0.314217	0.162143	0.330675	0.484264	5622.878832	23996.419533	3606.601652	10015.949443
92.038000	0.311066	0.163278	0.326555	0.491606	5555.424190	23696.060997	3584.727857	9894.810543
92.535500	0.312010	0.161478	0.335578	0.488010	5584.405705	23782.504465	3608.839408	9953.883784
93.036000	0.314827	0.161553	0.327604	0.485992	5615.605759	23883.720786	3597.372438	9987.245305
93.536000	0.317478	0.162845	0.330721	0.487754	5621.383238	23861.008331	3599.967827	9958.113329
94.036000	0.312395	0.161568	0.331687	0.492345	5559.181110	23578.775169	3593.043605	9882.746796
94.537000	0.313316	0.162734	0.336132	0.490842	5574.634986	23706.678902	3604.436556	9907.334884
95.036500	0.316961	0.162585	0.339120	0.488902	5610.584576	23792.918095	3613.993796	9939.196435
95.537500	0.316702	0.161501	0.338189	0.488914	5608.823214	23740.086314	3612.154625	9938.988187
96.072500	0.313437	0.160831	0.333700	0.492208	5566.681609	23550.088141	3597.142754	9884.970599
96.535000	0.313810	0.159556	0.334617	0.491785	5571.763762	23509.493568	3599.709809	9891.891882
97.062500	0.315802	0.160273	0.333453	0.489378	5600.009784	23658.773571	3602.095500	9931.359651
97.535500	0.319950	0.160656	0.334683	0.490755	5617.950487	23611.138726	3601.813142	9908.755652
