sample name	sample
index	468
start time	 03-11-2021  12:13:40 PM


Wavelength (nm)	Absorbance
494.344910	-0.187173
494.563924	-0.187173
494.782919	-0.187173
495.001897	-0.214734
495.220856	-0.126172
495.439797	-0.149810
495.658719	-0.108051
495.877624	-0.135153
496.096510	-0.088823
496.315378	-0.086661
496.534227	-0.036857
496.753059	0.010708
496.971872	0.009243
497.190667	0.149633
497.409444	0.165351
497.628203	0.167378
497.846943	0.169388
498.065665	0.170047
498.284369	0.168934
498.503055	0.166897
498.721723	0.167865
498.940372	0.168727
499.159003	0.168189
499.377616	0.168673
499.596210	0.168784
499.814787	0.169477
500.033345	0.169868
500.251885	0.169583
500.470406	0.171704
500.688910	0.171336
500.907395	0.170823
501.125862	0.171481
501.344311	0.170877
501.562742	0.171136
501.781154	0.171768
501.999548	0.171526
502.217924	0.173392
502.436282	0.172030
502.654621	0.172347
502.872942	0.174172
503.091245	0.173766
503.309530	0.174242
503.527797	0.173977
503.746045	0.173570
503.964275	0.174563
504.182487	0.174193
504.400681	0.176097
504.618856	0.176468
504.837013	0.174350
505.055152	0.175257
505.273273	0.175551
505.491376	0.175503
505.709460	0.176131
505.927526	0.174317
506.145574	0.173956
506.363604	0.173716
506.581615	0.174287
506.799608	0.175235
507.017583	0.175318
507.235540	0.174966
507.453478	0.175468
507.671399	0.175451
507.889301	0.176396
508.107185	0.176825
508.325050	0.177224
508.542898	0.178192
508.760727	0.179604
508.978538	0.179532
509.196330	0.180535
509.414105	0.181192
509.631861	0.181844
509.849599	0.182668
510.067319	0.182557
510.285021	0.182282
510.502704	0.180657
510.720369	0.179529
510.938016	0.179906
511.155645	0.179629
511.373255	0.178581
511.590848	0.177524
511.808422	0.177552
512.025977	0.178910
512.243515	0.178421
512.461034	0.179446
512.678536	0.180845
512.896018	0.180512
513.113483	0.181311
513.330930	0.181622
513.548358	0.182232
513.765768	0.181759
513.983160	0.181456
514.200533	0.182019
514.417889	0.182137
514.635226	0.181652
514.852545	0.181684
515.069845	0.180950
515.287128	0.181724
515.504392	0.181524
515.721638	0.182148
515.938866	0.182027
516.156075	0.182714
516.373267	0.182874
516.590440	0.182743
516.807594	0.183390
517.024731	0.183520
517.241850	0.184177
517.458950	0.185239
517.676032	0.185873
517.893095	0.186082
518.110141	0.186071
518.327168	0.186588
518.544177	0.187483
518.761168	0.187567
518.978141	0.188143
519.195095	0.187925
519.412031	0.187105
519.628949	0.186472
519.845849	0.186228
520.062731	0.186583
520.279594	0.186191
520.496439	0.186048
520.713266	0.185826
520.930074	0.185910
521.146865	0.186138
521.363637	0.187223
521.580391	0.187193
521.797127	0.187697
522.013844	0.187194
522.230543	0.187572
522.447224	0.188444
522.663887	0.189444
522.880532	0.189992
523.097158	0.190049
523.313766	0.189890
523.530356	0.191147
523.746928	0.191250
523.963481	0.192130
524.180017	0.191781
524.396534	0.191108
524.613032	0.191036
524.829513	0.191379
525.045975	0.191765
525.262420	0.192513
525.478845	0.192142
525.695253	0.193352
525.911643	0.193494
526.128014	0.194591
526.344367	0.195403
526.560702	0.196039
526.777018	0.196153
526.993316	0.196690
527.209597	0.197053
527.425858	0.197888
527.642102	0.197011
527.858328	0.197940
528.074535	0.198305
528.290724	0.198513
528.506894	0.198651
528.723047	0.199128
528.939181	0.199145
529.155297	0.199194
529.371395	0.198948
529.587475	0.199919
529.803536	0.199609
530.019579	0.199350
530.235604	0.199874
530.451611	0.200097
530.667600	0.200367
530.883570	0.200871
531.099522	0.200713
531.315456	0.201074
531.531372	0.201541
531.747269	0.201945
531.963148	0.202663
532.179009	0.202734
532.394852	0.203006
532.610676	0.203448
532.826482	0.204013
533.042271	0.204706
533.258040	0.205545
533.473792	0.206059
533.689525	0.206296
533.905240	0.207062
534.120937	0.207412
534.336616	0.208073
534.552277	0.208627
534.767919	0.208922
534.983543	0.209112
535.199149	0.209095
535.414736	0.208988
535.630306	0.209552
535.845857	0.209339
536.061390	0.209069
536.276904	0.209519
536.492401	0.209603
536.707879	0.209638
536.923339	0.209961
537.138781	0.210083
537.354204	0.210637
537.569610	0.210495
537.784997	0.211121
538.000366	0.212194
538.215716	0.212415
538.431049	0.212708
538.646363	0.212848
538.861659	0.213046
539.076937	0.213575
539.292196	0.213313
539.507438	0.213993
539.722661	0.213758
539.937866	0.213550
540.153052	0.213189
540.368221	0.213441
540.583371	0.214036
540.798503	0.214289
541.013617	0.214255
541.228712	0.214821
541.443789	0.214677
541.658848	0.215150
541.873889	0.215660
542.088912	0.216364
542.303916	0.217036
542.518902	0.216966
542.733870	0.217399
542.948820	0.218059
543.163752	0.218892
543.378665	0.219914
543.593560	0.220633
543.808437	0.220680
544.023295	0.221135
544.238136	0.220917
544.452958	0.221607
544.667762	0.221665
544.882548	0.221786
545.097315	0.222289
545.312064	0.221924
545.526795	0.221796
545.741508	0.222038
545.956203	0.222584
546.170879	0.222574
546.385537	0.223396
546.600177	0.223870
546.814799	0.224075
547.029402	0.223547
547.243988	0.223870
547.458555	0.224284
547.673103	0.225134
547.887634	0.224991
548.102146	0.225549
548.316640	0.225022
548.531116	0.224953
548.745574	0.225502
548.960013	0.225996
549.174435	0.226379
549.388838	0.226452
549.603222	0.226546
549.817589	0.226685
550.031937	0.227183
550.246267	0.227637
550.460579	0.227937
550.674873	0.228146
550.889148	0.228145
551.103405	0.228338
551.317644	0.228197
551.531865	0.228715
551.746068	0.229019
551.960252	0.228898
552.174418	0.229209
552.388566	0.229957
552.602696	0.229999
552.816807	0.230588
553.030900	0.230970
553.244975	0.231463
553.459032	0.230970
553.673070	0.231446
553.887091	0.231789
554.101093	0.232128
554.315077	0.231965
554.529042	0.231976
554.742990	0.231827
554.956919	0.232020
555.170830	0.232227
555.384722	0.232648
555.598597	0.232579
555.812453	0.232794
556.026291	0.232695
556.240111	0.233503
556.453913	0.233999
556.667696	0.234505
556.881461	0.234603
557.095208	0.234818
557.308937	0.234915
557.522647	0.235164
557.736339	0.235469
557.950013	0.235604
558.163669	0.235600
558.377307	0.236204
558.590926	0.236191
558.804527	0.236886
559.018110	0.236906
559.231675	0.237497
559.445221	0.237806
559.658749	0.237848
559.872259	0.237849
560.085751	0.238223
560.299225	0.238355
560.512680	0.238644
560.726117	0.238346
560.939536	0.238560
561.152937	0.238608
561.366319	0.238519
561.579683	0.239053
561.793029	0.239755
562.006357	0.239958
562.219667	0.240273
562.432958	0.240257
562.646231	0.240381
562.859486	0.241060
563.072723	0.241156
563.285941	0.242073
563.499141	0.241818
563.712323	0.241972
563.925487	0.241296
564.138632	0.241125
564.351760	0.241608
564.564869	0.242086
564.777960	0.241845
564.991032	0.241716
565.204087	0.241224
565.417123	0.241451
565.630141	0.241715
565.843140	0.242388
566.056122	0.242608
566.269085	0.242610
566.482030	0.242264
566.694957	0.242759
566.907866	0.243240
567.120756	0.243266
567.333628	0.243786
567.546482	0.243580
567.759318	0.244436
567.972135	0.244517
568.184935	0.244855
568.397716	0.245384
568.610478	0.245840
568.823223	0.246003
569.035949	0.246410
569.248657	0.246527
569.461347	0.246846
569.674019	0.246239
569.886672	0.246484
570.099308	0.246800
570.311925	0.246722
570.524523	0.246254
570.737104	0.246126
570.949666	0.246598
571.162210	0.246716
571.374736	0.246948
571.587244	0.247335
571.799733	0.247458
572.012205	0.247345
572.224658	0.247675
572.437092	0.248152
572.649509	0.249012
572.861907	0.248235
573.074287	0.248674
573.286649	0.248818
573.498993	0.249106
573.711318	0.249125
573.923625	0.249587
574.135914	0.250074
574.348185	0.250202
574.560438	0.250211
574.772672	0.251131
574.984888	0.251035
575.197086	0.251258
575.409266	0.251338
575.621427	0.251918
575.833570	0.252199
576.045695	0.252241
576.257802	0.252684
576.469890	0.252270
576.681961	0.252731
576.894013	0.252966
577.106046	0.253070
577.318062	0.253400
577.530059	0.253475
577.742039	0.253530
577.954000	0.253426
578.165942	0.253850
578.377867	0.254365
578.589773	0.254533
578.801661	0.254679
579.013531	0.255086
579.225382	0.254961
579.437216	0.255143
579.649031	0.255315
579.860828	0.255811
580.072606	0.255769
580.284367	0.256342
580.496109	0.256228
580.707833	0.255745
580.919539	0.255839
581.131227	0.255932
581.342896	0.256152
581.554547	0.256173
581.766180	0.256493
581.977795	0.256355
582.189391	0.256444
582.400969	0.256928
582.612529	0.257403
582.824071	0.257397
583.035595	0.257795
583.247100	0.258058
583.458587	0.258497
583.670056	0.258505
583.881506	0.258893
584.092939	0.258850
584.304353	0.258621
584.515749	0.259176
584.727127	0.259395
584.938486	0.259903
585.149828	0.259785
585.361151	0.260200
585.572456	0.260389
585.783742	0.260624
585.995011	0.261120
586.206261	0.261451
586.417493	0.261583
586.628706	0.261714
586.839902	0.261545
587.051079	0.261852
587.262238	0.261736
587.473379	0.262111
587.684502	0.262057
587.895606	0.262183
588.106692	0.262039
588.317760	0.262287
588.528810	0.262512
588.739841	0.263018
588.950855	0.262955
589.161850	0.263340
589.372827	0.263534
589.583785	0.263909
589.794726	0.264447
590.005648	0.265098
590.216552	0.265183
590.427437	0.265522
590.638305	0.265635
590.849154	0.266052
591.059985	0.266144
591.270798	0.265940
591.481592	0.266505
591.692369	0.266047
591.903127	0.266376
592.113867	0.266463
592.324588	0.266978
592.535292	0.266728
592.745977	0.267230
592.956644	0.267156
593.167293	0.267526
593.377923	0.267269
593.588536	0.267669
593.799130	0.267744
594.009706	0.268257
594.220263	0.268170
594.430803	0.268708
594.641324	0.268284
594.851827	0.268411
595.062312	0.268589
595.272778	0.268652
595.483227	0.268848
595.693657	0.268727
595.904069	0.268508
596.114462	0.268508
596.324838	0.268922
596.535195	0.269466
596.745534	0.269811
596.955855	0.269808
597.166157	0.270274
597.376441	0.270514
597.586707	0.270814
597.796955	0.271496
598.007185	0.272006
598.217396	0.272064
598.427589	0.272454
598.637764	0.272606
598.847921	0.272997
599.058060	0.272773
599.268180	0.273245
599.478282	0.273464
599.688366	0.273378
599.898431	0.273624
600.108479	0.273734
600.318508	0.273676
600.528519	0.274317
600.738511	0.274825
600.948486	0.274854
601.158442	0.274870
601.368380	0.275609
601.578300	0.275877
601.788202	0.275732
601.998085	0.275648
602.207950	0.275748
602.417797	0.275472
602.627626	0.275663
602.837436	0.276473
603.047228	0.276316
603.257002	0.275894
603.466758	0.275835
603.676496	0.276116
603.886215	0.276333
604.095916	0.276574
604.305599	0.276701
604.515264	0.276388
604.724910	0.276335
604.934538	0.276537
605.144148	0.276801
605.353740	0.277321
605.563314	0.276981
605.772869	0.277357
605.982406	0.277312
606.191925	0.277710
606.401425	0.277905
606.610908	0.278032
606.820372	0.278136
607.029818	0.278269
607.239246	0.278293
607.448655	0.278696
607.658047	0.278524
607.867420	0.279161
608.076775	0.278976
608.286111	0.279299
608.495430	0.279811
608.704730	0.280283
608.914012	0.280426
609.123275	0.280512
609.332521	0.281168
609.541748	0.281419
609.750957	0.281090
609.960148	0.281396
610.169321	0.281260
610.378475	0.281374
610.587611	0.281373
610.796729	0.281521
611.005829	0.281887
611.214910	0.281641
611.423974	0.281952
611.633019	0.282418
611.842045	0.282720
612.051054	0.283281
612.260044	0.283364
612.469017	0.283646
612.677970	0.283844
612.886906	0.283708
613.095824	0.283994
613.304723	0.283968
613.513604	0.283992
613.722467	0.284143
613.931311	0.284035
614.140138	0.284131
614.348946	0.284100
614.557736	0.284101
614.766507	0.284067
614.975261	0.284361
615.183996	0.284584
615.392713	0.284664
615.601412	0.284804
615.810092	0.285024
616.018754	0.284978
616.227399	0.285267
616.436024	0.285437
616.644632	0.285767
616.853222	0.285664
617.061793	0.285972
617.270346	0.285876
617.478880	0.285599
617.687397	0.285974
617.895895	0.286243
618.104375	0.286038
618.312837	0.286258
618.521281	0.286611
618.729706	0.286866
618.938113	0.286819
619.146502	0.287066
619.354873	0.287269
619.563226	0.287172
619.771560	0.287118
619.979876	0.287352
620.188174	0.287759
620.396453	0.287901
620.604715	0.287960
620.812958	0.288213
621.021183	0.288608
621.229390	0.288958
621.437578	0.289232
621.645748	0.289540
621.853900	0.289849
622.062034	0.289857
622.270150	0.289930
622.478247	0.290128
622.686326	0.290287
622.894387	0.290570
623.102430	0.290519
623.310454	0.290592
623.518461	0.290632
623.726449	0.291039
623.934418	0.291152
624.142370	0.291440
624.350303	0.291530
624.558218	0.291506
624.766115	0.291638
624.973994	0.292047
625.181855	0.292184
625.389697	0.292600
625.597521	0.292617
625.805327	0.292895
626.013114	0.293119
626.220883	0.293352
626.428634	0.293540
626.636367	0.293555
626.844082	0.293487
627.051778	0.293530
627.259457	0.293749
627.467117	0.294232
627.674758	0.294274
627.882382	0.294346
628.089987	0.294646
628.297574	0.295168
628.505143	0.295368
628.712694	0.295691
628.920226	0.295994
629.127740	0.296099
629.335236	0.296078
629.542714	0.296245
629.750174	0.296507
629.957615	0.296353
630.165038	0.296402
630.372443	0.296515
630.579829	0.296740
630.787198	0.297080
630.994548	0.297298
631.201880	0.297248
631.409194	0.297509
631.616489	0.297406
631.823766	0.297929
632.031025	0.297860
632.238266	0.298071
632.445489	0.298396
632.652693	0.298299
632.859879	0.298426
633.067047	0.298654
633.274197	0.298823
633.481329	0.298924
633.688442	0.298890
633.895537	0.299163
634.102614	0.299492
634.309672	0.299279
634.516713	0.299533
634.723735	0.299547
634.930739	0.299665
635.137724	0.299819
635.344692	0.300421
635.551641	0.300552
635.758572	0.300683
635.965485	0.300874
636.172379	0.301326
636.379256	0.301576
636.586114	0.301841
636.792954	0.302056
636.999775	0.302241
637.206579	0.302271
637.413364	0.302697
637.620131	0.302707
637.826880	0.302895
638.033610	0.303043
638.240323	0.303112
638.447017	0.303236
638.653692	0.303390
638.860350	0.303377
639.066990	0.303647
639.273611	0.303830
639.480214	0.304620
639.686798	0.304806
639.893365	0.305050
640.099913	0.305048
640.306443	0.305336
640.512955	0.305596
640.719449	0.306035
640.925924	0.306149
641.132381	0.306369
641.338820	0.306108
641.545241	0.306146
641.751644	0.306130
641.958028	0.306527
642.164394	0.306593
642.370742	0.306724
642.577071	0.306704
642.783383	0.306671
642.989676	0.306670
643.195951	0.307032
643.402207	0.307387
643.608446	0.307618
643.814666	0.308076
644.020868	0.308422
644.227052	0.308435
644.433218	0.308494
644.639365	0.308744
644.845494	0.308755
645.051605	0.308739
645.257698	0.308743
645.463772	0.308794
645.669828	0.308773
645.875866	0.308613
646.081886	0.308863
646.287888	0.309088
646.493871	0.309092
646.699836	0.309352
646.905783	0.309605
647.111712	0.309568
647.317622	0.309927
647.523514	0.309936
647.729388	0.310250
647.935244	0.310342
648.141082	0.310892
648.346901	0.311460
648.552702	0.311802
648.758485	0.312127
648.964250	0.312685
649.169996	0.312989
649.375724	0.313555
649.581434	0.313824
649.787126	0.314241
649.992800	0.314188
650.198455	0.314086
650.404092	0.314269
650.609711	0.314508
650.815311	0.314628
651.020894	0.314871
651.226458	0.314754
651.432004	0.314645
651.637532	0.314656
651.843041	0.314780
652.048532	0.314697
652.254006	0.314869
652.459460	0.314891
652.664897	0.314857
652.870315	0.314560
653.075716	0.314648
653.281097	0.315245
653.486461	0.315513
653.691807	0.315789
653.897134	0.316353
654.102443	0.316419
654.307734	0.316789
654.513006	0.317102
654.718261	0.317582
654.923497	0.317984
655.128715	0.318027
655.333915	0.318125
655.539096	0.318556
655.744259	0.318629
655.949404	0.318802
656.154531	0.318862
656.359640	0.319142
656.564730	0.319337
656.769802	0.319638
656.974856	0.320079
657.179892	0.320572
657.384909	0.320448
657.589908	0.320758
657.794889	0.320965
657.999852	0.321081
658.204797	0.321123
658.409723	0.321379
658.614631	0.321402
658.819521	0.321189
659.024393	0.321248
659.229246	0.321412
659.434081	0.321794
659.638898	0.322282
659.843697	0.322383
660.048478	0.322727
660.253240	0.323076
660.457984	0.323195
660.662710	0.323505
660.867417	0.323585
661.072107	0.324155
661.276778	0.324208
661.481431	0.324138
661.686066	0.324515
661.890682	0.324801
662.095281	0.325050
662.299861	0.325327
662.504422	0.325460
662.708966	0.325752
662.913491	0.325832
663.117999	0.326022
663.322488	0.326304
663.526958	0.326621
663.731411	0.326757
663.935845	0.326711
664.140261	0.327096
664.344659	0.327215
664.549038	0.327339
664.753400	0.327488
664.957743	0.327749
665.162068	0.328084
665.366375	0.328087
665.570663	0.328127
665.774933	0.328514
665.979185	0.328515
666.183419	0.328943
666.387635	0.329384
666.591832	0.329585
666.796011	0.329765
667.000172	0.329916
667.204315	0.330052
667.408439	0.330333
667.612545	0.330617
667.816634	0.331145
668.020703	0.331553
668.224755	0.331803
668.428788	0.331803
668.632803	0.331766
668.836800	0.331916
669.040779	0.332124
669.244739	0.332318
669.448681	0.332302
669.652605	0.332167
669.856511	0.332069
670.060399	0.332157
670.264268	0.332639
670.468119	0.332830
670.671952	0.332706
670.875767	0.332908
671.079563	0.333202
671.283341	0.333368
671.487101	0.333571
671.690843	0.333939
671.894567	0.333874
672.098272	0.334037
672.301959	0.334603
672.505628	0.335097
672.709278	0.335540
672.912911	0.335569
673.116525	0.335886
673.320121	0.336273
673.523699	0.336525
673.727258	0.336932
673.930799	0.336956
674.134322	0.336976
674.337827	0.337345
674.541314	0.337405
674.744782	0.337779
674.948232	0.337867
675.151664	0.338089
675.355078	0.338154
675.558474	0.338188
675.761851	0.338442
675.965210	0.338805
676.168551	0.339084
676.371873	0.339264
676.575178	0.339457
676.778464	0.339799
676.981732	0.339939
677.184981	0.340377
677.388213	0.340745
677.591426	0.340959
677.794621	0.341214
677.997798	0.341088
678.200956	0.341436
678.404097	0.341536
678.607219	0.341899
678.810323	0.342196
679.013408	0.342321
679.216476	0.342536
679.419525	0.342770
679.622556	0.342704
679.825569	0.343200
680.028563	0.343580
680.231540	0.343760
680.434498	0.343780
680.637438	0.343983
680.840359	0.344106
681.043263	0.344374
681.246148	0.344598
681.449015	0.345130
681.651864	0.345169
681.854694	0.345131
682.057506	0.345479
682.260301	0.345635
682.463076	0.345822
682.665834	0.345994
682.868573	0.346345
683.071295	0.346809
683.273998	0.346702
683.476682	0.346654
683.679349	0.347021
683.881997	0.347115
684.084627	0.347378
684.287239	0.347439
684.489833	0.347621
684.692408	0.347595
684.894965	0.347510
685.097504	0.347956
685.300025	0.348600
685.502527	0.348649
685.705012	0.348797
685.907478	0.349088
686.109925	0.349522
686.312355	0.349892
686.514766	0.350253
686.717159	0.350675
686.919534	0.350541
687.121891	0.350564
687.324230	0.350782
687.526550	0.351338
687.728852	0.351467
687.931136	0.351731
688.133401	0.351945
688.335649	0.351884
688.537878	0.351923
688.740089	0.352437
688.942281	0.352911
689.144456	0.353069
689.346612	0.352907
689.548750	0.353087
689.750870	0.353039
689.952971	0.353049
690.155055	0.353332
690.357120	0.353442
690.559167	0.353555
690.761195	0.353641
690.963206	0.353773
691.165198	0.354033
691.367172	0.354053
691.569128	0.354168
691.771065	0.354717
691.972984	0.354974
692.174885	0.355281
692.376768	0.355550
692.578633	0.355712
692.780479	0.356032
692.982308	0.356038
693.184118	0.356329
693.385909	0.356420
