sample name	sample
index	457
start time	 03-11-2021  11:30:55 AM
880	0.455767
Peak Time (s)	92.035
Peak Height 	0.4558
calc peak height	90,93
Baseline Time (s)	11.536
Baseline Value 	-0.003596
subtract baseline	10,4
Abs	0.297283
Peak Time (s)	90.535
Peak Height 	0.2973
calc peak height	90,93
Baseline Time (s)	9.534
Baseline Value 	0.003505
subtract baseline	10,3
PK_550	0.142291
Peak Time (s)	90.037
Peak Height 	0.1423
calc peak height	90,93
Baseline Time (s)	8.537
Baseline Value 	8.9327E-4
subtract baseline	10,2
PK_880	0.281492
Peak Time (s)	91.535
Peak Height 	0.2815
calc peak height	90,93
Baseline Time (s)	8.537
Baseline Value 	0.001855
subtract baseline	10,1


Time (s)	A880-A510	A880-A775	A880-A975	A880	I510	I775	I975	I880	
0.035000	-0.003674	-0.001912	-0.010185	0.005836	7000.482771	45231.420980	3898.294643	24039.068098
0.535000	-0.003646	-0.000984	-0.001227	0.004899	7009.843746	45413.748608	3924.473980	24084.961598
1.036000	-0.000518	-0.000205	0.000041	0.004064	7048.478636	45572.149544	3930.114864	24125.919798
1.537000	-0.001309	-0.000262	0.000714	0.001272	7068.122251	45842.087891	3939.471047	24263.513976
2.036000	-0.003546	-0.000763	-0.007705	0.006304	6997.201161	45297.877975	3903.570302	24016.211691
2.535500	-0.001180	-0.000367	-0.000718	0.000887	7073.182862	45869.801652	3936.637040	24282.549239
3.037000	0.000407	-0.000071	-0.002942	-0.001137	7108.898601	46100.138213	3936.095185	24382.909044
3.537000	-0.001185	0.000157	0.006411	0.001015	7071.865484	45909.005657	3955.718091	24276.195967
4.036500	0.001009	0.000193	-0.004509	0.001488	7088.860262	45865.712548	3924.820425	24252.841066
4.534500	0.000278	-0.000646	-0.002051	0.000115	7095.206037	45918.601075	3935.118390	24320.754431
5.035500	-0.002541	0.000035	-0.007296	0.000668	7061.941945	45931.286750	3919.564751	24293.357810
5.535000	-0.000792	0.000930	0.001384	0.001642	7069.572883	45923.507622	3940.285103	24245.239995
6.035500	-0.001486	-0.000590	0.001093	0.000296	7075.988372	45906.266782	3943.147960	24311.801988
6.536000	-0.001426	-0.000089	-0.001863	0.000824	7071.379848	45903.483687	3933.711233	24285.634819
7.036500	0.000298	-0.000485	-0.004646	0.000477	7091.822447	45898.727269	3927.162909	24302.838051
7.536500	-0.000171	-0.000438	-0.000312	0.000108	7090.822124	45939.882734	3939.842279	24321.088570
8.037000	0.000263	-0.000064	0.005486	0.000268	7093.546407	45961.247506	3955.231682	24313.203593
8.537000	0.000000	0.000000	0.000896	0.000600	7087.654054	45934.562969	3941.785731	24296.723653
9.037500	0.000620	-0.000204	0.000125	-0.000270	7102.411222	46000.746385	3942.057640	24339.860204
9.534500	0.000509	0.000021	0.000000	0.000041	7098.230279	45992.195940	3940.873246	24324.451312
10.035500	0.001246	0.000162	-0.000069	0.000035	7105.590705	46006.774700	3940.700145	24324.713886
10.538500	-0.000008	-0.000944	0.002490	-0.000755	7100.989642	45975.358209	3949.824699	24363.932859
11.035000	-0.000559	0.000310	-0.005320	-0.000030	7088.356197	46027.994470	3926.715041	24327.958413
11.536000	-0.000941	-0.000040	-0.003262	0.000000	7084.283706	45990.215310	3932.162975	24326.465875
12.036000	-0.003857	-0.000746	-0.005339	0.004538	7011.297738	45472.442993	3914.477824	24102.647712
12.536500	-0.000371	-0.000190	-0.000794	0.000201	7087.942204	45955.371481	3938.287858	24316.525489
13.037000	0.001829	-0.000208	-0.002230	-0.000353	7115.243042	46008.573395	3935.901651	24343.977850
13.537000	-0.000015	-0.000527	0.000662	-0.000321	7096.626036	45973.732678	3943.655404	24342.385862
14.034000	-0.003983	-0.000639	-0.002705	0.003745	7017.778200	45560.858612	3923.608610	24141.600559
14.535000	-0.001765	-0.000575	-0.004083	0.001972	7056.765174	45741.946589	3924.664743	24228.926127
15.041000	0.000475	0.000195	0.002748	0.000250	7095.823890	45988.711198	3947.784695	24314.095333
15.535000	-0.000123	-0.000849	-0.001305	-0.000192	7094.273600	45928.956057	3937.966064	24335.969816
16.036000	-0.003830	-0.000288	-0.000436	0.005983	6997.549392	45375.714582	3923.690495	24031.890795
16.536500	0.001073	0.000333	0.004650	0.000154	7102.692307	46011.944244	3953.249465	24318.824249
17.036500	0.002264	-0.000440	0.002624	-0.003100	7147.013022	46259.208972	3956.622537	24480.706547
17.537000	-0.001467	-0.000251	-0.001785	0.001189	7067.379098	45851.352673	3932.937819	24267.583826
18.034500	-0.002874	-0.001496	-0.001583	0.002687	7038.899276	45580.564290	3929.450395	24193.642062
18.537000	-0.001229	-0.000677	-0.000749	0.001243	7069.199552	45803.913221	3935.590753	24264.936974
19.035000	-0.001328	-0.000211	0.001322	0.001568	7065.024390	45817.821610	3940.317568	24248.882427
19.538000	-0.001346	0.000171	0.003200	0.001724	7063.311053	45840.193047	3944.997424	24241.171558
20.035500	-0.003587	-0.000370	0.001708	0.003006	7028.822620	45660.149566	3937.466813	24177.948340
20.536000	0.000873	-0.000051	-0.002835	0.001756	7084.857733	45815.030879	3928.588175	24239.565403
21.036500	-0.000927	-0.000063	0.003382	0.001695	7067.725254	45819.885992	3945.570540	24242.614169
21.536500	-0.000608	0.000428	0.006402	0.001959	7068.264201	45842.340926	3953.104232	24229.568529
22.036500	-0.002226	-0.001073	-0.000283	0.001451	7057.348342	45744.206658	3936.286104	24254.647174
22.537000	-0.001772	-0.000163	-0.001599	0.001435	7061.971541	45835.746226	3932.778471	24255.461690
23.037000	0.000035	-0.000440	-0.002155	0.001420	7079.907500	45809.779688	3931.321498	24256.197797
23.534500	0.000518	-0.000816	-0.000448	0.001475	7084.124215	45767.149590	3935.773925	24253.450082
24.035000	-0.001317	0.000329	0.000490	0.003225	7048.874249	45707.453117	3933.584265	24167.174689
24.535000	-0.000984	-0.000042	-0.001714	0.001612	7067.971110	45830.173096	3931.990924	24246.675862
25.036000	0.002054	0.001192	-0.002873	0.002581	7088.381840	45856.389996	3926.275143	24198.890620
25.536000	-0.002812	-0.000436	-0.005348	0.001449	7051.620470	45807.368464	3922.681166	24254.759219
26.036000	-0.000045	0.000019	0.001868	0.002008	7073.317648	45797.033936	3940.601492	24227.132269
26.536500	-0.000738	-0.000450	-0.000063	0.001802	7068.529722	45771.010726	3935.933962	24237.318984
27.036500	0.001069	-0.000193	0.000765	-0.000931	7113.434050	46067.536160	3945.595104	24372.666048
27.537500	0.001703	0.000644	0.000363	0.002029	7090.365046	45856.794515	3936.470033	24226.104504
28.037500	0.002093	-0.000308	-0.001283	0.000735	7107.058087	45890.739364	3935.519299	24290.065334
28.534500	0.001391	0.000091	0.002627	0.000541	7102.014571	45949.480075	3946.658828	24299.686504
29.035000	-0.001117	-0.000512	0.003446	0.000042	7082.135673	45939.167079	3950.258658	24324.372774
29.535500	-0.000422	0.000046	0.004598	0.002202	7067.697881	45780.505307	3947.505574	24217.581463
30.036000	0.001626	0.000830	0.001102	0.000865	7101.132482	45990.674926	3941.626228	24283.618156
30.536000	-0.001676	0.000576	0.003270	0.004358	7034.285416	45620.095909	3938.035263	24111.500590
31.036500	-0.000330	0.000216	0.003343	0.002532	7065.355426	45764.666479	3943.184780	24201.280618
31.536500	-0.002377	-0.000864	-0.001453	0.002307	7047.475990	45680.288566	3930.822763	24212.382322
32.037000	-0.002633	-0.000138	-0.000132	0.006406	7005.043912	45348.958286	3923.372093	24011.200136
32.537500	0.000783	-0.000147	0.005700	0.000437	7097.026541	45936.201226	3955.354674	24304.833359
33.034500	0.003103	0.000138	0.003620	-0.000544	7129.841955	46061.962737	3952.339751	24353.456678
33.538000	0.000356	-0.000634	0.001539	0.003202	7065.516943	45614.866178	3936.480550	24168.326237
34.035500	-0.001218	-0.000297	-0.001711	0.002971	7052.336349	45670.831302	3928.346545	24179.701589
34.535500	0.000236	0.000263	0.000490	0.003231	7064.055441	45700.390981	3933.568858	24166.898879
35.036000	-0.002179	-0.000202	0.000515	0.002672	7045.852330	45709.676857	3935.144693	24194.428731
35.535500	-0.000224	0.000002	-0.003612	0.003395	7057.925137	45658.432922	3922.120755	24158.826206
36.036000	-0.002313	-0.000540	0.002238	0.002579	7045.447773	45685.525145	3940.059861	24199.001167
36.536500	0.000583	0.000342	0.000321	0.003149	7068.271365	45716.255737	3933.333323	24170.929471
37.037000	-0.002169	-0.000226	-0.002321	0.002751	7045.169257	45699.473360	3927.299190	24190.523785
37.537500	0.000974	0.000155	-0.004696	0.003548	7068.194041	45658.398315	3918.820255	24151.281678
38.039500	-0.002044	-0.000294	-0.000155	0.002913	7044.801115	45676.808109	3932.685379	24182.522305
38.535000	-0.001837	0.000074	0.005744	0.002551	7050.383677	45748.868245	3949.682461	24200.386259
39.035500	-0.002600	-0.000290	-0.003008	0.002521	7043.197811	45715.866763	3926.071229	24201.835935
39.535500	-0.001200	-0.000218	-0.001639	0.002469	7057.426210	45728.042870	3929.886609	24204.396459
40.036000	0.000921	-0.000039	-0.000464	0.002837	7074.672625	45709.419244	3932.058315	24186.287137
40.536000	-0.000894	0.000282	-0.000913	0.002941	7055.795632	45730.814979	3930.569566	24181.141726
41.036500	-0.001661	-0.000176	-0.000625	0.002667	7050.964474	45712.707036	3932.084308	24194.655599
41.537000	-0.002697	-0.000058	0.000936	0.004041	7027.411168	45588.832312	3932.584403	24127.034228
42.034500	-0.004266	0.000228	-0.000394	0.003569	7016.732322	45663.543890	3930.277000	24150.255119
42.537500	-0.000071	-0.000268	-0.000045	0.002835	7064.925178	45687.076481	3933.194545	24186.396180
43.034500	-0.000282	0.000308	-0.004183	0.002978	7061.445242	45729.784930	3921.708881	24179.339267
43.535500	0.002887	-0.000122	0.002875	-0.002299	7145.231699	46210.942134	3955.110342	24440.744104
44.035500	-0.004049	-0.000391	-0.002160	0.005034	7004.623002	45458.616673	3921.620678	24078.335976
44.538000	-0.000796	-0.000673	-0.001350	0.000127	7084.465875	45914.780113	3936.981833	24320.177759
45.036000	0.001318	-0.000112	0.004177	0.000126	7105.404732	45970.530324	3952.030058	24320.216833
45.536500	-0.001655	0.000346	0.000936	0.005795	7020.478915	45456.273895	3927.868777	24041.058978
46.036500	-0.002746	-0.000657	-0.006977	0.005850	7009.346549	45352.647961	3906.679969	24038.397385
46.536500	0.000651	-0.000036	0.000204	0.000576	7094.338177	45933.444553	3939.975186	24297.941496
47.034000	-0.000286	-0.000102	0.000434	0.004235	7049.070994	45565.495536	3930.712164	24117.526284
47.563500	0.000512	0.000334	0.000584	0.004889	7050.485805	45544.048128	3929.357682	24085.455310
48.035000	-0.002602	-0.000357	-0.001302	0.006074	7008.575876	45360.118169	3921.134647	24027.454987
48.535000	-0.000141	0.000560	0.000921	0.000675	7085.521387	45982.715549	3941.651618	24293.011642
49.036000	0.001089	0.000018	-0.000231	-0.001272	7117.024661	46122.465851	3943.812360	24389.612090
49.536000	-0.001204	0.000672	0.001314	0.005187	7030.799056	45548.009094	3930.519525	24070.860338
50.036500	-0.004437	-0.001053	-0.004675	0.007010	6981.776534	45200.646351	3909.693153	23981.743111
50.536500	0.000076	-0.001853	-0.002336	-0.001875	7112.951231	45996.401445	3939.735364	24419.644077
51.037000	-0.037208	-0.008765	-0.017394	0.208346	5237.131780	29023.075963	3463.204134	16122.167633
51.536500	-0.039862	-0.023323	-0.037389	-0.126389	8041.307486	57548.258945	4209.060180	31599.371169
52.037500	-0.108869	-0.267408	-0.109050	-0.429670	11792.673901	65535.000000	5228.439531	60702.382565
52.535000	-0.124049	-0.302219	-0.114510	-0.464481	12208.731111	65535.000000	5400.869466	65535.000000
53.035000	-0.030801	-0.166374	-0.013333	-0.328637	11329.234182	65535.000000	5198.431507	48683.298172
53.535000	-0.016877	-0.109711	-0.013585	-0.271974	10529.379627	65535.000000	4899.208422	43070.424207
54.035500	-0.018740	-0.093790	-0.014261	-0.256053	10219.057985	65535.000000	4819.085778	41620.690425
54.536000	-0.015646	-0.093857	-0.012165	-0.256120	10273.279364	65535.000000	4829.352259	41626.672080
55.036000	-0.001983	-0.096792	-0.006333	-0.259055	10564.632853	65535.000000	4871.504116	41890.018137
55.537000	0.001732	-0.071206	-0.001523	-0.231439	10148.598420	65242.747913	4763.605471	39481.497679
56.037000	0.010582	-0.039906	0.010327	-0.185926	9553.285814	63234.177087	4614.340932	35831.536253
56.540000	0.019256	-0.015809	0.019339	-0.132573	8892.568177	59300.845882	4434.583009	32012.478656
57.037500	0.030223	-0.004685	0.030011	-0.078383	8314.924329	53972.191470	4275.134701	28585.159877
57.535000	0.034812	0.004894	0.038811	-0.018963	7660.212882	48430.120314	4108.690493	25287.426571
58.035500	0.054410	0.013547	0.058745	0.030656	7335.252851	44327.764116	4019.736083	22859.044048
58.535500	0.077507	0.025669	0.077673	0.075133	7117.154408	41350.408034	3947.896946	20906.038745
59.035500	0.098756	0.039411	0.106639	0.122790	6862.166280	38458.777660	3897.954516	19023.905804
59.536000	0.121686	0.052666	0.122181	0.168726	6652.318604	35877.998500	3821.193669	17395.064801
60.036000	0.138100	0.064202	0.147047	0.223842	6323.445275	32725.260671	3749.949870	15655.046164
60.536500	0.158712	0.074315	0.168177	0.270178	6120.507618	30335.069562	3694.256354	14353.699306
61.040000	0.174359	0.087023	0.187432	0.306458	5966.217275	28883.428750	3658.431331	13427.421089
61.537000	0.186289	0.097991	0.195104	0.334434	5851.182047	27883.869653	3617.500309	12764.160090
62.034500	0.203674	0.107429	0.209409	0.350260	5862.176366	27518.435552	3614.509727	12407.439340
62.535000	0.210975	0.112598	0.216731	0.359949	5845.351356	27263.063844	3609.876899	12195.377080
63.035000	0.220397	0.117619	0.236689	0.367339	5859.661130	27130.313110	3634.763517	12036.784699
63.536000	0.220992	0.119767	0.228297	0.379451	5779.455205	26579.690099	3594.529050	11782.617985
64.036000	0.225878	0.123070	0.231417	0.384942	5775.299015	26460.480185	3589.999229	11669.714682
64.536000	0.236037	0.127865	0.244305	0.386652	5833.848574	26628.759861	3611.578204	11634.838085
65.036500	0.237802	0.131198	0.248887	0.391546	5812.033655	26543.469032	3610.968579	11535.793227
65.537000	0.239438	0.132639	0.245610	0.400627	5760.756082	26130.463953	3587.162005	11354.950629
66.037000	0.242412	0.133961	0.250439	0.404427	5755.117342	25998.027577	3589.116576	11280.377806
66.537500	0.250388	0.135924	0.253919	0.402381	5824.221337	26212.587438	3599.704404	11320.434612
67.035000	0.250624	0.138785	0.261642	0.406926	5794.310745	26122.232754	3605.854230	11231.692790
67.535500	0.249148	0.139406	0.260956	0.414783	5730.543060	25737.755492	3589.423635	11080.442189
68.035500	0.254458	0.140827	0.260439	0.417542	5747.833993	25667.392096	3583.207175	11027.979860
68.536000	0.258119	0.142629	0.272932	0.417388	5773.891220	25770.409182	3607.465525	11030.905501
69.035500	0.258322	0.143602	0.266319	0.420278	5755.524072	25669.459610	3589.173296	10976.292888
69.536500	0.256533	0.143367	0.262058	0.426755	5699.702403	25319.616301	3568.978566	10855.193184
70.036500	0.259915	0.146458	0.272177	0.428054	5713.666022	25412.482239	3585.527488	10831.115778
70.537000	0.265684	0.146635	0.274711	0.424242	5778.774603	25620.621771	3597.646670	10901.966394
71.034500	0.265043	0.146298	0.270610	0.425184	5767.919418	25553.667750	3588.002209	10884.402796
71.535000	0.266090	0.146569	0.270839	0.432084	5728.124269	25209.857883	3575.417273	10756.906568
72.035000	0.261617	0.146304	0.269803	0.433901	5685.943681	25102.938334	3570.091952	10723.657878
72.535500	0.268186	0.148384	0.281171	0.431027	5749.491251	25358.157532	3597.020675	10776.295277
73.035000	0.268307	0.147404	0.273402	0.430957	5750.789063	25311.070964	3582.354267	10777.585257
73.536000	0.266055	0.146867	0.273164	0.438886	5682.306873	24877.596066	3567.078545	10633.191203
74.036500	0.268166	0.147772	0.266729	0.439829	5690.078477	24875.665828	3553.520790	10616.178081
74.536000	0.271020	0.148379	0.277208	0.435692	5737.060233	25117.489373	3580.601871	10691.028669
75.039500	0.270185	0.149979	0.280954	0.438362	5713.413496	25062.722774	3582.632029	10642.644492
75.537000	0.269898	0.150042	0.273695	0.444787	5668.655318	24739.800722	3557.187030	10527.415652
76.034500	0.274385	0.150050	0.286314	0.440068	5730.221065	24979.309852	3589.562637	10611.884914
76.534500	0.274633	0.149810	0.278008	0.440846	5726.640089	24927.489113	3572.439015	10597.887434
77.035500	0.271977	0.149558	0.277763	0.440634	5710.184703	24925.445348	3572.378165	10601.700666
77.535000	0.272031	0.149363	0.279244	0.446807	5669.398421	24604.195225	3563.672249	10491.530093
78.036000	0.276088	0.148882	0.278434	0.442226	5727.147860	24810.540420	3570.661608	10573.143049
78.536500	0.273559	0.149126	0.280881	0.442247	5709.977978	24821.758787	3575.190223	10572.763222
79.036500	0.275041	0.148063	0.282477	0.442614	5717.475661	24749.571300	3577.492514	10566.196592
79.539500	0.273142	0.147077	0.276044	0.447006	5675.444533	24480.147868	3557.425200	10488.009970
80.036500	0.274254	0.148083	0.282152	0.443530	5706.035529	24704.497166	3575.167760	10549.829421
80.537500	0.277503	0.148117	0.287854	0.444483	5721.470433	24658.307674	3584.106285	10532.836271
81.035000	0.278365	0.148991	0.287814	0.444966	5724.021787	24677.887484	3583.114754	10524.226834
81.535000	0.280163	0.148528	0.284178	0.445802	5730.518257	24612.770958	3574.706895	10509.369715
82.035500	0.276961	0.148189	0.289690	0.445941	5708.017994	24588.811893	3584.819434	10506.896512
82.535500	0.279071	0.148411	0.286581	0.447105	5714.375923	24541.714430	3576.767108	10486.260479
83.035500	0.276883	0.145431	0.287976	0.445151	5712.798657	24490.527184	3583.072460	10520.932494
83.536000	0.274942	0.146464	0.286484	0.452146	5653.375754	24195.559056	3567.187249	10397.499768
84.037000	0.275136	0.145570	0.282942	0.451866	5656.499159	24165.447017	3561.165150	10402.409017
84.536500	0.279286	0.145785	0.291606	0.446933	5716.982713	24419.553383	3586.572880	10489.311559
85.040000	0.278347	0.144571	0.289739	0.446628	5712.711550	24374.444350	3583.612129	10494.706309
85.537500	0.277692	0.145956	0.289120	0.448057	5698.751785	24372.273436	3579.749497	10469.425136
86.034500	0.277768	0.144697	0.282695	0.452388	5670.438469	24097.108690	3559.752880	10393.275425
86.535000	0.278166	0.143978	0.288760	0.448003	5702.279054	24277.187639	3579.173300	10470.379382
87.038000	0.278783	0.144331	0.294643	0.448536	5702.839840	24268.299251	3589.298009	10460.961288
87.535500	0.281071	0.144876	0.288351	0.449276	5713.222977	24258.675818	3576.015555	10447.908583
88.036500	0.273531	0.141720	0.289875	0.452686	5640.562710	23937.509814	3572.488677	10388.059594
88.536500	0.278779	0.142936	0.293510	0.448457	5703.344547	24203.478900	3587.293620	10462.352368
89.036000	0.279522	0.141485	0.295531	0.448342	5709.096284	24137.960784	3591.361303	10464.384704
89.537000	0.276243	0.142236	0.293697	0.452973	5656.496343	23948.657026	3579.111469	10383.045183
90.037000	0.278288	0.142291	0.284421	0.453149	5668.840007	23942.759321	3561.525262	10379.970792
90.534500	0.277933	0.140208	0.297283	0.448604	5696.700395	24062.660170	3594.209803	10459.755596
91.035000	0.279443	0.141653	0.286701	0.450306	5695.422940	24050.113638	3571.010152	10429.788072
91.535000	0.281492	0.142206	0.289115	0.454555	5680.763155	23870.519410	3567.601154	10355.465969
92.035000	0.274776	0.140484	0.296909	0.455767	5628.561248	23729.040433	3579.898258	10334.396744
92.536000	0.279819	0.140137	0.296552	0.451001	5693.282961	23942.465434	3588.239105	10417.568899
93.035500	0.276269	0.138659	0.295850	0.449429	5680.112792	23947.015602	3589.895999	10445.206259
93.539500	0.276501	0.138855	0.292095	0.453200	5656.703265	23774.167961	3575.679112	10379.080947
94.035500	0.275400	0.137742	0.292693	0.449552	5673.535588	23896.598906	3583.667953	10443.040303
94.537000	0.278466	0.138635	0.293558	0.451627	5680.113385	23839.406528	3581.384306	10406.593592
95.037000	0.275988	0.137336	0.293184	0.450359	5672.085154	23837.918254	3583.072305	10428.851606
95.535000	0.276601	0.136039	0.293134	0.452196	5663.987800	23687.075031	3579.513651	10396.634287
