sample name	sample
index	877
start time	 04-08-2021  01:53:08 PM


Wavelength (nm)	Absorbance
494.344910	0.052516
494.563924	0.052516
494.782919	0.052516
495.001897	-0.033168
495.220856	0.018686
495.439797	0.011578
495.658719	0.009516
495.877624	0.001360
496.096510	0.001225
496.315378	0.001751
496.534227	0.001230
496.753059	-0.004484
496.971872	0.006233
497.190667	0.073380
497.409444	0.114611
497.628203	0.131669
497.846943	0.140048
498.065665	0.147261
498.284369	0.151719
498.503055	0.154720
498.721723	0.158046
498.940372	0.159082
499.159003	0.159158
499.377616	0.159054
499.596210	0.159283
499.814787	0.160733
500.033345	0.161170
500.251885	0.161692
500.470406	0.161009
500.688910	0.160707
500.907395	0.161252
501.125862	0.162280
501.344311	0.163539
501.562742	0.163615
501.781154	0.162762
501.999548	0.162980
502.217924	0.162405
502.436282	0.163592
502.654621	0.164831
502.872942	0.165427
503.091245	0.165397
503.309530	0.164565
503.527797	0.164904
503.746045	0.166020
503.964275	0.166016
504.182487	0.166487
504.400681	0.167361
504.618856	0.167185
504.837013	0.167334
505.055152	0.167301
505.273273	0.168921
505.491376	0.168662
505.709460	0.168534
505.927526	0.169494
506.145574	0.169812
506.363604	0.169710
506.581615	0.169627
506.799608	0.169134
507.017583	0.169285
507.235540	0.168305
507.453478	0.168604
507.671399	0.168470
507.889301	0.168301
508.107185	0.169115
508.325050	0.169289
508.542898	0.169930
508.760727	0.171205
508.978538	0.171633
509.196330	0.171875
509.414105	0.172366
509.631861	0.173361
509.849599	0.174420
510.067319	0.174511
510.285021	0.174593
510.502704	0.175027
510.720369	0.174214
510.938016	0.175724
511.155645	0.176223
511.373255	0.176557
511.590848	0.176373
511.808422	0.176313
512.025977	0.177066
512.243515	0.177564
512.461034	0.177916
512.678536	0.179454
512.896018	0.179119
513.113483	0.180016
513.330930	0.179754
513.548358	0.180529
513.765768	0.180589
513.983160	0.180423
514.200533	0.180602
514.417889	0.180890
514.635226	0.180403
514.852545	0.180921
515.069845	0.180668
515.287128	0.182087
515.504392	0.181988
515.721638	0.183227
515.938866	0.183267
516.156075	0.183956
516.373267	0.184478
516.590440	0.184598
516.807594	0.184326
517.024731	0.184431
517.241850	0.184892
517.458950	0.185396
517.676032	0.185041
517.893095	0.185260
518.110141	0.185498
518.327168	0.185484
518.544177	0.186367
518.761168	0.186457
518.978141	0.186315
519.195095	0.186154
519.412031	0.186732
519.628949	0.186766
519.845849	0.188177
520.062731	0.187928
520.279594	0.188448
520.496439	0.188723
520.713266	0.189136
520.930074	0.190029
521.146865	0.190212
521.363637	0.190224
521.580391	0.191320
521.797127	0.191173
522.013844	0.191258
522.230543	0.191782
522.447224	0.192655
522.663887	0.193353
522.880532	0.194196
523.097158	0.194092
523.313766	0.195050
523.530356	0.194316
523.746928	0.194323
523.963481	0.196108
524.180017	0.196272
524.396534	0.196243
524.613032	0.196276
524.829513	0.196948
525.045975	0.198361
525.262420	0.198494
525.478845	0.199317
525.695253	0.200236
525.911643	0.199972
526.128014	0.200168
526.344367	0.200494
526.560702	0.201154
526.777018	0.201452
526.993316	0.201186
527.209597	0.201634
527.425858	0.202500
527.642102	0.202824
527.858328	0.203232
528.074535	0.204481
528.290724	0.204696
528.506894	0.205075
528.723047	0.204988
528.939181	0.205843
529.155297	0.206202
529.371395	0.206124
529.587475	0.206419
529.803536	0.206510
530.019579	0.205879
530.235604	0.206149
530.451611	0.207031
530.667600	0.208294
530.883570	0.208244
531.099522	0.208527
531.315456	0.208359
531.531372	0.208957
531.747269	0.210082
531.963148	0.210541
532.179009	0.211279
532.394852	0.211068
532.610676	0.210854
532.826482	0.211383
533.042271	0.211834
533.258040	0.213231
533.473792	0.213338
533.689525	0.213497
533.905240	0.213989
534.120937	0.214337
534.336616	0.214852
534.552277	0.215450
534.767919	0.215799
534.983543	0.216302
535.199149	0.216100
535.414736	0.217184
535.630306	0.217911
535.845857	0.217985
536.061390	0.218721
536.276904	0.219172
536.492401	0.219637
536.707879	0.219957
536.923339	0.220370
537.138781	0.221022
537.354204	0.221132
537.569610	0.220727
537.784997	0.220684
538.000366	0.221028
538.215716	0.221354
538.431049	0.221058
538.646363	0.221948
538.861659	0.222248
539.076937	0.222478
539.292196	0.222606
539.507438	0.222808
539.722661	0.224338
539.937866	0.224713
540.153052	0.225052
540.368221	0.226211
540.583371	0.226763
540.798503	0.226982
541.013617	0.227685
541.228712	0.227511
541.443789	0.228422
541.658848	0.228761
541.873889	0.228475
542.088912	0.229317
542.303916	0.229293
542.518902	0.229479
542.733870	0.229687
542.948820	0.230105
543.163752	0.230722
543.378665	0.231039
543.593560	0.230423
543.808437	0.230939
544.023295	0.231129
544.238136	0.231307
544.452958	0.231468
544.667762	0.232420
544.882548	0.232410
545.097315	0.233000
545.312064	0.233500
545.526795	0.234408
545.741508	0.234992
545.956203	0.235478
546.170879	0.236246
546.385537	0.236685
546.600177	0.236806
546.814799	0.237029
547.029402	0.236764
547.243988	0.236818
547.458555	0.237482
547.673103	0.237617
547.887634	0.237245
548.102146	0.237330
548.316640	0.237241
548.531116	0.237829
548.745574	0.238317
548.960013	0.239093
549.174435	0.239473
549.388838	0.239946
549.603222	0.240901
549.817589	0.241902
550.031937	0.242218
550.246267	0.243255
550.460579	0.243488
550.674873	0.244287
550.889148	0.244668
551.103405	0.244909
551.317644	0.244721
551.531865	0.244316
551.746068	0.244489
551.960252	0.244741
552.174418	0.244833
552.388566	0.244814
552.602696	0.244687
552.816807	0.244871
553.030900	0.245106
553.244975	0.245095
553.459032	0.245444
553.673070	0.245706
553.887091	0.245701
554.101093	0.245653
554.315077	0.246191
554.529042	0.246531
554.742990	0.246676
554.956919	0.247134
555.170830	0.248043
555.384722	0.248233
555.598597	0.248551
555.812453	0.249422
556.026291	0.249656
556.240111	0.249580
556.453913	0.249805
556.667696	0.250325
556.881461	0.250386
557.095208	0.250576
557.308937	0.251309
557.522647	0.251220
557.736339	0.251195
557.950013	0.251721
558.163669	0.251938
558.377307	0.252295
558.590926	0.252443
558.804527	0.252591
559.018110	0.252835
559.231675	0.252708
559.445221	0.253463
559.658749	0.253759
559.872259	0.253693
560.085751	0.254029
560.299225	0.253686
560.512680	0.253685
560.726117	0.253479
560.939536	0.253321
561.152937	0.253644
561.366319	0.253562
561.579683	0.254188
561.793029	0.254399
562.006357	0.254575
562.219667	0.255444
562.432958	0.255510
562.646231	0.255886
562.859486	0.255994
563.072723	0.256426
563.285941	0.256477
563.499141	0.256505
563.712323	0.256942
563.925487	0.257119
564.138632	0.256804
564.351760	0.257638
564.564869	0.257899
564.777960	0.258122
564.991032	0.258013
565.204087	0.258598
565.417123	0.258340
565.630141	0.258682
565.843140	0.258874
566.056122	0.259284
566.269085	0.258850
566.482030	0.259639
566.694957	0.260088
566.907866	0.260553
567.120756	0.260336
567.333628	0.260610
567.546482	0.260533
567.759318	0.260418
567.972135	0.260726
568.184935	0.261487
568.397716	0.261710
568.610478	0.261679
568.823223	0.261569
569.035949	0.261758
569.248657	0.261669
569.461347	0.261937
569.674019	0.262810
569.886672	0.262922
570.099308	0.262992
570.311925	0.262780
570.524523	0.263529
570.737104	0.263757
570.949666	0.264179
571.162210	0.264865
571.374736	0.265151
571.587244	0.264996
571.799733	0.265384
572.012205	0.265469
572.224658	0.265790
572.437092	0.265879
572.649509	0.266073
572.861907	0.266289
573.074287	0.266507
573.286649	0.266987
573.498993	0.267333
573.711318	0.267032
573.923625	0.267460
574.135914	0.267985
574.348185	0.268330
574.560438	0.268458
574.772672	0.268359
574.984888	0.268618
575.197086	0.268617
575.409266	0.268682
575.621427	0.268990
575.833570	0.269001
576.045695	0.268965
576.257802	0.268575
576.469890	0.269129
576.681961	0.270005
576.894013	0.270225
577.106046	0.270127
577.318062	0.270523
577.530059	0.270733
577.742039	0.271037
577.954000	0.271289
578.165942	0.271523
578.377867	0.271821
578.589773	0.271696
578.801661	0.272119
579.013531	0.272628
579.225382	0.272527
579.437216	0.272943
579.649031	0.272772
579.860828	0.272657
580.072606	0.272856
580.284367	0.273001
580.496109	0.272975
580.707833	0.272379
580.919539	0.272262
581.131227	0.272504
581.342896	0.272983
581.554547	0.273682
581.766180	0.273997
581.977795	0.274092
582.189391	0.274047
582.400969	0.273920
582.612529	0.274596
582.824071	0.275168
583.035595	0.276023
583.247100	0.275753
583.458587	0.275551
583.670056	0.275870
583.881506	0.276529
584.092939	0.276798
584.304353	0.277097
584.515749	0.276928
584.727127	0.276662
584.938486	0.276553
585.149828	0.276737
585.361151	0.277120
585.572456	0.277222
585.783742	0.276872
585.995011	0.276770
586.206261	0.276894
586.417493	0.277360
586.628706	0.277830
586.839902	0.277700
587.051079	0.277785
587.262238	0.277885
587.473379	0.278042
587.684502	0.278804
587.895606	0.279259
588.106692	0.279443
588.317760	0.279652
588.528810	0.279921
588.739841	0.280080
588.950855	0.280899
589.161850	0.281106
589.372827	0.281253
589.583785	0.281390
589.794726	0.281657
590.005648	0.282106
590.216552	0.282134
590.427437	0.281946
590.638305	0.282235
590.849154	0.282015
591.059985	0.282184
591.270798	0.282481
591.481592	0.282315
591.692369	0.282426
591.903127	0.282322
592.113867	0.282772
592.324588	0.283047
592.535292	0.283185
592.745977	0.283499
592.956644	0.283577
593.167293	0.283932
593.377923	0.284379
593.588536	0.284740
593.799130	0.285074
594.009706	0.285037
594.220263	0.285089
594.430803	0.285624
594.641324	0.285875
594.851827	0.286286
595.062312	0.286578
595.272778	0.286846
595.483227	0.286951
595.693657	0.287245
595.904069	0.287628
596.114462	0.288040
596.324838	0.288012
596.535195	0.287869
596.745534	0.288004
596.955855	0.287792
597.166157	0.287800
597.376441	0.287819
597.586707	0.288216
597.796955	0.288559
598.007185	0.288828
598.217396	0.289000
598.427589	0.289423
598.637764	0.289578
598.847921	0.290030
599.058060	0.290142
599.268180	0.290550
599.478282	0.290750
599.688366	0.290817
599.898431	0.290885
600.108479	0.290823
600.318508	0.290872
600.528519	0.291020
600.738511	0.290915
600.948486	0.291419
601.158442	0.291592
601.368380	0.291693
601.578300	0.291612
601.788202	0.291567
601.998085	0.291910
602.207950	0.292291
602.417797	0.292400
602.627626	0.292661
602.837436	0.292321
603.047228	0.291946
603.257002	0.291948
603.466758	0.292214
603.676496	0.292605
603.886215	0.292651
604.095916	0.292217
604.305599	0.292498
604.515264	0.292857
604.724910	0.293534
604.934538	0.294137
605.144148	0.294678
605.353740	0.294986
605.563314	0.295315
605.772869	0.296038
605.982406	0.296760
606.191925	0.296917
606.401425	0.297029
606.610908	0.297149
606.820372	0.297202
607.029818	0.296871
607.239246	0.296924
607.448655	0.296683
607.658047	0.296334
607.867420	0.296475
608.076775	0.296606
608.286111	0.297078
608.495430	0.296917
608.704730	0.297114
608.914012	0.297454
609.123275	0.297672
609.332521	0.297985
609.541748	0.298230
609.750957	0.298115
609.960148	0.298607
610.169321	0.298468
610.378475	0.298972
610.587611	0.299070
610.796729	0.299226
611.005829	0.299283
611.214910	0.299623
611.423974	0.299789
611.633019	0.300627
611.842045	0.300607
612.051054	0.300912
612.260044	0.300828
612.469017	0.301031
612.677970	0.301329
612.886906	0.301619
613.095824	0.301701
613.304723	0.302008
613.513604	0.302022
613.722467	0.302041
613.931311	0.302056
614.140138	0.302310
614.348946	0.302950
614.557736	0.302985
614.766507	0.302816
614.975261	0.303319
615.183996	0.303174
615.392713	0.303412
615.601412	0.303462
615.810092	0.303641
616.018754	0.303894
616.227399	0.303998
616.436024	0.304158
616.644632	0.304868
616.853222	0.304414
617.061793	0.304756
617.270346	0.304817
617.478880	0.305511
617.687397	0.305513
617.895895	0.305531
618.104375	0.305502
618.312837	0.305589
618.521281	0.305181
618.729706	0.305719
618.938113	0.305694
619.146502	0.305603
619.354873	0.305227
619.563226	0.305456
619.771560	0.305762
619.979876	0.305591
620.188174	0.305777
620.396453	0.305931
620.604715	0.306185
620.812958	0.306674
621.021183	0.307148
621.229390	0.307741
621.437578	0.307927
621.645748	0.307914
621.853900	0.308368
622.062034	0.308745
622.270150	0.309071
622.478247	0.308954
622.686326	0.308925
622.894387	0.308680
623.102430	0.308567
623.310454	0.308772
623.518461	0.308801
623.726449	0.308970
623.934418	0.309283
624.142370	0.309516
624.350303	0.309889
624.558218	0.310231
624.766115	0.310496
624.973994	0.310640
625.181855	0.310666
625.389697	0.311222
625.597521	0.311597
625.805327	0.311616
626.013114	0.311956
626.220883	0.312090
626.428634	0.312252
626.636367	0.312314
626.844082	0.312633
627.051778	0.312668
627.259457	0.312975
627.467117	0.312841
627.674758	0.312944
627.882382	0.312856
628.089987	0.312760
628.297574	0.312673
628.505143	0.313111
628.712694	0.313169
628.920226	0.313645
629.127740	0.313547
629.335236	0.313802
629.542714	0.313930
629.750174	0.314197
629.957615	0.314761
630.165038	0.315133
630.372443	0.315278
630.579829	0.315661
630.787198	0.315585
630.994548	0.315703
631.201880	0.315869
631.409194	0.316086
631.616489	0.316399
631.823766	0.316492
632.031025	0.316593
632.238266	0.316585
632.445489	0.316500
632.652693	0.316701
632.859879	0.316737
633.067047	0.317017
633.274197	0.317063
633.481329	0.317311
633.688442	0.317189
633.895537	0.317516
634.102614	0.317900
634.309672	0.318220
634.516713	0.318371
634.723735	0.318657
634.930739	0.318715
635.137724	0.318806
635.344692	0.318925
635.551641	0.319725
635.758572	0.319879
635.965485	0.319860
636.172379	0.319906
636.379256	0.320143
636.586114	0.320343
636.792954	0.320370
636.999775	0.320878
637.206579	0.320919
637.413364	0.320609
637.620131	0.320752
637.826880	0.321021
638.033610	0.321376
638.240323	0.321833
638.447017	0.322030
638.653692	0.322475
638.860350	0.322522
639.066990	0.322682
639.273611	0.323002
639.480214	0.323024
639.686798	0.323361
639.893365	0.323562
640.099913	0.323636
640.306443	0.323772
640.512955	0.323644
640.719449	0.323957
640.925924	0.324273
641.132381	0.324526
641.338820	0.324617
641.545241	0.324706
641.751644	0.324606
641.958028	0.324627
642.164394	0.324986
642.370742	0.325345
642.577071	0.325403
642.783383	0.325658
642.989676	0.325903
643.195951	0.326173
643.402207	0.326094
643.608446	0.326413
643.814666	0.326922
644.020868	0.327331
644.227052	0.327841
644.433218	0.328022
644.639365	0.328054
644.845494	0.328060
645.051605	0.328649
645.257698	0.328996
645.463772	0.329195
645.669828	0.329218
645.875866	0.329181
646.081886	0.329010
646.287888	0.329075
646.493871	0.329490
646.699836	0.329331
646.905783	0.329341
647.111712	0.329629
647.317622	0.329914
647.523514	0.330228
647.729388	0.330535
647.935244	0.330748
648.141082	0.331032
648.346901	0.330954
648.552702	0.331466
648.758485	0.331584
648.964250	0.332037
649.169996	0.332142
649.375724	0.332219
649.581434	0.332468
649.787126	0.332844
649.992800	0.333031
650.198455	0.333653
650.404092	0.333964
650.609711	0.334299
650.815311	0.334148
651.020894	0.334574
651.226458	0.334859
651.432004	0.334825
651.637532	0.334885
651.843041	0.335221
652.048532	0.334984
652.254006	0.335254
652.459460	0.335546
652.664897	0.335885
652.870315	0.336082
653.075716	0.336279
653.281097	0.336733
653.486461	0.336992
653.691807	0.337120
653.897134	0.337508
654.102443	0.337586
654.307734	0.337600
654.513006	0.338019
654.718261	0.338366
654.923497	0.338337
655.128715	0.338332
655.333915	0.338718
655.539096	0.338947
655.744259	0.339103
655.949404	0.339347
656.154531	0.339650
656.359640	0.339622
656.564730	0.339593
656.769802	0.340235
656.974856	0.340578
657.179892	0.340609
657.384909	0.340877
657.589908	0.341345
657.794889	0.341655
657.999852	0.341938
658.204797	0.342046
658.409723	0.342425
658.614631	0.342360
658.819521	0.342608
659.024393	0.342672
659.229246	0.342891
659.434081	0.342926
659.638898	0.343268
659.843697	0.343466
660.048478	0.344077
660.253240	0.344288
660.457984	0.344608
660.662710	0.344785
660.867417	0.345250
661.072107	0.345586
661.276778	0.345958
661.481431	0.345916
661.686066	0.346265
661.890682	0.346207
662.095281	0.346613
662.299861	0.346963
662.504422	0.347414
662.708966	0.347744
662.913491	0.347889
663.117999	0.347738
663.322488	0.348106
663.526958	0.348326
663.731411	0.348354
663.935845	0.348277
664.140261	0.348429
664.344659	0.348374
664.549038	0.348537
664.753400	0.348869
664.957743	0.349555
665.162068	0.349869
665.366375	0.349950
665.570663	0.350435
665.774933	0.350797
665.979185	0.350982
666.183419	0.351206
666.387635	0.351345
666.591832	0.351613
666.796011	0.351801
667.000172	0.352029
667.204315	0.352269
667.408439	0.352726
667.612545	0.352977
667.816634	0.353344
668.020703	0.353934
668.224755	0.354365
668.428788	0.354793
668.632803	0.355030
668.836800	0.355271
669.040779	0.355652
669.244739	0.355440
669.448681	0.355606
669.652605	0.355913
669.856511	0.356064
670.060399	0.356184
670.264268	0.356484
670.468119	0.356742
670.671952	0.357212
670.875767	0.357356
671.079563	0.358100
671.283341	0.358604
671.487101	0.358904
671.690843	0.358870
671.894567	0.359248
672.098272	0.358944
672.301959	0.358793
672.505628	0.359005
672.709278	0.359422
672.912911	0.359748
673.116525	0.359706
673.320121	0.359523
673.523699	0.360129
673.727258	0.360369
673.930799	0.360771
674.134322	0.361416
674.337827	0.361388
674.541314	0.361580
674.744782	0.361727
674.948232	0.361909
675.151664	0.362327
675.355078	0.362460
675.558474	0.362570
675.761851	0.363077
675.965210	0.363286
676.168551	0.363726
676.371873	0.364058
676.575178	0.364474
676.778464	0.364850
676.981732	0.365366
677.184981	0.365606
677.388213	0.365621
677.591426	0.365719
677.794621	0.365733
677.997798	0.365740
678.200956	0.365798
678.404097	0.365621
678.607219	0.365772
678.810323	0.366059
679.013408	0.366376
679.216476	0.366916
679.419525	0.367198
679.622556	0.367684
679.825569	0.367932
680.028563	0.368345
680.231540	0.368782
680.434498	0.369003
680.637438	0.368911
680.840359	0.368933
681.043263	0.368853
681.246148	0.369129
681.449015	0.369454
681.651864	0.370004
681.854694	0.370392
682.057506	0.370511
682.260301	0.370755
682.463076	0.370993
682.665834	0.371164
682.868573	0.371963
683.071295	0.371859
683.273998	0.371936
683.476682	0.372172
683.679349	0.371915
683.881997	0.372048
684.084627	0.372417
684.287239	0.372686
684.489833	0.372813
684.692408	0.372837
684.894965	0.373111
685.097504	0.373275
685.300025	0.373509
685.502527	0.373904
685.705012	0.374290
685.907478	0.374338
686.109925	0.374715
686.312355	0.375285
686.514766	0.375532
686.717159	0.376115
686.919534	0.376219
687.121891	0.376356
687.324230	0.376727
687.526550	0.376669
687.728852	0.376976
687.931136	0.377148
688.133401	0.377210
688.335649	0.377250
688.537878	0.377251
688.740089	0.377451
688.942281	0.377412
689.144456	0.377240
689.346612	0.377517
689.548750	0.377591
689.750870	0.377788
689.952971	0.377898
690.155055	0.378171
690.357120	0.378438
690.559167	0.378556
690.761195	0.378777
690.963206	0.379251
691.165198	0.379522
691.367172	0.379926
691.569128	0.380110
691.771065	0.380601
691.972984	0.380782
692.174885	0.381220
692.376768	0.381452
692.578633	0.381993
692.780479	0.382140
692.982308	0.382549
693.184118	0.382728
693.385909	0.382886
