sample name	sample
index	1465
start time	 05-10-2021  02:07:04 PM


Wavelength (nm)	Absorbance
494.344910	-0.042748
494.563924	-0.042748
494.782919	-0.042748
495.001897	0.035087
495.220856	0.002113
495.439797	0.010712
495.658719	0.015246
495.877624	0.019468
496.096510	0.014976
496.315378	0.010178
496.534227	0.011185
496.753059	0.008031
496.971872	0.006272
497.190667	0.051435
497.409444	0.072536
497.628203	0.080080
497.846943	0.083275
498.065665	0.085506
498.284369	0.087194
498.503055	0.088137
498.721723	0.090291
498.940372	0.091730
499.159003	0.091418
499.377616	0.091397
499.596210	0.091968
499.814787	0.092971
500.033345	0.093729
500.251885	0.094293
500.470406	0.094122
500.688910	0.094218
500.907395	0.094072
501.125862	0.094042
501.344311	0.093875
501.562742	0.094214
501.781154	0.093808
501.999548	0.094485
502.217924	0.093851
502.436282	0.094289
502.654621	0.094083
502.872942	0.093769
503.091245	0.093617
503.309530	0.094079
503.527797	0.093961
503.746045	0.094585
503.964275	0.093364
504.182487	0.093857
504.400681	0.094334
504.618856	0.093952
504.837013	0.093775
505.055152	0.093806
505.273273	0.091871
505.491376	0.091064
505.709460	0.090310
505.927526	0.091210
506.145574	0.090819
506.363604	0.091368
506.581615	0.092291
506.799608	0.092328
507.017583	0.092681
507.235540	0.094169
507.453478	0.095122
507.671399	0.095427
507.889301	0.094172
508.107185	0.094263
508.325050	0.093632
508.542898	0.092379
508.760727	0.092691
508.978538	0.092248
509.196330	0.093159
509.414105	0.092687
509.631861	0.092929
509.849599	0.093676
510.067319	0.093686
510.285021	0.093034
510.502704	0.093403
510.720369	0.094309
510.938016	0.095242
511.155645	0.093730
511.373255	0.094234
511.590848	0.093306
511.808422	0.093373
512.025977	0.093689
512.243515	0.093471
512.461034	0.094131
512.678536	0.092730
512.896018	0.092734
513.113483	0.093672
513.330930	0.092945
513.548358	0.093366
513.765768	0.092987
513.983160	0.092539
514.200533	0.092698
514.417889	0.092115
514.635226	0.092890
514.852545	0.093109
515.069845	0.093094
515.287128	0.093367
515.504392	0.092892
515.721638	0.093657
515.938866	0.095252
516.156075	0.096657
516.373267	0.097056
516.590440	0.096345
516.807594	0.095548
517.024731	0.095326
517.241850	0.095727
517.458950	0.096936
517.676032	0.096875
517.893095	0.096234
518.110141	0.095525
518.327168	0.096025
518.544177	0.096730
518.761168	0.097169
518.978141	0.097580
519.195095	0.097303
519.412031	0.097371
519.628949	0.097067
519.845849	0.097113
520.062731	0.097434
520.279594	0.096871
520.496439	0.097166
520.713266	0.097180
520.930074	0.097738
521.146865	0.097867
521.363637	0.097651
521.580391	0.098251
521.797127	0.098375
522.013844	0.098091
522.230543	0.098409
522.447224	0.097785
522.663887	0.098166
522.880532	0.097508
523.097158	0.097558
523.313766	0.097953
523.530356	0.097931
523.746928	0.098012
523.963481	0.098045
524.180017	0.098050
524.396534	0.098242
524.613032	0.098144
524.829513	0.098605
525.045975	0.098592
525.262420	0.098896
525.478845	0.099219
525.695253	0.098702
525.911643	0.098367
526.128014	0.098383
526.344367	0.098570
526.560702	0.098454
526.777018	0.098442
526.993316	0.098965
527.209597	0.098473
527.425858	0.098668
527.642102	0.099394
527.858328	0.100552
528.074535	0.100881
528.290724	0.101619
528.506894	0.101882
528.723047	0.101929
528.939181	0.101815
529.155297	0.102740
529.371395	0.101618
529.587475	0.101050
529.803536	0.101043
530.019579	0.101115
530.235604	0.100704
530.451611	0.100778
530.667600	0.100479
530.883570	0.100276
531.099522	0.099533
531.315456	0.100530
531.531372	0.100619
531.747269	0.099990
531.963148	0.100274
532.179009	0.100680
532.394852	0.100866
532.610676	0.101316
532.826482	0.101792
533.042271	0.101975
533.258040	0.102205
533.473792	0.102853
533.689525	0.103481
533.905240	0.103616
534.120937	0.103591
534.336616	0.104125
534.552277	0.104244
534.767919	0.103940
534.983543	0.104445
535.199149	0.104598
535.414736	0.104603
535.630306	0.104771
535.845857	0.104797
536.061390	0.104838
536.276904	0.104649
536.492401	0.104361
536.707879	0.104851
536.923339	0.104905
537.138781	0.105015
537.354204	0.105066
537.569610	0.105061
537.784997	0.105185
538.000366	0.105944
538.215716	0.105835
538.431049	0.106784
538.646363	0.106950
538.861659	0.106571
539.076937	0.106007
539.292196	0.106120
539.507438	0.106546
539.722661	0.106570
539.937866	0.105806
540.153052	0.105757
540.368221	0.104879
540.583371	0.104826
540.798503	0.105299
541.013617	0.105268
541.228712	0.105039
541.443789	0.104662
541.658848	0.104439
541.873889	0.104272
542.088912	0.104589
542.303916	0.104938
542.518902	0.105024
542.733870	0.104715
542.948820	0.105278
543.163752	0.105677
543.378665	0.105964
543.593560	0.106129
543.808437	0.106159
544.023295	0.106188
544.238136	0.106339
544.452958	0.106514
544.667762	0.106809
544.882548	0.106980
545.097315	0.107043
545.312064	0.107081
545.526795	0.107048
545.741508	0.107585
545.956203	0.107803
546.170879	0.108178
546.385537	0.108356
546.600177	0.108504
546.814799	0.108246
547.029402	0.108613
547.243988	0.108798
547.458555	0.109279
547.673103	0.109227
547.887634	0.108939
548.102146	0.109124
548.316640	0.108989
548.531116	0.108701
548.745574	0.109110
548.960013	0.108918
549.174435	0.108955
549.388838	0.108485
549.603222	0.108805
549.817589	0.109155
550.031937	0.108792
550.246267	0.108950
550.460579	0.109005
550.674873	0.109087
550.889148	0.109118
551.103405	0.109316
551.317644	0.109811
551.531865	0.110014
551.746068	0.110038
551.960252	0.110030
552.174418	0.110047
552.388566	0.110361
552.602696	0.109748
552.816807	0.110099
553.030900	0.109699
553.244975	0.109862
553.459032	0.109594
553.673070	0.109700
553.887091	0.109965
554.101093	0.110069
554.315077	0.109970
554.529042	0.110581
554.742990	0.110584
554.956919	0.110936
555.170830	0.110894
555.384722	0.110837
555.598597	0.110740
555.812453	0.111055
556.026291	0.111164
556.240111	0.111412
556.453913	0.111540
556.667696	0.111507
556.881461	0.111455
557.095208	0.111153
557.308937	0.111473
557.522647	0.111403
557.736339	0.110935
557.950013	0.110992
558.163669	0.110739
558.377307	0.110922
558.590926	0.110353
558.804527	0.110680
559.018110	0.110782
559.231675	0.110363
559.445221	0.110437
559.658749	0.110330
559.872259	0.110331
560.085751	0.110107
560.299225	0.110130
560.512680	0.110350
560.726117	0.109885
560.939536	0.109792
561.152937	0.109967
561.366319	0.109739
561.579683	0.109981
561.793029	0.109914
562.006357	0.110599
562.219667	0.110190
562.432958	0.110303
562.646231	0.110329
562.859486	0.110452
563.072723	0.110737
563.285941	0.110869
563.499141	0.111006
563.712323	0.110852
563.925487	0.110752
564.138632	0.110684
564.351760	0.110993
564.564869	0.111116
564.777960	0.110951
564.991032	0.110949
565.204087	0.111352
565.417123	0.111310
565.630141	0.111820
565.843140	0.112036
566.056122	0.112103
566.269085	0.112039
566.482030	0.111935
566.694957	0.112563
566.907866	0.112336
567.120756	0.112062
567.333628	0.111877
567.546482	0.111280
567.759318	0.111190
567.972135	0.111449
568.184935	0.111381
568.397716	0.111607
568.610478	0.111153
568.823223	0.111388
569.035949	0.111698
569.248657	0.112054
569.461347	0.112133
569.674019	0.111909
569.886672	0.111601
570.099308	0.111488
570.311925	0.111259
570.524523	0.111443
570.737104	0.111409
570.949666	0.111354
571.162210	0.111191
571.374736	0.111585
571.587244	0.111747
571.799733	0.111848
572.012205	0.111966
572.224658	0.112079
572.437092	0.112483
572.649509	0.112500
572.861907	0.112732
573.074287	0.112783
573.286649	0.112376
573.498993	0.112447
573.711318	0.112775
573.923625	0.112783
574.135914	0.113108
574.348185	0.112904
574.560438	0.112651
574.772672	0.112440
574.984888	0.112788
575.197086	0.113378
575.409266	0.113533
575.621427	0.113681
575.833570	0.113902
576.045695	0.113977
576.257802	0.113876
576.469890	0.114235
576.681961	0.114363
576.894013	0.114379
577.106046	0.114328
577.318062	0.114142
577.530059	0.114285
577.742039	0.114100
577.954000	0.114118
578.165942	0.114161
578.377867	0.114244
578.589773	0.113983
578.801661	0.113918
579.013531	0.114080
579.225382	0.114297
579.437216	0.114328
579.649031	0.114694
579.860828	0.114660
580.072606	0.114945
580.284367	0.114902
580.496109	0.115495
580.707833	0.115447
580.919539	0.115203
581.131227	0.115147
581.342896	0.114669
581.554547	0.114262
581.766180	0.113945
581.977795	0.114007
582.189391	0.114038
582.400969	0.113462
582.612529	0.113362
582.824071	0.113385
583.035595	0.113326
583.247100	0.113713
583.458587	0.113782
583.670056	0.114267
583.881506	0.114330
584.092939	0.114238
584.304353	0.114880
584.515749	0.114879
584.727127	0.115132
584.938486	0.115162
585.149828	0.115086
585.361151	0.115577
585.572456	0.115594
585.783742	0.115596
585.995011	0.115971
586.206261	0.116235
586.417493	0.116650
586.628706	0.116903
586.839902	0.117021
587.051079	0.117204
587.262238	0.117078
587.473379	0.117081
587.684502	0.116990
587.895606	0.116742
588.106692	0.116290
588.317760	0.116268
588.528810	0.116193
588.739841	0.116436
588.950855	0.116606
589.161850	0.116425
589.372827	0.116587
589.583785	0.117012
589.794726	0.117116
590.005648	0.117186
590.216552	0.117367
590.427437	0.117274
590.638305	0.117239
590.849154	0.117137
591.059985	0.117598
591.270798	0.117658
591.481592	0.117555
591.692369	0.117673
591.903127	0.117702
592.113867	0.117569
592.324588	0.117805
592.535292	0.117744
592.745977	0.117564
592.956644	0.117176
593.167293	0.117089
593.377923	0.117068
593.588536	0.117245
593.799130	0.117416
594.009706	0.117568
594.220263	0.117462
594.430803	0.117490
594.641324	0.117639
594.851827	0.118065
595.062312	0.118225
595.272778	0.118033
595.483227	0.117780
595.693657	0.117909
595.904069	0.117869
596.114462	0.117822
596.324838	0.117786
596.535195	0.117783
596.745534	0.117785
596.955855	0.117554
597.166157	0.118060
597.376441	0.118379
597.586707	0.118326
597.796955	0.118185
598.007185	0.118020
598.217396	0.118226
598.427589	0.118553
598.637764	0.118598
598.847921	0.118662
599.058060	0.118357
599.268180	0.118404
599.478282	0.118357
599.688366	0.118884
599.898431	0.119152
600.108479	0.119157
600.318508	0.119039
600.528519	0.119301
600.738511	0.119348
600.948486	0.119233
601.158442	0.119243
601.368380	0.119333
601.578300	0.118772
601.788202	0.118635
601.998085	0.118932
602.207950	0.119318
602.417797	0.119141
602.627626	0.119336
602.837436	0.119686
603.047228	0.119792
603.257002	0.119640
603.466758	0.120067
603.676496	0.120653
603.886215	0.120578
604.095916	0.120201
604.305599	0.120206
604.515264	0.120178
604.724910	0.120081
604.934538	0.119959
605.144148	0.120133
605.353740	0.120040
605.563314	0.119936
605.772869	0.119914
605.982406	0.120112
606.191925	0.120153
606.401425	0.120083
606.610908	0.120389
606.820372	0.120814
607.029818	0.120789
607.239246	0.120892
607.448655	0.120944
607.658047	0.121131
607.867420	0.121134
608.076775	0.121180
608.286111	0.121584
608.495430	0.121513
608.704730	0.121351
608.914012	0.121601
609.123275	0.121635
609.332521	0.121349
609.541748	0.121392
609.750957	0.121424
609.960148	0.121463
610.169321	0.121415
610.378475	0.121279
610.587611	0.121279
610.796729	0.121289
611.005829	0.121311
611.214910	0.121484
611.423974	0.121521
611.633019	0.121695
611.842045	0.121986
612.051054	0.121979
612.260044	0.121921
612.469017	0.122153
612.677970	0.122172
612.886906	0.122196
613.095824	0.122074
613.304723	0.122064
613.513604	0.122106
613.722467	0.121688
613.931311	0.121731
614.140138	0.121925
614.348946	0.122123
614.557736	0.122308
614.766507	0.122611
614.975261	0.122866
615.183996	0.122920
615.392713	0.122896
615.601412	0.123307
615.810092	0.123359
616.018754	0.123706
616.227399	0.123691
616.436024	0.124103
616.644632	0.124140
616.853222	0.124180
617.061793	0.124340
617.270346	0.124483
617.478880	0.124471
617.687397	0.124838
617.895895	0.124803
618.104375	0.124952
618.312837	0.124626
618.521281	0.124658
618.729706	0.125112
618.938113	0.125237
619.146502	0.125427
619.354873	0.125703
619.563226	0.125660
619.771560	0.125799
619.979876	0.125424
620.188174	0.125511
620.396453	0.125702
620.604715	0.125503
620.812958	0.125420
621.021183	0.125358
621.229390	0.125149
621.437578	0.124950
621.645748	0.124908
621.853900	0.124947
622.062034	0.125111
622.270150	0.125028
622.478247	0.124955
622.686326	0.125149
622.894387	0.125245
623.102430	0.125418
623.310454	0.125636
623.518461	0.125709
623.726449	0.126078
623.934418	0.126178
624.142370	0.126229
624.350303	0.126479
624.558218	0.126265
624.766115	0.126353
624.973994	0.126153
625.181855	0.126026
625.389697	0.125956
625.597521	0.125798
625.805327	0.125657
626.013114	0.125599
626.220883	0.125435
626.428634	0.125488
626.636367	0.125026
626.844082	0.125094
627.051778	0.125383
627.259457	0.125353
627.467117	0.125499
627.674758	0.125414
627.882382	0.125203
628.089987	0.125239
628.297574	0.125632
628.505143	0.125982
628.712694	0.126175
628.920226	0.126019
629.127740	0.126048
629.335236	0.126193
629.542714	0.126240
629.750174	0.126505
629.957615	0.126600
630.165038	0.126288
630.372443	0.126236
630.579829	0.126084
630.787198	0.126065
630.994548	0.125925
631.201880	0.125933
631.409194	0.125839
631.616489	0.126008
631.823766	0.125927
632.031025	0.126052
632.238266	0.126212
632.445489	0.126448
632.652693	0.126548
632.859879	0.126946
633.067047	0.126725
633.274197	0.126989
633.481329	0.126911
633.688442	0.126993
633.895537	0.127178
634.102614	0.127352
634.309672	0.127512
634.516713	0.127671
634.723735	0.127679
634.930739	0.127941
635.137724	0.128189
635.344692	0.128261
635.551641	0.128519
635.758572	0.128466
635.965485	0.128409
636.172379	0.128561
636.379256	0.128474
636.586114	0.128538
636.792954	0.128653
636.999775	0.128606
637.206579	0.128738
637.413364	0.128709
637.620131	0.128829
637.826880	0.128985
638.033610	0.128694
638.240323	0.129145
638.447017	0.129427
638.653692	0.129393
638.860350	0.129561
639.066990	0.129693
639.273611	0.129873
639.480214	0.130044
639.686798	0.130070
639.893365	0.130285
640.099913	0.130216
640.306443	0.129885
640.512955	0.130147
640.719449	0.129984
640.925924	0.130073
641.132381	0.129874
641.338820	0.129964
641.545241	0.130042
641.751644	0.130195
641.958028	0.129980
642.164394	0.130155
642.370742	0.130222
642.577071	0.130582
642.783383	0.130628
642.989676	0.130834
643.195951	0.130716
643.402207	0.130824
643.608446	0.130835
643.814666	0.131063
644.020868	0.131272
644.227052	0.131191
644.433218	0.130968
644.639365	0.131074
644.845494	0.131091
645.051605	0.130878
645.257698	0.130864
645.463772	0.130812
645.669828	0.130765
645.875866	0.130680
646.081886	0.130762
646.287888	0.130831
646.493871	0.131057
646.699836	0.131031
646.905783	0.131410
647.111712	0.131544
647.317622	0.131702
647.523514	0.131590
647.729388	0.131592
647.935244	0.131598
648.141082	0.131551
648.346901	0.131255
648.552702	0.131573
648.758485	0.131691
648.964250	0.131683
649.169996	0.131720
649.375724	0.131882
649.581434	0.131863
649.787126	0.132082
649.992800	0.132208
650.198455	0.132454
650.404092	0.132087
650.609711	0.132075
650.815311	0.131986
651.020894	0.131852
651.226458	0.131650
651.432004	0.131782
651.637532	0.131388
651.843041	0.131410
652.048532	0.131364
652.254006	0.131476
652.459460	0.131481
652.664897	0.131576
652.870315	0.131726
653.075716	0.132164
653.281097	0.132148
653.486461	0.132425
653.691807	0.132433
653.897134	0.132472
654.102443	0.132598
654.307734	0.132641
654.513006	0.132730
654.718261	0.132957
654.923497	0.132998
655.128715	0.133304
655.333915	0.133219
655.539096	0.133524
655.744259	0.133466
655.949404	0.133856
656.154531	0.133994
656.359640	0.133976
656.564730	0.134005
656.769802	0.134308
656.974856	0.134198
657.179892	0.134682
657.384909	0.134580
657.589908	0.134675
657.794889	0.134496
657.999852	0.134678
658.204797	0.134913
658.409723	0.135054
658.614631	0.135015
658.819521	0.135003
659.024393	0.134629
659.229246	0.134748
659.434081	0.134711
659.638898	0.134943
659.843697	0.134841
660.048478	0.134858
660.253240	0.134886
660.457984	0.134735
660.662710	0.134835
660.867417	0.134936
661.072107	0.134861
661.276778	0.135147
661.481431	0.135066
661.686066	0.135118
661.890682	0.135150
662.095281	0.135100
662.299861	0.135295
662.504422	0.135316
662.708966	0.135593
662.913491	0.135671
663.117999	0.135353
663.322488	0.135229
663.526958	0.135472
663.731411	0.135617
663.935845	0.135714
664.140261	0.135821
664.344659	0.135817
664.549038	0.135630
664.753400	0.135634
664.957743	0.135914
665.162068	0.136060
665.366375	0.136014
665.570663	0.135759
665.774933	0.135756
665.979185	0.135672
666.183419	0.135911
666.387635	0.136039
666.591832	0.136205
666.796011	0.136370
667.000172	0.136487
667.204315	0.136364
667.408439	0.136778
667.612545	0.136725
667.816634	0.136760
668.020703	0.136615
668.224755	0.136677
668.428788	0.136817
668.632803	0.136765
668.836800	0.136741
669.040779	0.136557
669.244739	0.136383
669.448681	0.136506
669.652605	0.136528
669.856511	0.136594
670.060399	0.136732
670.264268	0.136749
670.468119	0.136731
670.671952	0.136952
670.875767	0.137398
671.079563	0.137404
671.283341	0.137513
671.487101	0.137558
671.690843	0.137604
671.894567	0.137673
672.098272	0.137627
672.301959	0.137758
672.505628	0.137638
672.709278	0.137648
672.912911	0.137744
673.116525	0.137896
673.320121	0.137882
673.523699	0.138118
673.727258	0.137960
673.930799	0.138060
674.134322	0.138101
674.337827	0.138223
674.541314	0.138285
674.744782	0.138545
674.948232	0.138592
675.151664	0.138723
675.355078	0.138821
675.558474	0.138931
675.761851	0.138868
675.965210	0.138882
676.168551	0.139024
676.371873	0.138937
676.575178	0.138902
676.778464	0.139090
676.981732	0.139222
677.184981	0.139298
677.388213	0.139470
677.591426	0.139630
677.794621	0.139785
677.997798	0.139562
678.200956	0.139708
678.404097	0.139672
678.607219	0.139395
678.810323	0.139317
679.013408	0.139294
679.216476	0.139261
679.419525	0.139219
679.622556	0.139352
679.825569	0.139629
680.028563	0.139842
680.231540	0.140180
680.434498	0.140274
680.637438	0.140376
680.840359	0.140405
681.043263	0.140528
681.246148	0.140738
681.449015	0.140791
681.651864	0.140884
681.854694	0.140624
682.057506	0.140431
682.260301	0.140527
682.463076	0.140683
682.665834	0.140761
682.868573	0.140703
683.071295	0.140544
683.273998	0.140411
683.476682	0.140573
683.679349	0.140900
683.881997	0.141036
684.084627	0.141114
684.287239	0.141198
684.489833	0.141138
684.692408	0.141023
684.894965	0.141238
685.097504	0.141325
685.300025	0.141123
685.502527	0.141122
685.705012	0.141081
685.907478	0.141159
686.109925	0.141054
686.312355	0.141422
686.514766	0.141712
686.717159	0.141702
686.919534	0.142082
687.121891	0.142143
687.324230	0.141994
687.526550	0.142034
687.728852	0.141788
687.931136	0.141973
688.133401	0.141680
688.335649	0.141848
688.537878	0.141884
688.740089	0.141604
688.942281	0.141700
689.144456	0.141765
689.346612	0.141865
689.548750	0.141848
689.750870	0.141922
689.952971	0.142058
690.155055	0.142030
690.357120	0.142025
690.559167	0.142078
690.761195	0.142239
690.963206	0.142302
691.165198	0.142365
691.367172	0.142723
691.569128	0.142644
691.771065	0.142647
691.972984	0.142702
692.174885	0.142951
692.376768	0.142930
692.578633	0.142970
692.780479	0.142907
692.982308	0.142826
693.184118	0.142763
693.385909	0.142802
