sample name	sample
index	271
start time	 02-25-2021  11:34:08 AM


Wavelength (nm)	Absorbance
494.344910	-0.001656
494.563924	-0.001656
494.782919	-0.001656
495.001897	0.011059
495.220856	0.017514
495.439797	-0.003720
495.658719	-0.033823
495.877624	-0.015172
496.096510	-0.040336
496.315378	-0.051002
496.534227	-0.060232
496.753059	-0.043273
496.971872	-0.061473
497.190667	0.098980
497.409444	0.133739
497.628203	0.143815
497.846943	0.144428
498.065665	0.145976
498.284369	0.147133
498.503055	0.148575
498.721723	0.148596
498.940372	0.149189
499.159003	0.148686
499.377616	0.148572
499.596210	0.147844
499.814787	0.147659
500.033345	0.147226
500.251885	0.147457
500.470406	0.147165
500.688910	0.147168
500.907395	0.146719
501.125862	0.147100
501.344311	0.147593
501.562742	0.148525
501.781154	0.149060
501.999548	0.149563
502.217924	0.149299
502.436282	0.150350
502.654621	0.152315
502.872942	0.152030
503.091245	0.152751
503.309530	0.152119
503.527797	0.151722
503.746045	0.151770
503.964275	0.151671
504.182487	0.151650
504.400681	0.151377
504.618856	0.150232
504.837013	0.151830
505.055152	0.151854
505.273273	0.151875
505.491376	0.151982
505.709460	0.152601
505.927526	0.153431
506.145574	0.154021
506.363604	0.154692
506.581615	0.155383
506.799608	0.155018
507.017583	0.154806
507.235540	0.154587
507.453478	0.155322
507.671399	0.154860
507.889301	0.155880
508.107185	0.156240
508.325050	0.154917
508.542898	0.155406
508.760727	0.155578
508.978538	0.155676
509.196330	0.155577
509.414105	0.154674
509.631861	0.156382
509.849599	0.155353
510.067319	0.155070
510.285021	0.155436
510.502704	0.155347
510.720369	0.155520
510.938016	0.156364
511.155645	0.158569
511.373255	0.158745
511.590848	0.158114
511.808422	0.159135
512.025977	0.159468
512.243515	0.159954
512.461034	0.159897
512.678536	0.160006
512.896018	0.159860
513.113483	0.157789
513.330930	0.158556
513.548358	0.158268
513.765768	0.157546
513.983160	0.158322
514.200533	0.158490
514.417889	0.158590
514.635226	0.159015
514.852545	0.159186
515.069845	0.160500
515.287128	0.160606
515.504392	0.160831
515.721638	0.161235
515.938866	0.160991
516.156075	0.161164
516.373267	0.161214
516.590440	0.161044
516.807594	0.161264
517.024731	0.161316
517.241850	0.161406
517.458950	0.162245
517.676032	0.162252
517.893095	0.162631
518.110141	0.162669
518.327168	0.163101
518.544177	0.163413
518.761168	0.164204
518.978141	0.164705
519.195095	0.166034
519.412031	0.165821
519.628949	0.166464
519.845849	0.166034
520.062731	0.167017
520.279594	0.166927
520.496439	0.167947
520.713266	0.167829
520.930074	0.168698
521.146865	0.167748
521.363637	0.167934
521.580391	0.168972
521.797127	0.170212
522.013844	0.169680
522.230543	0.169773
522.447224	0.169343
522.663887	0.170370
522.880532	0.169809
523.097158	0.171486
523.313766	0.171695
523.530356	0.171362
523.746928	0.171894
523.963481	0.172297
524.180017	0.172578
524.396534	0.172914
524.613032	0.172665
524.829513	0.173181
525.045975	0.172000
525.262420	0.172329
525.478845	0.172886
525.695253	0.172961
525.911643	0.173054
526.128014	0.173888
526.344367	0.174186
526.560702	0.174255
526.777018	0.174768
526.993316	0.174903
527.209597	0.175172
527.425858	0.175354
527.642102	0.175304
527.858328	0.176040
528.074535	0.176379
528.290724	0.177277
528.506894	0.177369
528.723047	0.177391
528.939181	0.178893
529.155297	0.178903
529.371395	0.179372
529.587475	0.179303
529.803536	0.179777
530.019579	0.180146
530.235604	0.180164
530.451611	0.180641
530.667600	0.181448
530.883570	0.181948
531.099522	0.183169
531.315456	0.183715
531.531372	0.184559
531.747269	0.184231
531.963148	0.184207
532.179009	0.184215
532.394852	0.184830
532.610676	0.184680
532.826482	0.184462
533.042271	0.184326
533.258040	0.183164
533.473792	0.183484
533.689525	0.184046
533.905240	0.184395
534.120937	0.185045
534.336616	0.185822
534.552277	0.186129
534.767919	0.186425
534.983543	0.186766
535.199149	0.188539
535.414736	0.188701
535.630306	0.189175
535.845857	0.189585
536.061390	0.189747
536.276904	0.189216
536.492401	0.189283
536.707879	0.189616
536.923339	0.189957
537.138781	0.189335
537.354204	0.189395
537.569610	0.189686
537.784997	0.189665
538.000366	0.189434
538.215716	0.190176
538.431049	0.190935
538.646363	0.191196
538.861659	0.191117
539.076937	0.191955
539.292196	0.192226
539.507438	0.192093
539.722661	0.193020
539.937866	0.193649
540.153052	0.194037
540.368221	0.194646
540.583371	0.195208
540.798503	0.195364
541.013617	0.195239
541.228712	0.196260
541.443789	0.196872
541.658848	0.197195
541.873889	0.197183
542.088912	0.196843
542.303916	0.196869
542.518902	0.196997
542.733870	0.197827
542.948820	0.198530
543.163752	0.198189
543.378665	0.198310
543.593560	0.198275
543.808437	0.199012
544.023295	0.199460
544.238136	0.199289
544.452958	0.199745
544.667762	0.199553
544.882548	0.199519
545.097315	0.199610
545.312064	0.199982
545.526795	0.200057
545.741508	0.199860
545.956203	0.200336
546.170879	0.200362
546.385537	0.199781
546.600177	0.200233
546.814799	0.200298
547.029402	0.200868
547.243988	0.201229
547.458555	0.201481
547.673103	0.202208
547.887634	0.202263
548.102146	0.202511
548.316640	0.202912
548.531116	0.203108
548.745574	0.203800
548.960013	0.204421
549.174435	0.204314
549.388838	0.204772
549.603222	0.204937
549.817589	0.205297
550.031937	0.206004
550.246267	0.206541
550.460579	0.207209
550.674873	0.206740
550.889148	0.206720
551.103405	0.207346
551.317644	0.207295
551.531865	0.207167
551.746068	0.207656
551.960252	0.207686
552.174418	0.207753
552.388566	0.207675
552.602696	0.208548
552.816807	0.209043
553.030900	0.209686
553.244975	0.210081
553.459032	0.210782
553.673070	0.210654
553.887091	0.210772
554.101093	0.210984
554.315077	0.211459
554.529042	0.211790
554.742990	0.211853
554.956919	0.211664
555.170830	0.212185
555.384722	0.211983
555.598597	0.212234
555.812453	0.212504
556.026291	0.212870
556.240111	0.212593
556.453913	0.212672
556.667696	0.212526
556.881461	0.212462
557.095208	0.212350
557.308937	0.212631
557.522647	0.212858
557.736339	0.213010
557.950013	0.213019
558.163669	0.213600
558.377307	0.214162
558.590926	0.214623
558.804527	0.215389
559.018110	0.215435
559.231675	0.215298
559.445221	0.215489
559.658749	0.215764
559.872259	0.216320
560.085751	0.216319
560.299225	0.215906
560.512680	0.215798
560.726117	0.215653
560.939536	0.215598
561.152937	0.216193
561.366319	0.216668
561.579683	0.216765
561.793029	0.216846
562.006357	0.217075
562.219667	0.217211
562.432958	0.217833
562.646231	0.218179
562.859486	0.218807
563.072723	0.218737
563.285941	0.219103
563.499141	0.219331
563.712323	0.219765
563.925487	0.220113
564.138632	0.220665
564.351760	0.220680
564.564869	0.220611
564.777960	0.220792
564.991032	0.221564
565.204087	0.221063
565.417123	0.221158
565.630141	0.221147
565.843140	0.220940
566.056122	0.220976
566.269085	0.221301
566.482030	0.221678
566.694957	0.221673
566.907866	0.221924
567.120756	0.222817
567.333628	0.223588
567.546482	0.223390
567.759318	0.224042
567.972135	0.224457
568.184935	0.224281
568.397716	0.224028
568.610478	0.224440
568.823223	0.224115
569.035949	0.224078
569.248657	0.223703
569.461347	0.223955
569.674019	0.223814
569.886672	0.223546
570.099308	0.223962
570.311925	0.224300
570.524523	0.224592
570.737104	0.224704
570.949666	0.224921
571.162210	0.225249
571.374736	0.225263
571.587244	0.225613
571.799733	0.226201
572.012205	0.226152
572.224658	0.226629
572.437092	0.226475
572.649509	0.226755
572.861907	0.226601
573.074287	0.226915
573.286649	0.227461
573.498993	0.227331
573.711318	0.227049
573.923625	0.227539
574.135914	0.227273
574.348185	0.227450
574.560438	0.227694
574.772672	0.228111
574.984888	0.228213
575.197086	0.228006
575.409266	0.228162
575.621427	0.228582
575.833570	0.228411
576.045695	0.229115
576.257802	0.229359
576.469890	0.229594
576.681961	0.229749
576.894013	0.229781
577.106046	0.230248
577.318062	0.230441
577.530059	0.230613
577.742039	0.230815
577.954000	0.230617
578.165942	0.230822
578.377867	0.231097
578.589773	0.231671
578.801661	0.231481
579.013531	0.231880
579.225382	0.232231
579.437216	0.232182
579.649031	0.232460
579.860828	0.232817
580.072606	0.233131
580.284367	0.232766
580.496109	0.232214
580.707833	0.233028
580.919539	0.233412
581.131227	0.233862
581.342896	0.234282
581.554547	0.234427
581.766180	0.234493
581.977795	0.234463
582.189391	0.234598
582.400969	0.234827
582.612529	0.234671
582.824071	0.234332
583.035595	0.234168
583.247100	0.234584
583.458587	0.234820
583.670056	0.234643
583.881506	0.235059
584.092939	0.235995
584.304353	0.236408
584.515749	0.236824
584.727127	0.236985
584.938486	0.237269
585.149828	0.236937
585.361151	0.236814
585.572456	0.237439
585.783742	0.237242
585.995011	0.237160
586.206261	0.237063
586.417493	0.237067
586.628706	0.237319
586.839902	0.237175
587.051079	0.237632
587.262238	0.238047
587.473379	0.238109
587.684502	0.238310
587.895606	0.238574
588.106692	0.238969
588.317760	0.239528
588.528810	0.239848
588.739841	0.240270
588.950855	0.240055
589.161850	0.240288
589.372827	0.240654
589.583785	0.241323
589.794726	0.241143
590.005648	0.241353
590.216552	0.241119
590.427437	0.241212
590.638305	0.241445
590.849154	0.242228
591.059985	0.242592
591.270798	0.242592
591.481592	0.242570
591.692369	0.242942
591.903127	0.242819
592.113867	0.242924
592.324588	0.243032
592.535292	0.243287
592.745977	0.243296
592.956644	0.243866
593.167293	0.244013
593.377923	0.244023
593.588536	0.244061
593.799130	0.244374
594.009706	0.244790
594.220263	0.245182
594.430803	0.245205
594.641324	0.245328
594.851827	0.244883
595.062312	0.245317
595.272778	0.245520
595.483227	0.245439
595.693657	0.245768
595.904069	0.245915
596.114462	0.246030
596.324838	0.246028
596.535195	0.245743
596.745534	0.245662
596.955855	0.245796
597.166157	0.246081
597.376441	0.246463
597.586707	0.246459
597.796955	0.246484
598.007185	0.246561
598.217396	0.246518
598.427589	0.247108
598.637764	0.247778
598.847921	0.247788
599.058060	0.247862
599.268180	0.247895
599.478282	0.248172
599.688366	0.248182
599.898431	0.248256
600.108479	0.248585
600.318508	0.248729
600.528519	0.248471
600.738511	0.248414
600.948486	0.248460
601.158442	0.248983
601.368380	0.248666
601.578300	0.249021
601.788202	0.249276
601.998085	0.249774
602.207950	0.249972
602.417797	0.250047
602.627626	0.250208
602.837436	0.250342
603.047228	0.250157
603.257002	0.250629
603.466758	0.250542
603.676496	0.250923
603.886215	0.251166
604.095916	0.251207
604.305599	0.251509
604.515264	0.251685
604.724910	0.251899
604.934538	0.251884
605.144148	0.251779
605.353740	0.251692
605.563314	0.251549
605.772869	0.251320
605.982406	0.251364
606.191925	0.251420
606.401425	0.251567
606.610908	0.251663
606.820372	0.251826
607.029818	0.252222
607.239246	0.252690
607.448655	0.252514
607.658047	0.252486
607.867420	0.252681
608.076775	0.252633
608.286111	0.253027
608.495430	0.253133
608.704730	0.253470
608.914012	0.253568
609.123275	0.253864
609.332521	0.254339
609.541748	0.254894
609.750957	0.254968
609.960148	0.255227
610.169321	0.254824
610.378475	0.254795
610.587611	0.254868
610.796729	0.255131
611.005829	0.255157
611.214910	0.255357
611.423974	0.255409
611.633019	0.255572
611.842045	0.255852
612.051054	0.256530
612.260044	0.257201
612.469017	0.257491
612.677970	0.257515
612.886906	0.257808
613.095824	0.258054
613.304723	0.258432
613.513604	0.258405
613.722467	0.258645
613.931311	0.258641
614.140138	0.258484
614.348946	0.258733
614.557736	0.259012
614.766507	0.259095
614.975261	0.259014
615.183996	0.258581
615.392713	0.259104
615.601412	0.259320
615.810092	0.259398
616.018754	0.259725
616.227399	0.259925
616.436024	0.259947
616.644632	0.260160
616.853222	0.260415
617.061793	0.260987
617.270346	0.260868
617.478880	0.260983
617.687397	0.261102
617.895895	0.261238
618.104375	0.261059
618.312837	0.261233
618.521281	0.261285
618.729706	0.261662
618.938113	0.261666
619.146502	0.262156
619.354873	0.262202
619.563226	0.262404
619.771560	0.262216
619.979876	0.262702
620.188174	0.262823
620.396453	0.263118
620.604715	0.262853
620.812958	0.262890
621.021183	0.262789
621.229390	0.263171
621.437578	0.263555
621.645748	0.263993
621.853900	0.263765
622.062034	0.264234
622.270150	0.264495
622.478247	0.264823
622.686326	0.265224
622.894387	0.265768
623.102430	0.265632
623.310454	0.265596
623.518461	0.265668
623.726449	0.266068
623.934418	0.266026
624.142370	0.266241
624.350303	0.266566
624.558218	0.266812
624.766115	0.266620
624.973994	0.266945
625.181855	0.267158
625.389697	0.267480
625.597521	0.267679
625.805327	0.268196
626.013114	0.268114
626.220883	0.268293
626.428634	0.268324
626.636367	0.268681
626.844082	0.269002
627.051778	0.269399
627.259457	0.269460
627.467117	0.269463
627.674758	0.268949
627.882382	0.269313
628.089987	0.269201
628.297574	0.269295
628.505143	0.269163
628.712694	0.268654
628.920226	0.268525
629.127740	0.268495
629.335236	0.268699
629.542714	0.268989
629.750174	0.269170
629.957615	0.269530
630.165038	0.269739
630.372443	0.270126
630.579829	0.270678
630.787198	0.270765
630.994548	0.271194
631.201880	0.271379
631.409194	0.271877
631.616489	0.271752
631.823766	0.271766
632.031025	0.271637
632.238266	0.271705
632.445489	0.271746
632.652693	0.271959
632.859879	0.272201
633.067047	0.272228
633.274197	0.272330
633.481329	0.272511
633.688442	0.272826
633.895537	0.273475
634.102614	0.273749
634.309672	0.274078
634.516713	0.274229
634.723735	0.274320
634.930739	0.274774
635.137724	0.274619
635.344692	0.274735
635.551641	0.274784
635.758572	0.274807
635.965485	0.274854
636.172379	0.275044
636.379256	0.275307
636.586114	0.275151
636.792954	0.275092
636.999775	0.275361
637.206579	0.275779
637.413364	0.275938
637.620131	0.276257
637.826880	0.276403
638.033610	0.276607
638.240323	0.276574
638.447017	0.277201
638.653692	0.277454
638.860350	0.278013
639.066990	0.277983
639.273611	0.277987
639.480214	0.278032
639.686798	0.278081
639.893365	0.278120
640.099913	0.278356
640.306443	0.278293
640.512955	0.278302
640.719449	0.278079
640.925924	0.278333
641.132381	0.278468
641.338820	0.278716
641.545241	0.278982
641.751644	0.279449
641.958028	0.279724
642.164394	0.279938
642.370742	0.280306
642.577071	0.280687
642.783383	0.280786
642.989676	0.281282
643.195951	0.281320
643.402207	0.281449
643.608446	0.281396
643.814666	0.281709
644.020868	0.281779
644.227052	0.282238
644.433218	0.282381
644.639365	0.282722
644.845494	0.282876
645.051605	0.282913
645.257698	0.283174
645.463772	0.283353
645.669828	0.283344
645.875866	0.283494
646.081886	0.283474
646.287888	0.283816
646.493871	0.284018
646.699836	0.284080
646.905783	0.284572
647.111712	0.284806
647.317622	0.284995
647.523514	0.285174
647.729388	0.285408
647.935244	0.285860
648.141082	0.286065
648.346901	0.286180
648.552702	0.286386
648.758485	0.286507
648.964250	0.286834
649.169996	0.286968
649.375724	0.287196
649.581434	0.287472
649.787126	0.287602
649.992800	0.287662
650.198455	0.288077
650.404092	0.288488
650.609711	0.288402
650.815311	0.288542
651.020894	0.288963
651.226458	0.289247
651.432004	0.289554
651.637532	0.289562
651.843041	0.289610
652.048532	0.289610
652.254006	0.289680
652.459460	0.289941
652.664897	0.290096
652.870315	0.290299
653.075716	0.290346
653.281097	0.290430
653.486461	0.290729
653.691807	0.290922
653.897134	0.291237
654.102443	0.291486
654.307734	0.291961
654.513006	0.291984
654.718261	0.291927
654.923497	0.292398
655.128715	0.292720
655.333915	0.292616
655.539096	0.293078
655.744259	0.293055
655.949404	0.293004
656.154531	0.293339
656.359640	0.293729
656.564730	0.293945
656.769802	0.293805
656.974856	0.293933
657.179892	0.294233
657.384909	0.294191
657.589908	0.294487
657.794889	0.294835
657.999852	0.295022
658.204797	0.295168
658.409723	0.295597
658.614631	0.296153
658.819521	0.296238
659.024393	0.296660
659.229246	0.297001
659.434081	0.297270
659.638898	0.297576
659.843697	0.297865
660.048478	0.298072
660.253240	0.297991
660.457984	0.298216
660.662710	0.298407
660.867417	0.298736
661.072107	0.298809
661.276778	0.298772
661.481431	0.299151
661.686066	0.298981
661.890682	0.299192
662.095281	0.299752
662.299861	0.299862
662.504422	0.300310
662.708966	0.300588
662.913491	0.301063
663.117999	0.301512
663.322488	0.301557
663.526958	0.301921
663.731411	0.302190
663.935845	0.302260
664.140261	0.302328
664.344659	0.302561
664.549038	0.302367
664.753400	0.302562
664.957743	0.302772
665.162068	0.303026
665.366375	0.303298
665.570663	0.303559
665.774933	0.304047
665.979185	0.304315
666.183419	0.304356
666.387635	0.304890
666.591832	0.304664
666.796011	0.304667
667.000172	0.304800
667.204315	0.304825
667.408439	0.304743
667.612545	0.304784
667.816634	0.305143
668.020703	0.305242
668.224755	0.305209
668.428788	0.305668
668.632803	0.305964
668.836800	0.305979
669.040779	0.306239
669.244739	0.306524
669.448681	0.306647
669.652605	0.306665
669.856511	0.307002
670.060399	0.307266
670.264268	0.307610
670.468119	0.307759
670.671952	0.307898
670.875767	0.307961
671.079563	0.308354
671.283341	0.308580
671.487101	0.308804
671.690843	0.308962
671.894567	0.309048
672.098272	0.309053
672.301959	0.309485
672.505628	0.309934
672.709278	0.310530
672.912911	0.310719
673.116525	0.310957
673.320121	0.311349
673.523699	0.311801
673.727258	0.312456
673.930799	0.312802
674.134322	0.313027
674.337827	0.313442
674.541314	0.313588
674.744782	0.314011
674.948232	0.314183
675.151664	0.314342
675.355078	0.314401
675.558474	0.314356
675.761851	0.314604
675.965210	0.314849
676.168551	0.314955
676.371873	0.315117
676.575178	0.314903
676.778464	0.315198
676.981732	0.315527
677.184981	0.315622
677.388213	0.315806
677.591426	0.315915
677.794621	0.316293
677.997798	0.316690
678.200956	0.316866
678.404097	0.317478
678.607219	0.317873
678.810323	0.318144
679.013408	0.318771
679.216476	0.319061
679.419525	0.319547
679.622556	0.319549
679.825569	0.319794
680.028563	0.320171
680.231540	0.320319
680.434498	0.320234
680.637438	0.320530
680.840359	0.320509
681.043263	0.320963
681.246148	0.321034
681.449015	0.321291
681.651864	0.321456
681.854694	0.321637
682.057506	0.321751
682.260301	0.321946
682.463076	0.321886
682.665834	0.322020
682.868573	0.322232
683.071295	0.322362
683.273998	0.322448
683.476682	0.322494
683.679349	0.322646
683.881997	0.323062
684.084627	0.323409
684.287239	0.323761
684.489833	0.323986
684.692408	0.323711
684.894965	0.323840
685.097504	0.323955
685.300025	0.324151
685.502527	0.324074
685.705012	0.324185
685.907478	0.324447
686.109925	0.324487
686.312355	0.324909
686.514766	0.325235
686.717159	0.325656
686.919534	0.325917
687.121891	0.326088
687.324230	0.326517
687.526550	0.326632
687.728852	0.326503
687.931136	0.326817
688.133401	0.326890
688.335649	0.326983
688.537878	0.327094
688.740089	0.327258
688.942281	0.327436
689.144456	0.327587
689.346612	0.327701
689.548750	0.328062
689.750870	0.328469
689.952971	0.328348
690.155055	0.328559
690.357120	0.328589
690.559167	0.328606
690.761195	0.328631
690.963206	0.328582
691.165198	0.328510
691.367172	0.328627
691.569128	0.328364
691.771065	0.328856
691.972984	0.329026
692.174885	0.329169
692.376768	0.329515
692.578633	0.329657
692.780479	0.329872
692.982308	0.330247
693.184118	0.330530
693.385909	0.330800
