sample name	sample
index	1019
start time	 04-19-2021  11:58:42 AM


Wavelength (nm)	Absorbance
494.344910	0.053320
494.563924	0.053320
494.782919	0.053320
495.001897	-0.105796
495.220856	-0.001573
495.439797	-0.012345
495.658719	-0.004837
495.877624	-0.006534
496.096510	0.010561
496.315378	0.022541
496.534227	0.035471
496.753059	0.030412
496.971872	0.053933
497.190667	0.140332
497.409444	0.180137
497.628203	0.186714
497.846943	0.194249
498.065665	0.198754
498.284369	0.200020
498.503055	0.202850
498.721723	0.204759
498.940372	0.206054
499.159003	0.206044
499.377616	0.205966
499.596210	0.206775
499.814787	0.205765
500.033345	0.204467
500.251885	0.204396
500.470406	0.203065
500.688910	0.202702
500.907395	0.203020
501.125862	0.202778
501.344311	0.203798
501.562742	0.204005
501.781154	0.205441
501.999548	0.206984
502.217924	0.208627
502.436282	0.210735
502.654621	0.211701
502.872942	0.211041
503.091245	0.213221
503.309530	0.212700
503.527797	0.213737
503.746045	0.213562
503.964275	0.213481
504.182487	0.213118
504.400681	0.212618
504.618856	0.212938
504.837013	0.213383
505.055152	0.211932
505.273273	0.212633
505.491376	0.211863
505.709460	0.211920
505.927526	0.212292
506.145574	0.212900
506.363604	0.213329
506.581615	0.212562
506.799608	0.213723
507.017583	0.213776
507.235540	0.212625
507.453478	0.212670
507.671399	0.213414
507.889301	0.211850
508.107185	0.213578
508.325050	0.213516
508.542898	0.214354
508.760727	0.213002
508.978538	0.213979
509.196330	0.215346
509.414105	0.215770
509.631861	0.214937
509.849599	0.216717
510.067319	0.214863
510.285021	0.215043
510.502704	0.215686
510.720369	0.216449
510.938016	0.216324
511.155645	0.216791
511.373255	0.217948
511.590848	0.218479
511.808422	0.218991
512.025977	0.218768
512.243515	0.219266
512.461034	0.218864
512.678536	0.220251
512.896018	0.220721
513.113483	0.219940
513.330930	0.219986
513.548358	0.220957
513.765768	0.220050
513.983160	0.220919
514.200533	0.221268
514.417889	0.220741
514.635226	0.220544
514.852545	0.219702
515.069845	0.220118
515.287128	0.219927
515.504392	0.220649
515.721638	0.222208
515.938866	0.222093
516.156075	0.222992
516.373267	0.223974
516.590440	0.224068
516.807594	0.225768
517.024731	0.225882
517.241850	0.226333
517.458950	0.226155
517.676032	0.226083
517.893095	0.226170
518.110141	0.225566
518.327168	0.225982
518.544177	0.225886
518.761168	0.224892
518.978141	0.225537
519.195095	0.226443
519.412031	0.226105
519.628949	0.226581
519.845849	0.227173
520.062731	0.228601
520.279594	0.228648
520.496439	0.229419
520.713266	0.230988
520.930074	0.232177
521.146865	0.231274
521.363637	0.231847
521.580391	0.231739
521.797127	0.232690
522.013844	0.232405
522.230543	0.233116
522.447224	0.233080
522.663887	0.231970
522.880532	0.231895
523.097158	0.232730
523.313766	0.233292
523.530356	0.234341
523.746928	0.234777
523.963481	0.235582
524.180017	0.236657
524.396534	0.236867
524.613032	0.238479
524.829513	0.238671
525.045975	0.239253
525.262420	0.240117
525.478845	0.240031
525.695253	0.239816
525.911643	0.239095
526.128014	0.239182
526.344367	0.239247
526.560702	0.239456
526.777018	0.239546
526.993316	0.239229
527.209597	0.239950
527.425858	0.239922
527.642102	0.239185
527.858328	0.239789
528.074535	0.240139
528.290724	0.240567
528.506894	0.240367
528.723047	0.241427
528.939181	0.241925
529.155297	0.241789
529.371395	0.242782
529.587475	0.244441
529.803536	0.245485
530.019579	0.245431
530.235604	0.246405
530.451611	0.247422
530.667600	0.247488
530.883570	0.248345
531.099522	0.249057
531.315456	0.249484
531.531372	0.249787
531.747269	0.249503
531.963148	0.249694
532.179009	0.249511
532.394852	0.249561
532.610676	0.249633
532.826482	0.249719
533.042271	0.249542
533.258040	0.248874
533.473792	0.248779
533.689525	0.248670
533.905240	0.248866
534.120937	0.249380
534.336616	0.250057
534.552277	0.250353
534.767919	0.250887
534.983543	0.249965
535.199149	0.251257
535.414736	0.252311
535.630306	0.253460
535.845857	0.254073
536.061390	0.254826
536.276904	0.255082
536.492401	0.255503
536.707879	0.255524
536.923339	0.256739
537.138781	0.256239
537.354204	0.256605
537.569610	0.256979
537.784997	0.257192
538.000366	0.257119
538.215716	0.257722
538.431049	0.258444
538.646363	0.259047
538.861659	0.259698
539.076937	0.260387
539.292196	0.259911
539.507438	0.260265
539.722661	0.260724
539.937866	0.261857
540.153052	0.262103
540.368221	0.262007
540.583371	0.262413
540.798503	0.263041
541.013617	0.263555
541.228712	0.264291
541.443789	0.264517
541.658848	0.265297
541.873889	0.264842
542.088912	0.264994
542.303916	0.265671
542.518902	0.265881
542.733870	0.265679
542.948820	0.266447
543.163752	0.265976
543.378665	0.266052
543.593560	0.266014
543.808437	0.266430
544.023295	0.267193
544.238136	0.267457
544.452958	0.267701
544.667762	0.268362
544.882548	0.268371
545.097315	0.269379
545.312064	0.269974
545.526795	0.270484
545.741508	0.271162
545.956203	0.271091
546.170879	0.271418
546.385537	0.271518
546.600177	0.271250
546.814799	0.271527
547.029402	0.272336
547.243988	0.272199
547.458555	0.272237
547.673103	0.272832
547.887634	0.273057
548.102146	0.273697
548.316640	0.274305
548.531116	0.274825
548.745574	0.275471
548.960013	0.275332
549.174435	0.275744
549.388838	0.275900
549.603222	0.275637
549.817589	0.276126
550.031937	0.276000
550.246267	0.276559
550.460579	0.277278
550.674873	0.277118
550.889148	0.277381
551.103405	0.277687
551.317644	0.278380
551.531865	0.278954
551.746068	0.279109
551.960252	0.279463
552.174418	0.279301
552.388566	0.279592
552.602696	0.280044
552.816807	0.280614
553.030900	0.280915
553.244975	0.281194
553.459032	0.280915
553.673070	0.281118
553.887091	0.281333
554.101093	0.281798
554.315077	0.281839
554.529042	0.282090
554.742990	0.282040
554.956919	0.282700
555.170830	0.283029
555.384722	0.283662
555.598597	0.283961
555.812453	0.283530
556.026291	0.284327
556.240111	0.284612
556.453913	0.284855
556.667696	0.285271
556.881461	0.285603
557.095208	0.285367
557.308937	0.285610
557.522647	0.285640
557.736339	0.287087
557.950013	0.286882
558.163669	0.287129
558.377307	0.287739
558.590926	0.288437
558.804527	0.288272
559.018110	0.289097
559.231675	0.289106
559.445221	0.289833
559.658749	0.289616
559.872259	0.290055
560.085751	0.290334
560.299225	0.290302
560.512680	0.289964
560.726117	0.290025
560.939536	0.289580
561.152937	0.289695
561.366319	0.289351
561.579683	0.289439
561.793029	0.289438
562.006357	0.289318
562.219667	0.289016
562.432958	0.288909
562.646231	0.289547
562.859486	0.290299
563.072723	0.290859
563.285941	0.291320
563.499141	0.291337
563.712323	0.291540
563.925487	0.291970
564.138632	0.292315
564.351760	0.292874
564.564869	0.293076
564.777960	0.293075
564.991032	0.293329
565.204087	0.293899
565.417123	0.294429
565.630141	0.294805
565.843140	0.295105
566.056122	0.295093
566.269085	0.295660
566.482030	0.295738
566.694957	0.295834
566.907866	0.296095
567.120756	0.295987
567.333628	0.295994
567.546482	0.295986
567.759318	0.296538
567.972135	0.297598
568.184935	0.297707
568.397716	0.297064
568.610478	0.297453
568.823223	0.297687
569.035949	0.297942
569.248657	0.298056
569.461347	0.298487
569.674019	0.298401
569.886672	0.298579
570.099308	0.298828
570.311925	0.300109
570.524523	0.300431
570.737104	0.299772
570.949666	0.300298
571.162210	0.300837
571.374736	0.301022
571.587244	0.301369
571.799733	0.300955
572.012205	0.300495
572.224658	0.300303
572.437092	0.300320
572.649509	0.301256
572.861907	0.300891
573.074287	0.300826
573.286649	0.300392
573.498993	0.300159
573.711318	0.300470
573.923625	0.300756
574.135914	0.301493
574.348185	0.301295
574.560438	0.301561
574.772672	0.301983
574.984888	0.302517
575.197086	0.303430
575.409266	0.303914
575.621427	0.304358
575.833570	0.304937
576.045695	0.304633
576.257802	0.304966
576.469890	0.304839
576.681961	0.304843
576.894013	0.305008
577.106046	0.304746
577.318062	0.304603
577.530059	0.304546
577.742039	0.304486
577.954000	0.304668
578.165942	0.305148
578.377867	0.305463
578.589773	0.305966
578.801661	0.305945
579.013531	0.306232
579.225382	0.306419
579.437216	0.306758
579.649031	0.306977
579.860828	0.307151
580.072606	0.307223
580.284367	0.307197
580.496109	0.307575
580.707833	0.307405
580.919539	0.307574
581.131227	0.308085
581.342896	0.307749
581.554547	0.307608
581.766180	0.308100
581.977795	0.308022
582.189391	0.308202
582.400969	0.308170
582.612529	0.308936
582.824071	0.309140
583.035595	0.309022
583.247100	0.309315
583.458587	0.309809
583.670056	0.309941
583.881506	0.310681
584.092939	0.311244
584.304353	0.311067
584.515749	0.310912
584.727127	0.311286
584.938486	0.311850
585.149828	0.312353
585.361151	0.312611
585.572456	0.312613
585.783742	0.312491
585.995011	0.312575
586.206261	0.312487
586.417493	0.312783
586.628706	0.312983
586.839902	0.312801
587.051079	0.312997
587.262238	0.313423
587.473379	0.313503
587.684502	0.313672
587.895606	0.313971
588.106692	0.314874
588.317760	0.314865
588.528810	0.314993
588.739841	0.315287
588.950855	0.315933
589.161850	0.315741
589.372827	0.315769
589.583785	0.316085
589.794726	0.315909
590.005648	0.315806
590.216552	0.316383
590.427437	0.316431
590.638305	0.316562
590.849154	0.316346
591.059985	0.316518
591.270798	0.317029
591.481592	0.317190
591.692369	0.317307
591.903127	0.317426
592.113867	0.317307
592.324588	0.317467
592.535292	0.317380
592.745977	0.317611
592.956644	0.317788
593.167293	0.317928
593.377923	0.318007
593.588536	0.318671
593.799130	0.318758
594.009706	0.319011
594.220263	0.319434
594.430803	0.320023
594.641324	0.319970
594.851827	0.320470
595.062312	0.320707
595.272778	0.321152
595.483227	0.320895
595.693657	0.321274
595.904069	0.321466
596.114462	0.321895
596.324838	0.322466
596.535195	0.322925
596.745534	0.323309
596.955855	0.323075
597.166157	0.323020
597.376441	0.323398
597.586707	0.323598
597.796955	0.323921
598.007185	0.323915
598.217396	0.323572
598.427589	0.323717
598.637764	0.323680
598.847921	0.324132
599.058060	0.324707
599.268180	0.324646
599.478282	0.324913
599.688366	0.324650
599.898431	0.324532
600.108479	0.324734
600.318508	0.324821
600.528519	0.324835
600.738511	0.325098
600.948486	0.325035
601.158442	0.326012
601.368380	0.325873
601.578300	0.326364
601.788202	0.326640
601.998085	0.327080
602.207950	0.327364
602.417797	0.327820
602.627626	0.328293
602.837436	0.328431
603.047228	0.328200
603.257002	0.328388
603.466758	0.328615
603.676496	0.328797
603.886215	0.328889
604.095916	0.328950
604.305599	0.328632
604.515264	0.328477
604.724910	0.328423
604.934538	0.328716
605.144148	0.328974
605.353740	0.329197
605.563314	0.329342
605.772869	0.329385
605.982406	0.329530
606.191925	0.329710
606.401425	0.329724
606.610908	0.329992
606.820372	0.330064
607.029818	0.330244
607.239246	0.330215
607.448655	0.330511
607.658047	0.330541
607.867420	0.331041
608.076775	0.331492
608.286111	0.331827
608.495430	0.331945
608.704730	0.332153
608.914012	0.332114
609.123275	0.332304
609.332521	0.332051
609.541748	0.332385
609.750957	0.332149
609.960148	0.332071
610.169321	0.332317
610.378475	0.332733
610.587611	0.332845
610.796729	0.333315
611.005829	0.333335
611.214910	0.333882
611.423974	0.333712
611.633019	0.333782
611.842045	0.334150
612.051054	0.334168
612.260044	0.333950
612.469017	0.334037
612.677970	0.334089
612.886906	0.334325
613.095824	0.334154
613.304723	0.334855
613.513604	0.335063
613.722467	0.335172
613.931311	0.335154
614.140138	0.335374
614.348946	0.335516
614.557736	0.335740
614.766507	0.335961
614.975261	0.336304
615.183996	0.336151
615.392713	0.336366
615.601412	0.336479
615.810092	0.336805
616.018754	0.336882
616.227399	0.337062
616.436024	0.337555
616.644632	0.337536
616.853222	0.337419
617.061793	0.337640
617.270346	0.337763
617.478880	0.337926
617.687397	0.338126
617.895895	0.338681
618.104375	0.338721
618.312837	0.338509
618.521281	0.338757
618.729706	0.339073
618.938113	0.339202
619.146502	0.339294
619.354873	0.339462
619.563226	0.339543
619.771560	0.339506
619.979876	0.339630
620.188174	0.339751
620.396453	0.339998
620.604715	0.340336
620.812958	0.340448
621.021183	0.340538
621.229390	0.340769
621.437578	0.341113
621.645748	0.341338
621.853900	0.341607
622.062034	0.341990
622.270150	0.342247
622.478247	0.342443
622.686326	0.342975
622.894387	0.343605
623.102430	0.343614
623.310454	0.343958
623.518461	0.344158
623.726449	0.344397
623.934418	0.344339
624.142370	0.344687
624.350303	0.344479
624.558218	0.344307
624.766115	0.344361
624.973994	0.344193
625.181855	0.344126
625.389697	0.344052
625.597521	0.344114
625.805327	0.344344
626.013114	0.344104
626.220883	0.344542
626.428634	0.344824
626.636367	0.344959
626.844082	0.345668
627.051778	0.345612
627.259457	0.345689
627.467117	0.345810
627.674758	0.345846
627.882382	0.346244
628.089987	0.346345
628.297574	0.346456
628.505143	0.346557
628.712694	0.346627
628.920226	0.346695
629.127740	0.347157
629.335236	0.347157
629.542714	0.347599
629.750174	0.347643
629.957615	0.348042
630.165038	0.348154
630.372443	0.348209
630.579829	0.348426
630.787198	0.348898
630.994548	0.348998
631.201880	0.349431
631.409194	0.349440
631.616489	0.349877
631.823766	0.349785
632.031025	0.350130
632.238266	0.350421
632.445489	0.350988
632.652693	0.351225
632.859879	0.351440
633.067047	0.351624
633.274197	0.351813
633.481329	0.351700
633.688442	0.352146
633.895537	0.352428
634.102614	0.352442
634.309672	0.352536
634.516713	0.352746
634.723735	0.352788
634.930739	0.353173
635.137724	0.353322
635.344692	0.353657
635.551641	0.353692
635.758572	0.353848
635.965485	0.354193
636.172379	0.354090
636.379256	0.354191
636.586114	0.354386
636.792954	0.354306
636.999775	0.354357
637.206579	0.354513
637.413364	0.354642
637.620131	0.354450
637.826880	0.354679
638.033610	0.354738
638.240323	0.354998
638.447017	0.355593
638.653692	0.355866
638.860350	0.356592
639.066990	0.356758
639.273611	0.357122
639.480214	0.357379
639.686798	0.357503
639.893365	0.357889
640.099913	0.358115
640.306443	0.358256
640.512955	0.358361
640.719449	0.358378
640.925924	0.358416
641.132381	0.358686
641.338820	0.358874
641.545241	0.358992
641.751644	0.359294
641.958028	0.359494
642.164394	0.359660
642.370742	0.359910
642.577071	0.359862
642.783383	0.360279
642.989676	0.360166
643.195951	0.360493
643.402207	0.360959
643.608446	0.360788
643.814666	0.360922
644.020868	0.361152
644.227052	0.361189
644.433218	0.361590
644.639365	0.361636
644.845494	0.361867
645.051605	0.362094
645.257698	0.362066
645.463772	0.362500
645.669828	0.362909
645.875866	0.362738
646.081886	0.363274
646.287888	0.363259
646.493871	0.363269
646.699836	0.363669
646.905783	0.363778
647.111712	0.363895
647.317622	0.364290
647.523514	0.364304
647.729388	0.364642
647.935244	0.364580
648.141082	0.364872
648.346901	0.365341
648.552702	0.365495
648.758485	0.365877
648.964250	0.366159
649.169996	0.365894
649.375724	0.365858
649.581434	0.365844
649.787126	0.366189
649.992800	0.366216
650.198455	0.366146
650.404092	0.366166
650.609711	0.366310
650.815311	0.366580
651.020894	0.367136
651.226458	0.367392
651.432004	0.367973
651.637532	0.367845
651.843041	0.367966
652.048532	0.368401
652.254006	0.368715
652.459460	0.368944
652.664897	0.369005
652.870315	0.368886
653.075716	0.369222
653.281097	0.369273
653.486461	0.369723
653.691807	0.369965
653.897134	0.370107
654.102443	0.370373
654.307734	0.370309
654.513006	0.370883
654.718261	0.371096
654.923497	0.371248
655.128715	0.371786
655.333915	0.372264
655.539096	0.372737
655.744259	0.372886
655.949404	0.372936
656.154531	0.373429
656.359640	0.373482
656.564730	0.373805
656.769802	0.374049
656.974856	0.373829
657.179892	0.373936
657.384909	0.374275
657.589908	0.374594
657.794889	0.374980
657.999852	0.375228
658.204797	0.375241
658.409723	0.375470
658.614631	0.376012
658.819521	0.376303
659.024393	0.376271
659.229246	0.376495
659.434081	0.376795
659.638898	0.377300
659.843697	0.377369
660.048478	0.377405
660.253240	0.377720
660.457984	0.377611
660.662710	0.377931
660.867417	0.378441
661.072107	0.378517
661.276778	0.378701
661.481431	0.378693
661.686066	0.379000
661.890682	0.379402
662.095281	0.379652
662.299861	0.379666
662.504422	0.379841
662.708966	0.379686
662.913491	0.379870
663.117999	0.380076
663.322488	0.380337
663.526958	0.380484
663.731411	0.381100
663.935845	0.381336
664.140261	0.381778
664.344659	0.381988
664.549038	0.382516
664.753400	0.382716
664.957743	0.382953
665.162068	0.383212
665.366375	0.383508
665.570663	0.383357
665.774933	0.383455
665.979185	0.383816
666.183419	0.384292
666.387635	0.384494
666.591832	0.384745
666.796011	0.385323
667.000172	0.385344
667.204315	0.385561
667.408439	0.385939
667.612545	0.386448
667.816634	0.386740
668.020703	0.386747
668.224755	0.387058
668.428788	0.387274
668.632803	0.387285
668.836800	0.387658
669.040779	0.388072
669.244739	0.388292
669.448681	0.388447
669.652605	0.388676
669.856511	0.389109
670.060399	0.389310
670.264268	0.389804
670.468119	0.390070
670.671952	0.390396
670.875767	0.390596
671.079563	0.390814
671.283341	0.390936
671.487101	0.391032
671.690843	0.391231
671.894567	0.391317
672.098272	0.391508
672.301959	0.391594
672.505628	0.391386
672.709278	0.391463
672.912911	0.391636
673.116525	0.391944
673.320121	0.392055
673.523699	0.392193
673.727258	0.392590
673.930799	0.392524
674.134322	0.392907
674.337827	0.393474
674.541314	0.393665
674.744782	0.393893
674.948232	0.394049
675.151664	0.394575
675.355078	0.394481
675.558474	0.394729
675.761851	0.395268
675.965210	0.395310
676.168551	0.395558
676.371873	0.395995
676.575178	0.396489
676.778464	0.396951
676.981732	0.397166
677.184981	0.397849
677.388213	0.398245
677.591426	0.398711
677.794621	0.399070
677.997798	0.399430
678.200956	0.399566
678.404097	0.399839
678.607219	0.400077
678.810323	0.400258
679.013408	0.400185
679.216476	0.400105
679.419525	0.399946
679.622556	0.400162
679.825569	0.400281
680.028563	0.400697
680.231540	0.400767
680.434498	0.400759
680.637438	0.400990
680.840359	0.401568
681.043263	0.402096
681.246148	0.402447
681.449015	0.402843
681.651864	0.403108
681.854694	0.403220
682.057506	0.403524
682.260301	0.403943
682.463076	0.404155
682.665834	0.404300
682.868573	0.404341
683.071295	0.404366
683.273998	0.404501
683.476682	0.404736
683.679349	0.404932
683.881997	0.404958
684.084627	0.405177
684.287239	0.405099
684.489833	0.405002
684.692408	0.405119
684.894965	0.405263
685.097504	0.405382
685.300025	0.405577
685.502527	0.405772
685.705012	0.406279
685.907478	0.406641
686.109925	0.407005
686.312355	0.407542
686.514766	0.408022
686.717159	0.408627
686.919534	0.408959
687.121891	0.409136
687.324230	0.409353
687.526550	0.409439
687.728852	0.409254
687.931136	0.409694
688.133401	0.409838
688.335649	0.410124
688.537878	0.410269
688.740089	0.410193
688.942281	0.410387
689.144456	0.410580
689.346612	0.410805
689.548750	0.411185
689.750870	0.411151
689.952971	0.411359
690.155055	0.411449
690.357120	0.411506
690.559167	0.411983
690.761195	0.412019
690.963206	0.412077
691.165198	0.412356
691.367172	0.412408
691.569128	0.412663
691.771065	0.413107
691.972984	0.413122
692.174885	0.413419
692.376768	0.413631
692.578633	0.413830
692.780479	0.414278
692.982308	0.414401
693.184118	0.414620
693.385909	0.414706
