sample name	sample
index	1242
start time	 04-29-2021  11:43:14 AM


Wavelength (nm)	Absorbance
494.344910	-0.037217
494.563924	-0.037217
494.782919	-0.037217
495.001897	0.109781
495.220856	-0.022075
495.439797	-0.010015
495.658719	-0.013252
495.877624	-0.028655
496.096510	-0.047924
496.315378	-0.039574
496.534227	-0.035282
496.753059	-0.040597
496.971872	-0.038776
497.190667	0.087223
497.409444	0.117424
497.628203	0.127532
497.846943	0.133730
498.065665	0.134593
498.284369	0.136848
498.503055	0.137408
498.721723	0.140453
498.940372	0.142203
499.159003	0.142460
499.377616	0.142947
499.596210	0.143403
499.814787	0.144524
500.033345	0.146600
500.251885	0.147159
500.470406	0.149080
500.688910	0.148846
500.907395	0.148519
501.125862	0.148492
501.344311	0.149815
501.562742	0.150651
501.781154	0.150397
501.999548	0.149414
502.217924	0.150256
502.436282	0.149843
502.654621	0.149341
502.872942	0.150386
503.091245	0.150124
503.309530	0.148718
503.527797	0.149269
503.746045	0.149536
503.964275	0.150937
504.182487	0.151357
504.400681	0.151053
504.618856	0.151655
504.837013	0.150536
505.055152	0.151518
505.273273	0.152267
505.491376	0.151304
505.709460	0.150446
505.927526	0.150049
506.145574	0.148697
506.363604	0.149253
506.581615	0.148236
506.799608	0.149115
507.017583	0.147980
507.235540	0.147817
507.453478	0.147548
507.671399	0.148412
507.889301	0.148577
508.107185	0.148416
508.325050	0.148420
508.542898	0.149734
508.760727	0.150354
508.978538	0.151213
509.196330	0.151334
509.414105	0.152067
509.631861	0.152421
509.849599	0.152292
510.067319	0.152568
510.285021	0.153125
510.502704	0.153076
510.720369	0.152770
510.938016	0.152705
511.155645	0.152647
511.373255	0.152397
511.590848	0.152152
511.808422	0.153233
512.025977	0.154799
512.243515	0.154344
512.461034	0.154797
512.678536	0.154649
512.896018	0.154897
513.113483	0.155352
513.330930	0.156078
513.548358	0.156573
513.765768	0.156565
513.983160	0.156094
514.200533	0.157146
514.417889	0.156644
514.635226	0.156380
514.852545	0.155985
515.069845	0.157061
515.287128	0.157709
515.504392	0.157481
515.721638	0.158398
515.938866	0.158952
516.156075	0.158508
516.373267	0.159584
516.590440	0.160128
516.807594	0.160979
517.024731	0.160166
517.241850	0.160783
517.458950	0.161513
517.676032	0.161198
517.893095	0.161510
518.110141	0.161279
518.327168	0.160394
518.544177	0.160939
518.761168	0.161432
518.978141	0.162395
519.195095	0.161522
519.412031	0.161943
519.628949	0.161745
519.845849	0.162597
520.062731	0.163717
520.279594	0.164361
520.496439	0.165029
520.713266	0.165783
520.930074	0.165686
521.146865	0.166331
521.363637	0.166600
521.580391	0.166373
521.797127	0.164759
522.013844	0.165399
522.230543	0.166306
522.447224	0.166327
522.663887	0.165447
522.880532	0.165525
523.097158	0.165355
523.313766	0.165343
523.530356	0.166508
523.746928	0.167256
523.963481	0.166849
524.180017	0.166490
524.396534	0.167205
524.613032	0.168041
524.829513	0.168589
525.045975	0.169292
525.262420	0.169184
525.478845	0.169860
525.695253	0.170550
525.911643	0.171250
526.128014	0.171759
526.344367	0.171717
526.560702	0.171828
526.777018	0.171996
526.993316	0.173031
527.209597	0.173967
527.425858	0.173192
527.642102	0.173662
527.858328	0.173342
528.074535	0.172910
528.290724	0.173999
528.506894	0.174107
528.723047	0.174105
528.939181	0.174068
529.155297	0.174297
529.371395	0.174364
529.587475	0.173946
529.803536	0.174033
530.019579	0.175149
530.235604	0.174005
530.451611	0.174586
530.667600	0.175670
530.883570	0.175439
531.099522	0.175490
531.315456	0.176396
531.531372	0.177635
531.747269	0.178987
531.963148	0.179483
532.179009	0.179888
532.394852	0.180054
532.610676	0.180733
532.826482	0.180700
533.042271	0.181397
533.258040	0.181860
533.473792	0.181715
533.689525	0.181974
533.905240	0.181949
534.120937	0.182549
534.336616	0.183322
534.552277	0.183092
534.767919	0.184218
534.983543	0.184326
535.199149	0.184528
535.414736	0.185232
535.630306	0.185104
535.845857	0.185570
536.061390	0.186234
536.276904	0.186750
536.492401	0.187393
536.707879	0.187888
536.923339	0.188170
537.138781	0.188736
537.354204	0.188854
537.569610	0.189139
537.784997	0.189299
538.000366	0.189433
538.215716	0.189965
538.431049	0.189959
538.646363	0.189716
538.861659	0.190104
539.076937	0.189991
539.292196	0.189851
539.507438	0.190548
539.722661	0.191518
539.937866	0.191670
540.153052	0.191413
540.368221	0.191502
540.583371	0.191893
540.798503	0.192097
541.013617	0.192886
541.228712	0.193650
541.443789	0.193512
541.658848	0.192802
541.873889	0.193215
542.088912	0.192945
542.303916	0.193295
542.518902	0.193885
542.733870	0.194164
542.948820	0.194254
543.163752	0.193962
543.378665	0.194330
543.593560	0.195189
543.808437	0.195682
544.023295	0.196466
544.238136	0.196722
544.452958	0.196724
544.667762	0.197271
544.882548	0.197584
545.097315	0.197932
545.312064	0.198287
545.526795	0.197921
545.741508	0.197704
545.956203	0.197670
546.170879	0.197519
546.385537	0.197672
546.600177	0.197825
546.814799	0.197607
547.029402	0.198169
547.243988	0.198537
547.458555	0.198844
547.673103	0.199121
547.887634	0.199578
548.102146	0.200463
548.316640	0.200354
548.531116	0.201040
548.745574	0.201624
548.960013	0.201865
549.174435	0.202438
549.388838	0.203121
549.603222	0.203996
549.817589	0.204544
550.031937	0.204579
550.246267	0.205296
550.460579	0.204516
550.674873	0.204451
550.889148	0.204528
551.103405	0.204766
551.317644	0.204634
551.531865	0.203986
551.746068	0.203612
551.960252	0.203596
552.174418	0.203733
552.388566	0.204314
552.602696	0.204558
552.816807	0.205022
553.030900	0.204659
553.244975	0.204966
553.459032	0.204980
553.673070	0.205643
553.887091	0.206002
554.101093	0.206137
554.315077	0.206304
554.529042	0.206338
554.742990	0.206142
554.956919	0.206535
555.170830	0.206696
555.384722	0.207062
555.598597	0.206925
555.812453	0.207287
556.026291	0.207240
556.240111	0.207248
556.453913	0.207699
556.667696	0.207950
556.881461	0.208051
557.095208	0.208226
557.308937	0.208599
557.522647	0.208508
557.736339	0.208782
557.950013	0.209391
558.163669	0.210288
558.377307	0.210581
558.590926	0.211069
558.804527	0.210634
559.018110	0.211136
559.231675	0.211781
559.445221	0.212452
559.658749	0.212328
559.872259	0.212454
560.085751	0.212287
560.299225	0.212248
560.512680	0.211943
560.726117	0.212676
560.939536	0.212515
561.152937	0.212282
561.366319	0.211707
561.579683	0.211824
561.793029	0.211948
562.006357	0.212070
562.219667	0.212322
562.432958	0.212817
562.646231	0.212881
562.859486	0.213244
563.072723	0.213218
563.285941	0.213702
563.499141	0.213784
563.712323	0.214064
563.925487	0.214237
564.138632	0.214584
564.351760	0.214641
564.564869	0.214522
564.777960	0.214486
564.991032	0.214614
565.204087	0.215226
565.417123	0.215061
565.630141	0.214877
565.843140	0.214288
566.056122	0.214077
566.269085	0.214631
566.482030	0.214981
566.694957	0.215100
566.907866	0.215273
567.120756	0.215343
567.333628	0.215479
567.546482	0.215470
567.759318	0.216175
567.972135	0.216198
568.184935	0.215755
568.397716	0.215796
568.610478	0.215581
568.823223	0.215569
569.035949	0.215359
569.248657	0.216072
569.461347	0.216454
569.674019	0.216473
569.886672	0.216623
570.099308	0.216972
570.311925	0.217496
570.524523	0.218182
570.737104	0.218764
570.949666	0.218984
571.162210	0.218889
571.374736	0.218658
571.587244	0.218721
571.799733	0.218811
572.012205	0.218901
572.224658	0.219047
572.437092	0.218953
572.649509	0.219129
572.861907	0.219590
573.074287	0.219159
573.286649	0.219564
573.498993	0.219414
573.711318	0.219623
573.923625	0.219691
574.135914	0.219287
574.348185	0.219276
574.560438	0.218737
574.772672	0.218429
574.984888	0.219204
575.197086	0.219261
575.409266	0.219641
575.621427	0.220105
575.833570	0.219947
576.045695	0.219769
576.257802	0.219900
576.469890	0.220477
576.681961	0.220588
576.894013	0.220397
577.106046	0.220653
577.318062	0.220873
577.530059	0.220891
577.742039	0.221244
577.954000	0.221883
578.165942	0.222018
578.377867	0.222095
578.589773	0.222313
578.801661	0.222761
579.013531	0.222833
579.225382	0.222801
579.437216	0.222641
579.649031	0.222786
579.860828	0.223023
580.072606	0.223381
580.284367	0.223457
580.496109	0.223500
580.707833	0.223468
580.919539	0.223031
581.131227	0.223270
581.342896	0.223723
581.554547	0.223722
581.766180	0.223938
581.977795	0.223844
582.189391	0.224157
582.400969	0.224275
582.612529	0.224841
582.824071	0.225405
583.035595	0.225158
583.247100	0.225110
583.458587	0.225447
583.670056	0.225378
583.881506	0.225919
584.092939	0.226171
584.304353	0.226527
584.515749	0.226060
584.727127	0.226654
584.938486	0.227424
585.149828	0.227664
585.361151	0.227744
585.572456	0.227894
585.783742	0.228017
585.995011	0.227880
586.206261	0.228149
586.417493	0.228748
586.628706	0.228810
586.839902	0.228987
587.051079	0.228954
587.262238	0.229057
587.473379	0.228964
587.684502	0.228959
587.895606	0.229170
588.106692	0.229284
588.317760	0.229323
588.528810	0.228993
588.739841	0.228795
588.950855	0.228991
589.161850	0.229221
589.372827	0.229573
589.583785	0.229704
589.794726	0.229956
590.005648	0.229901
590.216552	0.230044
590.427437	0.230476
590.638305	0.230652
590.849154	0.231016
591.059985	0.231080
591.270798	0.231146
591.481592	0.231090
591.692369	0.231083
591.903127	0.231289
592.113867	0.231220
592.324588	0.231501
592.535292	0.231662
592.745977	0.231391
592.956644	0.231717
593.167293	0.231579
593.377923	0.232001
593.588536	0.232320
593.799130	0.232415
594.009706	0.232946
594.220263	0.232744
594.430803	0.232978
594.641324	0.233331
594.851827	0.233446
595.062312	0.233901
595.272778	0.233826
595.483227	0.233802
595.693657	0.234011
595.904069	0.233790
596.114462	0.234548
596.324838	0.234512
596.535195	0.234852
596.745534	0.234978
596.955855	0.235137
597.166157	0.235287
597.376441	0.235459
597.586707	0.235860
597.796955	0.236223
598.007185	0.236092
598.217396	0.236521
598.427589	0.236654
598.637764	0.236941
598.847921	0.236697
599.058060	0.236752
599.268180	0.237283
599.478282	0.237356
599.688366	0.237421
599.898431	0.237176
600.108479	0.237035
600.318508	0.237129
600.528519	0.237061
600.738511	0.237629
600.948486	0.238094
601.158442	0.237843
601.368380	0.237813
601.578300	0.237648
601.788202	0.238374
601.998085	0.238714
602.207950	0.238637
602.417797	0.238843
602.627626	0.238906
602.837436	0.239068
603.047228	0.239084
603.257002	0.239353
603.466758	0.239807
603.676496	0.239393
603.886215	0.239701
604.095916	0.239950
604.305599	0.240254
604.515264	0.240572
604.724910	0.240425
604.934538	0.240668
605.144148	0.240886
605.353740	0.240643
605.563314	0.240857
605.772869	0.240863
605.982406	0.240922
606.191925	0.241140
606.401425	0.241184
606.610908	0.241337
606.820372	0.241542
607.029818	0.241537
607.239246	0.242413
607.448655	0.242822
607.658047	0.242845
607.867420	0.242777
608.076775	0.242769
608.286111	0.242981
608.495430	0.243502
608.704730	0.243844
608.914012	0.244037
609.123275	0.243578
609.332521	0.243698
609.541748	0.244006
609.750957	0.244535
609.960148	0.244632
610.169321	0.244923
610.378475	0.244874
610.587611	0.245046
610.796729	0.245160
611.005829	0.245616
611.214910	0.245923
611.423974	0.246001
611.633019	0.246132
611.842045	0.246156
612.051054	0.246033
612.260044	0.246084
612.469017	0.246034
612.677970	0.246050
612.886906	0.246017
613.095824	0.245740
613.304723	0.245529
613.513604	0.245544
613.722467	0.245661
613.931311	0.245894
614.140138	0.245870
614.348946	0.245974
614.557736	0.245921
614.766507	0.245934
614.975261	0.246233
615.183996	0.246609
615.392713	0.246770
615.601412	0.246926
615.810092	0.247102
616.018754	0.247317
616.227399	0.247335
616.436024	0.247531
616.644632	0.247618
616.853222	0.247440
617.061793	0.247597
617.270346	0.247708
617.478880	0.247977
617.687397	0.248162
617.895895	0.248455
618.104375	0.248675
618.312837	0.248952
618.521281	0.249033
618.729706	0.249385
618.938113	0.249362
619.146502	0.249878
619.354873	0.250033
619.563226	0.250199
619.771560	0.250376
619.979876	0.250547
620.188174	0.250709
620.396453	0.251025
620.604715	0.251058
620.812958	0.251328
621.021183	0.250804
621.229390	0.250876
621.437578	0.250769
621.645748	0.250889
621.853900	0.250963
622.062034	0.250988
622.270150	0.251101
622.478247	0.251564
622.686326	0.251717
622.894387	0.252247
623.102430	0.252333
623.310454	0.252555
623.518461	0.252423
623.726449	0.252467
623.934418	0.252620
624.142370	0.252671
624.350303	0.252531
624.558218	0.252656
624.766115	0.252470
624.973994	0.252457
625.181855	0.252521
625.389697	0.252819
625.597521	0.253111
625.805327	0.253274
626.013114	0.253416
626.220883	0.253626
626.428634	0.253641
626.636367	0.254050
626.844082	0.254239
627.051778	0.254472
627.259457	0.254764
627.467117	0.254731
627.674758	0.254801
627.882382	0.255179
628.089987	0.255073
628.297574	0.255278
628.505143	0.255259
628.712694	0.255648
628.920226	0.255689
629.127740	0.255537
629.335236	0.255968
629.542714	0.256454
629.750174	0.256610
629.957615	0.256771
630.165038	0.257211
630.372443	0.257315
630.579829	0.257519
630.787198	0.257703
630.994548	0.257963
631.201880	0.257875
631.409194	0.257715
631.616489	0.257768
631.823766	0.258249
632.031025	0.258087
632.238266	0.258341
632.445489	0.258032
632.652693	0.257913
632.859879	0.257704
633.067047	0.257729
633.274197	0.257846
633.481329	0.257800
633.688442	0.257665
633.895537	0.258014
634.102614	0.257922
634.309672	0.258162
634.516713	0.258584
634.723735	0.259101
634.930739	0.259312
635.137724	0.259514
635.344692	0.259981
635.551641	0.260190
635.758572	0.259843
635.965485	0.260121
636.172379	0.260077
636.379256	0.260170
636.586114	0.260178
636.792954	0.260384
636.999775	0.260288
637.206579	0.260231
637.413364	0.260735
637.620131	0.261323
637.826880	0.261731
638.033610	0.262017
638.240323	0.262032
638.447017	0.262147
638.653692	0.262255
638.860350	0.262783
639.066990	0.262738
639.273611	0.262383
639.480214	0.262460
639.686798	0.262596
639.893365	0.262820
640.099913	0.263062
640.306443	0.263442
640.512955	0.263710
640.719449	0.263830
640.925924	0.263839
641.132381	0.264104
641.338820	0.264303
641.545241	0.264157
641.751644	0.264586
641.958028	0.264543
642.164394	0.264595
642.370742	0.264691
642.577071	0.264970
642.783383	0.265677
642.989676	0.265855
643.195951	0.265997
643.402207	0.266508
643.608446	0.266508
643.814666	0.266957
644.020868	0.267337
644.227052	0.267540
644.433218	0.267531
644.639365	0.267469
644.845494	0.267817
645.051605	0.267913
645.257698	0.267629
645.463772	0.267696
645.669828	0.267968
645.875866	0.267705
646.081886	0.267774
646.287888	0.267902
646.493871	0.267815
646.699836	0.267783
646.905783	0.267990
647.111712	0.268572
647.317622	0.268540
647.523514	0.268502
647.729388	0.268754
647.935244	0.268901
648.141082	0.269112
648.346901	0.269511
648.552702	0.269639
648.758485	0.269481
648.964250	0.269310
649.169996	0.269626
649.375724	0.269839
649.581434	0.269873
649.787126	0.269910
649.992800	0.270128
650.198455	0.270244
650.404092	0.270463
650.609711	0.270824
650.815311	0.270839
651.020894	0.271077
651.226458	0.270706
651.432004	0.270846
651.637532	0.270782
651.843041	0.270516
652.048532	0.270489
652.254006	0.270520
652.459460	0.270515
652.664897	0.270695
652.870315	0.270585
653.075716	0.270893
653.281097	0.271072
653.486461	0.271496
653.691807	0.271512
653.897134	0.271842
654.102443	0.272015
654.307734	0.272307
654.513006	0.272776
654.718261	0.273058
654.923497	0.273332
655.128715	0.273509
655.333915	0.273654
655.539096	0.274010
655.744259	0.274001
655.949404	0.274379
656.154531	0.274614
656.359640	0.274674
656.564730	0.275188
656.769802	0.275553
656.974856	0.275984
657.179892	0.276255
657.384909	0.276540
657.589908	0.276948
657.794889	0.276964
657.999852	0.277297
658.204797	0.277333
658.409723	0.277223
658.614631	0.277526
658.819521	0.277681
659.024393	0.278059
659.229246	0.278227
659.434081	0.278342
659.638898	0.278603
659.843697	0.278704
660.048478	0.278976
660.253240	0.279278
660.457984	0.279204
660.662710	0.279111
660.867417	0.279045
661.072107	0.278978
661.276778	0.279013
661.481431	0.279176
661.686066	0.279336
661.890682	0.279368
662.095281	0.279296
662.299861	0.279507
662.504422	0.279944
662.708966	0.280170
662.913491	0.280915
663.117999	0.281247
663.322488	0.281347
663.526958	0.281599
663.731411	0.281946
663.935845	0.282115
664.140261	0.282406
664.344659	0.282623
664.549038	0.282732
664.753400	0.282457
664.957743	0.282868
665.162068	0.283096
665.366375	0.282973
665.570663	0.283190
665.774933	0.283581
665.979185	0.283726
666.183419	0.283805
666.387635	0.284391
666.591832	0.284896
666.796011	0.284837
667.000172	0.285425
667.204315	0.285849
667.408439	0.286187
667.612545	0.286562
667.816634	0.287055
668.020703	0.287382
668.224755	0.287535
668.428788	0.287705
668.632803	0.288195
668.836800	0.288038
669.040779	0.288344
669.244739	0.288765
669.448681	0.289217
669.652605	0.289313
669.856511	0.289427
670.060399	0.289170
670.264268	0.289308
670.468119	0.289193
670.671952	0.289406
670.875767	0.289514
671.079563	0.289454
671.283341	0.289287
671.487101	0.289555
671.690843	0.289881
671.894567	0.290428
672.098272	0.290959
672.301959	0.291410
672.505628	0.291805
672.709278	0.292114
672.912911	0.292478
673.116525	0.292520
673.320121	0.292591
673.523699	0.292803
673.727258	0.292785
673.930799	0.292479
674.134322	0.292491
674.337827	0.292384
674.541314	0.292421
674.744782	0.292621
674.948232	0.292786
675.151664	0.292586
675.355078	0.292652
675.558474	0.292843
675.761851	0.293150
675.965210	0.293449
676.168551	0.293713
676.371873	0.293957
676.575178	0.293870
676.778464	0.294261
676.981732	0.294965
677.184981	0.295133
677.388213	0.295563
677.591426	0.296006
677.794621	0.296237
677.997798	0.296615
678.200956	0.296659
678.404097	0.297105
678.607219	0.297361
678.810323	0.297327
679.013408	0.297489
679.216476	0.297626
679.419525	0.297716
679.622556	0.297858
679.825569	0.297799
680.028563	0.298021
680.231540	0.297941
680.434498	0.298281
680.637438	0.298395
680.840359	0.298549
681.043263	0.298531
681.246148	0.298392
681.449015	0.298496
681.651864	0.298762
681.854694	0.299018
682.057506	0.299113
682.260301	0.298907
682.463076	0.299059
682.665834	0.299154
682.868573	0.299558
683.071295	0.299882
683.273998	0.300163
683.476682	0.300324
683.679349	0.300505
683.881997	0.300949
684.084627	0.301204
684.287239	0.301340
684.489833	0.301560
684.692408	0.301485
684.894965	0.301676
685.097504	0.301695
685.300025	0.301949
685.502527	0.302043
685.705012	0.302088
685.907478	0.302281
686.109925	0.302434
686.312355	0.302816
686.514766	0.303185
686.717159	0.303497
686.919534	0.303788
687.121891	0.303873
687.324230	0.304030
687.526550	0.304166
687.728852	0.304356
687.931136	0.304446
688.133401	0.304664
688.335649	0.304751
688.537878	0.304797
688.740089	0.304947
688.942281	0.305113
689.144456	0.305293
689.346612	0.305495
689.548750	0.305614
689.750870	0.305967
689.952971	0.305835
690.155055	0.305868
690.357120	0.306008
690.559167	0.306151
690.761195	0.306349
690.963206	0.306639
691.165198	0.306727
691.367172	0.306909
691.569128	0.306985
691.771065	0.307354
691.972984	0.307607
692.174885	0.307967
692.376768	0.307792
692.578633	0.307829
692.780479	0.307925
692.982308	0.308207
693.184118	0.308642
693.385909	0.308917
