sample name	sample
index	531
start time	 03-11-2021  04:37:12 PM


Wavelength (nm)	Absorbance
494.344910	NaN
494.563924	NaN
494.782919	NaN
495.001897	NaN
495.220856	-0.393023
495.439797	-0.480196
495.658719	-0.513076
495.877624	-0.049200
496.096510	-0.062519
496.315378	-0.140932
496.534227	-0.168988
496.753059	-0.345430
496.971872	-0.218498
497.190667	0.070788
497.409444	0.076792
497.628203	0.078933
497.846943	0.076600
498.065665	0.076139
498.284369	0.076586
498.503055	0.077759
498.721723	0.077957
498.940372	0.078121
499.159003	0.077421
499.377616	0.077479
499.596210	0.078079
499.814787	0.077507
500.033345	0.078066
500.251885	0.077878
500.470406	0.076946
500.688910	0.076642
500.907395	0.076228
501.125862	0.077253
501.344311	0.076920
501.562742	0.076069
501.781154	0.076973
501.999548	0.077377
502.217924	0.076900
502.436282	0.077845
502.654621	0.078934
502.872942	0.078184
503.091245	0.077282
503.309530	0.077745
503.527797	0.077380
503.746045	0.077732
503.964275	0.078169
504.182487	0.078654
504.400681	0.078489
504.618856	0.077747
504.837013	0.078387
505.055152	0.078635
505.273273	0.078601
505.491376	0.078939
505.709460	0.078750
505.927526	0.078392
506.145574	0.078864
506.363604	0.079084
506.581615	0.080363
506.799608	0.080559
507.017583	0.080624
507.235540	0.081175
507.453478	0.081479
507.671399	0.080603
507.889301	0.079545
508.107185	0.079527
508.325050	0.079094
508.542898	0.077298
508.760727	0.078508
508.978538	0.079059
509.196330	0.077915
509.414105	0.078427
509.631861	0.078913
509.849599	0.079451
510.067319	0.079355
510.285021	0.079991
510.502704	0.080647
510.720369	0.079408
510.938016	0.078393
511.155645	0.079007
511.373255	0.078947
511.590848	0.079234
511.808422	0.079468
512.025977	0.079376
512.243515	0.078632
512.461034	0.079287
512.678536	0.079637
512.896018	0.080462
513.113483	0.080595
513.330930	0.080164
513.548358	0.079995
513.765768	0.081123
513.983160	0.081185
514.200533	0.081754
514.417889	0.081075
514.635226	0.081465
514.852545	0.081592
515.069845	0.082076
515.287128	0.082613
515.504392	0.083110
515.721638	0.082268
515.938866	0.082325
516.156075	0.082307
516.373267	0.082855
516.590440	0.082889
516.807594	0.082739
517.024731	0.082451
517.241850	0.082894
517.458950	0.082429
517.676032	0.082407
517.893095	0.083079
518.110141	0.083683
518.327168	0.083643
518.544177	0.083556
518.761168	0.083943
518.978141	0.084070
519.195095	0.083459
519.412031	0.084067
519.628949	0.084641
519.845849	0.084331
520.062731	0.084366
520.279594	0.084473
520.496439	0.083860
520.713266	0.083960
520.930074	0.084739
521.146865	0.085207
521.363637	0.085350
521.580391	0.085224
521.797127	0.085961
522.013844	0.085735
522.230543	0.086656
522.447224	0.087498
522.663887	0.087602
522.880532	0.086668
523.097158	0.086945
523.313766	0.087302
523.530356	0.087399
523.746928	0.086831
523.963481	0.087212
524.180017	0.086484
524.396534	0.086267
524.613032	0.086547
524.829513	0.086568
525.045975	0.086711
525.262420	0.086064
525.478845	0.086308
525.695253	0.086937
525.911643	0.086673
526.128014	0.087099
526.344367	0.087555
526.560702	0.087379
526.777018	0.087876
526.993316	0.088243
527.209597	0.088886
527.425858	0.088807
527.642102	0.088478
527.858328	0.088809
528.074535	0.088836
528.290724	0.088920
528.506894	0.088989
528.723047	0.089323
528.939181	0.088835
529.155297	0.088942
529.371395	0.089022
529.587475	0.088949
529.803536	0.089089
530.019579	0.089440
530.235604	0.089312
530.451611	0.089342
530.667600	0.089550
530.883570	0.090274
531.099522	0.090478
531.315456	0.090800
531.531372	0.091438
531.747269	0.091371
531.963148	0.091733
532.179009	0.091944
532.394852	0.091994
532.610676	0.092039
532.826482	0.091884
533.042271	0.091850
533.258040	0.092396
533.473792	0.092306
533.689525	0.092121
533.905240	0.091994
534.120937	0.091983
534.336616	0.092408
534.552277	0.091895
534.767919	0.091891
534.983543	0.091967
535.199149	0.091756
535.414736	0.092150
535.630306	0.092356
535.845857	0.092181
536.061390	0.092354
536.276904	0.091965
536.492401	0.092625
536.707879	0.092722
536.923339	0.092780
537.138781	0.092689
537.354204	0.092832
537.569610	0.093029
537.784997	0.093544
538.000366	0.094053
538.215716	0.094449
538.431049	0.093975
538.646363	0.094147
538.861659	0.094378
539.076937	0.094460
539.292196	0.094377
539.507438	0.094828
539.722661	0.094349
539.937866	0.094164
540.153052	0.094954
540.368221	0.095485
540.583371	0.095822
540.798503	0.095948
541.013617	0.096215
541.228712	0.096045
541.443789	0.096561
541.658848	0.096864
541.873889	0.097338
542.088912	0.096887
542.303916	0.096743
542.518902	0.096430
542.733870	0.096641
542.948820	0.096776
543.163752	0.096980
543.378665	0.096621
543.593560	0.097307
543.808437	0.096989
544.023295	0.097441
544.238136	0.097801
544.452958	0.098063
544.667762	0.098200
544.882548	0.098682
545.097315	0.098566
545.312064	0.098711
545.526795	0.098078
545.741508	0.098313
545.956203	0.097889
546.170879	0.097923
546.385537	0.098058
546.600177	0.097831
546.814799	0.097666
547.029402	0.098205
547.243988	0.097994
547.458555	0.098194
547.673103	0.098329
547.887634	0.098701
548.102146	0.098852
548.316640	0.098764
548.531116	0.098905
548.745574	0.098800
548.960013	0.098841
549.174435	0.099256
549.388838	0.099782
549.603222	0.100302
549.817589	0.100373
550.031937	0.100946
550.246267	0.101112
550.460579	0.101537
550.674873	0.101590
550.889148	0.101950
551.103405	0.101887
551.317644	0.101745
551.531865	0.101442
551.746068	0.101551
551.960252	0.101313
552.174418	0.101811
552.388566	0.101903
552.602696	0.102149
552.816807	0.101698
553.030900	0.101863
553.244975	0.102235
553.459032	0.102265
553.673070	0.102219
553.887091	0.102516
554.101093	0.102305
554.315077	0.102116
554.529042	0.102015
554.742990	0.102283
554.956919	0.102568
555.170830	0.102527
555.384722	0.102602
555.598597	0.103152
555.812453	0.102899
556.026291	0.102915
556.240111	0.103092
556.453913	0.102947
556.667696	0.103183
556.881461	0.103354
557.095208	0.103585
557.308937	0.103768
557.522647	0.103592
557.736339	0.103782
557.950013	0.104076
558.163669	0.104306
558.377307	0.104668
558.590926	0.104589
558.804527	0.104231
559.018110	0.104082
559.231675	0.104163
559.445221	0.104075
559.658749	0.104257
559.872259	0.104119
560.085751	0.104039
560.299225	0.104252
560.512680	0.104617
560.726117	0.105040
560.939536	0.105136
561.152937	0.105260
561.366319	0.105822
561.579683	0.105761
561.793029	0.105927
562.006357	0.105961
562.219667	0.105850
562.432958	0.105734
562.646231	0.105747
562.859486	0.105678
563.072723	0.105786
563.285941	0.105471
563.499141	0.105865
563.712323	0.105848
563.925487	0.106105
564.138632	0.106338
564.351760	0.106251
564.564869	0.106261
564.777960	0.106315
564.991032	0.106051
565.204087	0.106019
565.417123	0.106218
565.630141	0.106367
565.843140	0.106657
566.056122	0.106381
566.269085	0.106633
566.482030	0.106493
566.694957	0.106693
566.907866	0.106942
567.120756	0.107077
567.333628	0.106991
567.546482	0.106881
567.759318	0.107050
567.972135	0.107596
568.184935	0.107712
568.397716	0.108185
568.610478	0.108131
568.823223	0.108296
569.035949	0.108475
569.248657	0.108470
569.461347	0.108684
569.674019	0.108179
569.886672	0.108111
570.099308	0.108073
570.311925	0.107871
570.524523	0.108329
570.737104	0.108665
570.949666	0.108542
571.162210	0.108691
571.374736	0.109020
571.587244	0.109179
571.799733	0.109517
572.012205	0.109631
572.224658	0.109591
572.437092	0.109733
572.649509	0.109501
572.861907	0.109931
573.074287	0.109689
573.286649	0.109985
573.498993	0.110225
573.711318	0.110312
573.923625	0.110417
574.135914	0.110719
574.348185	0.110707
574.560438	0.110919
574.772672	0.110934
574.984888	0.111029
575.197086	0.110702
575.409266	0.110900
575.621427	0.110799
575.833570	0.110738
576.045695	0.110687
576.257802	0.110405
576.469890	0.110487
576.681961	0.110346
576.894013	0.110448
577.106046	0.110704
577.318062	0.110709
577.530059	0.110886
577.742039	0.111033
577.954000	0.111275
578.165942	0.111345
578.377867	0.111392
578.589773	0.111459
578.801661	0.111644
579.013531	0.111947
579.225382	0.111802
579.437216	0.111328
579.649031	0.111416
579.860828	0.111244
580.072606	0.111147
580.284367	0.111113
580.496109	0.111151
580.707833	0.111191
580.919539	0.110977
581.131227	0.111161
581.342896	0.111573
581.554547	0.111446
581.766180	0.111826
581.977795	0.112305
582.189391	0.112302
582.400969	0.112496
582.612529	0.112867
582.824071	0.112830
583.035595	0.112853
583.247100	0.112734
583.458587	0.113139
583.670056	0.113129
583.881506	0.113303
584.092939	0.113346
584.304353	0.113338
584.515749	0.113257
584.727127	0.113387
584.938486	0.113528
585.149828	0.113894
585.361151	0.113869
585.572456	0.114072
585.783742	0.114146
585.995011	0.114374
586.206261	0.114471
586.417493	0.114222
586.628706	0.114278
586.839902	0.114319
587.051079	0.114250
587.262238	0.114515
587.473379	0.114267
587.684502	0.114119
587.895606	0.114243
588.106692	0.114699
588.317760	0.114857
588.528810	0.115006
588.739841	0.115346
588.950855	0.115465
589.161850	0.115211
589.372827	0.115396
589.583785	0.115582
589.794726	0.115281
590.005648	0.114825
590.216552	0.114885
590.427437	0.114884
590.638305	0.114514
590.849154	0.114376
591.059985	0.114408
591.270798	0.114570
591.481592	0.114452
591.692369	0.114961
591.903127	0.115184
592.113867	0.115332
592.324588	0.115656
592.535292	0.115966
592.745977	0.116379
592.956644	0.116453
593.167293	0.116349
593.377923	0.116625
593.588536	0.116716
593.799130	0.116768
594.009706	0.116793
594.220263	0.116460
594.430803	0.116299
594.641324	0.116201
594.851827	0.116362
595.062312	0.116580
595.272778	0.116495
595.483227	0.116202
595.693657	0.116209
595.904069	0.116242
596.114462	0.116181
596.324838	0.116395
596.535195	0.116554
596.745534	0.116472
596.955855	0.116516
597.166157	0.116610
597.376441	0.116989
597.586707	0.117305
597.796955	0.117163
598.007185	0.117513
598.217396	0.117462
598.427589	0.117288
598.637764	0.117631
598.847921	0.117621
599.058060	0.117420
599.268180	0.117122
599.478282	0.117003
599.688366	0.117517
599.898431	0.117649
600.108479	0.117843
600.318508	0.117976
600.528519	0.117775
600.738511	0.118191
600.948486	0.118519
601.158442	0.118714
601.368380	0.118886
601.578300	0.119020
601.788202	0.118786
601.998085	0.118621
602.207950	0.119053
602.417797	0.119167
602.627626	0.119075
602.837436	0.119076
603.047228	0.119303
603.257002	0.119092
603.466758	0.119012
603.676496	0.119279
603.886215	0.119334
604.095916	0.119134
604.305599	0.119195
604.515264	0.118854
604.724910	0.119000
604.934538	0.118744
605.144148	0.119127
605.353740	0.119254
605.563314	0.119366
605.772869	0.119382
605.982406	0.119639
606.191925	0.119641
606.401425	0.120200
606.610908	0.120234
606.820372	0.120473
607.029818	0.120698
607.239246	0.120617
607.448655	0.120395
607.658047	0.120800
607.867420	0.120774
608.076775	0.120974
608.286111	0.121060
608.495430	0.121291
608.704730	0.121232
608.914012	0.120985
609.123275	0.121057
609.332521	0.121271
609.541748	0.121178
609.750957	0.121193
609.960148	0.121051
610.169321	0.120704
610.378475	0.120565
610.587611	0.120843
610.796729	0.120796
611.005829	0.120536
611.214910	0.120639
611.423974	0.120678
611.633019	0.120508
611.842045	0.120713
612.051054	0.120950
612.260044	0.121051
612.469017	0.120789
612.677970	0.120859
612.886906	0.121095
613.095824	0.121188
613.304723	0.121456
613.513604	0.121672
613.722467	0.121969
613.931311	0.121953
614.140138	0.121973
614.348946	0.122155
614.557736	0.122294
614.766507	0.122376
614.975261	0.122437
615.183996	0.122285
615.392713	0.122418
615.601412	0.122301
615.810092	0.122247
616.018754	0.122331
616.227399	0.122613
616.436024	0.122840
616.644632	0.123017
616.853222	0.123152
617.061793	0.123162
617.270346	0.123013
617.478880	0.123181
617.687397	0.123405
617.895895	0.123612
618.104375	0.123706
618.312837	0.123625
618.521281	0.123639
618.729706	0.123462
618.938113	0.123729
619.146502	0.123986
619.354873	0.124085
619.563226	0.124136
619.771560	0.124013
619.979876	0.123861
620.188174	0.124020
620.396453	0.124172
620.604715	0.124580
620.812958	0.124707
621.021183	0.124807
621.229390	0.124515
621.437578	0.124459
621.645748	0.124646
621.853900	0.124937
622.062034	0.124900
622.270150	0.124822
622.478247	0.124734
622.686326	0.124568
622.894387	0.124490
623.102430	0.124995
623.310454	0.125159
623.518461	0.125017
623.726449	0.125026
623.934418	0.125182
624.142370	0.125291
624.350303	0.125141
624.558218	0.125223
624.766115	0.125380
624.973994	0.125246
625.181855	0.125049
625.389697	0.125176
625.597521	0.125079
625.805327	0.125013
626.013114	0.125021
626.220883	0.125324
626.428634	0.125437
626.636367	0.125586
626.844082	0.125609
627.051778	0.126063
627.259457	0.126020
627.467117	0.126336
627.674758	0.126453
627.882382	0.126585
628.089987	0.126436
628.297574	0.126620
628.505143	0.126595
628.712694	0.126765
628.920226	0.126465
629.127740	0.126792
629.335236	0.126747
629.542714	0.126841
629.750174	0.126800
629.957615	0.127046
630.165038	0.126921
630.372443	0.126874
630.579829	0.126742
630.787198	0.126919
630.994548	0.126803
631.201880	0.126717
631.409194	0.126854
631.616489	0.126982
631.823766	0.127008
632.031025	0.127268
632.238266	0.127330
632.445489	0.127466
632.652693	0.127708
632.859879	0.127947
633.067047	0.128097
633.274197	0.127945
633.481329	0.128214
633.688442	0.128140
633.895537	0.128153
634.102614	0.128388
634.309672	0.128507
634.516713	0.128727
634.723735	0.128752
634.930739	0.128976
635.137724	0.129361
635.344692	0.129412
635.551641	0.129591
635.758572	0.129790
635.965485	0.129809
636.172379	0.129930
636.379256	0.129792
636.586114	0.129979
636.792954	0.129792
636.999775	0.129477
637.206579	0.129401
637.413364	0.129505
637.620131	0.129567
637.826880	0.129615
638.033610	0.129578
638.240323	0.129599
638.447017	0.129462
638.653692	0.129790
638.860350	0.130115
639.066990	0.130312
639.273611	0.130272
639.480214	0.130286
639.686798	0.130452
639.893365	0.130536
640.099913	0.130666
640.306443	0.130780
640.512955	0.130623
640.719449	0.130564
640.925924	0.130519
641.132381	0.130756
641.338820	0.130836
641.545241	0.130899
641.751644	0.130994
641.958028	0.131036
642.164394	0.131149
642.370742	0.131275
642.577071	0.131487
642.783383	0.131516
642.989676	0.131697
643.195951	0.131462
643.402207	0.131337
643.608446	0.131457
643.814666	0.131571
644.020868	0.131791
644.227052	0.132096
644.433218	0.132037
644.639365	0.132316
644.845494	0.132370
645.051605	0.132789
645.257698	0.132991
645.463772	0.133342
645.669828	0.133298
645.875866	0.133310
646.081886	0.133369
646.287888	0.133532
646.493871	0.133365
646.699836	0.133249
646.905783	0.133228
647.111712	0.133274
647.317622	0.133012
647.523514	0.133197
647.729388	0.133168
647.935244	0.133220
648.141082	0.133254
648.346901	0.133302
648.552702	0.133286
648.758485	0.133393
648.964250	0.133705
649.169996	0.133642
649.375724	0.133704
649.581434	0.134003
649.787126	0.134110
649.992800	0.134292
650.198455	0.134303
650.404092	0.134702
650.609711	0.134817
650.815311	0.134792
651.020894	0.135060
651.226458	0.135310
651.432004	0.135318
651.637532	0.135246
651.843041	0.135529
652.048532	0.135867
652.254006	0.135630
652.459460	0.135554
652.664897	0.135459
652.870315	0.135689
653.075716	0.135703
653.281097	0.135559
653.486461	0.135858
653.691807	0.135698
653.897134	0.135841
654.102443	0.136256
654.307734	0.136498
654.513006	0.136635
654.718261	0.136763
654.923497	0.136891
655.128715	0.137242
655.333915	0.137306
655.539096	0.137340
655.744259	0.137478
655.949404	0.137451
656.154531	0.137594
656.359640	0.137713
656.564730	0.137759
656.769802	0.137934
656.974856	0.137844
657.179892	0.137876
657.384909	0.138148
657.589908	0.138093
657.794889	0.138149
657.999852	0.138410
658.204797	0.138460
658.409723	0.138574
658.614631	0.138646
658.819521	0.138991
659.024393	0.138946
659.229246	0.139102
659.434081	0.139404
659.638898	0.139589
659.843697	0.139409
660.048478	0.139640
660.253240	0.139652
660.457984	0.139739
660.662710	0.139626
660.867417	0.139931
661.072107	0.139987
661.276778	0.139938
661.481431	0.139899
661.686066	0.140009
661.890682	0.140051
662.095281	0.140080
662.299861	0.140029
662.504422	0.140035
662.708966	0.140034
662.913491	0.140065
663.117999	0.140221
663.322488	0.140512
663.526958	0.140494
663.731411	0.140753
663.935845	0.141102
664.140261	0.141274
664.344659	0.141585
664.549038	0.141718
664.753400	0.141793
664.957743	0.141913
665.162068	0.141807
665.366375	0.142006
665.570663	0.141998
665.774933	0.141878
665.979185	0.141858
666.183419	0.141900
666.387635	0.141948
666.591832	0.142089
666.796011	0.142062
667.000172	0.142122
667.204315	0.142256
667.408439	0.142175
667.612545	0.142429
667.816634	0.142865
668.020703	0.142946
668.224755	0.143179
668.428788	0.143229
668.632803	0.143475
668.836800	0.143680
669.040779	0.143795
669.244739	0.143929
669.448681	0.144079
669.652605	0.144109
669.856511	0.144110
670.060399	0.144048
670.264268	0.144379
670.468119	0.144147
670.671952	0.144178
670.875767	0.144430
671.079563	0.144729
671.283341	0.144684
671.487101	0.144494
671.690843	0.144795
671.894567	0.144805
672.098272	0.144790
672.301959	0.145074
672.505628	0.145203
672.709278	0.145091
672.912911	0.145169
673.116525	0.145051
673.320121	0.145191
673.523699	0.145136
673.727258	0.145391
673.930799	0.145340
674.134322	0.145475
674.337827	0.145584
674.541314	0.145640
674.744782	0.145708
674.948232	0.145999
675.151664	0.145938
675.355078	0.146138
675.558474	0.146195
675.761851	0.146447
675.965210	0.146457
676.168551	0.146465
676.371873	0.146632
676.575178	0.146909
676.778464	0.147069
676.981732	0.147423
677.184981	0.147527
677.388213	0.147708
677.591426	0.147610
677.794621	0.147833
677.997798	0.148103
678.200956	0.148270
678.404097	0.148047
678.607219	0.148103
678.810323	0.148219
679.013408	0.148312
679.216476	0.148369
679.419525	0.148693
679.622556	0.148766
679.825569	0.148806
680.028563	0.148878
680.231540	0.149155
680.434498	0.149183
680.637438	0.149212
680.840359	0.149199
681.043263	0.149135
681.246148	0.149106
681.449015	0.149268
681.651864	0.149435
681.854694	0.149463
682.057506	0.149541
682.260301	0.149470
682.463076	0.149482
682.665834	0.149740
682.868573	0.150045
683.071295	0.150184
683.273998	0.150101
683.476682	0.150093
683.679349	0.150269
683.881997	0.150456
684.084627	0.150693
684.287239	0.150727
684.489833	0.150575
684.692408	0.150643
684.894965	0.150818
685.097504	0.151068
685.300025	0.151184
685.502527	0.151155
685.705012	0.151005
685.907478	0.151060
686.109925	0.151332
686.312355	0.151539
686.514766	0.151530
686.717159	0.151339
686.919534	0.151026
687.121891	0.150971
687.324230	0.150949
687.526550	0.150948
687.728852	0.150915
687.931136	0.150939
688.133401	0.150803
688.335649	0.150835
688.537878	0.150837
688.740089	0.151191
688.942281	0.151329
689.144456	0.151399
689.346612	0.151672
689.548750	0.151706
689.750870	0.151747
689.952971	0.152142
690.155055	0.152445
690.357120	0.152572
690.559167	0.152505
690.761195	0.152481
690.963206	0.152557
691.165198	0.152542
691.367172	0.152792
691.569128	0.152802
691.771065	0.152700
691.972984	0.152688
692.174885	0.152833
692.376768	0.153029
692.578633	0.153342
692.780479	0.153392
692.982308	0.153498
693.184118	0.153739
693.385909	0.153602
693.587683	0.153638
