sample name	sample
index	726
start time	 03-25-2021  02:06:49 PM
880	0.242334
Peak Time (s)	82.035
Peak Height 	0.2423
calc peak height	80,83
Baseline Time (s)	8.537
Baseline Value 	-0.003452
subtract baseline	10,4
Abs	0.130489
Peak Time (s)	81.538
Peak Height 	0.1305
calc peak height	80,83
Baseline Time (s)	11.036
Baseline Value 	-0.00105
subtract baseline	10,3
PK_550	0.077084
Peak Time (s)	81.037
Peak Height 	0.07708
calc peak height	80,83
Baseline Time (s)	9.537
Baseline Value 	4.1698E-4
subtract baseline	10,2
PK_880	0.117763
Peak Time (s)	81.538
Peak Height 	0.1178
calc peak height	80,83
Baseline Time (s)	10.037
Baseline Value 	0.001995
subtract baseline	10,1


Time (s)	A880-A510	A880-A775	A880-A975	A880	I510	I775	I975	I880	
0.034500	-0.002776	-0.000738	-0.003445	0.003246	7116.285264	43853.939697	3920.367756	23393.081017
0.537000	-0.005041	-0.000689	-0.004224	0.003400	7092.669654	43843.979713	3918.043604	23385.808060
1.068500	-0.000746	0.000778	0.001844	0.001918	7149.290060	44122.960496	3936.992419	23455.966163
1.535500	-0.004467	-0.000324	-0.004975	0.006443	7068.705468	43592.292993	3908.647072	23242.489392
2.035500	-0.000458	-0.000224	-0.000772	0.000982	7161.379617	44116.757167	3932.745851	23500.396606
2.538500	-0.001343	0.000176	0.001109	0.001809	7144.481778	44076.241056	3935.409389	23461.162770
3.036500	-0.003703	-0.000439	-0.000610	0.002775	7111.827188	43926.575100	3928.643620	23415.369499
3.536500	-0.003003	-0.000930	-0.003226	0.003013	7116.348161	43857.786441	3921.494759	23404.099852
4.038000	-0.002872	-0.000333	0.000459	0.002508	7122.579505	43961.902973	3932.005573	23428.030195
4.537000	-0.001715	-0.000165	0.004863	0.002759	7131.470853	43954.063640	3942.522480	23416.145849
5.037000	-0.001713	-0.000573	0.001624	0.002516	7133.873734	43938.359926	3934.922222	23427.621819
5.537500	-0.000123	-0.000768	0.003736	-0.002359	7197.902641	44383.096880	3952.722774	23659.840598
6.035000	-0.001033	-0.000046	0.006992	0.000025	7165.161043	44224.664980	3954.961959	23545.959281
6.535500	-0.000618	0.000393	0.002854	0.002476	7145.050963	44033.617862	3938.139768	23429.548030
7.035500	-0.000671	-0.000082	0.001233	0.001582	7153.346790	44073.290015	3936.296397	23471.898821
7.536000	-0.000383	0.000020	0.000395	-0.000096	7172.810361	44242.526772	3938.424828	23551.740236
8.044000	-0.000377	0.000469	0.002658	0.000162	7170.312714	44260.667417	3943.519571	23539.445351
8.536500	0.000204	0.000156	-0.001479	0.000000	7177.677637	44246.210698	3933.440530	23547.146200
9.037000	0.001310	-0.000077	0.002843	-0.000229	7190.955121	44245.862959	3944.985857	23558.045979
9.537000	-0.001177	0.000000	0.001156	-0.000461	7168.550512	44275.343353	3941.283244	23569.138777
10.037500	0.000000	-0.000431	-0.001924	-0.000262	7178.252010	44215.341183	3932.979820	23559.620790
10.534500	0.002632	0.001210	0.001491	0.001309	7188.804964	44221.980964	3937.641051	23484.874639
11.035500	-0.000054	0.000279	0.000000	0.000508	7170.079259	44209.666117	3935.895489	23522.977800
11.535500	-0.000587	-0.000456	-0.001368	0.000448	7165.383381	44145.380273	3932.589808	23525.794612
12.036000	-0.000278	-0.000318	0.004132	0.001228	7160.723966	44084.427193	3944.556098	23488.710548
12.536000	-0.002706	-0.000159	0.000644	0.000159	7147.301963	44201.136582	3938.409422	23539.569371
13.036500	-0.001188	0.000093	0.004092	0.000522	7158.703013	44190.552333	3946.255149	23522.270967
13.537000	0.001310	0.000514	-0.000320	0.001002	7178.711657	44185.051475	3933.838288	23499.489973
14.037000	-0.001304	-0.001077	-0.001282	0.001040	7152.448347	44030.418711	3931.317211	23497.658454
14.534500	-0.000970	0.000386	0.004253	0.000432	7161.765250	44227.028504	3946.898651	23526.589131
15.040000	0.000335	-0.000988	-0.000480	-0.000067	7179.645131	44143.784937	3936.134708	23550.317062
15.535000	-0.001013	-0.000728	-0.004202	-0.000397	7169.546686	44199.936116	3927.589208	23566.070946
16.035500	-0.001392	-0.000360	0.005304	0.001309	7148.924734	44072.814652	3947.341045	23484.875601
16.535500	-0.002158	-0.000238	0.001865	0.000375	7150.587922	44173.097056	3940.958902	23529.301049
17.036000	-0.000084	-0.000146	-0.001535	0.000701	7167.865909	44150.796170	3931.531557	23513.757940
17.536000	0.000080	-0.000222	0.003754	0.000269	7173.776988	44184.672902	3946.038995	23534.342053
18.039500	-0.002526	0.000528	0.005570	0.002317	7127.847632	44061.487996	3945.449579	23437.077245
18.537000	0.000897	0.000792	0.005255	0.000999	7174.632149	44211.648670	3948.007458	23499.589629
19.034000	-0.000331	-0.000466	-0.002884	0.000113	7171.245348	44176.279983	3929.618539	23541.755812
19.537000	-0.001636	0.000179	0.001874	0.000384	7155.648483	44211.899947	3940.960554	23528.865031
20.035500	-0.003009	-0.000416	-0.000453	0.003464	7111.880698	43863.776926	3927.307608	23382.795487
20.535000	0.000454	0.000183	0.002565	-0.000970	7189.809932	44341.214755	3946.165585	23593.387678
21.035500	-0.000816	-0.000020	0.003566	-0.000622	7173.718982	44288.701799	3947.834425	23576.777364
21.536000	-0.001708	0.000135	0.000256	0.001819	7140.777626	44071.407605	3933.228215	23460.658320
22.036500	-0.003043	0.000119	0.000490	0.003955	7106.740984	43867.897488	3928.440085	23359.586839
22.536500	-0.000430	-0.000006	0.003491	-0.000363	7174.991546	44265.459469	3946.981225	23564.457092
23.036500	0.000273	-0.000650	-0.000015	-0.000592	7184.240463	44225.900090	3938.642255	23575.355664
23.556000	-0.001219	-0.000364	-0.001153	-0.000316	7166.698387	44226.796728	3935.062497	23562.212025
24.040000	-0.001279	0.000320	0.001268	0.004191	7121.693315	43864.529367	3929.802761	23348.436912
24.537500	-0.000408	0.000313	0.005159	0.000668	7164.985149	44197.616555	3948.610853	23515.356512
25.076000	0.000867	0.000531	0.001960	-0.000485	7189.088865	44328.151862	3943.387334	23570.242681
25.535000	-0.001659	0.000476	-0.000788	0.001304	7146.340129	44152.656864	3931.896110	23485.110680
26.036000	-0.000556	-0.000048	-0.001815	0.003918	7131.468728	43855.557811	3922.758112	23361.331244
26.536000	-0.000799	-0.000792	0.005336	-0.000519	7172.876124	44205.396836	3952.105936	23571.886888
27.036500	0.002873	-0.000292	0.002752	-0.002197	7226.276433	44413.148841	3949.781492	23652.074318
27.537000	-0.001984	-0.000034	-0.003212	0.001799	7138.261155	44057.227449	3924.564146	23461.602369
28.036500	-0.002759	-0.000016	0.000056	0.002824	7120.591902	43962.035359	3930.194357	23413.070946
28.540000	-0.001144	-0.000934	0.002225	0.000162	7162.704059	44127.212345	3942.416994	23539.425768
29.037000	-0.001086	-0.000111	0.001768	0.001051	7154.492276	44120.913417	3938.996584	23497.137850
29.535000	-0.003809	-0.000559	0.001943	0.001487	7123.406998	44037.091416	3938.335644	23476.440875
30.035000	-0.000643	-0.000148	0.000858	0.001072	7158.668081	44115.434733	3936.638779	23496.151686
30.535500	-0.000982	0.000186	-0.000197	0.001415	7151.928570	44114.562450	3933.106049	23479.846663
31.036000	-0.001052	0.000247	0.004542	0.001181	7153.536272	44142.570555	3945.722830	23490.944334
31.536000	-0.001848	-0.000194	0.004572	0.001058	7146.902347	44112.330689	3946.112240	23496.784915
32.036500	-0.000642	-0.000163	-0.000930	0.003253	7137.166264	43907.593098	3926.640058	23392.775970
32.537000	-0.001512	-0.000370	-0.002209	0.001193	7148.876314	44082.817208	3928.597487	23490.369648
33.038000	-0.001533	0.000678	-0.003934	0.001968	7141.035983	44108.803393	3922.337665	23453.602217
33.537500	-0.001141	0.000086	0.004390	0.001329	7151.200833	44113.230146	3944.957075	23483.937119
34.034500	-0.002823	0.000843	-0.000796	0.003546	7112.893522	43974.896468	3926.242007	23378.924651
34.534500	-0.001511	-0.000352	0.005643	0.000889	7151.900556	44113.499075	3949.282981	23504.854432
35.035500	-0.000899	0.000249	0.000167	0.001825	7148.701408	44081.705677	3932.990114	23460.392706
35.535500	-0.002896	0.000485	0.000233	0.001563	7131.619869	44128.883835	3933.818527	23472.823556
36.036000	-0.002602	0.000178	0.002829	0.003063	7119.783679	43957.629077	3936.587534	23401.722700
36.536000	-0.000273	0.000139	0.003695	0.002020	7152.951177	44052.692901	3941.428029	23451.131183
37.036500	-0.001557	-0.000084	-0.004152	0.001098	7149.376673	44118.999310	3923.966467	23494.906798
37.537000	0.000050	0.000277	0.002508	-0.000334	7179.465778	44289.568297	3944.400348	23563.053830
38.037000	-0.001478	0.000450	0.002800	0.003869	7122.899524	43907.209855	3934.477659	23363.657200
38.565000	0.001022	0.000977	0.002733	0.000375	7182.071185	44288.687974	3943.165174	23529.271239
39.034500	0.000666	0.000351	0.006752	0.000118	7181.096109	44253.602371	3954.107106	23541.539231
39.534500	-0.000201	0.000323	-0.002614	-0.000471	7178.333337	44307.066420	3931.768161	23569.613845
40.035500	-0.000988	0.000508	-0.002218	0.003769	7128.685105	43922.124086	3922.122786	23368.352274
40.535500	0.001955	-0.000146	0.002260	-0.000404	7199.129502	44255.961482	3943.945646	23566.408843
41.036000	-0.002115	-0.000161	0.000245	-0.000050	7155.209489	44220.847496	3937.928951	23549.547595
41.536500	-0.002077	-0.000066	0.002059	0.002049	7134.891301	44030.579058	3937.205577	23449.766155
42.036500	-0.000755	-0.000589	0.000552	0.003652	7132.124675	43829.664846	3929.357372	23373.887679
42.595000	0.000419	0.000271	0.004502	-0.000075	7180.562053	44264.340576	3948.830242	23550.735093
43.037500	0.000766	-0.000022	0.004744	-0.000555	7188.782977	44282.110559	3950.678657	23573.581328
43.535000	0.001046	-0.001033	0.002031	-0.000559	7191.607559	44186.305574	3943.755933	23573.775980
44.035000	-0.002227	-0.000006	0.001239	0.003196	7122.161608	43927.740246	3932.235101	23395.457566
44.535500	0.002289	0.000200	0.005644	-0.002296	7221.413702	44469.714061	3957.469661	23656.831448
45.036000	0.002173	0.000928	0.004917	-0.000415	7201.411382	44359.396270	3950.763693	23566.911911
45.536000	-0.001372	-0.000179	0.000459	0.007347	7089.973040	43521.272134	3919.877749	23200.109157
46.036000	-0.059386	-0.018378	0.007610	0.079198	5997.903756	35912.823469	3770.068808	20098.270740
46.536500	-0.037094	-0.011159	0.010619	0.091954	6067.466311	35494.507286	3749.373157	19599.265190
47.039500	-0.030302	-0.011985	0.021057	-0.050041	7376.106872	48017.287685	4132.774020	26073.807611
47.537000	-0.024183	-0.009798	0.031361	-0.081919	7788.609441	51699.368458	4264.892181	27842.007918
48.037500	-0.014986	-0.001385	0.038499	-0.062390	7672.840398	50465.912857	4224.741408	26743.412763
48.537500	0.008988	0.007371	0.034698	-0.073090	8072.457588	52645.569653	4246.953677	27339.174730
49.034500	0.017889	0.015573	0.041128	-0.050732	7913.570333	51049.993945	4196.198688	26110.751524
49.535000	0.037506	0.023783	0.045589	-0.049029	8126.186217	51777.078519	4204.856526	26019.766950
50.041500	0.044715	0.030882	0.056782	-0.011819	7774.993707	48502.580887	4125.350548	24117.933363
50.536000	0.049541	0.035667	0.068363	0.030600	7367.825027	44716.556600	4037.076529	22139.565998
51.036000	0.057226	0.041194	0.067255	0.039574	7354.486524	44385.950361	4009.551488	21745.250447
51.539500	0.059823	0.043620	0.074317	0.089838	6887.780165	40058.020246	3898.574727	19681.040972
52.036500	0.068055	0.047285	0.074836	0.082647	7033.214043	40998.713112	3917.577714	19961.893656
52.537000	0.075775	0.049980	0.078400	0.103600	6908.116931	39430.011548	3875.190700	19156.314016
53.040500	0.072310	0.052225	0.081528	0.133883	6605.803412	37145.605897	3812.295562	18058.539012
53.537000	0.073862	0.053300	0.082787	0.132503	6631.151430	37339.807451	3818.235242	18106.926680
54.055500	0.074430	0.054283	0.085740	0.143322	6543.289467	36568.442583	3800.635212	17731.756457
54.536000	0.078534	0.054495	0.087508	0.145127	6562.812426	36445.091599	3800.550917	17670.057421
55.038000	0.080818	0.055995	0.088400	0.151648	6526.905031	36059.407865	3788.149910	17449.302039
55.535500	0.083257	0.056969	0.094691	0.157418	6498.926853	35695.212134	3789.292371	17256.744750
56.036500	0.080132	0.057367	0.092449	0.167268	6391.954590	34988.947825	3763.157135	16933.830174
56.537000	0.084683	0.057423	0.093630	0.165506	6443.603172	35123.538984	3769.449267	16991.044340
57.037000	0.088046	0.058873	0.097593	0.170076	6433.669454	34892.839304	3768.148715	16843.108503
57.537000	0.088259	0.061222	0.095528	0.174595	6398.459756	34733.370379	3754.149634	16698.366868
58.037500	0.089754	0.061909	0.098773	0.181273	6356.534264	34297.144339	3746.931505	16487.161306
58.535000	0.090544	0.061993	0.101225	0.178806	6382.820351	34482.125697	3757.288220	16564.795437
59.036000	0.092652	0.062981	0.096588	0.182329	6371.379033	34298.241167	3740.169643	16454.049995
59.536000	0.094751	0.063678	0.100081	0.185036	6366.476331	34153.284333	3741.803849	16369.577907
60.038500	0.092412	0.063615	0.100954	0.191154	6298.943723	33711.478480	3730.949449	16180.562974
60.536500	0.096021	0.065067	0.103479	0.189013	6344.718875	33967.565201	3740.600676	16246.425139
61.036000	0.098560	0.065756	0.101685	0.192754	6335.091341	33749.846437	3729.163021	16131.566564
61.537000	0.100076	0.066545	0.104017	0.193322	6342.679096	33765.668090	3732.793801	16114.240993
62.037000	0.097075	0.066700	0.106628	0.200432	6262.641851	33275.186942	3723.566170	15898.988351
62.534500	0.100544	0.067185	0.106604	0.196633	6319.991970	33576.335181	3731.302572	16013.565134
63.034500	0.101557	0.067562	0.112749	0.199244	6307.294789	33418.886912	3738.603878	15934.701337
63.535500	0.104341	0.067472	0.108620	0.199022	6331.206108	33428.181175	3730.533133	15941.374183
64.035500	0.099540	0.069099	0.109583	0.206397	6235.372239	33026.684815	3717.448121	15721.094107
64.535000	0.101885	0.068747	0.110569	0.202244	6286.184336	33291.597320	3727.920703	15844.687887
65.036000	0.102210	0.069358	0.111601	0.205694	6261.650520	33093.515532	3722.975548	15741.915346
65.539000	0.103925	0.070244	0.106317	0.205339	6277.876799	33179.947116	3712.983747	15752.460411
66.036500	0.102304	0.070805	0.109400	0.211694	6215.768200	32778.563752	3706.412270	15565.143590
66.537000	0.105183	0.071115	0.112455	0.208348	6264.141101	33031.173293	3719.314868	15663.417750
67.036500	0.106411	0.070545	0.113721	0.210882	6253.941121	32816.531657	3716.743527	15588.927138
67.537500	0.106728	0.071632	0.114390	0.210285	6261.072045	32932.784964	3719.308482	15606.426152
68.035000	0.106749	0.071311	0.109835	0.216502	6212.971040	32483.956892	3697.710193	15425.253722
68.535000	0.109105	0.072484	0.115237	0.213281	6256.241924	32784.843051	3714.957323	15518.791688
69.035500	0.106880	0.072040	0.119144	0.216320	6215.379405	32546.077792	3716.712422	15430.499691
69.536000	0.109615	0.072610	0.115704	0.215480	6243.068643	32642.485290	3711.465166	15454.836845
70.038500	0.107514	0.072424	0.118081	0.215662	6225.365150	32617.320888	3715.893855	15449.568193
70.536500	0.109635	0.072937	0.119666	0.217678	6226.169025	32514.607613	3715.022615	15391.244653
71.036500	0.106628	0.072353	0.120420	0.221406	6174.447072	32222.009820	3709.035149	15284.140712
71.537000	0.112464	0.074000	0.119303	0.220259	6228.099167	32411.285435	3709.094657	15316.995284
72.037000	0.111861	0.073959	0.124355	0.220869	6218.714130	32367.060917	3718.053168	15299.499127
72.535000	0.111070	0.074586	0.123530	0.222324	6201.417565	32310.905619	3713.443854	15257.905262
73.035000	0.109455	0.074001	0.118780	0.226572	6156.672036	31985.349136	3695.483936	15137.197537
73.535500	0.111714	0.073127	0.117654	0.223683	6195.924481	32120.673582	3698.974148	15219.162404
74.036000	0.113232	0.073932	0.118210	0.225203	6195.911388	32072.565662	3697.061802	15175.960276
74.536500	0.111549	0.074749	0.115223	0.226625	6172.178335	32031.939394	3688.381053	15135.687791
75.036000	0.110985	0.073453	0.123870	0.230010	6142.233453	31719.548087	3698.751833	15040.362399
75.536500	0.114452	0.073600	0.121577	0.227221	6189.795116	31915.130888	3699.736822	15118.871428
76.037000	0.115157	0.073958	0.127905	0.228272	6187.151270	31868.811885	3710.278448	15089.235239
76.537000	0.115348	0.074789	0.117919	0.229301	6180.746946	31855.644182	3688.421023	15060.288530
77.034500	0.110913	0.073872	0.122646	0.233459	6115.770039	31519.099186	3689.535770	14944.005277
77.535000	0.114255	0.075599	0.127052	0.231424	6156.273556	31768.210143	3702.265404	15000.776926
78.035500	0.110324	0.074606	0.119303	0.237117	6084.136129	31327.029746	3675.910176	14842.626910
78.535500	0.116099	0.075501	0.123417	0.232834	6159.569891	31668.095996	3692.278405	14961.417024
79.036000	0.115250	0.076059	0.123253	0.238965	6107.035366	31301.134345	3679.977772	14791.740537
79.536000	0.114768	0.075946	0.124260	0.234230	6138.946457	31605.144103	3691.191390	14922.574395
80.036500	0.114339	0.074688	0.125110	0.239131	6099.001700	31200.804242	3683.265878	14787.190181
80.536500	0.115222	0.075437	0.117005	0.235281	6134.445940	31502.236424	3675.021584	14893.420309
81.037000	0.117685	0.077084	0.129946	0.236428	6144.369726	31535.145200	3698.076089	14861.677035
81.537500	0.117763	0.075932	0.130489	0.236514	6144.304161	31453.607273	3698.981361	14859.287670
82.035000	0.112913	0.075148	0.123432	0.242334	6064.715545	31022.552845	3673.814055	14699.532314
82.535000	0.117559	0.076425	0.125178	0.238139	6130.525527	31379.262476	3685.333906	14814.480349
83.100000	0.118074	0.076776	0.129693	0.239404	6124.889110	31319.313534	3691.698990	14779.682808
83.535000	0.120568	0.076599	0.125108	0.239071	6146.180744	31329.529758	3683.377079	14788.826688
84.038500	0.115656	0.075961	0.125242	0.244570	6068.456061	30930.610809	3672.993974	14638.730432
84.679500	0.119042	0.076463	0.130771	0.240954	6120.522638	31197.687892	3690.772751	14737.209112
85.112000	0.119442	0.076280	0.129567	0.240950	6123.556712	31186.025803	3688.418544	14737.329855
85.536500	0.120732	0.077050	0.127373	0.241810	6126.781849	31180.151426	3682.456332	14713.830779
86.037500	0.115804	0.075938	0.121660	0.246766	6053.378973	30787.668114	3661.951891	14579.299413
86.537500	0.120567	0.077068	0.130317	0.242982	6116.753663	31105.101760	3685.909724	14681.868098
87.037500	0.118179	0.077691	0.131775	0.249849	6048.183180	30702.360970	3675.409789	14496.385830
87.564000	0.121808	0.077248	0.128370	0.244544	6114.354141	31015.469341	3679.082949	14639.427641
88.036000	0.116502	0.076890	0.127534	0.249638	6037.459323	30664.589995	3667.670237	14502.046827
