sample name	sample
index	1004
start time	 04-14-2021  04:51:53 PM


Wavelength (nm)	Absorbance
494.344910	-0.026843
494.563924	-0.026843
494.782919	-0.026843
495.001897	-0.391708
495.220856	0.028976
495.439797	-0.000785
495.658719	-0.062823
495.877624	-0.032665
496.096510	0.286632
496.315378	0.222415
496.534227	0.268532
496.753059	0.124826
496.971872	0.083723
497.190667	0.146544
497.409444	0.142653
497.628203	0.146142
497.846943	0.147857
498.065665	0.145421
498.284369	0.145095
498.503055	0.144950
498.721723	0.145766
498.940372	0.144824
499.159003	0.145135
499.377616	0.147462
499.596210	0.147330
499.814787	0.146327
500.033345	0.146724
500.251885	0.146700
500.470406	0.146172
500.688910	0.145979
500.907395	0.146275
501.125862	0.145481
501.344311	0.143533
501.562742	0.143815
501.781154	0.144200
501.999548	0.143672
502.217924	0.144396
502.436282	0.145041
502.654621	0.145175
502.872942	0.144860
503.091245	0.144380
503.309530	0.145389
503.527797	0.145381
503.746045	0.145404
503.964275	0.144680
504.182487	0.144521
504.400681	0.144472
504.618856	0.144753
504.837013	0.143864
505.055152	0.144916
505.273273	0.145150
505.491376	0.145317
505.709460	0.144100
505.927526	0.144254
506.145574	0.145603
506.363604	0.145939
506.581615	0.146344
506.799608	0.148119
507.017583	0.148066
507.235540	0.146942
507.453478	0.148179
507.671399	0.149836
507.889301	0.151405
508.107185	0.150528
508.325050	0.150753
508.542898	0.151637
508.760727	0.152189
508.978538	0.152276
509.196330	0.154238
509.414105	0.153606
509.631861	0.154624
509.849599	0.154811
510.067319	0.155862
510.285021	0.155765
510.502704	0.155171
510.720369	0.155492
510.938016	0.156447
511.155645	0.156706
511.373255	0.156854
511.590848	0.156205
511.808422	0.156329
512.025977	0.155826
512.243515	0.156497
512.461034	0.156888
512.678536	0.157111
512.896018	0.157531
513.113483	0.157096
513.330930	0.157453
513.548358	0.158163
513.765768	0.158692
513.983160	0.158746
514.200533	0.159208
514.417889	0.159252
514.635226	0.159701
514.852545	0.159424
515.069845	0.159301
515.287128	0.159598
515.504392	0.159008
515.721638	0.159740
515.938866	0.160271
516.156075	0.160364
516.373267	0.160124
516.590440	0.159913
516.807594	0.159987
517.024731	0.161263
517.241850	0.161324
517.458950	0.162174
517.676032	0.161742
517.893095	0.161603
518.110141	0.161571
518.327168	0.163261
518.544177	0.163005
518.761168	0.163046
518.978141	0.161999
519.195095	0.162047
519.412031	0.161770
519.628949	0.162073
519.845849	0.162783
520.062731	0.162760
520.279594	0.162911
520.496439	0.164196
520.713266	0.164550
520.930074	0.165251
521.146865	0.166076
521.363637	0.167072
521.580391	0.167181
521.797127	0.167629
522.013844	0.169059
522.230543	0.168778
522.447224	0.167873
522.663887	0.168673
522.880532	0.168771
523.097158	0.168564
523.313766	0.168876
523.530356	0.169295
523.746928	0.169160
523.963481	0.168272
524.180017	0.168728
524.396534	0.170693
524.613032	0.171051
524.829513	0.172367
525.045975	0.172301
525.262420	0.172349
525.478845	0.172685
525.695253	0.173427
525.911643	0.174048
526.128014	0.174557
526.344367	0.174061
526.560702	0.174566
526.777018	0.174394
526.993316	0.175310
527.209597	0.176117
527.425858	0.175982
527.642102	0.176356
527.858328	0.177060
528.074535	0.177018
528.290724	0.177505
528.506894	0.177487
528.723047	0.177605
528.939181	0.177944
529.155297	0.177498
529.371395	0.177439
529.587475	0.177603
529.803536	0.177700
530.019579	0.178440
530.235604	0.178103
530.451611	0.178860
530.667600	0.179329
530.883570	0.179301
531.099522	0.179844
531.315456	0.181151
531.531372	0.181285
531.747269	0.181223
531.963148	0.181272
532.179009	0.181567
532.394852	0.181327
532.610676	0.181810
532.826482	0.182528
533.042271	0.183357
533.258040	0.183437
533.473792	0.184291
533.689525	0.184860
533.905240	0.184549
534.120937	0.185156
534.336616	0.185546
534.552277	0.185905
534.767919	0.185993
534.983543	0.186230
535.199149	0.187041
535.414736	0.187249
535.630306	0.187471
535.845857	0.188302
536.061390	0.188988
536.276904	0.189075
536.492401	0.189014
536.707879	0.189858
536.923339	0.190177
537.138781	0.189843
537.354204	0.190367
537.569610	0.190964
537.784997	0.191533
538.000366	0.191694
538.215716	0.192454
538.431049	0.193077
538.646363	0.193500
538.861659	0.193335
539.076937	0.193589
539.292196	0.193683
539.507438	0.193831
539.722661	0.193982
539.937866	0.194739
540.153052	0.194949
540.368221	0.195540
540.583371	0.195470
540.798503	0.196630
541.013617	0.196877
541.228712	0.196768
541.443789	0.197295
541.658848	0.197776
541.873889	0.197864
542.088912	0.198574
542.303916	0.198984
542.518902	0.199243
542.733870	0.199065
542.948820	0.200007
543.163752	0.200442
543.378665	0.200922
543.593560	0.201131
543.808437	0.201725
544.023295	0.201807
544.238136	0.201983
544.452958	0.202778
544.667762	0.202846
544.882548	0.203064
545.097315	0.203360
545.312064	0.203104
545.526795	0.203248
545.741508	0.203172
545.956203	0.203160
546.170879	0.202889
546.385537	0.202755
546.600177	0.203284
546.814799	0.203564
547.029402	0.203974
547.243988	0.204511
547.458555	0.204761
547.673103	0.205072
547.887634	0.205934
548.102146	0.206292
548.316640	0.206667
548.531116	0.206722
548.745574	0.206832
548.960013	0.206765
549.174435	0.207151
549.388838	0.207681
549.603222	0.208115
549.817589	0.208076
550.031937	0.208843
550.246267	0.209541
550.460579	0.210108
550.674873	0.210209
550.889148	0.211056
551.103405	0.211702
551.317644	0.212250
551.531865	0.212740
551.746068	0.212775
551.960252	0.213079
552.174418	0.213312
552.388566	0.213611
552.602696	0.213954
552.816807	0.213932
553.030900	0.213866
553.244975	0.214022
553.459032	0.213791
553.673070	0.214442
553.887091	0.214069
554.101093	0.213892
554.315077	0.213836
554.529042	0.214446
554.742990	0.215003
554.956919	0.215147
555.170830	0.215142
555.384722	0.215433
555.598597	0.215219
555.812453	0.215532
556.026291	0.216215
556.240111	0.216571
556.453913	0.216489
556.667696	0.216390
556.881461	0.216135
557.095208	0.216667
557.308937	0.217058
557.522647	0.217245
557.736339	0.217535
557.950013	0.217204
558.163669	0.217352
558.377307	0.218389
558.590926	0.219151
558.804527	0.219603
559.018110	0.219935
559.231675	0.220356
559.445221	0.220967
559.658749	0.221363
559.872259	0.221887
560.085751	0.222148
560.299225	0.221589
560.512680	0.221414
560.726117	0.222387
560.939536	0.222547
561.152937	0.222426
561.366319	0.222421
561.579683	0.222281
561.793029	0.222447
562.006357	0.222804
562.219667	0.223226
562.432958	0.223324
562.646231	0.223266
562.859486	0.223187
563.072723	0.223095
563.285941	0.223369
563.499141	0.223770
563.712323	0.223915
563.925487	0.223873
564.138632	0.223933
564.351760	0.224191
564.564869	0.224457
564.777960	0.224395
564.991032	0.225115
565.204087	0.225403
565.417123	0.225777
565.630141	0.225953
565.843140	0.226435
566.056122	0.226902
566.269085	0.226798
566.482030	0.226537
566.694957	0.227092
566.907866	0.227361
567.120756	0.227585
567.333628	0.227777
567.546482	0.227805
567.759318	0.227781
567.972135	0.227209
568.184935	0.227759
568.397716	0.228528
568.610478	0.228403
568.823223	0.228369
569.035949	0.228121
569.248657	0.228702
569.461347	0.228982
569.674019	0.229349
569.886672	0.230005
570.099308	0.230409
570.311925	0.230375
570.524523	0.230785
570.737104	0.230546
570.949666	0.231216
571.162210	0.230920
571.374736	0.231195
571.587244	0.230953
571.799733	0.230987
572.012205	0.230689
572.224658	0.230623
572.437092	0.230819
572.649509	0.231372
572.861907	0.231356
573.074287	0.231253
573.286649	0.231480
573.498993	0.232059
573.711318	0.232553
573.923625	0.233242
574.135914	0.233724
574.348185	0.233556
574.560438	0.233731
574.772672	0.233942
574.984888	0.234552
575.197086	0.234833
575.409266	0.234919
575.621427	0.235251
575.833570	0.234684
576.045695	0.234472
576.257802	0.235169
576.469890	0.235363
576.681961	0.235880
576.894013	0.236031
577.106046	0.235994
577.318062	0.236261
577.530059	0.236051
577.742039	0.237030
577.954000	0.237344
578.165942	0.237268
578.377867	0.237373
578.589773	0.237620
578.801661	0.237564
579.013531	0.237825
579.225382	0.238031
579.437216	0.238445
579.649031	0.238152
579.860828	0.238288
580.072606	0.238759
580.284367	0.239087
580.496109	0.238613
580.707833	0.238881
580.919539	0.239226
581.131227	0.239480
581.342896	0.239585
581.554547	0.239821
581.766180	0.240101
581.977795	0.239861
582.189391	0.239680
582.400969	0.240037
582.612529	0.240375
582.824071	0.241009
583.035595	0.241052
583.247100	0.241119
583.458587	0.241827
583.670056	0.242252
583.881506	0.242558
584.092939	0.243137
584.304353	0.243257
584.515749	0.243401
584.727127	0.243140
584.938486	0.243532
585.149828	0.243940
585.361151	0.243662
585.572456	0.243921
585.783742	0.244281
585.995011	0.244399
586.206261	0.244857
586.417493	0.244948
586.628706	0.244957
586.839902	0.245095
587.051079	0.245053
587.262238	0.245426
587.473379	0.245916
587.684502	0.246029
587.895606	0.246208
588.106692	0.246312
588.317760	0.246623
588.528810	0.246964
588.739841	0.247106
588.950855	0.247690
589.161850	0.247622
589.372827	0.247274
589.583785	0.247787
589.794726	0.248290
590.005648	0.248661
590.216552	0.248920
590.427437	0.248833
590.638305	0.249181
590.849154	0.249314
591.059985	0.249981
591.270798	0.250337
591.481592	0.250330
591.692369	0.250362
591.903127	0.250641
592.113867	0.250681
592.324588	0.250881
592.535292	0.251075
592.745977	0.250815
592.956644	0.250704
593.167293	0.250638
593.377923	0.250833
593.588536	0.251143
593.799130	0.251071
594.009706	0.251260
594.220263	0.251526
594.430803	0.251508
594.641324	0.252103
594.851827	0.252460
595.062312	0.252425
595.272778	0.252558
595.483227	0.252554
595.693657	0.252628
595.904069	0.252842
596.114462	0.253400
596.324838	0.253488
596.535195	0.253705
596.745534	0.253910
596.955855	0.254542
597.166157	0.254633
597.376441	0.254581
597.586707	0.254907
597.796955	0.254924
598.007185	0.254779
598.217396	0.254896
598.427589	0.254981
598.637764	0.254971
598.847921	0.254995
599.058060	0.255326
599.268180	0.255455
599.478282	0.255840
599.688366	0.256163
599.898431	0.256076
600.108479	0.256466
600.318508	0.256531
600.528519	0.256606
600.738511	0.256853
600.948486	0.256956
601.158442	0.257450
601.368380	0.257065
601.578300	0.257637
601.788202	0.257904
601.998085	0.258001
602.207950	0.258107
602.417797	0.258450
602.627626	0.258536
602.837436	0.258855
603.047228	0.259125
603.257002	0.259743
603.466758	0.259735
603.676496	0.260259
603.886215	0.260423
604.095916	0.260999
604.305599	0.260831
604.515264	0.260955
604.724910	0.260914
604.934538	0.260898
605.144148	0.260788
605.353740	0.260604
605.563314	0.260477
605.772869	0.260600
605.982406	0.260689
606.191925	0.261101
606.401425	0.261188
606.610908	0.261454
606.820372	0.261876
607.029818	0.262357
607.239246	0.262864
607.448655	0.263477
607.658047	0.263662
607.867420	0.263791
608.076775	0.264198
608.286111	0.264776
608.495430	0.264949
608.704730	0.265001
608.914012	0.264955
609.123275	0.265325
609.332521	0.265171
609.541748	0.265405
609.750957	0.265521
609.960148	0.265475
610.169321	0.265550
610.378475	0.265733
610.587611	0.265723
610.796729	0.266273
611.005829	0.266262
611.214910	0.266395
611.423974	0.266801
611.633019	0.267110
611.842045	0.267113
612.051054	0.267368
612.260044	0.267698
612.469017	0.267773
612.677970	0.267573
612.886906	0.267867
613.095824	0.268212
613.304723	0.268157
613.513604	0.268025
613.722467	0.268238
613.931311	0.268103
614.140138	0.268142
614.348946	0.268325
614.557736	0.268804
614.766507	0.268547
614.975261	0.268652
615.183996	0.268671
615.392713	0.268781
615.601412	0.268874
615.810092	0.269290
616.018754	0.269632
616.227399	0.270031
616.436024	0.269840
616.644632	0.270318
616.853222	0.270219
617.061793	0.270946
617.270346	0.271054
617.478880	0.271512
617.687397	0.271334
617.895895	0.271294
618.104375	0.271333
618.312837	0.271726
618.521281	0.271751
618.729706	0.272186
618.938113	0.271921
619.146502	0.272130
619.354873	0.272464
619.563226	0.272690
619.771560	0.273041
619.979876	0.273057
620.188174	0.273163
620.396453	0.273261
620.604715	0.273213
620.812958	0.273476
621.021183	0.273710
621.229390	0.273637
621.437578	0.273674
621.645748	0.273519
621.853900	0.274194
622.062034	0.274658
622.270150	0.274763
622.478247	0.275118
622.686326	0.274982
622.894387	0.275271
623.102430	0.275325
623.310454	0.275985
623.518461	0.276217
623.726449	0.276240
623.934418	0.276060
624.142370	0.276167
624.350303	0.276000
624.558218	0.276438
624.766115	0.276286
624.973994	0.276547
625.181855	0.276358
625.389697	0.276558
625.597521	0.276399
625.805327	0.276661
626.013114	0.277058
626.220883	0.277607
626.428634	0.277672
626.636367	0.278277
626.844082	0.278460
627.051778	0.278661
627.259457	0.278735
627.467117	0.279061
627.674758	0.278977
627.882382	0.279394
628.089987	0.279735
628.297574	0.279869
628.505143	0.279832
628.712694	0.280069
628.920226	0.280504
629.127740	0.280809
629.335236	0.280827
629.542714	0.281312
629.750174	0.281187
629.957615	0.281320
630.165038	0.281581
630.372443	0.281859
630.579829	0.281923
630.787198	0.281987
630.994548	0.282140
631.201880	0.282886
631.409194	0.283070
631.616489	0.283234
631.823766	0.283107
632.031025	0.283205
632.238266	0.283338
632.445489	0.283612
632.652693	0.283682
632.859879	0.283804
633.067047	0.283601
633.274197	0.283566
633.481329	0.283483
633.688442	0.283772
633.895537	0.284241
634.102614	0.284328
634.309672	0.284544
634.516713	0.285081
634.723735	0.285429
634.930739	0.285680
635.137724	0.285702
635.344692	0.286418
635.551641	0.286558
635.758572	0.286407
635.965485	0.286601
636.172379	0.286412
636.379256	0.286192
636.586114	0.286091
636.792954	0.286109
636.999775	0.286509
637.206579	0.286448
637.413364	0.286855
637.620131	0.287118
637.826880	0.287415
638.033610	0.287748
638.240323	0.288174
638.447017	0.288604
638.653692	0.288777
638.860350	0.288683
639.066990	0.288700
639.273611	0.288611
639.480214	0.288930
639.686798	0.289052
639.893365	0.289512
640.099913	0.289648
640.306443	0.289745
640.512955	0.289873
640.719449	0.290183
640.925924	0.290674
641.132381	0.290978
641.338820	0.291078
641.545241	0.291347
641.751644	0.291495
641.958028	0.291486
642.164394	0.291873
642.370742	0.292311
642.577071	0.292712
642.783383	0.292871
642.989676	0.292928
643.195951	0.293244
643.402207	0.293240
643.608446	0.293240
643.814666	0.293542
644.020868	0.293456
644.227052	0.293455
644.433218	0.293641
644.639365	0.293906
644.845494	0.294186
645.051605	0.294454
645.257698	0.294963
645.463772	0.295174
645.669828	0.295208
645.875866	0.295313
646.081886	0.295611
646.287888	0.295635
646.493871	0.295435
646.699836	0.295704
646.905783	0.295591
647.111712	0.295652
647.317622	0.295951
647.523514	0.296482
647.729388	0.296773
647.935244	0.297026
648.141082	0.297452
648.346901	0.297844
648.552702	0.298063
648.758485	0.298328
648.964250	0.298422
649.169996	0.298555
649.375724	0.298789
649.581434	0.299181
649.787126	0.299270
649.992800	0.299417
650.198455	0.299764
650.404092	0.299976
650.609711	0.300359
650.815311	0.300550
651.020894	0.300530
651.226458	0.300311
651.432004	0.300419
651.637532	0.300492
651.843041	0.300699
652.048532	0.300675
652.254006	0.300812
652.459460	0.300854
652.664897	0.301134
652.870315	0.301187
653.075716	0.301496
653.281097	0.301522
653.486461	0.301822
653.691807	0.302325
653.897134	0.302355
654.102443	0.302721
654.307734	0.302893
654.513006	0.303081
654.718261	0.303757
654.923497	0.304295
655.128715	0.304818
655.333915	0.305035
655.539096	0.304722
655.744259	0.305298
655.949404	0.305303
656.154531	0.305360
656.359640	0.305457
656.564730	0.305621
656.769802	0.305636
656.974856	0.305650
657.179892	0.305741
657.384909	0.306001
657.589908	0.306247
657.794889	0.306450
657.999852	0.306833
658.204797	0.307134
658.409723	0.307184
658.614631	0.307344
658.819521	0.307377
659.024393	0.307801
659.229246	0.308187
659.434081	0.308289
659.638898	0.308385
659.843697	0.308560
660.048478	0.308912
660.253240	0.309373
660.457984	0.309531
660.662710	0.310009
660.867417	0.310072
661.072107	0.310195
661.276778	0.310677
661.481431	0.311109
661.686066	0.311509
661.890682	0.311697
662.095281	0.312115
662.299861	0.312389
662.504422	0.312649
662.708966	0.313093
662.913491	0.313553
663.117999	0.313563
663.322488	0.313879
663.526958	0.314289
663.731411	0.314410
663.935845	0.314135
664.140261	0.314639
664.344659	0.314822
664.549038	0.314830
664.753400	0.314743
664.957743	0.314956
665.162068	0.314790
665.366375	0.314658
665.570663	0.314989
665.774933	0.315505
665.979185	0.315276
666.183419	0.315461
666.387635	0.315862
666.591832	0.316367
666.796011	0.316568
667.000172	0.317077
667.204315	0.317433
667.408439	0.317878
667.612545	0.318157
667.816634	0.318706
668.020703	0.319224
668.224755	0.319469
668.428788	0.319673
668.632803	0.320044
668.836800	0.320401
669.040779	0.320921
669.244739	0.321207
669.448681	0.321336
669.652605	0.321621
669.856511	0.321695
670.060399	0.321921
670.264268	0.322148
670.468119	0.322426
670.671952	0.322633
670.875767	0.322506
671.079563	0.322304
671.283341	0.322597
671.487101	0.323013
671.690843	0.323353
671.894567	0.323467
672.098272	0.323748
672.301959	0.324089
672.505628	0.324159
672.709278	0.324268
672.912911	0.324668
673.116525	0.324873
673.320121	0.324783
673.523699	0.324915
673.727258	0.325483
673.930799	0.325817
674.134322	0.326041
674.337827	0.326465
674.541314	0.326869
674.744782	0.326977
674.948232	0.327282
675.151664	0.327448
675.355078	0.327572
675.558474	0.327282
675.761851	0.327384
675.965210	0.327553
676.168551	0.327642
676.371873	0.327816
676.575178	0.328325
676.778464	0.328601
676.981732	0.328958
677.184981	0.329050
677.388213	0.329707
677.591426	0.330065
677.794621	0.330263
677.997798	0.330927
678.200956	0.331381
678.404097	0.331732
678.607219	0.331935
678.810323	0.332052
679.013408	0.332462
679.216476	0.332857
679.419525	0.332848
679.622556	0.333065
679.825569	0.332953
680.028563	0.333078
680.231540	0.333030
680.434498	0.333404
680.637438	0.333711
680.840359	0.333980
681.043263	0.334261
681.246148	0.334618
681.449015	0.334827
681.651864	0.335163
681.854694	0.335528
682.057506	0.335723
682.260301	0.335667
682.463076	0.335902
682.665834	0.336224
682.868573	0.336237
683.071295	0.336517
683.273998	0.336868
683.476682	0.337210
683.679349	0.337417
683.881997	0.337652
684.084627	0.338021
684.287239	0.338245
684.489833	0.338288
684.692408	0.338371
684.894965	0.338459
685.097504	0.338628
685.300025	0.338810
685.502527	0.338787
685.705012	0.339003
685.907478	0.339131
686.109925	0.339434
686.312355	0.339562
686.514766	0.339636
686.717159	0.339810
686.919534	0.339953
687.121891	0.339763
687.324230	0.340296
687.526550	0.340611
687.728852	0.340866
687.931136	0.340930
688.133401	0.341358
688.335649	0.341515
688.537878	0.341989
688.740089	0.342027
688.942281	0.342417
689.144456	0.342466
689.346612	0.342365
689.548750	0.342566
689.750870	0.342881
689.952971	0.342991
690.155055	0.343560
690.357120	0.343509
690.559167	0.343883
690.761195	0.344102
690.963206	0.344205
691.165198	0.344524
691.367172	0.344700
691.569128	0.344880
691.771065	0.345076
691.972984	0.345280
692.174885	0.345912
692.376768	0.346024
692.578633	0.346168
692.780479	0.346390
692.982308	0.346687
693.184118	0.346983
693.385909	0.347144
