sample name	sample
index	482
start time	 03-11-2021  01:13:51 PM


Wavelength (nm)	Absorbance
494.344910	0.157491
494.563924	0.157491
494.782919	0.157491
495.001897	0.059950
495.220856	0.076398
495.439797	0.075140
495.658719	0.062686
495.877624	0.016888
496.096510	0.023426
496.315378	0.087185
496.534227	0.063767
496.753059	0.087883
496.971872	0.081241
497.190667	0.163499
497.409444	0.170164
497.628203	0.170157
497.846943	0.172606
498.065665	0.173617
498.284369	0.173119
498.503055	0.174228
498.721723	0.173453
498.940372	0.174565
499.159003	0.173192
499.377616	0.172796
499.596210	0.174441
499.814787	0.176283
500.033345	0.177583
500.251885	0.178169
500.470406	0.178980
500.688910	0.178858
500.907395	0.178482
501.125862	0.179880
501.344311	0.181482
501.562742	0.180602
501.781154	0.179058
501.999548	0.177590
502.217924	0.178152
502.436282	0.177522
502.654621	0.178400
502.872942	0.178869
503.091245	0.178814
503.309530	0.178920
503.527797	0.179818
503.746045	0.180358
503.964275	0.180823
504.182487	0.180867
504.400681	0.181685
504.618856	0.182476
504.837013	0.182340
505.055152	0.181846
505.273273	0.181926
505.491376	0.181438
505.709460	0.181871
505.927526	0.181533
506.145574	0.182029
506.363604	0.181848
506.581615	0.181301
506.799608	0.181169
507.017583	0.181381
507.235540	0.180888
507.453478	0.180978
507.671399	0.180953
507.889301	0.181943
508.107185	0.181735
508.325050	0.181636
508.542898	0.182413
508.760727	0.182774
508.978538	0.183727
509.196330	0.183173
509.414105	0.183552
509.631861	0.183324
509.849599	0.183530
510.067319	0.183805
510.285021	0.184287
510.502704	0.184406
510.720369	0.183716
510.938016	0.183635
511.155645	0.184716
511.373255	0.185677
511.590848	0.186688
511.808422	0.186523
512.025977	0.186934
512.243515	0.186189
512.461034	0.186637
512.678536	0.187160
512.896018	0.187938
513.113483	0.188379
513.330930	0.187545
513.548358	0.187869
513.765768	0.188731
513.983160	0.188648
514.200533	0.189525
514.417889	0.188982
514.635226	0.189554
514.852545	0.188879
515.069845	0.188361
515.287128	0.189021
515.504392	0.189106
515.721638	0.188718
515.938866	0.189307
516.156075	0.189402
516.373267	0.189955
516.590440	0.190282
516.807594	0.190657
517.024731	0.191675
517.241850	0.192362
517.458950	0.192733
517.676032	0.193177
517.893095	0.192507
518.110141	0.192691
518.327168	0.193256
518.544177	0.193456
518.761168	0.193438
518.978141	0.193036
519.195095	0.193103
519.412031	0.193200
519.628949	0.192516
519.845849	0.193714
520.062731	0.194679
520.279594	0.194259
520.496439	0.193897
520.713266	0.194115
520.930074	0.195094
521.146865	0.195331
521.363637	0.195726
521.580391	0.197071
521.797127	0.197289
522.013844	0.197315
522.230543	0.198258
522.447224	0.199060
522.663887	0.199573
522.880532	0.198950
523.097158	0.199044
523.313766	0.198742
523.530356	0.198658
523.746928	0.198817
523.963481	0.199120
524.180017	0.199192
524.396534	0.199904
524.613032	0.200337
524.829513	0.200728
525.045975	0.201251
525.262420	0.201978
525.478845	0.202280
525.695253	0.202561
525.911643	0.202750
526.128014	0.202952
526.344367	0.202981
526.560702	0.203577
526.777018	0.204103
526.993316	0.204401
527.209597	0.204203
527.425858	0.204336
527.642102	0.204942
527.858328	0.205465
528.074535	0.206215
528.290724	0.206434
528.506894	0.205931
528.723047	0.206261
528.939181	0.206355
529.155297	0.207132
529.371395	0.207662
529.587475	0.207358
529.803536	0.206875
530.019579	0.206963
530.235604	0.207417
530.451611	0.208900
530.667600	0.209884
530.883570	0.210366
531.099522	0.210453
531.315456	0.210638
531.531372	0.210890
531.747269	0.211543
531.963148	0.212017
532.179009	0.212092
532.394852	0.211618
532.610676	0.211211
532.826482	0.210985
533.042271	0.211046
533.258040	0.211671
533.473792	0.212202
533.689525	0.212738
533.905240	0.212885
534.120937	0.213352
534.336616	0.213551
534.552277	0.214079
534.767919	0.215207
534.983543	0.215977
535.199149	0.216653
535.414736	0.216842
535.630306	0.217141
535.845857	0.217450
536.061390	0.217956
536.276904	0.218093
536.492401	0.218377
536.707879	0.218352
536.923339	0.218347
537.138781	0.218254
537.354204	0.218933
537.569610	0.219025
537.784997	0.219148
538.000366	0.219008
538.215716	0.220285
538.431049	0.220422
538.646363	0.220258
538.861659	0.220984
539.076937	0.221118
539.292196	0.220655
539.507438	0.221043
539.722661	0.221856
539.937866	0.222152
540.153052	0.221501
540.368221	0.222426
540.583371	0.223203
540.798503	0.223684
541.013617	0.224028
541.228712	0.224691
541.443789	0.225396
541.658848	0.225377
541.873889	0.225955
542.088912	0.227049
542.303916	0.227040
542.518902	0.227245
542.733870	0.227246
542.948820	0.227490
543.163752	0.228329
543.378665	0.228279
543.593560	0.228581
543.808437	0.228993
544.023295	0.228733
544.238136	0.229001
544.452958	0.229308
544.667762	0.229846
544.882548	0.230411
545.097315	0.229965
545.312064	0.229704
545.526795	0.229993
545.741508	0.229752
545.956203	0.230064
546.170879	0.230522
546.385537	0.231062
546.600177	0.230999
546.814799	0.230652
547.029402	0.231216
547.243988	0.232197
547.458555	0.232405
547.673103	0.232742
547.887634	0.233624
548.102146	0.233552
548.316640	0.233880
548.531116	0.234336
548.745574	0.234995
548.960013	0.235509
549.174435	0.236087
549.388838	0.236258
549.603222	0.236674
549.817589	0.236589
550.031937	0.236628
550.246267	0.236739
550.460579	0.236678
550.674873	0.237292
550.889148	0.237526
551.103405	0.237436
551.317644	0.238013
551.531865	0.238131
551.746068	0.238452
551.960252	0.238909
552.174418	0.238902
552.388566	0.239103
552.602696	0.238888
552.816807	0.239287
553.030900	0.239770
553.244975	0.239896
553.459032	0.240062
553.673070	0.239918
553.887091	0.240086
554.101093	0.240628
554.315077	0.241033
554.529042	0.241671
554.742990	0.241508
554.956919	0.241547
555.170830	0.241538
555.384722	0.242109
555.598597	0.242292
555.812453	0.242467
556.026291	0.241930
556.240111	0.241916
556.453913	0.241762
556.667696	0.242191
556.881461	0.242171
557.095208	0.242584
557.308937	0.242980
557.522647	0.243723
557.736339	0.244276
557.950013	0.245089
558.163669	0.245758
558.377307	0.245929
558.590926	0.246119
558.804527	0.246388
559.018110	0.246329
559.231675	0.246543
559.445221	0.246215
559.658749	0.246229
559.872259	0.246465
560.085751	0.246419
560.299225	0.246913
560.512680	0.247029
560.726117	0.247565
560.939536	0.248497
561.152937	0.248499
561.366319	0.249063
561.579683	0.249071
561.793029	0.249632
562.006357	0.250054
562.219667	0.250020
562.432958	0.250258
562.646231	0.250435
562.859486	0.249933
563.072723	0.250483
563.285941	0.250716
563.499141	0.251100
563.712323	0.251059
563.925487	0.251386
564.138632	0.251801
564.351760	0.252299
564.564869	0.252348
564.777960	0.252820
564.991032	0.252919
565.204087	0.253100
565.417123	0.253868
565.630141	0.253713
565.843140	0.253587
566.056122	0.253492
566.269085	0.253324
566.482030	0.253705
566.694957	0.253632
566.907866	0.253902
567.120756	0.253666
567.333628	0.253438
567.546482	0.253856
567.759318	0.254094
567.972135	0.254587
568.184935	0.254610
568.397716	0.254516
568.610478	0.254957
568.823223	0.255029
569.035949	0.255732
569.248657	0.255834
569.461347	0.255709
569.674019	0.255880
569.886672	0.255590
570.099308	0.256219
570.311925	0.256388
570.524523	0.256607
570.737104	0.256422
570.949666	0.256480
571.162210	0.256401
571.374736	0.256727
571.587244	0.256836
571.799733	0.257681
572.012205	0.257422
572.224658	0.257751
572.437092	0.257978
572.649509	0.258444
572.861907	0.258437
573.074287	0.258680
573.286649	0.259166
573.498993	0.259523
573.711318	0.259659
573.923625	0.260028
574.135914	0.260521
574.348185	0.260607
574.560438	0.260784
574.772672	0.260967
574.984888	0.261169
575.197086	0.261050
575.409266	0.261400
575.621427	0.261446
575.833570	0.261937
576.045695	0.261634
576.257802	0.261836
576.469890	0.262087
576.681961	0.262434
576.894013	0.262805
577.106046	0.262919
577.318062	0.262951
577.530059	0.262976
577.742039	0.263089
577.954000	0.263071
578.165942	0.263102
578.377867	0.263429
578.589773	0.263714
578.801661	0.264060
579.013531	0.264494
579.225382	0.264962
579.437216	0.265177
579.649031	0.265722
579.860828	0.266432
580.072606	0.266584
580.284367	0.266842
580.496109	0.266923
580.707833	0.267383
580.919539	0.267153
581.131227	0.266676
581.342896	0.266857
581.554547	0.266717
581.766180	0.266855
581.977795	0.267206
582.189391	0.267252
582.400969	0.267247
582.612529	0.267027
582.824071	0.267905
583.035595	0.268352
583.247100	0.268426
583.458587	0.268915
583.670056	0.268869
583.881506	0.268898
584.092939	0.269014
584.304353	0.269509
584.515749	0.270044
584.727127	0.269952
584.938486	0.270412
585.149828	0.270902
585.361151	0.270851
585.572456	0.271088
585.783742	0.271692
585.995011	0.271841
586.206261	0.272223
586.417493	0.272138
586.628706	0.272048
586.839902	0.272012
587.051079	0.272065
587.262238	0.272273
587.473379	0.272636
587.684502	0.272496
587.895606	0.272809
588.106692	0.272975
588.317760	0.272999
588.528810	0.273743
588.739841	0.273800
588.950855	0.274139
589.161850	0.274041
589.372827	0.274484
589.583785	0.275207
589.794726	0.275383
590.005648	0.275240
590.216552	0.275534
590.427437	0.275818
590.638305	0.276295
590.849154	0.276411
591.059985	0.276799
591.270798	0.276646
591.481592	0.276379
591.692369	0.276847
591.903127	0.277610
592.113867	0.278043
592.324588	0.278461
592.535292	0.278785
592.745977	0.278856
592.956644	0.279078
593.167293	0.279453
593.377923	0.279423
593.588536	0.279471
593.799130	0.279353
594.009706	0.279569
594.220263	0.279116
594.430803	0.279197
594.641324	0.279446
594.851827	0.279677
595.062312	0.279905
595.272778	0.280628
595.483227	0.280708
595.693657	0.280859
595.904069	0.281081
596.114462	0.281299
596.324838	0.281339
596.535195	0.281800
596.745534	0.281956
596.955855	0.281895
597.166157	0.281949
597.376441	0.282296
597.586707	0.282477
597.796955	0.282483
598.007185	0.282853
598.217396	0.283189
598.427589	0.283066
598.637764	0.283050
598.847921	0.283516
599.058060	0.283581
599.268180	0.283635
599.478282	0.283964
599.688366	0.284501
599.898431	0.284657
600.108479	0.284867
600.318508	0.285135
600.528519	0.285626
600.738511	0.285681
600.948486	0.286127
601.158442	0.286537
601.368380	0.286751
601.578300	0.286222
601.788202	0.286183
601.998085	0.286206
602.207950	0.286285
602.417797	0.286334
602.627626	0.286563
602.837436	0.286781
603.047228	0.286994
603.257002	0.287099
603.466758	0.287791
603.676496	0.288325
603.886215	0.288522
604.095916	0.289201
604.305599	0.289453
604.515264	0.289550
604.724910	0.289284
604.934538	0.289111
605.144148	0.289153
605.353740	0.289274
605.563314	0.289241
605.772869	0.289608
605.982406	0.289428
606.191925	0.289491
606.401425	0.289683
606.610908	0.290102
606.820372	0.290427
607.029818	0.290445
607.239246	0.290474
607.448655	0.290639
607.658047	0.290783
607.867420	0.290825
608.076775	0.290835
608.286111	0.291114
608.495430	0.291246
608.704730	0.291459
608.914012	0.291809
609.123275	0.292089
609.332521	0.292356
609.541748	0.292429
609.750957	0.292710
609.960148	0.293100
610.169321	0.293333
610.378475	0.293564
610.587611	0.293435
610.796729	0.293684
611.005829	0.293745
611.214910	0.294144
611.423974	0.294111
611.633019	0.294400
611.842045	0.294694
612.051054	0.295013
612.260044	0.295288
612.469017	0.295734
612.677970	0.295849
612.886906	0.296021
613.095824	0.296025
613.304723	0.296411
613.513604	0.296551
613.722467	0.296692
613.931311	0.296326
614.140138	0.296381
614.348946	0.296408
614.557736	0.296420
614.766507	0.296632
614.975261	0.297014
615.183996	0.297291
615.392713	0.297205
615.601412	0.296982
615.810092	0.297238
616.018754	0.297541
616.227399	0.297619
616.436024	0.297938
616.644632	0.298039
616.853222	0.297873
617.061793	0.298007
617.270346	0.298456
617.478880	0.299119
617.687397	0.299460
617.895895	0.299454
618.104375	0.299656
618.312837	0.300048
618.521281	0.300587
618.729706	0.300960
618.938113	0.301294
619.146502	0.301474
619.354873	0.301310
619.563226	0.301475
619.771560	0.301722
619.979876	0.302092
620.188174	0.302108
620.396453	0.301993
620.604715	0.301866
620.812958	0.301807
621.021183	0.302175
621.229390	0.302426
621.437578	0.302290
621.645748	0.302420
621.853900	0.302534
622.062034	0.302896
622.270150	0.303071
622.478247	0.303282
622.686326	0.303489
622.894387	0.303453
623.102430	0.303731
623.310454	0.304265
623.518461	0.304517
623.726449	0.304527
623.934418	0.304488
624.142370	0.304761
624.350303	0.305116
624.558218	0.305279
624.766115	0.305447
624.973994	0.305315
625.181855	0.305640
625.389697	0.305565
625.597521	0.305873
625.805327	0.306056
626.013114	0.306119
626.220883	0.306255
626.428634	0.306516
626.636367	0.306818
626.844082	0.307157
627.051778	0.307046
627.259457	0.307489
627.467117	0.307891
627.674758	0.308060
627.882382	0.308514
628.089987	0.308809
628.297574	0.308954
628.505143	0.308900
628.712694	0.308971
628.920226	0.309456
629.127740	0.309681
629.335236	0.309477
629.542714	0.309474
629.750174	0.309537
629.957615	0.309495
630.165038	0.309341
630.372443	0.309620
630.579829	0.310114
630.787198	0.309980
630.994548	0.310006
631.201880	0.310678
631.409194	0.311123
631.616489	0.310908
631.823766	0.311332
632.031025	0.311681
632.238266	0.312184
632.445489	0.312282
632.652693	0.312501
632.859879	0.312615
633.067047	0.312533
633.274197	0.312512
633.481329	0.312907
633.688442	0.313007
633.895537	0.313322
634.102614	0.313168
634.309672	0.313184
634.516713	0.313238
634.723735	0.313426
634.930739	0.313557
635.137724	0.314137
635.344692	0.314654
635.551641	0.314741
635.758572	0.314902
635.965485	0.315166
636.172379	0.315466
636.379256	0.315856
636.586114	0.316176
636.792954	0.316542
636.999775	0.316280
637.206579	0.316079
637.413364	0.316245
637.620131	0.316451
637.826880	0.316774
638.033610	0.316906
638.240323	0.317126
638.447017	0.317266
638.653692	0.317427
638.860350	0.317704
639.066990	0.317999
639.273611	0.318070
639.480214	0.318211
639.686798	0.318300
639.893365	0.318528
640.099913	0.318725
640.306443	0.319113
640.512955	0.318773
640.719449	0.319074
640.925924	0.319153
641.132381	0.319671
641.338820	0.319964
641.545241	0.320064
641.751644	0.320197
641.958028	0.320401
642.164394	0.320324
642.370742	0.321082
642.577071	0.321372
642.783383	0.321739
642.989676	0.321582
643.195951	0.321837
643.402207	0.322114
643.608446	0.322472
643.814666	0.322810
644.020868	0.323257
644.227052	0.323282
644.433218	0.323362
644.639365	0.323570
644.845494	0.324041
645.051605	0.324247
645.257698	0.324216
645.463772	0.324433
645.669828	0.324425
645.875866	0.324497
646.081886	0.324577
646.287888	0.324589
646.493871	0.324526
646.699836	0.324670
646.905783	0.324606
647.111712	0.324975
647.317622	0.324974
647.523514	0.325331
647.729388	0.325314
647.935244	0.325698
648.141082	0.326367
648.346901	0.326808
648.552702	0.326974
648.758485	0.327538
648.964250	0.327689
649.169996	0.328066
649.375724	0.328175
649.581434	0.328473
649.787126	0.328654
649.992800	0.328514
650.198455	0.328668
650.404092	0.328708
650.609711	0.328875
650.815311	0.328924
651.020894	0.328971
651.226458	0.329181
651.432004	0.329707
651.637532	0.329690
651.843041	0.329924
652.048532	0.329944
652.254006	0.330217
652.459460	0.330557
652.664897	0.330758
652.870315	0.330974
653.075716	0.331225
653.281097	0.331179
653.486461	0.331780
653.691807	0.331719
653.897134	0.332082
654.102443	0.332589
654.307734	0.332155
654.513006	0.332467
654.718261	0.332609
654.923497	0.332704
655.128715	0.333242
655.333915	0.333244
655.539096	0.333667
655.744259	0.333915
655.949404	0.333925
656.154531	0.334757
656.359640	0.334810
656.564730	0.335183
656.769802	0.335577
656.974856	0.335496
657.179892	0.335848
657.384909	0.336125
657.589908	0.336306
657.794889	0.336563
657.999852	0.336196
658.204797	0.336617
658.409723	0.336797
658.614631	0.336923
658.819521	0.337222
659.024393	0.337214
659.229246	0.337442
659.434081	0.337728
659.638898	0.337880
659.843697	0.338241
660.048478	0.338681
660.253240	0.338742
660.457984	0.339044
660.662710	0.339138
660.867417	0.339620
661.072107	0.340059
661.276778	0.340236
661.481431	0.340383
661.686066	0.340860
661.890682	0.340910
662.095281	0.341215
662.299861	0.341141
662.504422	0.341270
662.708966	0.341148
662.913491	0.341197
663.117999	0.341501
663.322488	0.341914
663.526958	0.341791
663.731411	0.341908
663.935845	0.342055
664.140261	0.342484
664.344659	0.342573
664.549038	0.342658
664.753400	0.343102
664.957743	0.343533
665.162068	0.343614
665.366375	0.343776
665.570663	0.344281
665.774933	0.344816
665.979185	0.344869
666.183419	0.345482
666.387635	0.345995
666.591832	0.345894
666.796011	0.345813
667.000172	0.346144
667.204315	0.346510
667.408439	0.346537
667.612545	0.346481
667.816634	0.346601
668.020703	0.346705
668.224755	0.346891
668.428788	0.347022
668.632803	0.347207
668.836800	0.347548
669.040779	0.347774
669.244739	0.347938
669.448681	0.348358
669.652605	0.348738
669.856511	0.348990
670.060399	0.349106
670.264268	0.349465
670.468119	0.349771
670.671952	0.349603
670.875767	0.349924
671.079563	0.350144
671.283341	0.350326
671.487101	0.350590
671.690843	0.350812
671.894567	0.350966
672.098272	0.351340
672.301959	0.351525
672.505628	0.351863
672.709278	0.352226
672.912911	0.352487
673.116525	0.352640
673.320121	0.352778
673.523699	0.352876
673.727258	0.353329
673.930799	0.353515
674.134322	0.353697
674.337827	0.354178
674.541314	0.354093
674.744782	0.354342
674.948232	0.354541
675.151664	0.355043
675.355078	0.355303
675.558474	0.355633
675.761851	0.355583
675.965210	0.356037
676.168551	0.355924
676.371873	0.356568
676.575178	0.356773
676.778464	0.357029
676.981732	0.356968
677.184981	0.357192
677.388213	0.357075
677.591426	0.357470
677.794621	0.357871
677.997798	0.358102
678.200956	0.358144
678.404097	0.358250
678.607219	0.358435
678.810323	0.358612
679.013408	0.358760
679.216476	0.359217
679.419525	0.359654
679.622556	0.359641
679.825569	0.359962
680.028563	0.360112
680.231540	0.360425
680.434498	0.360794
680.637438	0.361236
680.840359	0.361540
681.043263	0.361982
681.246148	0.361819
681.449015	0.361688
681.651864	0.361920
681.854694	0.362013
682.057506	0.362306
682.260301	0.362446
682.463076	0.362629
682.665834	0.362719
682.868573	0.362704
683.071295	0.362776
683.273998	0.363223
683.476682	0.363522
683.679349	0.363827
683.881997	0.364017
684.084627	0.364277
684.287239	0.364200
684.489833	0.364583
684.692408	0.364879
684.894965	0.365339
685.097504	0.365345
685.300025	0.365446
685.502527	0.365762
685.705012	0.365909
685.907478	0.366214
686.109925	0.366730
686.312355	0.366836
686.514766	0.367296
686.717159	0.367634
686.919534	0.368127
687.121891	0.368508
687.324230	0.368916
687.526550	0.369387
687.728852	0.369582
687.931136	0.369658
688.133401	0.370007
688.335649	0.369911
688.537878	0.370040
688.740089	0.370304
688.942281	0.370548
689.144456	0.370430
689.346612	0.370254
689.548750	0.370196
689.750870	0.370590
689.952971	0.370787
690.155055	0.371155
690.357120	0.371190
690.559167	0.371307
690.761195	0.371444
690.963206	0.371757
691.165198	0.372065
691.367172	0.372276
691.569128	0.372033
691.771065	0.372108
691.972984	0.372151
692.174885	0.372313
692.376768	0.372446
692.578633	0.372436
692.780479	0.372711
692.982308	0.372963
693.184118	0.373265
693.385909	0.373633
