sample name	sample
index	143
start time	 02-15-2021  02:01:59 PM
880	0.469690
Peak Time (s)	92.535
Peak Height 	0.4697
calc peak height	90,93
Baseline Time (s)	10.035
Baseline Value 	-0.005651
subtract baseline	10,4
Abs	0.309942
Peak Time (s)	92.035
Peak Height 	0.3099
calc peak height	90,93
Baseline Time (s)	8.537
Baseline Value 	0.01205
subtract baseline	10,3
PK_550	0.153850
Peak Time (s)	91.038
Peak Height 	0.1539
calc peak height	90,93
Baseline Time (s)	8.537
Baseline Value 	9.3343E-4
subtract baseline	10,2
PK_880	0.310791
Peak Time (s)	92.035
Peak Height 	0.3108
calc peak height	90,93
Baseline Time (s)	11.536
Baseline Value 	0.001713
subtract baseline	10,1


Time (s)	A880-A510	A880-A775	A880-A975	A880	I510	I775	I975	I880	
0.035000	0.001543	0.000097	-0.012225	0.002570	4133.865355	14229.141132	3243.835124	8225.998045
0.537500	-0.008595	-0.002025	-0.013868	0.003238	4106.691744	14157.695739	3242.481381	8217.996900
1.035500	-0.001456	-0.002045	0.008133	0.006372	4116.685740	14077.473636	3253.749240	8180.587908
1.537000	-0.000033	-0.000677	-0.007563	0.001048	4133.726517	14248.377488	3247.493928	8244.287279
2.035500	-0.000175	-0.003016	-0.008621	-0.001146	4138.964505	14244.655367	3248.171548	8270.773571
2.536000	0.000539	0.001379	-0.017497	0.001527	4133.964666	14289.070041	3241.362882	8238.530658
3.036500	-0.000464	-0.000365	-0.010326	0.004731	4123.303705	14161.949108	3243.681250	8200.132074
3.537000	-0.000605	-0.000927	-0.009643	0.001631	4130.791655	14226.992374	3245.912533	8237.281860
4.036500	0.000993	-0.000797	-0.005319	0.001051	4136.336766	14245.224810	3248.833090	8244.255453
4.540500	0.003246	-0.002393	-0.011027	-0.000881	4147.064971	14253.873493	3246.580927	8267.565231
5.035000	-0.001957	-0.001766	-0.008029	-0.000192	4131.987488	14252.289528	3247.955395	8259.242824
5.535000	0.003159	0.000765	-0.002959	0.002069	4139.270343	14259.233578	3249.638058	8232.015132
6.035000	0.003744	-0.000295	-0.001401	0.001624	4141.908557	14243.415551	3250.844244	8237.364973
6.535500	0.000147	-0.002148	-0.002652	-0.001385	4140.399178	14273.181810	3251.907143	8273.664591
7.035500	0.001051	-0.001226	0.002609	0.000049	4139.043558	14259.968678	3254.237078	8256.332764
7.536000	0.000312	0.000055	0.002384	-0.000110	4137.561305	14297.158069	3254.196281	8258.251276
8.037000	0.002643	0.002313	0.003491	0.002625	4136.531633	14284.833463	3253.203856	8225.345837
8.537000	-0.002807	0.000000	0.000000	0.000064	4129.181582	14291.242786	3252.637729	8256.157786
9.036000	0.001458	-0.000548	-0.004870	-0.000722	4142.062415	14297.388985	3250.167450	8265.651714
9.537000	-0.002095	-0.000606	0.008654	-0.000754	4133.065333	14296.721707	3258.456896	8266.032924
10.035000	0.000300	0.000328	-0.011786	0.000000	4137.249488	14301.368006	3245.608779	8256.925322
10.535500	-0.002706	-0.001701	-0.010397	-0.001686	4133.882747	14292.498716	3247.434196	8277.309009
11.039000	0.002820	0.000007	0.008009	0.000291	4142.958437	14285.559042	3257.409472	8253.414822
11.536000	0.000000	0.000672	0.002400	0.000468	4135.289109	14298.143165	3253.853297	8251.275789
12.341000	0.002439	0.001742	-0.010357	0.001530	4138.804174	14298.360513	3245.549203	8238.486650
12.731000	0.002258	0.000379	-0.028996	0.000697	4140.474180	14284.651345	3235.231613	8248.514930
13.037500	0.001880	0.001189	0.000165	-0.001032	4143.940726	14350.436742	3253.405137	8269.396148
13.537500	0.001772	0.000594	-0.001608	-0.000935	4143.413538	14332.480503	3252.267702	8268.222915
14.311000	0.002257	0.000692	-0.018545	0.002643	4135.498008	14242.577965	3240.107121	8225.121375
14.671000	-0.001172	0.000909	-0.014189	0.000546	4132.105771	14302.254700	3243.870361	8250.335619
15.038000	0.004667	0.000285	-0.018254	0.002955	4140.861839	14224.094818	3240.094503	8221.377690
15.538500	0.002068	0.001284	-0.018829	0.002657	4134.982925	14257.473647	3239.934690	8224.958579
16.060500	-0.002670	0.001398	0.004252	0.000373	4128.745997	14319.416420	3255.044903	8252.431546
16.536000	-0.000606	-0.000368	-0.001934	0.004302	4124.028033	14172.840208	3248.912807	8205.259438
17.036500	-0.003023	-0.001076	-0.008256	-0.002671	4135.584868	14334.165415	3249.303199	8289.258359
17.536500	0.000560	-0.000060	0.000249	-0.000428	4139.009516	14302.401533	3253.088524	8262.094617
18.037000	0.001830	-0.000442	-0.009778	-0.000105	4141.434878	14284.183141	3246.861994	8258.198034
18.537500	0.000953	0.000024	0.001910	0.000985	4136.402676	14268.089538	3253.239093	8245.050332
19.037500	0.004182	0.000466	-0.006883	0.000518	4145.874524	14291.553793	3248.216252	8250.677846
19.535500	0.004888	0.001423	0.003897	0.002357	4142.962291	14268.797703	3253.614077	8228.561846
20.035500	0.000726	-0.000353	-0.006358	0.001251	4135.142613	14251.503341	3248.091607	8241.844429
20.535500	0.001483	0.000585	-0.017991	0.000575	4138.804174	14293.136916	3241.629076	8249.987435
21.035500	0.000847	0.001265	-0.013283	0.001664	4134.401486	14282.588519	3243.746095	8236.881969
21.535500	0.003514	0.001307	-0.013824	0.001908	4140.589055	14277.365068	3243.285075	8233.943482
22.036500	0.000756	0.000034	-0.023901	0.000639	4136.781145	14277.249290	3238.173808	8249.215538
22.539500	0.002091	0.000659	0.006051	0.001018	4139.224838	14283.615528	3255.753249	8244.652396
23.036500	-0.000478	-0.000041	-0.005482	0.001507	4131.428728	14252.955048	3248.462305	8238.769678
23.540000	0.001929	0.001392	-0.002564	0.001888	4136.587859	14280.073986	3249.984502	8234.189001
24.037500	0.003756	0.000624	0.008316	0.000934	4143.707173	14284.871732	3257.201203	8245.659135
24.535000	0.005548	0.001711	0.011544	0.002871	4143.337894	14262.959691	3258.001213	8222.393121
25.035500	0.007858	0.001800	-0.006375	0.001754	4152.173262	14294.074990	3247.781536	8235.797861
25.536000	-0.000501	-0.000674	-0.021772	0.000200	4134.697294	14270.328897	3239.653848	8254.511655
26.036000	0.000190	0.002091	-0.001335	0.001201	4133.908390	14315.925233	3251.139959	8242.456088
26.536000	-0.000954	0.000528	-0.002964	0.000524	4132.717498	14292.985560	3250.564520	8250.601050
27.036500	-0.001627	0.000136	-0.008144	0.000231	4131.752600	14290.439643	3247.634427	8254.138381
27.537000	0.001714	0.003264	0.012546	0.002930	4133.385302	14301.531355	3258.586653	8221.688274
28.040000	0.001982	0.002838	-0.013214	0.002667	4134.738106	14297.310652	3243.198301	8224.840753
28.583000	0.004862	0.000942	0.001277	-0.001707	4153.376456	14361.548467	3254.496283	8277.565297
29.034500	-0.005054	-0.000762	0.006638	0.001320	4120.334603	14239.215886	3255.928761	8241.018266
29.535000	0.004469	0.002103	-0.013880	-0.000050	4148.077844	14348.665751	3244.402524	8257.527267
30.035000	0.000908	0.000908	-0.005291	-0.000523	4140.143786	14329.946561	3249.794187	8263.246013
30.536000	0.000950	0.000981	-0.009357	-0.001211	4142.013105	14349.683862	3247.771173	8271.563157
31.036000	-0.000878	0.000171	0.014340	0.001330	4130.862359	14262.986937	3260.703964	8240.901341
31.536500	0.002077	-0.000077	-0.007289	-0.000894	4144.091126	14314.018652	3248.818063	8267.726103
32.037000	0.001705	0.001282	-0.003370	0.002396	4134.722394	14264.141206	3249.194855	8228.091115
32.537500	0.002702	0.000424	-0.030220	0.002130	4137.945109	14248.887111	3233.727767	8231.279812
33.040000	0.000900	0.001318	-0.022386	0.000660	4137.097112	14309.892560	3239.033928	8248.964122
33.534500	0.001167	0.000563	0.015338	-0.000383	4140.445276	14317.357586	3262.406991	8261.547029
34.035500	-0.000328	0.000180	-0.016609	-0.000343	4136.522344	14306.416186	3242.972680	8261.070884
34.535500	0.001495	0.001346	-0.005253	0.000055	4140.164932	14326.320956	3249.470069	8256.266164
35.038500	-0.001840	0.000276	-0.015563	0.001441	4128.141139	14262.824815	3242.540734	8239.562243
35.535500	0.006931	0.000125	-0.004072	0.001357	4150.801930	14261.114652	3249.397564	8240.578545
36.036500	-0.001104	0.002074	-0.023386	0.001700	4129.348978	14302.546389	3237.860431	8236.444806
36.537000	0.004089	0.003652	-0.002776	0.003784	4137.261099	14289.460370	3248.718894	8211.450090
37.036500	-0.000366	0.000993	-0.006200	0.000864	4133.347851	14296.212231	3248.416930	8246.502445
37.539000	0.001527	0.000357	0.003793	0.001156	4137.429829	14272.253239	3254.284192	8242.988759
38.037500	-0.002827	-0.000875	-0.010872	0.000480	4128.075178	14257.916051	3245.866176	8251.135944
38.534500	0.003581	0.000177	0.000290	0.001124	4142.771772	14268.432936	3252.169876	8243.378752
39.035500	-0.002097	0.001267	0.001453	0.001829	4126.509029	14278.352783	3252.447569	8234.894390
39.535500	0.000809	-0.000005	-0.009117	0.001293	4135.250373	14259.389622	3246.424488	8241.347226
40.036000	-0.003235	0.001516	-0.013416	0.001863	4123.548327	14283.906650	3243.550598	8234.485204
40.536000	-0.001638	-0.001328	0.002311	-0.000217	4132.864883	14264.230269	3254.217317	8259.548834
41.036500	0.001006	0.000435	-0.008643	0.000893	4136.772301	14281.064008	3246.943587	8246.157812
41.537000	0.002081	-0.001586	-0.015972	-0.000358	4142.726020	14261.202360	3243.354498	8261.245503
42.037000	0.002258	0.000509	-0.001383	0.000526	4140.913372	14292.460263	3251.518851	8250.583995
42.537000	0.003135	0.001915	-0.001715	0.001999	4139.388627	14290.711300	3250.428687	8232.858594
43.035000	-0.003660	0.000396	-0.004042	0.000819	4125.112450	14281.978004	3249.738586	8247.055478
43.535000	0.000643	-0.000597	-0.008855	0.000553	4136.711529	14263.185517	3247.019465	8250.251483
44.035500	0.001737	0.001499	-0.011614	0.001096	4138.120806	14303.306319	3245.062862	8243.713609
44.535500	0.001181	0.000898	0.001966	0.001192	4136.456136	14285.293281	3253.147205	8242.556920
45.039000	0.001805	0.001407	0.008383	0.000102	4140.838765	14326.657121	3257.757638	8255.692799
45.536000	0.003312	0.000533	-0.007525	-0.000606	4146.528939	14322.356108	3248.504462	8264.247429
46.036500	0.009641	0.001725	-0.021910	0.000642	4159.690016	14320.918683	3239.319057	8249.185094
46.537000	-0.002572	0.001608	-0.010019	0.002650	4123.236411	14265.999026	3245.087581	8225.042593
47.040000	-0.004758	0.000120	-0.008262	-0.001173	4127.373430	14326.352798	3248.402884	8271.104548
47.537500	-0.000177	0.000435	-0.013475	-0.000962	4138.489294	14329.039927	3245.178952	8268.543696
48.035000	0.003145	-0.000527	-0.014680	-0.002126	4150.016879	14334.284856	3245.154904	8282.641703
48.535500	0.001078	-0.000176	-0.017844	0.002266	4133.454721	14229.937371	3240.731774	8229.644809
49.035500	0.002094	-0.000011	-0.011433	0.002331	4135.877119	14232.501141	3244.441290	8228.863647
49.536000	0.002570	0.001725	-0.015095	0.000090	4142.831852	14335.231225	3243.606422	8255.844796
50.036000	0.007492	0.001654	0.001127	-0.000471	4156.992957	14347.933434	3253.649469	8262.609928
50.538000	0.001956	0.000168	0.002126	0.004797	4129.256534	14173.893127	3251.057695	8199.351119
51.036500	-0.000151	0.001481	-0.003904	-0.001251	4139.293515	14363.695907	3251.068212	8272.039875
51.537500	0.000619	-0.000075	-0.003048	-0.004369	4149.285535	14404.408016	3253.480567	8309.916741
52.037000	0.001144	-0.000336	-0.008786	0.001507	4135.558335	14245.369904	3246.493687	8238.770220
52.537000	-0.015051	-0.022946	0.014571	0.210125	3688.047309	9631.591129	3156.973978	6246.399930
53.035000	-0.020779	-0.014784	-0.022057	0.162721	3754.517389	10527.306158	3161.201008	6619.024277
53.535000	0.002311	-0.006742	-0.017374	-0.032774	4229.743938	14986.210248	3262.204592	8667.778057
54.036000	0.006367	-0.006041	0.008239	0.005434	4138.866034	14000.202811	3254.386666	8191.746466
54.536000	-0.007798	-0.009662	0.016540	0.011104	4089.276302	13768.831917	3256.001042	8124.611138
55.036000	0.003157	-0.006242	0.017779	0.000346	4143.682963	14123.929896	3263.487930	8252.755756
55.536500	0.027464	0.003580	0.012012	-0.015426	4251.535437	14794.968982	3269.892003	8446.446722
56.036500	0.051885	0.012679	0.056798	0.015098	4234.464026	14230.566508	3279.279360	8077.844665
56.540000	0.072451	0.023623	0.089157	0.044634	4209.799624	13762.814698	3281.173908	7744.998518
57.034500	0.103869	0.039842	0.097456	0.087401	4179.319747	13128.705009	3258.859457	7301.460323
57.534500	0.131170	0.051451	0.140188	0.135452	4125.608857	12319.035136	3255.571283	6852.546869
58.035000	0.155614	0.065035	0.148539	0.185867	4061.900265	11566.910672	3230.935607	6432.000261
58.535000	0.172927	0.077392	0.187490	0.230115	3999.732179	10965.280447	3227.999282	6101.056533
59.035500	0.189373	0.084230	0.204694	0.264849	3959.662912	10474.021497	3218.532501	5863.885131
59.536000	0.197872	0.088773	0.208045	0.307253	3889.701483	9855.811319	3198.767822	5598.916522
60.036500	0.216845	0.098423	0.226805	0.324197	3893.738055	9742.779007	3199.648152	5500.064239
60.536500	0.221740	0.106752	0.222179	0.359718	3834.794661	9337.738286	3181.022182	5304.936650
61.039000	0.238282	0.112985	0.242137	0.381148	3825.767144	9122.178204	3180.371759	5194.709588
61.537000	0.247048	0.119867	0.265402	0.389786	3826.001636	9097.754543	3186.936695	5151.791901
62.034500	0.254607	0.127054	0.254375	0.400074	3821.002588	9054.859160	3177.442492	5101.778708
62.535000	0.261116	0.129504	0.275958	0.401070	3831.132309	9074.936782	3186.604762	5097.000010
63.035000	0.264184	0.134195	0.288090	0.400711	3837.493993	9145.179859	3192.379448	5098.722907
63.535500	0.281313	0.142532	0.274402	0.395259	3880.693630	9341.187670	3188.553327	5125.039125
64.036000	0.282831	0.141466	0.256198	0.393255	3887.635271	9354.742497	3181.235719	5134.794061
64.536000	0.285160	0.144819	0.276714	0.394787	3889.214711	9381.166765	3189.838541	5127.333645
65.036500	0.285274	0.145630	0.284899	0.396511	3886.029200	9367.917049	3192.853309	5118.968162
65.537000	0.282334	0.142948	0.276089	0.394881	3883.445039	9352.667861	3189.505937	5126.877411
66.037000	0.286620	0.144214	0.285710	0.396412	3888.887973	9348.840416	3193.281415	5119.446744
66.537000	0.288739	0.145490	0.298134	0.399907	3886.165221	9316.837653	3197.531065	5102.583875
67.037500	0.287900	0.143495	0.278757	0.400101	3884.126678	9285.429438	3188.329427	5101.650625
67.535000	0.290513	0.148055	0.307175	0.404259	3881.085835	9291.180236	3199.797516	5081.771993
68.035500	0.293657	0.151636	0.295920	0.408902	3878.147069	9275.977869	3192.209875	5059.799686
68.535500	0.294459	0.150580	0.304643	0.410202	3877.172932	9242.398190	3195.718489	5053.689168
69.035500	0.293979	0.149941	0.288122	0.410738	3875.189133	9225.720861	3187.745794	5051.177105
69.536000	0.297652	0.153009	0.299219	0.415660	3872.757101	9199.495209	3190.595947	5028.235362
70.036000	0.287825	0.150675	0.317178	0.415103	3854.917883	9174.457901	3199.389171	5030.816851
70.539500	0.295380	0.147782	0.280923	0.415872	3867.938740	9123.204060	3182.172475	5027.252208
71.037000	0.295072	0.149387	0.308302	0.419175	3860.983462	9099.568728	3193.200425	5012.007044
71.535000	0.295187	0.150178	0.306773	0.420759	3858.172121	9088.572763	3191.740146	5004.740768
72.035000	0.297743	0.149524	0.307356	0.421990	3860.708702	9062.505919	3191.437511	4999.111330
72.535500	0.290909	0.152167	0.288421	0.427485	3837.403674	9023.269431	3180.348245	4974.170398
73.035500	0.294980	0.150097	0.300524	0.424881	3849.938944	9030.607270	3186.949089	4985.950513
73.536000	0.291505	0.149721	0.299792	0.426783	3839.826714	8999.414389	3185.750649	4977.340565
74.036000	0.290208	0.153131	0.279432	0.430861	3829.840278	8990.300670	3174.968529	4959.002962
74.536000	0.285127	0.149682	0.301318	0.432827	3816.936322	8916.929470	3183.710955	4950.223932
75.036500	0.295194	0.152321	0.283891	0.432730	3835.616620	8953.886096	3176.083121	4950.657574
75.537000	0.297991	0.150980	0.312562	0.432774	3840.751047	8935.139733	3188.850247	4950.460064
76.037000	0.295840	0.154007	0.300556	0.435829	3831.067040	8934.759768	3182.028137	4936.896768
76.534500	0.297887	0.152556	0.313439	0.438145	3830.571523	8884.113732	3186.790189	4926.679915
77.034500	0.297777	0.154039	0.289034	0.439557	3827.763393	8885.066949	3175.357939	4920.474912
77.534500	0.294049	0.151456	0.286459	0.437522	3824.651451	8877.730263	3175.125777	4929.421283
78.035500	0.303371	0.152439	0.316095	0.442239	3833.143233	8827.999303	3186.134809	4908.745212
78.536000	0.299821	0.155861	0.315191	0.448142	3815.810253	8795.204530	3183.064888	4883.188199
79.036000	0.297891	0.152809	0.284840	0.442978	3821.698703	8823.115955	3172.113488	4905.529113
79.539000	0.302576	0.155855	0.297383	0.445210	3826.191513	8833.899241	3176.520093	4895.837645
80.039500	0.302909	0.155374	0.326660	0.447894	3821.883442	8792.054104	3188.380070	4884.255039
80.537000	0.301293	0.156147	0.300592	0.449265	3816.442336	8784.165388	3176.154576	4878.362216
81.037500	0.298648	0.153494	0.302398	0.446625	3816.432257	8783.995080	3178.083000	4889.719787
81.535000	0.306240	0.155123	0.290532	0.450447	3823.306899	8755.211097	3171.364568	4873.300757
82.035000	0.299390	0.155044	0.309758	0.451470	3809.020791	8740.807184	3179.183011	4868.928839
82.535500	0.300039	0.153109	0.304329	0.449815	3813.174560	8737.149114	3177.535274	4876.007473
83.035500	0.304312	0.153569	0.295167	0.450792	3819.156935	8730.414190	3173.177970	4871.826175
83.536000	0.302100	0.153689	0.311848	0.452948	3811.238391	8703.923417	3179.451615	4862.632062
84.036000	0.299905	0.151775	0.292618	0.450437	3811.808021	8711.673522	3172.248203	4873.341909
84.536500	0.306712	0.155368	0.298044	0.458536	3809.481080	8653.444100	3171.122336	4839.018558
85.037000	0.301466	0.155601	0.295477	0.457463	3802.009682	8670.251014	3170.495807	4843.529268
85.537000	0.305492	0.154149	0.322921	0.456847	3810.325668	8659.477212	3182.628898	4846.123000
86.034500	0.304333	0.150690	0.309810	0.455139	3811.316011	8636.997686	3177.603579	4853.338591
86.535000	0.294437	0.152638	0.291449	0.464573	3777.218942	8541.830902	3165.892586	4813.843900
87.035500	0.306614	0.154069	0.290418	0.459012	3808.449234	8630.653348	3167.750469	4837.019790
87.535000	0.307238	0.150212	0.309075	0.457843	3811.677187	8596.345252	3176.113400	4841.930123
88.036000	0.302445	0.152761	0.295529	0.459737	3799.705272	8604.686150	3169.567847	4833.982579
88.536000	0.303431	0.153289	0.296589	0.467481	3787.789831	8513.470627	3166.805605	4801.843233
89.036500	0.303215	0.152918	0.307219	0.460651	3799.450127	8595.052134	3174.111577	4830.159692
89.536500	0.307485	0.152132	0.294464	0.461600	3805.370396	8573.013493	3168.352434	4826.197021
90.037000	0.302195	0.150964	0.304839	0.462056	3795.154062	8552.471512	3172.502829	4824.297580
90.537000	0.301863	0.148575	0.297728	0.459477	3799.132035	8554.874037	3170.594838	4835.070506
91.037500	0.300414	0.153850	0.294094	0.464389	3787.921752	8559.467033	3167.050677	4814.608098
91.535000	0.302746	0.152203	0.304472	0.464060	3792.591789	8542.821619	3171.501986	4815.969728
92.035000	0.310791	0.152092	0.309942	0.466639	3802.274166	8509.018862	3172.722890	4805.310206
92.535000	0.308644	0.153233	0.294623	0.469690	3793.064282	8485.144777	3165.101665	4792.779670
93.035500	0.301636	0.150114	0.333633	0.465003	3788.985713	8504.741103	3183.773458	4812.064691
93.536500	0.304139	0.148295	0.299504	0.465499	3792.511698	8475.841341	3168.825382	4810.015056
94.039000	0.307094	0.149641	0.304052	0.466422	3796.095886	8481.114047	3170.335099	4806.204473
94.537000	0.303040	0.151313	0.320570	0.469173	3784.155444	8467.675840	3176.184923	4794.897165
95.037500	0.310289	0.153361	0.341549	0.473094	3789.970868	8444.441878	3183.695102	4778.903024
95.537000	0.301834	0.148734	0.316008	0.467940	3784.201345	8450.964599	3174.753047	4799.953598
96.035000	0.306912	0.149047	0.298941	0.469887	3789.673429	8430.760322	3166.783278	4791.973900
96.535000	0.307455	0.152157	0.314909	0.472967	3785.237440	8431.136607	3172.147296	4779.419779
97.035500	0.302508	0.151429	0.315421	0.471569	3779.074971	8439.409463	3172.955723	4785.107516
97.535500	0.310405	0.151471	0.319412	0.473438	3789.571697	8416.869018	3173.858293	4777.506231
