sample name	sample
index	1414
start time	 05-10-2021  11:48:44 AM


Wavelength (nm)	Absorbance
494.344910	-0.031791
494.563924	-0.031791
494.782919	-0.031791
495.001897	-0.019763
495.220856	-0.020862
495.439797	-0.019588
495.658719	-0.013624
495.877624	-0.000793
496.096510	0.001710
496.315378	0.003916
496.534227	0.013589
496.753059	0.011907
496.971872	0.010331
497.190667	0.070665
497.409444	0.100536
497.628203	0.111866
497.846943	0.115429
498.065665	0.118994
498.284369	0.121651
498.503055	0.122677
498.721723	0.123862
498.940372	0.125161
499.159003	0.124701
499.377616	0.124970
499.596210	0.124707
499.814787	0.125263
500.033345	0.125289
500.251885	0.125350
500.470406	0.125248
500.688910	0.126111
500.907395	0.126226
501.125862	0.126611
501.344311	0.126154
501.562742	0.126235
501.781154	0.126648
501.999548	0.126478
502.217924	0.126643
502.436282	0.127691
502.654621	0.127518
502.872942	0.127723
503.091245	0.128393
503.309530	0.128801
503.527797	0.128998
503.746045	0.127296
503.964275	0.127321
504.182487	0.126793
504.400681	0.125180
504.618856	0.125631
504.837013	0.125452
505.055152	0.126027
505.273273	0.126977
505.491376	0.127195
505.709460	0.127681
505.927526	0.128407
506.145574	0.128784
506.363604	0.129397
506.581615	0.129079
506.799608	0.129105
507.017583	0.128294
507.235540	0.127594
507.453478	0.127668
507.671399	0.128788
507.889301	0.127981
508.107185	0.128160
508.325050	0.128150
508.542898	0.127430
508.760727	0.127635
508.978538	0.128433
509.196330	0.128950
509.414105	0.128503
509.631861	0.128781
509.849599	0.129629
510.067319	0.130267
510.285021	0.130656
510.502704	0.131617
510.720369	0.132289
510.938016	0.132534
511.155645	0.132488
511.373255	0.132726
511.590848	0.132468
511.808422	0.133550
512.025977	0.133216
512.243515	0.134323
512.461034	0.134250
512.678536	0.133681
512.896018	0.133339
513.113483	0.133512
513.330930	0.133922
513.548358	0.134079
513.765768	0.132898
513.983160	0.132552
514.200533	0.133005
514.417889	0.132960
514.635226	0.133428
514.852545	0.133864
515.069845	0.133748
515.287128	0.133769
515.504392	0.133857
515.721638	0.134844
515.938866	0.135372
516.156075	0.134271
516.373267	0.134534
516.590440	0.134450
516.807594	0.134247
517.024731	0.134618
517.241850	0.135411
517.458950	0.135516
517.676032	0.134964
517.893095	0.135276
518.110141	0.135880
518.327168	0.135715
518.544177	0.136079
518.761168	0.137138
518.978141	0.137051
519.195095	0.136467
519.412031	0.136707
519.628949	0.137043
519.845849	0.136970
520.062731	0.136523
520.279594	0.137126
520.496439	0.137161
520.713266	0.136390
520.930074	0.137095
521.146865	0.137591
521.363637	0.137838
521.580391	0.138271
521.797127	0.139227
522.013844	0.139251
522.230543	0.139805
522.447224	0.140454
522.663887	0.140993
522.880532	0.140592
523.097158	0.140844
523.313766	0.141353
523.530356	0.140661
523.746928	0.139741
523.963481	0.140905
524.180017	0.141020
524.396534	0.140526
524.613032	0.141579
524.829513	0.141785
525.045975	0.141324
525.262420	0.140978
525.478845	0.141994
525.695253	0.143270
525.911643	0.143294
526.128014	0.142798
526.344367	0.143035
526.560702	0.141960
526.777018	0.142093
526.993316	0.143052
527.209597	0.142930
527.425858	0.142928
527.642102	0.142597
527.858328	0.143129
528.074535	0.143369
528.290724	0.144392
528.506894	0.145052
528.723047	0.145629
528.939181	0.145634
529.155297	0.145977
529.371395	0.146528
529.587475	0.146968
529.803536	0.146570
530.019579	0.146963
530.235604	0.146552
530.451611	0.147035
530.667600	0.146847
530.883570	0.147149
531.099522	0.147297
531.315456	0.147472
531.531372	0.147489
531.747269	0.148313
531.963148	0.148277
532.179009	0.148546
532.394852	0.148566
532.610676	0.148955
532.826482	0.148945
533.042271	0.149412
533.258040	0.149740
533.473792	0.149404
533.689525	0.149624
533.905240	0.150311
534.120937	0.150768
534.336616	0.151228
534.552277	0.151818
534.767919	0.152369
534.983543	0.153083
535.199149	0.153285
535.414736	0.153974
535.630306	0.153717
535.845857	0.153911
536.061390	0.153879
536.276904	0.153124
536.492401	0.152965
536.707879	0.152995
536.923339	0.153075
537.138781	0.152847
537.354204	0.153259
537.569610	0.153608
537.784997	0.153569
538.000366	0.153946
538.215716	0.155063
538.431049	0.155219
538.646363	0.155152
538.861659	0.154937
539.076937	0.155485
539.292196	0.155507
539.507438	0.155826
539.722661	0.156213
539.937866	0.156047
540.153052	0.156127
540.368221	0.156803
540.583371	0.157396
540.798503	0.157951
541.013617	0.158057
541.228712	0.157987
541.443789	0.158002
541.658848	0.157707
541.873889	0.157925
542.088912	0.157883
542.303916	0.157632
542.518902	0.157350
542.733870	0.157550
542.948820	0.157512
543.163752	0.158437
543.378665	0.158682
543.593560	0.158873
543.808437	0.159662
544.023295	0.160210
544.238136	0.160485
544.452958	0.160822
544.667762	0.160913
544.882548	0.161131
545.097315	0.160924
545.312064	0.161228
545.526795	0.161254
545.741508	0.161529
545.956203	0.161421
546.170879	0.161868
546.385537	0.161961
546.600177	0.161845
546.814799	0.161711
547.029402	0.161971
547.243988	0.161984
547.458555	0.162746
547.673103	0.162348
547.887634	0.162575
548.102146	0.162683
548.316640	0.163139
548.531116	0.163286
548.745574	0.163481
548.960013	0.163555
549.174435	0.163410
549.388838	0.163594
549.603222	0.163916
549.817589	0.164260
550.031937	0.164045
550.246267	0.164004
550.460579	0.164586
550.674873	0.165004
550.889148	0.165447
551.103405	0.165525
551.317644	0.165611
551.531865	0.165890
551.746068	0.165891
551.960252	0.166546
552.174418	0.166876
552.388566	0.166532
552.602696	0.166396
552.816807	0.166007
553.030900	0.166925
553.244975	0.167021
553.459032	0.166990
553.673070	0.167220
553.887091	0.166558
554.101093	0.166473
554.315077	0.166733
554.529042	0.167239
554.742990	0.167639
554.956919	0.167665
555.170830	0.168067
555.384722	0.168129
555.598597	0.167788
555.812453	0.168132
556.026291	0.168172
556.240111	0.168401
556.453913	0.168350
556.667696	0.168185
556.881461	0.168161
557.095208	0.167925
557.308937	0.167811
557.522647	0.167931
557.736339	0.168310
557.950013	0.168526
558.163669	0.168346
558.377307	0.168339
558.590926	0.168881
558.804527	0.168791
559.018110	0.169054
559.231675	0.169339
559.445221	0.169612
559.658749	0.169812
559.872259	0.170088
560.085751	0.170445
560.299225	0.170963
560.512680	0.171003
560.726117	0.170922
560.939536	0.170948
561.152937	0.171280
561.366319	0.171121
561.579683	0.170978
561.793029	0.171274
562.006357	0.171611
562.219667	0.171458
562.432958	0.171320
562.646231	0.171829
562.859486	0.171804
563.072723	0.172084
563.285941	0.172504
563.499141	0.173138
563.712323	0.172902
563.925487	0.172887
564.138632	0.173125
564.351760	0.173198
564.564869	0.173145
564.777960	0.173484
564.991032	0.173529
565.204087	0.173599
565.417123	0.173664
565.630141	0.173793
565.843140	0.173944
566.056122	0.174085
566.269085	0.174165
566.482030	0.174478
566.694957	0.174167
566.907866	0.173854
567.120756	0.174214
567.333628	0.174111
567.546482	0.174411
567.759318	0.174529
567.972135	0.174111
568.184935	0.174552
568.397716	0.174225
568.610478	0.174910
568.823223	0.175311
569.035949	0.175490
569.248657	0.175025
569.461347	0.174884
569.674019	0.174799
569.886672	0.175448
570.099308	0.175466
570.311925	0.175721
570.524523	0.175686
570.737104	0.175458
570.949666	0.175035
571.162210	0.175776
571.374736	0.175820
571.587244	0.175844
571.799733	0.176142
572.012205	0.176264
572.224658	0.176387
572.437092	0.176483
572.649509	0.177073
572.861907	0.177763
573.074287	0.177778
573.286649	0.178008
573.498993	0.178637
573.711318	0.178591
573.923625	0.178473
574.135914	0.178715
574.348185	0.179016
574.560438	0.179160
574.772672	0.179210
574.984888	0.179321
575.197086	0.179352
575.409266	0.179240
575.621427	0.179464
575.833570	0.179866
576.045695	0.179905
576.257802	0.179969
576.469890	0.179913
576.681961	0.180080
576.894013	0.180107
577.106046	0.180863
577.318062	0.180850
577.530059	0.180886
577.742039	0.181231
577.954000	0.181727
578.165942	0.181623
578.377867	0.181750
578.589773	0.181836
578.801661	0.182316
579.013531	0.182127
579.225382	0.182313
579.437216	0.182188
579.649031	0.182096
579.860828	0.181931
580.072606	0.182424
580.284367	0.182728
580.496109	0.182732
580.707833	0.182813
580.919539	0.182884
581.131227	0.183244
581.342896	0.183709
581.554547	0.183887
581.766180	0.183985
581.977795	0.183942
582.189391	0.184130
582.400969	0.184459
582.612529	0.184537
582.824071	0.184544
583.035595	0.184713
583.247100	0.184847
583.458587	0.184595
583.670056	0.184855
583.881506	0.184914
584.092939	0.185116
584.304353	0.185340
584.515749	0.185274
584.727127	0.185554
584.938486	0.185329
585.149828	0.185702
585.361151	0.186383
585.572456	0.186609
585.783742	0.186682
585.995011	0.186671
586.206261	0.186390
586.417493	0.186446
586.628706	0.186236
586.839902	0.186560
587.051079	0.186336
587.262238	0.186408
587.473379	0.186304
587.684502	0.186575
587.895606	0.186579
588.106692	0.187094
588.317760	0.187375
588.528810	0.187506
588.739841	0.187681
588.950855	0.187749
589.161850	0.187519
589.372827	0.187600
589.583785	0.187821
589.794726	0.187977
590.005648	0.188121
590.216552	0.188175
590.427437	0.188795
590.638305	0.188658
590.849154	0.188891
591.059985	0.189225
591.270798	0.189531
591.481592	0.190034
591.692369	0.190226
591.903127	0.190028
592.113867	0.190287
592.324588	0.190354
592.535292	0.190604
592.745977	0.190721
592.956644	0.191081
593.167293	0.191557
593.377923	0.191413
593.588536	0.191246
593.799130	0.191492
594.009706	0.191736
594.220263	0.191712
594.430803	0.191976
594.641324	0.191994
594.851827	0.191622
595.062312	0.191486
595.272778	0.191478
595.483227	0.191985
595.693657	0.191724
595.904069	0.191803
596.114462	0.192126
596.324838	0.192502
596.535195	0.192973
596.745534	0.193635
596.955855	0.194103
597.166157	0.194189
597.376441	0.194324
597.586707	0.195287
597.796955	0.195138
598.007185	0.194889
598.217396	0.194556
598.427589	0.194377
598.637764	0.194273
598.847921	0.194103
599.058060	0.194020
599.268180	0.194165
599.478282	0.193876
599.688366	0.194072
599.898431	0.194254
600.108479	0.194899
600.318508	0.194968
600.528519	0.194889
600.738511	0.194980
600.948486	0.195262
601.158442	0.195075
601.368380	0.194966
601.578300	0.195258
601.788202	0.195539
601.998085	0.195359
602.207950	0.195631
602.417797	0.195589
602.627626	0.195831
602.837436	0.195974
603.047228	0.196018
603.257002	0.196272
603.466758	0.196279
603.676496	0.196271
603.886215	0.196176
604.095916	0.195908
604.305599	0.196323
604.515264	0.196336
604.724910	0.196423
604.934538	0.196715
605.144148	0.196704
605.353740	0.196911
605.563314	0.197162
605.772869	0.197345
605.982406	0.197795
606.191925	0.198101
606.401425	0.198086
606.610908	0.197928
606.820372	0.198090
607.029818	0.198320
607.239246	0.198610
607.448655	0.198687
607.658047	0.198962
607.867420	0.198815
608.076775	0.198636
608.286111	0.198815
608.495430	0.199097
608.704730	0.199138
608.914012	0.199488
609.123275	0.199486
609.332521	0.199619
609.541748	0.199786
609.750957	0.199965
609.960148	0.199981
610.169321	0.199970
610.378475	0.200271
610.587611	0.200443
610.796729	0.200448
611.005829	0.200390
611.214910	0.200420
611.423974	0.200511
611.633019	0.200842
611.842045	0.201018
612.051054	0.201116
612.260044	0.201070
612.469017	0.201476
612.677970	0.201539
612.886906	0.201837
613.095824	0.202134
613.304723	0.202269
613.513604	0.202205
613.722467	0.202387
613.931311	0.202720
614.140138	0.203272
614.348946	0.203301
614.557736	0.203287
614.766507	0.203224
614.975261	0.203505
615.183996	0.203450
615.392713	0.203754
615.601412	0.203934
615.810092	0.204074
616.018754	0.204232
616.227399	0.204350
616.436024	0.204639
616.644632	0.204816
616.853222	0.204752
617.061793	0.204969
617.270346	0.204781
617.478880	0.205047
617.687397	0.205124
617.895895	0.204739
618.104375	0.204844
618.312837	0.204955
618.521281	0.205068
618.729706	0.204860
618.938113	0.204603
619.146502	0.205160
619.354873	0.205224
619.563226	0.205223
619.771560	0.205568
619.979876	0.205611
620.188174	0.205668
620.396453	0.205793
620.604715	0.206153
620.812958	0.206561
621.021183	0.206455
621.229390	0.206552
621.437578	0.206783
621.645748	0.206736
621.853900	0.206798
622.062034	0.207036
622.270150	0.207298
622.478247	0.207556
622.686326	0.207790
622.894387	0.207871
623.102430	0.208166
623.310454	0.208271
623.518461	0.208622
623.726449	0.208666
623.934418	0.208610
624.142370	0.208518
624.350303	0.208621
624.558218	0.208507
624.766115	0.208429
624.973994	0.208257
625.181855	0.208284
625.389697	0.208372
625.597521	0.208336
625.805327	0.208579
626.013114	0.208801
626.220883	0.208755
626.428634	0.209297
626.636367	0.209608
626.844082	0.209875
627.051778	0.209948
627.259457	0.209880
627.467117	0.210236
627.674758	0.210390
627.882382	0.210414
628.089987	0.210571
628.297574	0.210420
628.505143	0.210516
628.712694	0.210386
628.920226	0.210444
629.127740	0.210722
629.335236	0.210678
629.542714	0.210614
629.750174	0.210792
629.957615	0.211068
630.165038	0.211181
630.372443	0.211390
630.579829	0.211427
630.787198	0.211696
630.994548	0.211869
631.201880	0.212138
631.409194	0.212126
631.616489	0.212142
631.823766	0.212557
632.031025	0.212990
632.238266	0.213035
632.445489	0.213238
632.652693	0.213451
632.859879	0.213460
633.067047	0.213647
633.274197	0.213890
633.481329	0.214193
633.688442	0.213854
633.895537	0.213846
634.102614	0.214118
634.309672	0.214416
634.516713	0.214646
634.723735	0.214561
634.930739	0.214789
635.137724	0.214978
635.344692	0.214850
635.551641	0.214977
635.758572	0.214854
635.965485	0.214831
636.172379	0.214991
636.379256	0.214863
636.586114	0.215034
636.792954	0.214960
636.999775	0.215007
637.206579	0.215177
637.413364	0.215318
637.620131	0.215567
637.826880	0.215659
638.033610	0.215625
638.240323	0.215832
638.447017	0.216307
638.653692	0.216317
638.860350	0.216475
639.066990	0.216657
639.273611	0.217008
639.480214	0.217216
639.686798	0.217400
639.893365	0.217418
640.099913	0.217302
640.306443	0.217107
640.512955	0.217226
640.719449	0.217625
640.925924	0.217556
641.132381	0.217449
641.338820	0.217471
641.545241	0.217698
641.751644	0.217953
641.958028	0.218084
642.164394	0.218314
642.370742	0.218621
642.577071	0.218512
642.783383	0.218988
642.989676	0.219334
643.195951	0.219591
643.402207	0.219630
643.608446	0.219959
643.814666	0.220344
644.020868	0.220405
644.227052	0.220360
644.433218	0.220378
644.639365	0.220438
644.845494	0.220587
645.051605	0.220396
645.257698	0.220558
645.463772	0.220537
645.669828	0.220715
645.875866	0.220968
646.081886	0.221183
646.287888	0.221358
646.493871	0.221420
646.699836	0.221260
646.905783	0.221376
647.111712	0.221510
647.317622	0.221499
647.523514	0.221511
647.729388	0.221277
647.935244	0.221412
648.141082	0.221589
648.346901	0.221778
648.552702	0.222242
648.758485	0.222427
648.964250	0.222520
649.169996	0.222990
649.375724	0.222924
649.581434	0.223529
649.787126	0.223686
649.992800	0.223754
650.198455	0.223681
650.404092	0.223528
650.609711	0.223480
650.815311	0.223467
651.020894	0.223285
651.226458	0.223527
651.432004	0.223485
651.637532	0.223531
651.843041	0.223559
652.048532	0.223863
652.254006	0.223741
652.459460	0.224121
652.664897	0.224349
652.870315	0.224635
653.075716	0.224801
653.281097	0.225078
653.486461	0.225091
653.691807	0.225293
653.897134	0.225378
654.102443	0.225642
654.307734	0.225915
654.513006	0.225916
654.718261	0.226161
654.923497	0.226377
655.128715	0.226253
655.333915	0.226267
655.539096	0.226422
655.744259	0.226420
655.949404	0.226610
656.154531	0.226425
656.359640	0.226762
656.564730	0.226744
656.769802	0.226757
656.974856	0.226948
657.179892	0.227381
657.384909	0.227611
657.589908	0.227763
657.794889	0.228027
657.999852	0.228250
658.204797	0.228456
658.409723	0.228482
658.614631	0.228540
658.819521	0.228579
659.024393	0.228604
659.229246	0.228693
659.434081	0.228881
659.638898	0.228722
659.843697	0.229004
660.048478	0.228800
660.253240	0.228892
660.457984	0.229219
660.662710	0.229359
660.867417	0.229618
661.072107	0.229620
661.276778	0.229636
661.481431	0.230278
661.686066	0.230380
661.890682	0.230898
662.095281	0.231236
662.299861	0.231495
662.504422	0.231600
662.708966	0.231835
662.913491	0.231958
663.117999	0.232188
663.322488	0.231992
663.526958	0.232181
663.731411	0.232218
663.935845	0.232159
664.140261	0.232304
664.344659	0.232546
664.549038	0.232665
664.753400	0.233021
664.957743	0.233284
665.162068	0.233702
665.366375	0.234110
665.570663	0.234242
665.774933	0.234770
665.979185	0.234976
666.183419	0.235324
666.387635	0.235411
666.591832	0.235666
666.796011	0.235878
667.000172	0.235926
667.204315	0.235723
667.408439	0.235809
667.612545	0.235500
667.816634	0.235397
668.020703	0.235325
668.224755	0.235251
668.428788	0.235141
668.632803	0.235122
668.836800	0.234991
669.040779	0.235290
669.244739	0.235518
669.448681	0.235787
669.652605	0.235820
669.856511	0.235837
670.060399	0.236152
670.264268	0.236333
670.468119	0.236473
670.671952	0.236564
670.875767	0.236623
671.079563	0.236477
671.283341	0.236523
671.487101	0.236815
671.690843	0.236913
671.894567	0.237028
672.098272	0.237145
672.301959	0.237469
672.505628	0.237549
672.709278	0.237841
672.912911	0.238264
673.116525	0.238907
673.320121	0.238844
673.523699	0.239203
673.727258	0.239228
673.930799	0.239503
674.134322	0.239510
674.337827	0.240051
674.541314	0.240001
674.744782	0.240285
674.948232	0.240113
675.151664	0.240613
675.355078	0.240866
675.558474	0.241266
675.761851	0.241279
675.965210	0.241574
676.168551	0.241637
676.371873	0.241914
676.575178	0.241904
676.778464	0.242218
676.981732	0.242103
677.184981	0.242350
677.388213	0.242307
677.591426	0.242835
677.794621	0.243232
677.997798	0.243474
678.200956	0.243810
678.404097	0.244085
678.607219	0.243854
678.810323	0.244147
679.013408	0.244189
679.216476	0.244392
679.419525	0.244266
679.622556	0.244092
679.825569	0.244193
680.028563	0.244084
680.231540	0.243963
680.434498	0.244304
680.637438	0.244587
680.840359	0.244672
681.043263	0.244873
681.246148	0.245151
681.449015	0.245363
681.651864	0.245254
681.854694	0.245458
682.057506	0.245794
682.260301	0.245856
682.463076	0.246200
682.665834	0.246395
682.868573	0.246682
683.071295	0.246639
683.273998	0.246807
683.476682	0.247105
683.679349	0.247322
683.881997	0.247340
684.084627	0.247704
684.287239	0.247416
684.489833	0.247543
684.692408	0.247632
684.894965	0.247822
685.097504	0.247756
685.300025	0.247922
685.502527	0.247849
685.705012	0.247938
685.907478	0.248030
686.109925	0.248061
686.312355	0.248148
686.514766	0.248082
686.717159	0.248447
686.919534	0.248852
687.121891	0.248992
687.324230	0.249369
687.526550	0.249801
687.728852	0.249833
687.931136	0.250161
688.133401	0.250564
688.335649	0.250862
688.537878	0.250833
688.740089	0.250891
688.942281	0.251099
689.144456	0.250956
689.346612	0.250966
689.548750	0.251170
689.750870	0.251411
689.952971	0.251306
690.155055	0.251558
690.357120	0.251562
690.559167	0.251531
690.761195	0.251619
690.963206	0.251692
691.165198	0.252155
691.367172	0.252350
691.569128	0.252423
691.771065	0.252518
691.972984	0.252493
692.174885	0.252748
692.376768	0.252914
692.578633	0.252967
692.780479	0.253185
692.982308	0.252834
693.184118	0.252984
693.385909	0.253039
