sample name	sample
index	432
start time	 03-08-2021  12:13:21 PM
880	0.475744
Peak Time (s)	91.536
Peak Height 	0.4757
calc peak height	90,93
Baseline Time (s)	10.537
Baseline Value 	-0.003439
subtract baseline	10,4
Abs	0.328020
Peak Time (s)	90.535
Peak Height 	0.328
calc peak height	90,93
Baseline Time (s)	10.537
Baseline Value 	0.001935
subtract baseline	10,3
PK_550	0.158550
Peak Time (s)	90.535
Peak Height 	0.1585
calc peak height	90,93
Baseline Time (s)	10.537
Baseline Value 	7.9566E-4
subtract baseline	10,2
PK_880	0.319336
Peak Time (s)	91.038
Peak Height 	0.3193
calc peak height	90,93
Baseline Time (s)	8.534
Baseline Value 	4.7796E-4
subtract baseline	10,1


Time (s)	A880-A510	A880-A775	A880-A975	A880	I510	I775	I975	I880	
0.035500	-0.004549	-0.001023	-0.005087	0.005886	6870.293279	46430.182112	3980.418525	24484.068663
0.536500	-0.002788	-0.000581	-0.004571	0.004952	6895.132390	46568.260778	3984.196724	24530.588770
1.036000	-0.001543	-0.000139	-0.003345	0.004014	6915.362878	46707.241720	3989.856456	24577.421752
1.537500	0.000589	-0.000654	-0.005130	0.000210	6970.901882	47040.338961	3995.162773	24768.378873
2.037000	-0.002898	-0.000880	-0.003723	0.005021	6893.480270	46531.270552	3986.230410	24527.144090
2.537500	0.002559	0.000073	-0.000150	0.000876	6983.198855	47046.445792	4006.583300	24734.813192
3.034500	0.001462	-0.000227	0.003481	-0.001309	6993.495576	47238.472642	4022.162932	24845.085918
3.535500	0.003094	-0.000414	-0.004404	0.000426	6992.524503	47042.710982	3996.508322	24757.497264
4.035000	-0.001951	-0.000102	-0.002142	0.005072	6901.764931	46604.399721	3990.235504	24524.594847
4.535500	-0.001336	-0.001158	-0.002128	-0.000340	6957.974506	47045.025616	4004.559529	24796.137396
5.035500	-0.001085	-0.000395	0.005437	0.000205	6955.204965	47067.121936	4023.355141	24768.613234
5.537000	0.004053	0.000068	0.000672	0.000266	7003.128891	47108.054835	4010.399662	24765.553034
6.038000	-0.000410	-0.000664	-0.000832	-0.000122	6964.623155	47073.045825	4007.426809	24785.141994
6.538500	0.000400	-0.000075	-0.001349	0.000151	6969.681345	47105.244659	4005.323184	24771.359559
7.037000	0.002197	-0.000863	-0.002232	-0.000475	6992.559632	47088.719399	4004.639470	24802.940220
7.537000	0.001254	-0.000742	0.003617	-0.000372	6982.662477	47090.530289	4020.003259	24797.727459
8.035000	-0.000049	0.000108	0.002451	0.000204	6964.954142	47118.419192	4015.323695	24768.663101
8.534500	0.000000	0.000410	0.004721	0.000613	6961.572084	47107.581431	4020.327221	24748.088167
9.035500	-0.000085	-0.000119	0.004889	-0.000095	6967.419179	47125.697119	4022.685267	24783.731934
9.536000	0.000909	-0.000687	0.001458	-0.000647	6982.003664	47124.143549	4014.945405	24811.633854
10.035000	-0.000039	-0.000696	-0.000719	-0.000572	6972.356911	47115.613080	4008.925027	24807.854012
10.536500	-0.000793	0.000000	0.000000	0.000000	6959.874113	47128.182500	4009.316847	24778.964303
11.036000	0.004145	0.000407	-0.001814	0.000267	7003.991513	47142.427000	4003.779504	24765.482317
11.534000	0.000650	0.000641	-0.000776	0.000132	6972.207105	47179.993224	4006.896677	24772.293144
12.037500	0.001276	0.000151	0.001533	-0.000228	6981.513532	47166.713441	4014.022627	24790.450080
12.537500	0.000824	-0.000538	-0.004616	-0.000694	6981.648566	47144.116599	3998.904599	24814.004445
13.035000	0.001518	-0.001052	0.002818	-0.002906	7009.190023	47317.409427	4024.684767	24926.061315
13.535500	0.000574	-0.001073	0.001013	-0.001078	6982.908482	47128.704776	4014.908361	24833.412439
14.035500	0.002099	-0.000738	0.003435	-0.000965	6996.268478	47151.269684	4021.110259	24827.693571
14.536000	0.000547	-0.000516	-0.003813	0.002474	6949.235534	46824.787999	3992.669944	24654.524296
15.036000	0.002009	0.000912	0.001835	0.001084	6976.041794	47110.656966	4011.320857	24724.336201
15.592000	0.000739	-0.000534	0.003709	-0.001000	6983.733504	47175.615013	4021.944231	24829.458880
16.039500	-0.000448	-0.000635	0.001661	-0.001248	6974.870517	47190.618325	4017.100363	24842.009511
16.537500	0.001894	0.000020	0.001064	-0.000045	6985.627675	47134.839128	4012.278045	24781.241257
17.034500	-0.000013	-0.000330	0.001226	0.000782	6959.863540	47015.158740	4010.503340	24739.573635
17.535000	-0.000591	-0.000960	-0.001337	-0.001031	6971.474180	47135.380940	4008.499933	24831.037242
18.035500	0.001144	-0.001356	0.000093	-0.002443	7001.228691	47238.974135	4016.100191	24902.532787
18.535500	0.000469	-0.000649	-0.001492	0.000492	6967.109832	47012.100709	4004.036678	24754.144627
19.036000	-0.000015	-0.000414	-0.000695	0.000787	6959.793478	47006.074903	4005.371485	24739.315873
19.536000	-0.000787	-0.000430	-0.001501	0.000513	6955.115140	47032.194976	4003.957184	24753.081734
20.036500	0.001151	-0.000256	0.001106	0.001079	6968.017021	46992.486768	4009.390401	24724.625545
20.537000	-0.000273	-0.000831	-0.001508	0.000816	6957.097605	46960.811730	4003.136363	24737.851609
21.036500	-0.000279	0.000112	-0.000949	0.001500	6950.624357	46987.048900	4002.805635	24703.441717
21.537000	0.001028	0.000512	0.003796	0.001654	6961.450292	47012.098091	4015.043524	24695.712319
22.034500	-0.000507	-0.000119	-0.000094	0.001270	6950.646590	46987.049449	4005.686067	24715.016259
22.534500	0.001530	-0.000202	0.000547	0.001341	6969.113741	46971.306660	4007.199536	24711.408119
23.035500	-0.000918	-0.000545	0.000126	0.000890	6950.352314	46982.296253	4007.281800	24734.128951
23.535500	0.000234	0.000050	-0.003159	0.001258	6957.701080	47005.301844	3997.595337	24715.586919
24.036000	0.000545	-0.000220	0.000837	0.000904	6963.952583	47013.873714	4009.137806	24733.417812
24.536000	-0.000580	-0.000836	-0.003640	0.000495	6957.230563	46992.893815	3998.341554	24754.022141
25.036000	0.000216	0.000059	0.001167	0.001069	6959.307299	47025.462524	4009.577257	24725.100881
25.536500	0.000149	0.000270	0.000189	0.001096	6958.429706	47044.189331	4006.901187	24723.766923
26.037500	-0.000937	0.000007	0.004715	0.000970	6949.432773	47030.291361	4019.349376	24730.111259
26.537500	0.001582	-0.000742	-0.003958	0.000529	6977.259218	46998.965764	3997.413147	24752.303934
27.037500	0.000928	-0.000542	-0.000426	0.000714	6969.353569	47000.466965	4006.282386	24743.001772
27.535000	-0.000550	-0.000069	0.000842	0.000661	6955.950242	47053.932534	4009.801225	24745.655696
28.035500	0.003133	0.000169	0.001779	-0.002066	7016.562900	47356.358291	4019.618427	24883.438776
28.535000	0.000637	-0.000743	0.001051	-0.001063	6983.358444	47160.714588	4014.968093	24832.627695
29.036000	0.001504	0.000603	0.003574	-0.000107	6982.528679	47200.579682	4019.174691	24784.367897
29.539000	0.000984	-0.000276	0.003601	-0.000595	6982.224174	47160.660041	4020.561862	24809.012565
30.037000	-0.000779	-0.000317	-0.000495	0.002822	6933.586544	46809.744128	4000.504998	24637.097114
30.536500	0.001497	-0.000021	0.007863	-0.000782	6988.836705	47205.696253	4032.601861	24818.421876
31.037000	0.001752	-0.000209	0.001094	-0.000374	6987.383504	47144.971415	4013.237042	24797.819264
31.563000	0.001624	-0.000281	0.000586	-0.000440	6986.803695	47144.377837	4012.058587	24801.189285
32.037500	-0.002431	-0.000689	-0.002763	0.002486	6921.319611	46805.990092	3995.402595	24653.922443
32.535500	0.001825	-0.000158	0.000400	0.000288	6981.826782	47082.769326	4009.616022	24764.449411
33.052000	0.001101	-0.000078	-0.000961	-0.000413	6981.611757	47162.359839	4007.856568	24799.818842
33.535500	0.000189	0.000458	0.001985	-0.000081	6969.879423	47183.109445	4014.839919	24783.056806
34.036000	-0.000239	-0.000325	-0.006498	0.003086	6936.159588	46782.178702	3984.037066	24623.840285
34.536500	0.001802	0.000127	-0.001468	-0.000275	6986.925438	47169.189429	4006.140390	24792.847387
35.037000	0.002596	0.000093	0.003635	-0.001987	7010.694856	47340.483977	4024.407522	24879.416066
35.537000	-0.000887	-0.001213	0.002103	0.000556	6953.777061	46948.464821	4013.451990	24750.955334
36.037500	-0.000451	-0.000470	0.001785	0.001991	6944.413912	46878.250492	4008.766574	24678.750032
36.534500	-0.000793	-0.000237	-0.001905	0.001844	6942.588714	46916.746460	3999.362985	24686.156396
37.034000	-0.001538	-0.000391	-0.001003	0.001388	6939.886862	46947.346862	4002.956652	24709.047846
37.535500	-0.000061	-0.000274	-0.002031	0.001555	6952.148410	46942.310401	3999.792967	24700.670235
38.036000	0.002202	-0.000582	-0.002249	0.001534	6973.619001	46913.206127	3999.270495	24701.712229
38.536000	0.001226	0.000434	0.004634	0.001851	6961.453306	46984.065431	4016.761354	24685.780808
39.039000	-0.001118	-0.000371	0.000847	0.001640	6941.457261	46923.878139	4007.205027	24696.406909
39.536500	-0.000557	-0.000178	0.001336	0.002259	6940.912285	46880.667740	4006.856551	24665.305585
40.036500	0.000168	-0.000549	-0.003918	0.001457	6955.225914	46924.446210	3995.071781	24705.609835
40.536500	0.000234	0.000132	-0.002078	0.002054	6950.240650	46932.950202	3998.350643	24675.618245
41.037000	-0.000575	-0.000233	0.000652	0.001874	6944.348791	46914.095275	4006.061052	24684.618917
41.538000	0.000976	0.000135	0.000885	0.002194	6955.879736	46918.976353	4005.828821	24668.544246
42.035000	0.000844	-0.000313	0.003837	0.001592	6960.295567	46934.618506	4015.318737	24698.793057
42.535500	-0.000598	0.000546	0.005129	0.002441	6938.834907	46935.694661	4016.508536	24656.190674
43.036000	-0.000064	0.000046	-0.003281	0.002114	6946.888435	46918.083414	3995.016267	24672.583232
43.536000	-0.000749	-0.000848	0.000145	0.001101	6949.956256	46930.087089	4006.769398	24723.472286
44.036500	-0.000016	-0.000397	-0.000345	0.001626	6951.907445	46922.610986	4004.071020	24697.076141
44.536500	-0.000189	0.000708	-0.001686	0.002743	6939.830833	46921.428756	3997.565660	24641.036536
45.037000	0.000724	0.000164	-0.000645	0.001571	6959.370690	46985.121115	4003.423076	24699.869070
45.537000	0.002055	0.000020	0.001005	-0.000049	6987.178409	47135.205378	4012.131384	24781.432182
46.035000	-0.000139	0.000066	0.001723	-0.000642	6972.066389	47200.362132	4015.641358	24811.362435
46.562500	0.000914	-0.000685	0.000650	-0.000665	6982.222099	47126.158108	4012.829592	24812.542045
47.035000	-0.001289	-0.000633	0.003647	0.003128	6925.974282	46746.854181	4010.701540	24621.755096
47.535500	0.001767	-0.000055	0.002592	-0.000328	6987.098071	47155.968479	4017.129058	24795.504741
48.036000	0.001514	-0.000433	0.003876	-0.000005	6981.654149	47084.541580	4019.712570	24779.195685
48.539000	0.000039	0.000063	0.003827	-0.000150	6969.112357	47149.864468	4019.972153	24786.546340
49.036000	0.000100	-0.000708	0.001074	0.002422	6945.535434	46810.607257	4005.728516	24657.141101
49.537000	-0.000902	-0.000986	0.006096	0.001922	6940.837728	46833.023685	4020.500633	24682.211170
50.037000	0.003324	0.000237	-0.001324	0.000923	6989.993802	47058.461077	4003.341328	24732.476381
50.537500	0.000157	0.000466	0.003226	-0.000152	6970.242773	47191.127179	4018.360548	24786.629033
51.037000	0.000129	0.000006	-0.002197	0.002722	6942.997124	46852.401198	3996.272407	24642.076331
51.535000	0.003216	-0.000065	0.004189	-0.002389	7020.427036	47365.470051	4026.995164	24899.809407
52.035000	0.001824	0.000230	0.001968	0.000379	6980.952895	47112.955102	4013.560712	24759.839612
52.535500	-0.001011	-0.002338	0.005711	0.007294	6889.906606	46158.077063	4005.103105	24414.087103
53.036000	-0.019087	-0.010901	-0.007992	0.310167	4795.009387	24017.319012	3407.796194	13597.150070
53.536500	-0.026696	-0.021125	-0.000564	0.001720	6708.456141	44861.836379	4003.242004	24692.394005
54.036500	-0.022724	-0.034415	0.000776	-0.141669	8255.114311	59517.607529	4458.921231	33228.656186
54.536500	-0.003607	-0.022821	0.022486	-0.101154	7996.689826	55870.038410	4390.788305	30524.737641
55.037000	0.008616	-0.012581	0.042821	-0.049667	7554.384177	51070.915744	4284.213191	27433.252974
55.534500	0.024082	0.000383	0.045698	-0.009278	7293.676725	48123.044451	4165.620027	25252.001461
56.035000	0.055728	0.019604	0.070503	-0.006803	7600.333741	49900.817012	4234.977920	25124.819812
56.535000	0.098102	0.041207	0.103827	0.008721	7901.382948	50563.344215	4292.877037	24343.426864
57.035500	0.127884	0.059217	0.130416	0.056406	7698.597963	47415.384484	4224.517061	22110.663870
57.536000	0.161498	0.078624	0.152311	0.107218	7511.500408	44309.993181	4136.044464	19986.372610
58.038500	0.184312	0.095801	0.180328	0.162177	7181.062758	40859.844250	4058.752280	17951.956911
58.536500	0.206607	0.106547	0.204142	0.199247	7037.193844	38627.358217	4022.446116	16718.134686
59.036500	0.220497	0.116026	0.222045	0.244331	6749.059266	35815.208382	3951.381133	15352.807056
59.536500	0.232349	0.122832	0.236460	0.285482	6496.646702	33312.561820	3885.686038	14224.461078
60.037000	0.242913	0.132528	0.246341	0.318219	6316.624439	31741.127533	3832.644699	13400.133297
60.538000	0.255504	0.138730	0.259040	0.339289	6250.172986	30770.443954	3813.903999	12901.505862
61.035000	0.266482	0.144430	0.272244	0.357737	6192.698949	29964.249631	3802.348533	12484.369342
61.535000	0.267937	0.146432	0.271765	0.401706	5883.767168	27471.462930	3709.807066	11558.791946
62.036000	0.271487	0.151627	0.281601	0.386864	6013.710508	28631.595801	3760.015312	11860.804393
62.539000	0.280959	0.155271	0.286247	0.370892	6202.795715	29820.454885	3804.206639	12197.551277
63.036500	0.281551	0.156102	0.288711	0.394517	6031.156682	28443.978144	3758.878859	11703.773021
63.536500	0.286268	0.159801	0.295357	0.396010	6054.638592	28574.112996	3769.715082	11673.471090
64.036500	0.287632	0.161560	0.282587	0.387612	6126.802996	29181.544429	3760.513134	11845.325296
64.534000	0.293557	0.166693	0.294366	0.385528	6187.241934	29622.002379	3790.011769	11888.501616
65.037500	0.296036	0.167748	0.292356	0.393415	6146.311973	29204.934472	3768.857664	11726.227454
65.556000	0.296471	0.165617	0.297173	0.398115	6114.392927	28794.402488	3769.104096	11630.918009
66.040500	0.294636	0.166866	0.303268	0.405213	6048.538328	28447.985729	3766.987319	11488.910494
66.535500	0.295457	0.166687	0.297380	0.411511	6008.828310	28069.842662	3741.643968	11364.845983
67.036000	0.292420	0.166332	0.303198	0.416777	5949.577695	27746.195507	3742.776668	11262.487653
67.536000	0.297136	0.166511	0.301827	0.420556	5956.202281	27541.060830	3732.264271	11189.776579
68.036500	0.294358	0.166009	0.297993	0.424643	5907.960313	27282.065055	3716.338642	11111.864835
68.536500	0.296994	0.165500	0.304448	0.427566	5905.962631	27090.153965	3723.404257	11056.601970
69.037000	0.292551	0.164078	0.301615	0.429286	5863.316022	26915.753176	3714.305248	11024.233922
69.533500	0.296715	0.165544	0.302846	0.431211	5878.744256	26890.406144	3712.929420	10988.186499
70.035000	0.296864	0.164851	0.306577	0.432413	5871.480423	26785.967125	3717.960902	10965.750802
70.535000	0.297541	0.165761	0.302891	0.432672	5874.359503	26821.825347	3710.122474	10960.927675
71.035000	0.298609	0.166020	0.303680	0.435004	5865.658279	26707.876054	3707.074725	10917.596892
71.535500	0.298963	0.165687	0.303658	0.434275	5873.109568	26729.562801	3708.470762	10931.115095
72.038500	0.299337	0.164795	0.307437	0.433155	5883.433167	26742.136597	3718.197264	10951.941597
72.536000	0.302742	0.166644	0.311202	0.434816	5895.516053	26752.436189	3722.409577	10921.093973
73.036500	0.300005	0.166084	0.311458	0.434928	5875.790915	26715.573699	3722.696961	10919.007761
73.536500	0.303412	0.165470	0.313195	0.434091	5905.217502	26727.831856	3727.879751	10934.542781
74.037000	0.303108	0.165005	0.311899	0.433565	5906.763641	26731.122816	3726.326088	10944.309181
74.534500	0.307233	0.164907	0.311837	0.433457	5936.409453	26731.644633	3726.418354	10946.308461
75.036500	0.305670	0.165215	0.320088	0.434548	5917.782763	26688.738136	3740.969498	10926.049727
75.535000	0.307826	0.165601	0.314814	0.434732	5931.613473	26699.844570	3729.855513	10922.644840
76.035000	0.310795	0.165195	0.314495	0.434003	5957.708498	26717.532777	3730.684529	10936.163647
76.535500	0.308691	0.165985	0.314035	0.434579	5938.779181	26729.292059	3728.589992	10925.489445
77.036000	0.311782	0.165124	0.307460	0.434137	5963.763059	26706.315746	3716.285520	10933.688313
77.536500	0.309605	0.166180	0.317322	0.437716	5923.153017	26568.401749	3728.892541	10867.506208
78.037000	0.311229	0.165044	0.315688	0.436439	5943.553668	26576.056803	3728.170819	10891.056724
78.537000	0.311414	0.164914	0.320963	0.436760	5942.592081	26551.498539	3738.231975	10885.126989
79.037000	0.313257	0.165261	0.315165	0.438671	5942.118945	26466.523258	3722.626333	10849.956930
79.537500	0.313360	0.164074	0.314450	0.439922	5934.033252	26334.574038	3718.689836	10827.004327
80.035000	0.316080	0.164259	0.321078	0.439779	5954.229056	26352.265962	3732.322419	10829.621613
80.535000	0.314696	0.163297	0.322013	0.440392	5940.122893	26267.385402	3732.975320	10818.390017
81.035000	0.313097	0.163318	0.320888	0.440810	5925.950869	26246.040974	3729.847027	10810.757571
81.538500	0.317278	0.162522	0.320564	0.441996	5947.024266	26139.758344	3726.796799	10789.101623
82.035500	0.315741	0.161422	0.316639	0.442436	5933.097011	26057.473854	3718.040016	10781.086791
82.536500	0.317009	0.163204	0.323365	0.445762	5918.664555	25975.308255	3724.853416	10720.745382
83.036500	0.315377	0.162580	0.319724	0.446372	5903.015367	25909.843258	3716.342171	10709.720559
83.537000	0.316679	0.161968	0.319328	0.447551	5903.869293	25815.147516	3713.209437	10688.466763
84.037000	0.314118	0.161055	0.324146	0.449029	5875.880097	25689.351562	3719.868067	10661.922173
84.534500	0.315783	0.160816	0.323094	0.449027	5887.402840	25676.887263	3717.767281	10661.948072
85.034500	0.317460	0.160681	0.322444	0.452906	5872.184740	25467.335428	3708.775118	10592.669197
85.535500	0.313829	0.160251	0.324236	0.451973	5853.658003	25493.498128	3714.175422	10609.280894
86.036000	0.316727	0.159670	0.320366	0.454345	5857.267192	25340.398170	3701.858643	10567.139228
86.536000	0.316798	0.160699	0.326639	0.455858	5847.389949	25315.378203	3711.234656	10540.368129
87.036000	0.318751	0.160644	0.326741	0.458640	5841.733125	25169.455737	3705.943814	10491.396717
87.535500	0.312693	0.158468	0.316152	0.457945	5805.383574	25093.684575	3686.689146	10503.608580
88.037000	0.313874	0.159261	0.320941	0.460723	5794.644450	24992.439048	3690.566134	10454.938756
88.537000	0.314619	0.157864	0.323627	0.461819	5792.289247	24865.966295	3693.645144	10435.820502
89.034500	0.318052	0.159375	0.322900	0.465389	5791.375735	24762.129111	3685.350431	10373.905634
89.535000	0.316492	0.157877	0.323074	0.469763	5751.860337	24468.500116	3677.319967	10298.722022
90.035000	0.317948	0.156884	0.321977	0.466352	5784.227122	24588.937614	3681.734300	10357.282931
90.535500	0.319135	0.158550	0.328020	0.469056	5774.094140	24537.125206	3688.145964	10310.813745
91.038500	0.319336	0.155901	0.323299	0.469105	5775.117982	24403.151392	3679.003611	10309.986948
91.536000	0.313908	0.156867	0.322371	0.475744	5695.777742	24124.124631	3664.702273	10197.142692
92.035500	0.315100	0.157224	0.323813	0.473417	5718.684241	24255.646444	3671.792763	10236.484181
92.536500	0.317401	0.156342	0.325772	0.473809	5731.190657	24193.151238	3674.761105	10229.854021
93.037000	0.319024	0.155977	0.327218	0.474981	5734.158178	24117.931942	3675.281012	10210.023307
93.533500	0.318468	0.155370	0.317384	0.480174	5696.620749	23836.474292	3647.250403	10122.796585
94.035000	0.318095	0.157081	0.326858	0.478829	5702.924921	23984.234143	3667.331315	10145.273823
94.535000	0.317566	0.154336	0.323257	0.477698	5706.847854	23906.065674	3662.703824	10164.246036
95.035000	0.322419	0.156376	0.324008	0.480874	5717.782982	23851.162752	3658.182420	10111.104546
95.537500	0.320029	0.155001	0.327811	0.486411	5666.450021	23520.399774	3654.967043	10019.390486
96.044000	0.321464	0.155027	0.322485	0.482393	5701.661004	23713.284387	3652.550557	10085.832577
96.541500	0.318861	0.152272	0.326886	0.481232	5692.309960	23637.009554	3662.879559	10105.140732
97.036500	0.321186	0.153876	0.329416	0.483248	5694.313720	23617.406013	3663.842532	10071.647455
97.536500	0.318101	0.152712	0.322755	0.489552	5634.121231	23264.218094	3639.937597	9967.891911
