sample name	sample
index	305
start time	 02-25-2021  02:20:20 PM


Wavelength (nm)	Absorbance
494.344910	-0.442269
494.563924	-0.442269
494.782919	-0.442269
495.001897	-0.115173
495.220856	-0.151367
495.439797	-0.117954
495.658719	-0.079029
495.877624	-0.032737
496.096510	0.014128
496.315378	0.092608
496.534227	0.107224
496.753059	0.053748
496.971872	0.050209
497.190667	0.117110
497.409444	0.121619
497.628203	0.129939
497.846943	0.132358
498.065665	0.132157
498.284369	0.132472
498.503055	0.133741
498.721723	0.133712
498.940372	0.133167
499.159003	0.132857
499.377616	0.134447
499.596210	0.133886
499.814787	0.133194
500.033345	0.133208
500.251885	0.133394
500.470406	0.132961
500.688910	0.132810
500.907395	0.133654
501.125862	0.133938
501.344311	0.133021
501.562742	0.133504
501.781154	0.134282
501.999548	0.133931
502.217924	0.132464
502.436282	0.133185
502.654621	0.132428
502.872942	0.132676
503.091245	0.133554
503.309530	0.134207
503.527797	0.133609
503.746045	0.133261
503.964275	0.134546
504.182487	0.135995
504.400681	0.135872
504.618856	0.136714
504.837013	0.134551
505.055152	0.133777
505.273273	0.134358
505.491376	0.135711
505.709460	0.134630
505.927526	0.134224
506.145574	0.134202
506.363604	0.133020
506.581615	0.133210
506.799608	0.135258
507.017583	0.135680
507.235540	0.135754
507.453478	0.134408
507.671399	0.135424
507.889301	0.135770
508.107185	0.135783
508.325050	0.136750
508.542898	0.137368
508.760727	0.137998
508.978538	0.138587
509.196330	0.139107
509.414105	0.140299
509.631861	0.141851
509.849599	0.142584
510.067319	0.143843
510.285021	0.144942
510.502704	0.143894
510.720369	0.143601
510.938016	0.143238
511.155645	0.143120
511.373255	0.142122
511.590848	0.141365
511.808422	0.140422
512.025977	0.139029
512.243515	0.139145
512.461034	0.139438
512.678536	0.140154
512.896018	0.140831
513.113483	0.141148
513.330930	0.142453
513.548358	0.142727
513.765768	0.143591
513.983160	0.144329
514.200533	0.143984
514.417889	0.144954
514.635226	0.144694
514.852545	0.144784
515.069845	0.145165
515.287128	0.145682
515.504392	0.145534
515.721638	0.144964
515.938866	0.145209
516.156075	0.145455
516.373267	0.145778
516.590440	0.146313
516.807594	0.145990
517.024731	0.146166
517.241850	0.146192
517.458950	0.146681
517.676032	0.147218
517.893095	0.147304
518.110141	0.147215
518.327168	0.147845
518.544177	0.147384
518.761168	0.148337
518.978141	0.147874
519.195095	0.147570
519.412031	0.147983
519.628949	0.147943
519.845849	0.148854
520.062731	0.149299
520.279594	0.149428
520.496439	0.150295
520.713266	0.150739
520.930074	0.151678
521.146865	0.151471
521.363637	0.151887
521.580391	0.152855
521.797127	0.152894
522.013844	0.153457
522.230543	0.153591
522.447224	0.153005
522.663887	0.152124
522.880532	0.152383
523.097158	0.152806
523.313766	0.153010
523.530356	0.152967
523.746928	0.152671
523.963481	0.152166
524.180017	0.152250
524.396534	0.153002
524.613032	0.153559
524.829513	0.153359
525.045975	0.153632
525.262420	0.153773
525.478845	0.153772
525.695253	0.154376
525.911643	0.154873
526.128014	0.154867
526.344367	0.154876
526.560702	0.155078
526.777018	0.155541
526.993316	0.156750
527.209597	0.157122
527.425858	0.157848
527.642102	0.157951
527.858328	0.158297
528.074535	0.159071
528.290724	0.160244
528.506894	0.160915
528.723047	0.160977
528.939181	0.161175
529.155297	0.161754
529.371395	0.162200
529.587475	0.162964
529.803536	0.163471
530.019579	0.163834
530.235604	0.163868
530.451611	0.164166
530.667600	0.165455
530.883570	0.165360
531.099522	0.165496
531.315456	0.165491
531.531372	0.166130
531.747269	0.166436
531.963148	0.166143
532.179009	0.165871
532.394852	0.165779
532.610676	0.165658
532.826482	0.166459
533.042271	0.166693
533.258040	0.167403
533.473792	0.167521
533.689525	0.167893
533.905240	0.168491
534.120937	0.169678
534.336616	0.170685
534.552277	0.170484
534.767919	0.170501
534.983543	0.171147
535.199149	0.170467
535.414736	0.170431
535.630306	0.170751
535.845857	0.170794
536.061390	0.170267
536.276904	0.169909
536.492401	0.170803
536.707879	0.170743
536.923339	0.170857
537.138781	0.171910
537.354204	0.171925
537.569610	0.172199
537.784997	0.172743
538.000366	0.173138
538.215716	0.173921
538.431049	0.173974
538.646363	0.174169
538.861659	0.174184
539.076937	0.174037
539.292196	0.174934
539.507438	0.174779
539.722661	0.174650
539.937866	0.174872
540.153052	0.175102
540.368221	0.175144
540.583371	0.175727
540.798503	0.176409
541.013617	0.176830
541.228712	0.176783
541.443789	0.177513
541.658848	0.178342
541.873889	0.179039
542.088912	0.179372
542.303916	0.179959
542.518902	0.180082
542.733870	0.180403
542.948820	0.181113
543.163752	0.181699
543.378665	0.181946
543.593560	0.182560
543.808437	0.182556
544.023295	0.182410
544.238136	0.182908
544.452958	0.183506
544.667762	0.183490
544.882548	0.183597
545.097315	0.183145
545.312064	0.183062
545.526795	0.182868
545.741508	0.183426
545.956203	0.184159
546.170879	0.183953
546.385537	0.183810
546.600177	0.183952
546.814799	0.184335
547.029402	0.184726
547.243988	0.185026
547.458555	0.185263
547.673103	0.185542
547.887634	0.185531
548.102146	0.185951
548.316640	0.186329
548.531116	0.186850
548.745574	0.186752
548.960013	0.187557
549.174435	0.188229
549.388838	0.188483
549.603222	0.188817
549.817589	0.189388
550.031937	0.189519
550.246267	0.189676
550.460579	0.189583
550.674873	0.189843
550.889148	0.190132
551.103405	0.190407
551.317644	0.190805
551.531865	0.190830
551.746068	0.191004
551.960252	0.191498
552.174418	0.191728
552.388566	0.191936
552.602696	0.192028
552.816807	0.191620
553.030900	0.191091
553.244975	0.191144
553.459032	0.190934
553.673070	0.191058
553.887091	0.191102
554.101093	0.191193
554.315077	0.191624
554.529042	0.192130
554.742990	0.192066
554.956919	0.192831
555.170830	0.192936
555.384722	0.193412
555.598597	0.193372
555.812453	0.193420
556.026291	0.193809
556.240111	0.194107
556.453913	0.194051
556.667696	0.195085
556.881461	0.194955
557.095208	0.195432
557.308937	0.195490
557.522647	0.195974
557.736339	0.196207
557.950013	0.195970
558.163669	0.195796
558.377307	0.195842
558.590926	0.195396
558.804527	0.195909
559.018110	0.195927
559.231675	0.196101
559.445221	0.196422
559.658749	0.196993
559.872259	0.197836
560.085751	0.198199
560.299225	0.198832
560.512680	0.199232
560.726117	0.199295
560.939536	0.199527
561.152937	0.199612
561.366319	0.199493
561.579683	0.199378
561.793029	0.199192
562.006357	0.199313
562.219667	0.199565
562.432958	0.199465
562.646231	0.199786
562.859486	0.199875
563.072723	0.200093
563.285941	0.200024
563.499141	0.200089
563.712323	0.200362
563.925487	0.200069
564.138632	0.199752
564.351760	0.199981
564.564869	0.199804
564.777960	0.199854
564.991032	0.199702
565.204087	0.199947
565.417123	0.199941
565.630141	0.199670
565.843140	0.200220
566.056122	0.200874
566.269085	0.201422
566.482030	0.201865
566.694957	0.202026
566.907866	0.202798
567.120756	0.203080
567.333628	0.203108
567.546482	0.203627
567.759318	0.203739
567.972135	0.203677
568.184935	0.203855
568.397716	0.203934
568.610478	0.203890
568.823223	0.203804
569.035949	0.204095
569.248657	0.204725
569.461347	0.205096
569.674019	0.205422
569.886672	0.205518
570.099308	0.205704
570.311925	0.205841
570.524523	0.206481
570.737104	0.206811
570.949666	0.206787
571.162210	0.207334
571.374736	0.207162
571.587244	0.207401
571.799733	0.207641
572.012205	0.207852
572.224658	0.208188
572.437092	0.208385
572.649509	0.208433
572.861907	0.208849
573.074287	0.208585
573.286649	0.208825
573.498993	0.209015
573.711318	0.209178
573.923625	0.208936
574.135914	0.208858
574.348185	0.208776
574.560438	0.208923
574.772672	0.208683
574.984888	0.208900
575.197086	0.209124
575.409266	0.209235
575.621427	0.209229
575.833570	0.209465
576.045695	0.209735
576.257802	0.209953
576.469890	0.209875
576.681961	0.210209
576.894013	0.210046
577.106046	0.210321
577.318062	0.210174
577.530059	0.210379
577.742039	0.210613
577.954000	0.210885
578.165942	0.210925
578.377867	0.211325
578.589773	0.211691
578.801661	0.211952
579.013531	0.212020
579.225382	0.212685
579.437216	0.213025
579.649031	0.213169
579.860828	0.213221
580.072606	0.213213
580.284367	0.213065
580.496109	0.212913
580.707833	0.212968
580.919539	0.213061
581.131227	0.212605
581.342896	0.212682
581.554547	0.213034
581.766180	0.213079
581.977795	0.213477
582.189391	0.213954
582.400969	0.214296
582.612529	0.214206
582.824071	0.214453
583.035595	0.214952
583.247100	0.215130
583.458587	0.215348
583.670056	0.215579
583.881506	0.215929
584.092939	0.216034
584.304353	0.216068
584.515749	0.216576
584.727127	0.216828
584.938486	0.216797
585.149828	0.216855
585.361151	0.216633
585.572456	0.216708
585.783742	0.216841
585.995011	0.217095
586.206261	0.217151
586.417493	0.217492
586.628706	0.217519
586.839902	0.217887
587.051079	0.217941
587.262238	0.218294
587.473379	0.218890
587.684502	0.219079
587.895606	0.219333
588.106692	0.219605
588.317760	0.219403
588.528810	0.219683
588.739841	0.220127
588.950855	0.220194
589.161850	0.220465
589.372827	0.220265
589.583785	0.219942
589.794726	0.220019
590.005648	0.220516
590.216552	0.221001
590.427437	0.221113
590.638305	0.220915
590.849154	0.221338
591.059985	0.221457
591.270798	0.221550
591.481592	0.221820
591.692369	0.221872
591.903127	0.221554
592.113867	0.221641
592.324588	0.221666
592.535292	0.221722
592.745977	0.221737
592.956644	0.221756
593.167293	0.221933
593.377923	0.222353
593.588536	0.222494
593.799130	0.222509
594.009706	0.222373
594.220263	0.222318
594.430803	0.222433
594.641324	0.222731
594.851827	0.223066
595.062312	0.222994
595.272778	0.222654
595.483227	0.222546
595.693657	0.223040
595.904069	0.223067
596.114462	0.223482
596.324838	0.223938
596.535195	0.223754
596.745534	0.223867
596.955855	0.224056
597.166157	0.224206
597.376441	0.224632
597.586707	0.224732
597.796955	0.225559
598.007185	0.225673
598.217396	0.225694
598.427589	0.225981
598.637764	0.226107
598.847921	0.226436
599.058060	0.226814
599.268180	0.227293
599.478282	0.227640
599.688366	0.227537
599.898431	0.227939
600.108479	0.227833
600.318508	0.227645
600.528519	0.227824
600.738511	0.227619
600.948486	0.227869
601.158442	0.227747
601.368380	0.227645
601.578300	0.227567
601.788202	0.227403
601.998085	0.227924
602.207950	0.228718
602.417797	0.228622
602.627626	0.229305
602.837436	0.229335
603.047228	0.229474
603.257002	0.229963
603.466758	0.230146
603.676496	0.230231
603.886215	0.230094
604.095916	0.230053
604.305599	0.230211
604.515264	0.230216
604.724910	0.230776
604.934538	0.230715
605.144148	0.230477
605.353740	0.230621
605.563314	0.231085
605.772869	0.231298
605.982406	0.231258
606.191925	0.231662
606.401425	0.232030
606.610908	0.232018
606.820372	0.232369
607.029818	0.232596
607.239246	0.232568
607.448655	0.232604
607.658047	0.232711
607.867420	0.233162
608.076775	0.233364
608.286111	0.233080
608.495430	0.232829
608.704730	0.232767
608.914012	0.232745
609.123275	0.233325
609.332521	0.233323
609.541748	0.233378
609.750957	0.233240
609.960148	0.233208
610.169321	0.233492
610.378475	0.234101
610.587611	0.234206
610.796729	0.234159
611.005829	0.234045
611.214910	0.234142
611.423974	0.234144
611.633019	0.234268
611.842045	0.234234
612.051054	0.234224
612.260044	0.234141
612.469017	0.234320
612.677970	0.234895
612.886906	0.235033
613.095824	0.235007
613.304723	0.235271
613.513604	0.235535
613.722467	0.235525
613.931311	0.235778
614.140138	0.235932
614.348946	0.236087
614.557736	0.235919
614.766507	0.236014
614.975261	0.236360
615.183996	0.236577
615.392713	0.236464
615.601412	0.236807
615.810092	0.236628
616.018754	0.236616
616.227399	0.236989
616.436024	0.237201
616.644632	0.237522
616.853222	0.237550
617.061793	0.237610
617.270346	0.237814
617.478880	0.238173
617.687397	0.238635
617.895895	0.238857
618.104375	0.238871
618.312837	0.239014
618.521281	0.239104
618.729706	0.239302
618.938113	0.239421
619.146502	0.239550
619.354873	0.239595
619.563226	0.239688
619.771560	0.239845
619.979876	0.240055
620.188174	0.240046
620.396453	0.239979
620.604715	0.240045
620.812958	0.240383
621.021183	0.240696
621.229390	0.240667
621.437578	0.240552
621.645748	0.240724
621.853900	0.240686
622.062034	0.241022
622.270150	0.241142
622.478247	0.241126
622.686326	0.241059
622.894387	0.240731
623.102430	0.240614
623.310454	0.240965
623.518461	0.240792
623.726449	0.240877
623.934418	0.240859
624.142370	0.240970
624.350303	0.241265
624.558218	0.241286
624.766115	0.241787
624.973994	0.242120
625.181855	0.242057
625.389697	0.242452
625.597521	0.242915
625.805327	0.243250
626.013114	0.243374
626.220883	0.243591
626.428634	0.243896
626.636367	0.243922
626.844082	0.243894
627.051778	0.244247
627.259457	0.244250
627.467117	0.244006
627.674758	0.243876
627.882382	0.244017
628.089987	0.243996
628.297574	0.244100
628.505143	0.244420
628.712694	0.244678
628.920226	0.244621
629.127740	0.244718
629.335236	0.245050
629.542714	0.245505
629.750174	0.245793
629.957615	0.245939
630.165038	0.246188
630.372443	0.246028
630.579829	0.246271
630.787198	0.246501
630.994548	0.246660
631.201880	0.246857
631.409194	0.247139
631.616489	0.247294
631.823766	0.247306
632.031025	0.247276
632.238266	0.247687
632.445489	0.247657
632.652693	0.248055
632.859879	0.248385
633.067047	0.248411
633.274197	0.248117
633.481329	0.248277
633.688442	0.248939
633.895537	0.248990
634.102614	0.248989
634.309672	0.249384
634.516713	0.249289
634.723735	0.249346
634.930739	0.249389
635.137724	0.249650
635.344692	0.249752
635.551641	0.249760
635.758572	0.249958
635.965485	0.249870
636.172379	0.249797
636.379256	0.249983
636.586114	0.250135
636.792954	0.250361
636.999775	0.250400
637.206579	0.250460
637.413364	0.250221
637.620131	0.250346
637.826880	0.250780
638.033610	0.250887
638.240323	0.250823
638.447017	0.251051
638.653692	0.251066
638.860350	0.251275
639.066990	0.251482
639.273611	0.251676
639.480214	0.252005
639.686798	0.251986
639.893365	0.252191
640.099913	0.252503
640.306443	0.252462
640.512955	0.252879
640.719449	0.252805
640.925924	0.252552
641.132381	0.252644
641.338820	0.252583
641.545241	0.252955
641.751644	0.253173
641.958028	0.253389
642.164394	0.253639
642.370742	0.253623
642.577071	0.253994
642.783383	0.254756
642.989676	0.255289
643.195951	0.255459
643.402207	0.255717
643.608446	0.255651
643.814666	0.255991
644.020868	0.256276
644.227052	0.256450
644.433218	0.256510
644.639365	0.256477
644.845494	0.256297
645.051605	0.256715
645.257698	0.256854
645.463772	0.257095
645.669828	0.256649
645.875866	0.256275
646.081886	0.256529
646.287888	0.256752
646.493871	0.257025
646.699836	0.257284
646.905783	0.257288
647.111712	0.257429
647.317622	0.257656
647.523514	0.258160
647.729388	0.258780
647.935244	0.258669
648.141082	0.259006
648.346901	0.259111
648.552702	0.259440
648.758485	0.259675
648.964250	0.259864
649.169996	0.260215
649.375724	0.260341
649.581434	0.260473
649.787126	0.260707
649.992800	0.260784
650.198455	0.260763
650.404092	0.260596
650.609711	0.260613
650.815311	0.260393
651.020894	0.260371
651.226458	0.260260
651.432004	0.260194
651.637532	0.260485
651.843041	0.260403
652.048532	0.260557
652.254006	0.260900
652.459460	0.261196
652.664897	0.261717
652.870315	0.261759
653.075716	0.262240
653.281097	0.262697
653.486461	0.263098
653.691807	0.263514
653.897134	0.263626
654.102443	0.263918
654.307734	0.263913
654.513006	0.264088
654.718261	0.264584
654.923497	0.264644
655.128715	0.264615
655.333915	0.264476
655.539096	0.264494
655.744259	0.264822
655.949404	0.265197
656.154531	0.265610
656.359640	0.265572
656.564730	0.265788
656.769802	0.266111
656.974856	0.266506
657.179892	0.266871
657.384909	0.266968
657.589908	0.267051
657.794889	0.266889
657.999852	0.267064
658.204797	0.267396
658.409723	0.267519
658.614631	0.267742
658.819521	0.267970
659.024393	0.268194
659.229246	0.268552
659.434081	0.268879
659.638898	0.269407
659.843697	0.269621
660.048478	0.269676
660.253240	0.269711
660.457984	0.270008
660.662710	0.269933
660.867417	0.269923
661.072107	0.270338
661.276778	0.270464
661.481431	0.270715
661.686066	0.270666
661.890682	0.270692
662.095281	0.271017
662.299861	0.271257
662.504422	0.271468
662.708966	0.271723
662.913491	0.271834
663.117999	0.271826
663.322488	0.271548
663.526958	0.271814
663.731411	0.272165
663.935845	0.272196
664.140261	0.272216
664.344659	0.272454
664.549038	0.272422
664.753400	0.272327
664.957743	0.272463
665.162068	0.272627
665.366375	0.272675
665.570663	0.272655
665.774933	0.272742
665.979185	0.272915
666.183419	0.273153
666.387635	0.273588
666.591832	0.273994
666.796011	0.274320
667.000172	0.274649
667.204315	0.274817
667.408439	0.275273
667.612545	0.275708
667.816634	0.275796
668.020703	0.275856
668.224755	0.275941
668.428788	0.275966
668.632803	0.276353
668.836800	0.276632
669.040779	0.277012
669.244739	0.276986
669.448681	0.277225
669.652605	0.277166
669.856511	0.277527
670.060399	0.277736
670.264268	0.278050
670.468119	0.278262
670.671952	0.278407
670.875767	0.278608
671.079563	0.278907
671.283341	0.278947
671.487101	0.279302
671.690843	0.279526
671.894567	0.279658
672.098272	0.279745
672.301959	0.279815
672.505628	0.279903
672.709278	0.280084
672.912911	0.280272
673.116525	0.280573
673.320121	0.280883
673.523699	0.281035
673.727258	0.281283
673.930799	0.281413
674.134322	0.281507
674.337827	0.281571
674.541314	0.281769
674.744782	0.281973
674.948232	0.282079
675.151664	0.282264
675.355078	0.282321
675.558474	0.282569
675.761851	0.282896
675.965210	0.283113
676.168551	0.283530
676.371873	0.283751
676.575178	0.284148
676.778464	0.284365
676.981732	0.284458
677.184981	0.284985
677.388213	0.285216
677.591426	0.285317
677.794621	0.285694
677.997798	0.285923
678.200956	0.286102
678.404097	0.285953
678.607219	0.286133
678.810323	0.286530
679.013408	0.286589
679.216476	0.286561
679.419525	0.286593
679.622556	0.286803
679.825569	0.286824
680.028563	0.286853
680.231540	0.287419
680.434498	0.287625
680.637438	0.287868
680.840359	0.287944
681.043263	0.288164
681.246148	0.288681
681.449015	0.288851
681.651864	0.289125
681.854694	0.289480
682.057506	0.289544
682.260301	0.289732
682.463076	0.289825
682.665834	0.289982
682.868573	0.290199
683.071295	0.290419
683.273998	0.290592
683.476682	0.290882
683.679349	0.291261
683.881997	0.291453
684.084627	0.291659
684.287239	0.291629
684.489833	0.291875
684.692408	0.292184
684.894965	0.292498
685.097504	0.292443
685.300025	0.292638
685.502527	0.292647
685.705012	0.292629
685.907478	0.292771
686.109925	0.293182
686.312355	0.293303
686.514766	0.293413
686.717159	0.293367
686.919534	0.293689
687.121891	0.293632
687.324230	0.293705
687.526550	0.294148
687.728852	0.294225
687.931136	0.294246
688.133401	0.294401
688.335649	0.294228
688.537878	0.294212
688.740089	0.294414
688.942281	0.294956
689.144456	0.295075
689.346612	0.295155
689.548750	0.295379
689.750870	0.295693
689.952971	0.295884
690.155055	0.296527
690.357120	0.296904
690.559167	0.297103
690.761195	0.297104
690.963206	0.297179
691.165198	0.297333
691.367172	0.297537
691.569128	0.297652
691.771065	0.297855
691.972984	0.298091
692.174885	0.298468
692.376768	0.298670
692.578633	0.298845
692.780479	0.299404
692.982308	0.299504
693.184118	0.299738
693.385909	0.300015
