sample name	sample
index	974
start time	 04-14-2021  02:41:45 PM


Wavelength (nm)	Absorbance
494.344910	-0.078482
494.563924	-0.078482
494.782919	-0.078482
495.001897	-0.106460
495.220856	-0.046857
495.439797	-0.033502
495.658719	-0.018097
495.877624	-0.004833
496.096510	-0.000332
496.315378	-0.004578
496.534227	-0.008842
496.753059	0.000365
496.971872	0.002980
497.190667	0.135882
497.409444	0.178276
497.628203	0.191151
497.846943	0.198891
498.065665	0.203948
498.284369	0.206748
498.503055	0.209942
498.721723	0.211205
498.940372	0.211341
499.159003	0.211422
499.377616	0.211625
499.596210	0.212168
499.814787	0.212247
500.033345	0.212424
500.251885	0.212385
500.470406	0.211143
500.688910	0.211112
500.907395	0.211576
501.125862	0.212273
501.344311	0.212213
501.562742	0.211329
501.781154	0.210632
501.999548	0.210684
502.217924	0.211696
502.436282	0.214006
502.654621	0.214769
502.872942	0.215184
503.091245	0.214949
503.309530	0.214163
503.527797	0.215155
503.746045	0.215015
503.964275	0.215639
504.182487	0.215172
504.400681	0.214618
504.618856	0.214025
504.837013	0.213981
505.055152	0.213465
505.273273	0.214285
505.491376	0.213435
505.709460	0.214905
505.927526	0.213787
506.145574	0.213299
506.363604	0.213397
506.581615	0.214772
506.799608	0.215954
507.017583	0.216692
507.235540	0.216232
507.453478	0.216855
507.671399	0.215369
507.889301	0.215843
508.107185	0.216163
508.325050	0.216710
508.542898	0.215663
508.760727	0.213642
508.978538	0.213371
509.196330	0.214462
509.414105	0.214549
509.631861	0.216464
509.849599	0.215941
510.067319	0.216342
510.285021	0.215934
510.502704	0.215864
510.720369	0.218107
510.938016	0.218646
511.155645	0.218469
511.373255	0.218931
511.590848	0.218357
511.808422	0.220569
512.025977	0.220407
512.243515	0.220028
512.461034	0.220995
512.678536	0.219431
512.896018	0.219893
513.113483	0.220575
513.330930	0.220786
513.548358	0.221189
513.765768	0.219527
513.983160	0.220272
514.200533	0.221422
514.417889	0.222651
514.635226	0.224881
514.852545	0.224784
515.069845	0.225031
515.287128	0.225446
515.504392	0.224651
515.721638	0.225531
515.938866	0.225024
516.156075	0.225057
516.373267	0.224314
516.590440	0.223876
516.807594	0.223430
517.024731	0.223173
517.241850	0.223402
517.458950	0.223948
517.676032	0.224720
517.893095	0.224916
518.110141	0.225211
518.327168	0.226021
518.544177	0.226760
518.761168	0.227662
518.978141	0.228312
519.195095	0.228988
519.412031	0.229884
519.628949	0.229951
519.845849	0.231570
520.062731	0.232192
520.279594	0.232343
520.496439	0.232016
520.713266	0.231515
520.930074	0.232237
521.146865	0.232317
521.363637	0.232840
521.580391	0.232911
521.797127	0.232684
522.013844	0.232028
522.230543	0.231818
522.447224	0.232374
522.663887	0.233104
522.880532	0.233490
523.097158	0.233664
523.313766	0.233487
523.530356	0.233519
523.746928	0.234179
523.963481	0.234936
524.180017	0.235885
524.396534	0.235438
524.613032	0.236512
524.829513	0.236423
525.045975	0.236979
525.262420	0.237834
525.478845	0.238833
525.695253	0.238689
525.911643	0.238982
526.128014	0.238228
526.344367	0.238661
526.560702	0.239405
526.777018	0.239456
526.993316	0.238686
527.209597	0.238435
527.425858	0.238583
527.642102	0.238935
527.858328	0.239242
528.074535	0.240358
528.290724	0.241253
528.506894	0.240915
528.723047	0.241619
528.939181	0.242007
529.155297	0.243922
529.371395	0.244211
529.587475	0.244751
529.803536	0.244810
530.019579	0.244869
530.235604	0.245102
530.451611	0.245544
530.667600	0.245117
530.883570	0.246267
531.099522	0.245384
531.315456	0.245663
531.531372	0.245890
531.747269	0.246989
531.963148	0.247517
532.179009	0.247316
532.394852	0.247628
532.610676	0.248044
532.826482	0.248110
533.042271	0.248274
533.258040	0.248976
533.473792	0.248970
533.689525	0.248547
533.905240	0.249109
534.120937	0.249143
534.336616	0.249340
534.552277	0.249743
534.767919	0.250025
534.983543	0.250126
535.199149	0.250061
535.414736	0.250046
535.630306	0.251138
535.845857	0.251831
536.061390	0.253437
536.276904	0.253780
536.492401	0.254341
536.707879	0.254557
536.923339	0.254815
537.138781	0.255022
537.354204	0.256315
537.569610	0.255817
537.784997	0.255729
538.000366	0.255461
538.215716	0.255054
538.431049	0.255581
538.646363	0.256466
538.861659	0.256614
539.076937	0.257169
539.292196	0.256908
539.507438	0.257891
539.722661	0.257459
539.937866	0.257628
540.153052	0.259095
540.368221	0.259466
540.583371	0.259621
540.798503	0.260710
541.013617	0.261627
541.228712	0.261969
541.443789	0.262487
541.658848	0.262661
541.873889	0.262573
542.088912	0.262938
542.303916	0.263301
542.518902	0.263002
542.733870	0.262965
542.948820	0.262744
543.163752	0.263396
543.378665	0.263179
543.593560	0.264539
543.808437	0.264617
544.023295	0.264419
544.238136	0.264255
544.452958	0.265281
544.667762	0.265839
544.882548	0.266530
545.097315	0.266929
545.312064	0.267076
545.526795	0.266814
545.741508	0.268322
545.956203	0.269332
546.170879	0.270260
546.385537	0.270342
546.600177	0.270532
546.814799	0.270716
547.029402	0.270725
547.243988	0.271561
547.458555	0.271883
547.673103	0.272296
547.887634	0.271775
548.102146	0.271939
548.316640	0.271726
548.531116	0.272182
548.745574	0.272478
548.960013	0.273108
549.174435	0.272910
549.388838	0.273411
549.603222	0.273487
549.817589	0.274118
550.031937	0.274538
550.246267	0.275385
550.460579	0.275562
550.674873	0.275440
550.889148	0.275405
551.103405	0.276188
551.317644	0.276649
551.531865	0.276711
551.746068	0.276529
551.960252	0.276541
552.174418	0.276720
552.388566	0.276697
552.602696	0.276902
552.816807	0.277641
553.030900	0.277154
553.244975	0.277763
553.459032	0.277721
553.673070	0.278210
553.887091	0.278065
554.101093	0.278529
554.315077	0.278746
554.529042	0.279136
554.742990	0.278418
554.956919	0.279122
555.170830	0.278565
555.384722	0.279036
555.598597	0.279402
555.812453	0.279717
556.026291	0.279421
556.240111	0.280044
556.453913	0.280886
556.667696	0.281531
556.881461	0.281806
557.095208	0.281930
557.308937	0.282437
557.522647	0.282379
557.736339	0.282646
557.950013	0.283240
558.163669	0.283211
558.377307	0.282986
558.590926	0.283797
558.804527	0.284210
559.018110	0.284888
559.231675	0.284686
559.445221	0.284978
559.658749	0.285750
559.872259	0.286363
560.085751	0.286942
560.299225	0.287722
560.512680	0.287091
560.726117	0.286467
560.939536	0.286692
561.152937	0.286941
561.366319	0.287451
561.579683	0.287365
561.793029	0.287353
562.006357	0.287439
562.219667	0.287253
562.432958	0.287515
562.646231	0.288083
562.859486	0.288397
563.072723	0.288327
563.285941	0.288541
563.499141	0.288671
563.712323	0.288876
563.925487	0.288945
564.138632	0.288699
564.351760	0.289009
564.564869	0.289498
564.777960	0.288835
564.991032	0.289494
565.204087	0.289579
565.417123	0.289318
565.630141	0.289241
565.843140	0.289653
566.056122	0.290015
566.269085	0.290896
566.482030	0.290748
566.694957	0.291614
566.907866	0.291703
567.120756	0.291984
567.333628	0.292728
567.546482	0.292722
567.759318	0.292894
567.972135	0.293093
568.184935	0.292442
568.397716	0.292317
568.610478	0.292341
568.823223	0.292631
569.035949	0.292708
569.248657	0.292743
569.461347	0.293322
569.674019	0.293390
569.886672	0.293418
570.099308	0.294198
570.311925	0.294961
570.524523	0.294893
570.737104	0.295551
570.949666	0.295767
571.162210	0.295757
571.374736	0.295968
571.587244	0.296492
571.799733	0.296970
572.012205	0.296946
572.224658	0.297325
572.437092	0.297637
572.649509	0.297330
572.861907	0.297650
573.074287	0.298020
573.286649	0.298096
573.498993	0.298185
573.711318	0.298365
573.923625	0.298792
574.135914	0.298718
574.348185	0.299225
574.560438	0.299170
574.772672	0.299359
574.984888	0.299358
575.197086	0.299696
575.409266	0.299468
575.621427	0.299886
575.833570	0.299814
576.045695	0.300365
576.257802	0.300579
576.469890	0.300772
576.681961	0.301130
576.894013	0.301621
577.106046	0.301877
577.318062	0.302041
577.530059	0.302194
577.742039	0.301976
577.954000	0.301620
578.165942	0.301848
578.377867	0.302096
578.589773	0.301594
578.801661	0.301556
579.013531	0.301568
579.225382	0.301834
579.437216	0.301288
579.649031	0.301916
579.860828	0.302457
580.072606	0.302320
580.284367	0.302896
580.496109	0.303339
580.707833	0.303534
580.919539	0.303700
581.131227	0.303958
581.342896	0.304293
581.554547	0.304732
581.766180	0.304940
581.977795	0.305233
582.189391	0.304875
582.400969	0.305137
582.612529	0.305810
582.824071	0.306262
583.035595	0.306512
583.247100	0.306959
583.458587	0.306666
583.670056	0.307281
583.881506	0.307472
584.092939	0.307647
584.304353	0.307967
584.515749	0.307722
584.727127	0.307677
584.938486	0.307884
585.149828	0.308447
585.361151	0.309173
585.572456	0.309741
585.783742	0.310206
585.995011	0.310711
586.206261	0.310682
586.417493	0.310887
586.628706	0.311242
586.839902	0.311600
587.051079	0.311889
587.262238	0.311944
587.473379	0.311617
587.684502	0.311706
587.895606	0.311952
588.106692	0.312323
588.317760	0.312868
588.528810	0.313064
588.739841	0.313071
588.950855	0.312485
589.161850	0.312653
589.372827	0.312603
589.583785	0.312723
589.794726	0.312813
590.005648	0.313113
590.216552	0.313006
590.427437	0.312856
590.638305	0.313274
590.849154	0.314105
591.059985	0.314439
591.270798	0.314646
591.481592	0.315174
591.692369	0.315416
591.903127	0.315473
592.113867	0.315992
592.324588	0.316735
592.535292	0.316639
592.745977	0.316589
592.956644	0.316584
593.167293	0.316325
593.377923	0.316098
593.588536	0.316304
593.799130	0.316338
594.009706	0.316387
594.220263	0.316020
594.430803	0.316179
594.641324	0.316456
594.851827	0.316809
595.062312	0.317342
595.272778	0.317891
595.483227	0.317777
595.693657	0.318447
595.904069	0.318549
596.114462	0.318865
596.324838	0.319376
596.535195	0.319770
596.745534	0.320151
596.955855	0.320306
597.166157	0.320038
597.376441	0.320203
597.586707	0.319872
597.796955	0.320100
598.007185	0.320413
598.217396	0.320433
598.427589	0.320306
598.637764	0.320077
598.847921	0.319940
599.058060	0.320340
599.268180	0.320686
599.478282	0.320880
599.688366	0.320673
599.898431	0.320530
600.108479	0.320790
600.318508	0.321031
600.528519	0.321274
600.738511	0.321631
600.948486	0.321923
601.158442	0.322334
601.368380	0.322673
601.578300	0.323219
601.788202	0.323609
601.998085	0.323548
602.207950	0.323431
602.417797	0.323483
602.627626	0.323950
602.837436	0.323883
603.047228	0.323729
603.257002	0.324025
603.466758	0.323961
603.676496	0.324110
603.886215	0.324267
604.095916	0.324319
604.305599	0.324426
604.515264	0.324506
604.724910	0.324502
604.934538	0.324762
605.144148	0.324799
605.353740	0.325408
605.563314	0.325494
605.772869	0.325472
605.982406	0.325837
606.191925	0.326228
606.401425	0.326574
606.610908	0.327347
606.820372	0.327646
607.029818	0.327556
607.239246	0.327565
607.448655	0.328107
607.658047	0.328246
607.867420	0.328854
608.076775	0.328650
608.286111	0.328749
608.495430	0.328290
608.704730	0.328374
608.914012	0.328612
609.123275	0.328513
609.332521	0.328417
609.541748	0.328873
609.750957	0.328625
609.960148	0.329013
610.169321	0.328800
610.378475	0.329283
610.587611	0.329345
610.796729	0.329210
611.005829	0.329424
611.214910	0.329708
611.423974	0.329604
611.633019	0.329630
611.842045	0.329772
612.051054	0.330152
612.260044	0.330389
612.469017	0.330967
612.677970	0.331614
612.886906	0.332149
613.095824	0.332374
613.304723	0.332794
613.513604	0.333652
613.722467	0.333904
613.931311	0.333841
614.140138	0.333862
614.348946	0.333936
614.557736	0.333734
614.766507	0.333567
614.975261	0.333613
615.183996	0.333734
615.392713	0.333660
615.601412	0.333400
615.810092	0.333830
616.018754	0.333833
616.227399	0.333469
616.436024	0.334183
616.644632	0.334391
616.853222	0.334376
617.061793	0.334371
617.270346	0.334302
617.478880	0.334502
617.687397	0.334587
617.895895	0.334859
618.104375	0.335219
618.312837	0.335139
618.521281	0.335620
618.729706	0.336030
618.938113	0.336159
619.146502	0.336239
619.354873	0.336636
619.563226	0.336790
619.771560	0.336785
619.979876	0.336822
620.188174	0.336732
620.396453	0.336557
620.604715	0.336277
620.812958	0.336552
621.021183	0.336558
621.229390	0.336719
621.437578	0.336756
621.645748	0.336980
621.853900	0.337105
622.062034	0.337120
622.270150	0.337077
622.478247	0.337716
622.686326	0.337819
622.894387	0.338260
623.102430	0.338420
623.310454	0.338752
623.518461	0.338784
623.726449	0.339143
623.934418	0.339659
624.142370	0.340035
624.350303	0.339741
624.558218	0.340035
624.766115	0.340370
624.973994	0.340662
625.181855	0.340808
625.389697	0.340854
625.597521	0.341078
625.805327	0.341482
626.013114	0.341319
626.220883	0.341202
626.428634	0.341193
626.636367	0.341014
626.844082	0.341253
627.051778	0.341161
627.259457	0.341658
627.467117	0.342191
627.674758	0.342251
627.882382	0.342944
628.089987	0.343449
628.297574	0.343589
628.505143	0.344048
628.712694	0.344095
628.920226	0.344543
629.127740	0.344770
629.335236	0.344162
629.542714	0.344452
629.750174	0.344555
629.957615	0.344764
630.165038	0.345171
630.372443	0.345162
630.579829	0.345287
630.787198	0.345534
630.994548	0.345824
631.201880	0.346559
631.409194	0.346738
631.616489	0.346804
631.823766	0.347126
632.031025	0.347112
632.238266	0.347270
632.445489	0.347671
632.652693	0.347782
632.859879	0.347629
633.067047	0.347625
633.274197	0.347608
633.481329	0.347604
633.688442	0.347543
633.895537	0.347959
634.102614	0.348184
634.309672	0.348419
634.516713	0.348418
634.723735	0.348705
634.930739	0.349008
635.137724	0.348937
635.344692	0.349078
635.551641	0.349451
635.758572	0.349340
635.965485	0.349315
636.172379	0.349101
636.379256	0.349439
636.586114	0.349699
636.792954	0.349542
636.999775	0.349775
637.206579	0.350118
637.413364	0.350218
637.620131	0.350645
637.826880	0.351092
638.033610	0.351288
638.240323	0.351215
638.447017	0.351387
638.653692	0.351555
638.860350	0.352144
639.066990	0.352496
639.273611	0.353124
639.480214	0.353305
639.686798	0.353368
639.893365	0.353891
640.099913	0.354404
640.306443	0.354609
640.512955	0.355231
640.719449	0.355383
640.925924	0.355444
641.132381	0.355097
641.338820	0.355608
641.545241	0.355653
641.751644	0.355506
641.958028	0.355696
642.164394	0.355947
642.370742	0.356111
642.577071	0.355816
642.783383	0.355943
642.989676	0.356374
643.195951	0.356261
643.402207	0.356803
643.608446	0.357239
643.814666	0.357550
644.020868	0.357517
644.227052	0.357433
644.433218	0.357977
644.639365	0.358127
644.845494	0.358314
645.051605	0.358715
645.257698	0.358782
645.463772	0.358959
645.669828	0.359055
645.875866	0.359419
646.081886	0.359608
646.287888	0.360207
646.493871	0.360505
646.699836	0.360752
646.905783	0.360678
647.111712	0.361129
647.317622	0.361389
647.523514	0.361559
647.729388	0.361603
647.935244	0.362185
648.141082	0.362086
648.346901	0.362221
648.552702	0.362628
648.758485	0.363012
648.964250	0.362884
649.169996	0.362672
649.375724	0.362779
649.581434	0.362952
649.787126	0.362920
649.992800	0.362735
650.198455	0.363234
650.404092	0.363123
650.609711	0.363106
650.815311	0.363101
651.020894	0.363630
651.226458	0.363992
651.432004	0.364565
651.637532	0.365060
651.843041	0.365516
652.048532	0.365748
652.254006	0.365890
652.459460	0.366446
652.664897	0.366979
652.870315	0.367397
653.075716	0.367815
653.281097	0.368024
653.486461	0.367998
653.691807	0.368034
653.897134	0.368125
654.102443	0.368427
654.307734	0.368252
654.513006	0.368546
654.718261	0.368614
654.923497	0.368359
655.128715	0.368217
655.333915	0.368405
655.539096	0.368727
655.744259	0.368619
655.949404	0.368706
656.154531	0.369219
656.359640	0.369640
656.564730	0.369478
656.769802	0.369980
656.974856	0.370385
657.179892	0.370572
657.384909	0.370966
657.589908	0.371397
657.794889	0.372004
657.999852	0.371995
658.204797	0.372079
658.409723	0.372681
658.614631	0.372528
658.819521	0.372599
659.024393	0.372857
659.229246	0.372966
659.434081	0.373279
659.638898	0.373289
659.843697	0.373552
660.048478	0.373721
660.253240	0.373866
660.457984	0.374248
660.662710	0.374645
660.867417	0.374977
661.072107	0.375397
661.276778	0.375543
661.481431	0.375784
661.686066	0.376075
661.890682	0.376228
662.095281	0.376269
662.299861	0.376585
662.504422	0.376990
662.708966	0.377374
662.913491	0.377575
663.117999	0.377878
663.322488	0.378197
663.526958	0.378355
663.731411	0.378727
663.935845	0.379238
664.140261	0.379660
664.344659	0.379669
664.549038	0.379644
664.753400	0.379843
664.957743	0.379979
665.162068	0.380125
665.366375	0.380409
665.570663	0.380572
665.774933	0.380710
665.979185	0.380776
666.183419	0.381007
666.387635	0.381346
666.591832	0.381411
666.796011	0.381650
667.000172	0.381786
667.204315	0.382040
667.408439	0.382085
667.612545	0.382078
667.816634	0.382408
668.020703	0.382677
668.224755	0.382957
668.428788	0.383069
668.632803	0.383598
668.836800	0.384044
669.040779	0.384326
669.244739	0.384763
669.448681	0.385361
669.652605	0.385591
669.856511	0.386040
670.060399	0.385986
670.264268	0.386176
670.468119	0.385871
670.671952	0.385912
670.875767	0.385992
671.079563	0.386206
671.283341	0.386285
671.487101	0.386503
671.690843	0.386638
671.894567	0.386974
672.098272	0.387571
672.301959	0.387879
672.505628	0.388338
672.709278	0.388803
672.912911	0.389249
673.116525	0.389492
673.320121	0.389698
673.523699	0.390124
673.727258	0.390548
673.930799	0.390844
674.134322	0.391377
674.337827	0.391825
674.541314	0.392085
674.744782	0.392205
674.948232	0.392725
675.151664	0.392841
675.355078	0.392729
675.558474	0.392655
675.761851	0.392476
675.965210	0.392865
676.168551	0.392921
676.371873	0.393211
676.575178	0.393100
676.778464	0.393362
676.981732	0.393638
677.184981	0.394082
677.388213	0.394531
677.591426	0.395121
677.794621	0.395308
677.997798	0.395450
678.200956	0.395585
678.404097	0.396255
678.607219	0.396599
678.810323	0.396987
679.013408	0.397386
679.216476	0.397772
679.419525	0.398041
679.622556	0.398291
679.825569	0.398774
680.028563	0.399128
680.231540	0.399347
680.434498	0.399580
680.637438	0.399829
680.840359	0.400043
681.043263	0.400306
681.246148	0.400709
681.449015	0.400919
681.651864	0.400890
681.854694	0.400983
682.057506	0.400904
682.260301	0.400893
682.463076	0.401111
682.665834	0.400979
682.868573	0.401332
683.071295	0.401357
683.273998	0.401519
683.476682	0.401788
683.679349	0.402104
683.881997	0.402747
684.084627	0.402951
684.287239	0.403164
684.489833	0.403782
684.692408	0.403751
684.894965	0.404034
685.097504	0.404295
685.300025	0.404395
685.502527	0.404768
685.705012	0.404848
685.907478	0.404870
686.109925	0.405038
686.312355	0.405212
686.514766	0.405280
686.717159	0.405711
686.919534	0.406177
687.121891	0.406705
687.324230	0.406829
687.526550	0.406999
687.728852	0.407268
687.931136	0.407419
688.133401	0.407366
688.335649	0.407735
688.537878	0.407376
688.740089	0.407070
688.942281	0.407166
689.144456	0.407015
689.346612	0.406970
689.548750	0.407002
689.750870	0.407208
689.952971	0.407354
690.155055	0.407374
690.357120	0.407977
690.559167	0.408565
690.761195	0.408510
690.963206	0.408971
691.165198	0.409291
691.367172	0.409923
691.569128	0.410086
691.771065	0.410729
691.972984	0.410669
692.174885	0.410825
692.376768	0.411214
692.578633	0.411517
692.780479	0.411565
692.982308	0.411716
693.184118	0.412005
693.385909	0.412313
