sample name	sample
index	420
start time	 03-08-2021  11:32:04 AM
880	0.470490
Peak Time (s)	92.035
Peak Height 	0.4705
calc peak height	90,93
Baseline Time (s)	9.534
Baseline Value 	-0.006289
subtract baseline	10,4
Abs	0.328334
Peak Time (s)	91.035
Peak Height 	0.3283
calc peak height	90,93
Baseline Time (s)	9.534
Baseline Value 	0.004668
subtract baseline	10,3
PK_550	0.158744
Peak Time (s)	90.535
Peak Height 	0.1587
calc peak height	90,93
Baseline Time (s)	8.537
Baseline Value 	5.8885E-4
subtract baseline	10,2
PK_880	0.315385
Peak Time (s)	91.535
Peak Height 	0.3154
calc peak height	90,93
Baseline Time (s)	8.537
Baseline Value 	0.004439
subtract baseline	10,1


Time (s)	A880-A510	A880-A775	A880-A975	A880	I510	I775	I975	I880	
0.035000	-0.001434	-0.000590	-0.002931	0.002346	6963.907572	46923.598792	3980.797125	24721.724360
0.538000	-0.004296	-0.001111	-0.002237	0.006813	6895.135454	46420.753395	3970.841369	24497.883429
1.035500	-0.002913	-0.000564	-0.000674	0.004089	6933.527748	46749.851108	3982.163261	24634.127496
1.536500	-0.001690	-0.000244	0.002273	0.001936	6965.360526	47000.299148	3995.778785	24742.401301
2.036000	-0.001732	0.000195	0.002708	0.002076	6963.646201	47030.707655	3996.569775	24735.347635
2.536500	-0.005779	-0.000742	-0.000438	0.005263	6895.755579	46613.469770	3979.675166	24575.270329
3.036500	-0.000447	-0.000113	-0.000909	-0.000679	7002.052922	47280.205095	3994.257948	24874.669431
3.536500	-0.001071	-0.000838	-0.006496	-0.000474	6994.142432	47185.253552	3978.825271	24864.276393
4.037500	-0.000830	-0.000381	0.002534	0.000208	6989.940539	47162.317029	4001.132887	24829.718659
4.535000	-0.005086	-0.000117	-0.001651	0.005154	6903.224951	46687.388111	3976.754764	24580.721598
5.035000	-0.000129	-0.000038	0.005435	0.000222	6996.487406	47195.847251	4008.945167	24829.002226
5.535000	-0.001034	-0.001173	-0.001891	-0.000608	6995.765401	47164.739093	3991.433944	24871.039394
6.035500	-0.000866	-0.000382	0.000893	0.000028	6991.305794	47180.473238	3997.196459	24838.809595
6.535500	-0.000093	0.000428	-0.003007	0.000767	6991.638016	47187.775665	3984.791769	24801.440555
7.036500	0.000165	-0.000076	0.000155	0.000767	6994.093468	47136.371017	3993.231113	24801.425296
7.536500	-0.000196	-0.000121	0.001306	-0.000004	6997.999601	47210.405247	3998.392868	24840.445469
8.036500	-0.000715	0.000005	-0.002984	0.000002	6992.992648	47222.590948	3986.887666	24840.110314
8.536500	0.000000	0.000000	-0.000736	0.000159	6998.319472	47206.166691	3992.474826	24832.201722
9.037500	0.000115	0.000236	0.001712	0.000092	7000.057414	47237.074493	3999.228270	24835.599239
9.534500	0.000143	0.000134	0.000000	0.000000	7001.194549	47236.009032	3994.873066	24840.235266
10.038000	-0.001311	-0.000380	-0.000679	-0.000110	6988.378639	47194.736049	3993.346514	24845.798556
10.535000	0.000164	-0.000151	0.000283	-0.000093	7002.281733	47216.449364	3995.880656	24844.933196
11.036000	-0.001005	-0.000067	0.002216	-0.000074	6990.954351	47223.046024	4001.033477	24843.963217
11.536000	-0.000044	0.000514	-0.005274	0.000002	6999.391882	47274.663570	3980.802685	24840.138077
12.035500	-0.003614	-0.000286	-0.002373	-0.000141	6966.817483	47207.594301	3988.900920	24847.387839
12.536500	-0.001282	-0.000652	-0.000287	-0.000495	6992.327808	47206.301860	3995.430688	24865.297002
13.037000	-0.000539	-0.000250	-0.004814	-0.001929	7013.130693	47394.151000	3987.158146	24938.172705
13.537000	-0.001069	0.000657	0.000552	0.000344	6986.370779	47254.328884	3995.432427	24822.822282
14.035000	-0.003132	-0.000353	0.003315	0.001245	6958.259494	47059.533002	4000.442408	24777.288545
14.536000	-0.003271	-0.000039	0.000670	0.002978	6940.605459	46915.371127	3988.696334	24689.925286
15.035000	-0.000861	-0.000451	0.000987	0.000015	6991.479119	47174.823149	3997.485651	24839.488902
15.568500	-0.002521	0.000116	-0.002569	0.000375	6972.280476	47195.912510	3986.999694	24821.254811
16.036000	-0.000106	0.000971	0.002912	0.001423	6985.263041	47176.202877	3998.876351	24768.273772
16.536500	-0.003114	-0.000495	0.003802	-0.000324	6973.288656	47204.887031	4005.996810	24856.648850
17.036500	-0.000202	0.000053	-0.002757	-0.000355	7001.297171	47264.052477	3988.445168	24858.232773
17.537000	0.001041	0.000994	-0.000549	-0.001892	7027.919729	47517.930839	3998.482345	24936.254796
18.036500	-0.001693	0.000701	-0.005118	0.002050	6964.259459	47084.826037	3975.797351	24736.645399
18.534500	-0.000059	0.000828	0.001703	0.002273	6977.625087	47075.039894	3993.345172	24725.400696
19.034500	-0.001397	0.000439	0.000646	0.001884	6968.632552	47075.076717	3991.556557	24745.037659
19.537500	-0.002088	0.000195	0.002489	0.001772	6963.148806	47061.667478	3996.800285	24750.691011
20.035500	-0.001798	0.000253	0.002260	0.002502	6958.985947	46993.277881	3994.223762	24713.855568
20.536000	-0.001405	0.000646	-0.000584	0.002209	6965.481923	47063.121694	3987.402479	24728.641611
21.036000	-0.001227	-0.000390	-0.004279	0.001154	6977.166083	47064.950912	3980.385096	24781.846448
21.536500	-0.003304	-0.000472	-0.001061	0.001491	6954.313587	47022.398946	3988.045912	24764.864402
22.036500	-0.003503	0.000275	-0.000628	0.001862	6948.933451	47060.643032	3988.211130	24746.116443
22.537000	-0.000860	-0.000105	0.001330	0.001425	6978.084191	47066.447462	3994.618663	24768.198778
23.037000	-0.001533	-0.000451	-0.001086	0.000763	6977.970996	47098.619214	3989.921972	24801.632825
23.537500	-0.002205	0.000495	-0.002231	0.002048	6959.429684	47064.069180	3983.447426	24736.730260
24.037500	-0.002241	-0.000172	-0.001143	0.001677	6962.597951	47033.927770	3987.329148	24755.436952
24.535500	-0.001856	0.000509	0.000654	0.002182	6961.461508	47051.874982	3990.779906	24729.997374
25.035500	-0.001548	0.000373	-0.001618	0.001768	6968.300823	47080.151247	3985.822668	24750.859253
25.535500	-0.003548	0.001101	-0.000195	0.001826	6948.846986	47148.339646	3989.462313	24747.935354
26.036000	-0.001571	-0.000189	-0.003211	0.001452	6971.073379	47055.080284	3982.425771	24766.810348
26.536500	-0.003507	0.001207	0.002615	0.002291	6944.855179	47111.838938	3995.744599	24724.519932
27.036500	-0.000238	0.000691	-0.000124	0.002074	6977.825982	47081.383006	3988.992205	24735.462269
27.537000	-0.002149	-0.000153	0.003744	-0.000897	6987.892856	47298.311719	4007.392554	24885.694344
28.037000	-0.001679	0.000677	0.003563	-0.001192	6995.182628	47413.600914	4007.700973	24900.683007
28.537500	0.000498	0.001685	0.002065	0.001320	6991.992225	47259.608146	3996.872118	24773.468844
29.035000	-0.001235	-0.000112	0.004682	-0.000460	6992.444757	47257.893424	4008.754025	24863.556416
29.535000	-0.000585	0.000605	0.001698	0.000264	6991.732732	47257.209575	3998.727727	24826.855043
30.035500	-0.001149	0.000344	0.002498	0.000160	6987.353365	47241.160009	4001.164440	24832.140537
30.536000	-0.001763	-0.000355	0.001542	0.002233	6961.861716	46958.879514	3993.019091	24727.424516
31.056500	-0.001143	0.000053	-0.000638	-0.000183	6990.684087	47246.497901	3993.652454	24849.507076
31.537000	-0.002814	0.000675	0.002316	0.004060	6934.725359	46878.083041	3990.201093	24635.548202
32.036500	-0.001595	0.000373	-0.001013	0.001369	6971.634955	47120.795460	3988.498514	24771.023862
32.572500	-0.001899	0.000610	0.004163	0.003260	6950.871745	46952.566358	3997.296541	24675.716189
33.037000	-0.000302	0.000171	0.005115	0.000046	6996.515619	47235.197777	4008.554776	24837.916229
33.540500	-0.000761	0.000548	0.003389	0.000179	6990.877867	47260.082154	4003.520592	24831.190354
34.037500	-0.002349	-0.000125	0.002449	-0.000057	6978.013932	47215.391519	4001.617626	24843.110613
34.535500	-0.002200	-0.000189	0.001678	0.003253	6948.102796	46872.347533	3990.654745	24676.106664
35.035500	-0.001481	-0.000112	0.003551	0.002435	6962.610007	46963.059512	3997.869948	24717.227398
35.536000	-0.001418	0.000265	0.004346	0.002885	6958.961736	46955.682195	3998.800766	24694.615158
36.036500	-0.003390	0.001123	0.002797	0.003380	6935.707204	46992.465748	3993.310451	24669.702081
36.537000	-0.003972	-0.000469	-0.000009	0.001786	6945.226582	46992.660757	3990.064571	24749.949977
37.037000	0.000280	0.000173	0.000334	0.002582	6977.913287	46977.073572	3988.854563	24709.824616
37.537500	-0.000365	0.000178	-0.000339	0.002715	6970.532850	46964.091063	3986.706216	24703.153091
38.034500	-0.004373	-0.000586	-0.006839	0.001995	6939.488334	46959.607510	3971.405929	24739.405241
38.535000	-0.002693	0.000685	0.001651	0.003231	6943.670661	46963.214201	3990.641215	24677.195163
39.035000	-0.002664	0.000222	-0.002684	0.002999	6946.124383	46939.740442	3979.722951	24688.846386
39.535500	-0.002921	0.000417	0.000849	0.002693	6946.582844	46990.563030	3989.934366	24704.257111
40.036000	-0.002299	0.000419	-0.000798	0.002731	6952.099199	46986.962345	3985.443552	24702.370242
40.536500	-0.001945	-0.000312	0.001634	0.002721	6955.535112	46913.838413	3991.961373	24702.877281
41.037000	-0.004793	-0.001364	-0.001417	0.001325	6941.840275	46948.658988	3987.539673	24773.233192
41.536500	-0.002706	0.000561	0.000179	0.002993	6945.784107	46974.690620	3987.345828	24689.156604
42.037000	-0.002951	0.000289	0.005576	0.002759	6945.682128	46970.834556	4002.455662	24700.920779
42.537500	-0.002622	0.000184	0.003969	0.002529	6950.947340	46983.546122	3998.743668	24712.507052
43.038000	-0.002594	0.000307	-0.000635	0.002712	6949.490037	46977.460220	3985.924625	24703.282076
43.535000	-0.001192	0.000973	-0.001163	0.003118	6958.901260	47003.920487	3983.442537	24682.895655
44.035500	-0.001378	-0.000149	0.001541	0.002555	6962.454173	46947.163024	3992.155889	24711.195839
44.535500	-0.000471	-0.000091	-0.001718	0.002065	6975.694798	47002.754463	3984.764572	24735.879879
45.039000	0.000177	0.000609	0.003732	-0.000226	7003.685674	47307.767848	4005.543760	24851.709402
45.536500	-0.001076	0.000268	-0.001799	0.000237	6987.317741	47225.530746	3989.421895	24828.220522
46.056500	-0.000905	0.000844	0.007336	0.001404	6977.855331	47165.250912	4010.901839	24769.255964
46.537000	0.000429	0.000095	0.003018	0.002497	6980.142547	46977.824474	3996.273302	24714.142025
47.037000	-0.000526	0.000328	0.001981	0.000465	6990.387686	47208.365162	3998.950043	24816.707853
47.537000	0.000300	0.001271	0.002596	0.001162	6991.615535	47233.509093	3998.729087	24781.483255
48.034000	-0.002089	-0.000264	0.002189	0.001325	6967.373278	47060.437275	3997.194204	24773.250339
48.535500	-0.003325	0.000825	0.000384	0.003699	6933.320627	46929.907480	3986.011778	24653.680865
49.035500	-0.002516	0.000858	-0.001095	0.003732	6940.616823	46929.819936	3981.990229	24652.010522
49.536000	-0.001312	-0.000620	0.001298	-0.000409	6991.220070	47200.826565	3999.462911	24860.941176
50.036000	-0.002011	-0.000264	-0.002481	0.001707	6964.498201	47021.661465	3983.691224	24753.971993
50.536500	-0.000660	0.000160	0.004018	0.001030	6983.737753	47133.606215	4002.919831	24788.143438
51.036000	0.000054	0.000593	0.000345	-0.000797	7007.966472	47364.521063	3997.939527	24880.624523
51.537500	0.000949	0.000506	0.004548	-0.000951	7018.010815	47371.323334	4009.721663	24888.455922
52.036500	-0.002939	-0.000101	0.002266	0.005689	6918.278175	46635.047128	3985.723413	24553.954471
52.537500	-0.015796	-0.011080	0.001557	0.173571	5534.690822	31865.040581	3613.741872	17593.512691
53.035000	-0.038067	-0.028215	-0.000551	-0.028562	6910.088230	47257.801742	4072.515136	26335.477397
53.534500	-0.020996	-0.026086	0.005402	-0.096138	7782.935275	54983.798261	4301.830882	30290.462910
54.035500	-0.013240	-0.026636	0.014078	-0.106859	7997.160096	56218.373030	4369.078677	30976.397426
54.536000	-0.015050	-0.018873	0.016981	-0.063026	7484.071503	51967.431755	4230.608136	28275.624707
55.036500	0.006295	-0.006493	0.019266	-0.039339	7459.159515	50705.959900	4163.236075	26925.687440
55.543000	0.019143	-0.001022	0.038504	-0.027836	7473.450070	50046.394633	4187.205543	26296.254605
56.036500	0.061294	0.012493	0.065554	-0.054699	8269.067653	54641.843943	4366.657526	27792.670633
56.537000	0.087379	0.030516	0.091960	-0.010262	8045.009563	51587.503067	4304.144293	25366.178737
57.037500	0.114796	0.048632	0.113795	0.043912	7734.848351	47706.965229	4198.327653	22724.925212
57.535000	0.142887	0.065386	0.146333	0.110699	7318.779776	42829.140868	4094.524628	19891.073240
58.035000	0.166972	0.079572	0.171024	0.163457	7033.519189	39434.083110	4015.354353	17941.018302
58.536000	0.186273	0.093719	0.193140	0.212014	6761.247689	36649.769663	3945.311559	16344.036627
59.035500	0.202221	0.105215	0.213774	0.256258	6514.795860	34197.020157	3886.271926	15036.453214
59.536500	0.221377	0.115112	0.230242	0.291085	6385.058010	32450.060110	3842.529896	14096.892896
60.035500	0.232846	0.123950	0.239464	0.321798	6232.006634	30997.534874	3793.619258	13328.580508
60.537000	0.245306	0.130973	0.259994	0.348650	6121.907409	29742.714354	3779.687501	12699.970559
61.037000	0.257809	0.140014	0.263908	0.364369	6097.792675	29332.800319	3754.205905	12349.607228
61.537000	0.265449	0.143288	0.270917	0.373393	6087.469471	28984.891259	3749.924858	12154.139787
62.037500	0.267050	0.146865	0.279741	0.396077	5934.250007	27861.373904	3721.016019	11680.339399
62.537500	0.273567	0.150192	0.289482	0.397456	5970.909201	27973.645664	3738.346773	11652.321670
63.035500	0.278745	0.153749	0.284704	0.367722	6231.814139	29972.725974	3792.100453	12276.500624
63.536000	0.279739	0.157894	0.291472	0.376371	6172.802660	29693.278306	3787.941486	12090.520855
64.058000	0.287879	0.161347	0.299470	0.377338	6228.069867	29847.192723	3803.585825	12069.958609
64.536500	0.285064	0.159500	0.293718	0.384403	6152.174928	29299.462140	3775.256556	11921.076048
65.042000	0.288679	0.161728	0.297715	0.390529	6133.162111	29063.376814	3770.633643	11793.946289
65.545000	0.287075	0.160651	0.297923	0.394993	6087.664041	28731.467697	3761.453798	11702.415241
66.040000	0.287731	0.160386	0.294981	0.400262	6053.498393	28404.183071	3744.000722	11595.597489
66.540000	0.288003	0.161822	0.300822	0.405783	6015.065238	28165.255176	3744.675571	11485.050366
67.037500	0.287630	0.161540	0.299447	0.407713	5998.343491	28036.792821	3737.736166	11446.734657
67.535500	0.290184	0.162173	0.300334	0.411306	5990.830689	27865.854856	3732.093493	11375.845746
68.035500	0.291819	0.162284	0.301148	0.414083	5982.594201	27712.984972	3728.024760	11321.475522
68.539000	0.292246	0.162793	0.300926	0.415113	5978.251939	27683.206846	3725.436825	11301.379109
69.036000	0.293587	0.163482	0.307140	0.416573	5977.395740	27639.197076	3735.298869	11272.998845
69.539000	0.292672	0.161281	0.310674	0.414989	5982.214744	27604.086606	3746.035011	11303.800987
70.036500	0.295250	0.164629	0.313091	0.418742	5973.761452	27580.987997	3743.219424	11231.006350
70.537000	0.297629	0.163392	0.309794	0.417217	6001.935486	27597.455669	3739.501335	11260.522154
71.037500	0.301587	0.164994	0.313547	0.419379	6014.970423	27565.577400	3742.840687	11218.714474
71.537500	0.299095	0.164267	0.308792	0.418673	6002.004954	27564.358752	3734.365349	11232.345120
72.038000	0.300039	0.165722	0.312777	0.420831	5993.218550	27524.441271	3738.180282	11190.771946
72.535500	0.301675	0.164042	0.312196	0.419255	6016.513301	27518.517656	3740.262735	11221.101823
73.035500	0.302384	0.166028	0.318643	0.420943	6009.403721	27535.461864	3750.299843	11188.621693
73.535500	0.301593	0.164320	0.310552	0.419554	6013.741536	27517.349399	3736.196860	11215.335548
74.036000	0.302341	0.164285	0.307815	0.420976	6008.847728	27434.819674	3727.557062	11187.977367
74.536500	0.304979	0.166074	0.319170	0.422925	6013.856065	27425.824864	3747.218578	11150.618218
75.036500	0.308300	0.166306	0.317301	0.422987	6037.658439	27435.409790	3743.147590	11149.439059
75.537000	0.306417	0.165720	0.312988	0.423614	6019.304780	27366.933694	3732.813717	11137.445190
76.040000	0.307100	0.165297	0.312782	0.425696	6009.134050	27226.119011	3728.068346	11097.792216
76.534500	0.307595	0.164091	0.315591	0.424733	6019.733892	27212.431779	3735.904742	11116.101812
77.034500	0.307704	0.165981	0.318171	0.426518	6007.547693	27218.358890	3737.565699	11082.180698
77.534500	0.309758	0.165366	0.327420	0.426906	6019.665708	27162.264841	3756.285122	11074.829324
78.035500	0.311916	0.165964	0.319342	0.429312	6017.859385	27061.329772	3734.179699	11029.354214
78.536000	0.310379	0.163970	0.313418	0.428714	6011.026739	26983.787161	3723.152420	11040.636585
79.036000	0.310928	0.165559	0.321290	0.430871	5999.358341	26952.247897	3734.989400	11000.018413
79.536500	0.309131	0.163096	0.315762	0.430628	5988.123056	26829.550586	3724.038378	11004.590788
80.036500	0.309250	0.164298	0.321770	0.432421	5976.067493	26796.965873	3732.761869	10970.968046
80.534500	0.310544	0.164066	0.322033	0.434255	5972.191993	26683.452099	3729.501117	10936.719896
81.037500	0.314541	0.164323	0.321872	0.436083	5987.806002	26597.523565	3725.387680	10902.733510
81.535000	0.313986	0.164142	0.322579	0.437284	5975.154375	26522.138392	3724.369261	10880.468010
82.035000	0.311864	0.162596	0.320265	0.438708	5949.770684	26361.011270	3716.699046	10854.159644
82.536000	0.311908	0.163714	0.316517	0.440942	5934.205144	26300.772434	3704.562737	10813.066076
83.036000	0.313713	0.163218	0.319185	0.441871	5940.421419	26224.036244	3708.073674	10796.033675
83.536000	0.315109	0.163086	0.320440	0.443328	5939.987316	26138.833050	3707.666087	10769.406935
84.036000	0.311693	0.162397	0.320532	0.446661	5892.404902	25924.401786	3701.136990	10708.812155
84.537000	0.311667	0.160722	0.321135	0.444618	5906.549356	25943.945377	3706.463894	10745.903436
85.037000	0.311468	0.160294	0.323114	0.445960	5895.733302	25850.154731	3707.750606	10721.521854
85.537500	0.314566	0.161944	0.322403	0.449259	5894.328867	25763.102983	3699.679345	10661.901146
86.034500	0.312617	0.161333	0.326676	0.451712	5863.667464	25602.249184	3703.333863	10617.879592
86.535000	0.312463	0.161972	0.324705	0.452217	5859.100789	25609.261955	3698.364970	10608.837835
87.035500	0.310083	0.160153	0.325972	0.451908	5844.801588	25530.302757	3701.522647	10614.356940
87.536000	0.314495	0.161017	0.323855	0.454423	5857.899521	25444.398685	3692.273448	10569.494178
88.036000	0.311112	0.159289	0.324291	0.457642	5812.582534	25188.833965	3686.762253	10512.445909
88.536500	0.314636	0.160975	0.324622	0.457884	5835.022371	25263.111250	3686.937609	10508.169163
89.035500	0.316907	0.159998	0.326240	0.458415	5846.992260	25185.567596	3689.086920	10498.818029
89.537000	0.313063	0.159580	0.330838	0.459720	5811.713835	25097.223297	3695.627740	10475.840732
90.040000	0.311315	0.157018	0.321708	0.462375	5781.881357	24831.956865	3672.440775	10429.325071
90.534500	0.311921	0.158744	0.322846	0.462255	5786.781292	24925.475579	3674.885595	10431.422112
91.035000	0.314636	0.158243	0.328334	0.462967	5800.334574	24863.965762	3684.235100	10418.993669
91.535500	0.315385	0.158374	0.322318	0.464237	5796.805230	24806.430351	3670.015579	10396.880677
92.035500	0.314543	0.158531	0.321296	0.470490	5749.118810	24500.773162	3656.052492	10288.901302
92.536000	0.311736	0.156371	0.325610	0.464927	5767.550435	24670.870667	3675.066133	10384.885967
93.036000	0.313291	0.157258	0.326421	0.467174	5762.910340	24602.752746	3672.275110	10345.975952
93.536500	0.318505	0.156615	0.326186	0.469038	5785.437975	24477.701616	3668.211042	10313.840279
94.036500	0.309804	0.155563	0.323997	0.472710	5703.096912	24244.080193	3656.966853	10250.942798
94.537000	0.315768	0.156279	0.329619	0.470828	5755.036806	24372.268144	3671.389599	10283.114269
95.037500	0.314557	0.156125	0.328332	0.471378	5743.298050	24337.460478	3667.837934	10273.706402
95.567500	0.310662	0.154422	0.323095	0.474296	5698.329985	24110.396493	3652.241312	10223.956654
96.065000	0.314107	0.155093	0.322875	0.479739	5685.268070	23878.375899	3641.582700	10132.029924
96.535000	0.316436	0.155812	0.331720	0.475185	5730.500816	24134.892501	3667.028680	10208.864151
97.035500	0.315905	0.155060	0.325839	0.475996	5721.621870	24058.507437	3654.220379	10195.113182
97.536000	0.316851	0.155329	0.327978	0.476958	5721.524289	24024.780027	3656.461284	10178.859446
