sample name	sample
index	1178
start time	 04-26-2021  11:30:00 AM
880	0.402931
Peak Time (s)	92.536
Peak Height 	0.4029
calc peak height	90,93
Baseline Time (s)	10.535
Baseline Value 	-0.005831
subtract baseline	10,4
Abs	0.312609
Peak Time (s)	90.538
Peak Height 	0.3126
calc peak height	90,93
Baseline Time (s)	10.043
Baseline Value 	0.002306
subtract baseline	10,3
PK_550	0.173670
Peak Time (s)	90.538
Peak Height 	0.1737
calc peak height	90,93
Baseline Time (s)	8.537
Baseline Value 	6.5571E-4
subtract baseline	10,2
PK_880	0.308453
Peak Time (s)	91.535
Peak Height 	0.3085
calc peak height	90,93
Baseline Time (s)	8.537
Baseline Value 	0.002186
subtract baseline	10,1


Time (s)	A880-A510	A880-A775	A880-A975	A880	I510	I775	I975	I880	
0.040500	-0.000742	-0.001414	0.001291	0.001588	6165.855931	43786.946363	3853.894443	22672.002976
0.536000	-0.001992	0.000022	0.001094	0.005176	6129.409440	43584.744251	3845.184620	22509.043069
1.041000	-0.001568	-0.000060	0.000961	0.004902	6134.648959	43602.849008	3845.510546	22521.470672
1.538000	0.001707	-0.000654	-0.001463	0.001428	6185.679491	43873.645301	3847.918322	22679.291393
2.039000	0.001763	-0.000308	0.003874	0.001678	6184.203314	43882.656920	3859.672366	22667.898353
2.539000	-0.000260	-0.000353	-0.004070	0.002920	6159.428237	43761.428656	3838.545527	22611.365066
3.037000	0.000659	0.000630	0.003099	-0.000082	6189.212195	44138.182767	3861.965412	22748.325833
3.537000	-0.001999	-0.000628	-0.000378	-0.000137	6169.404594	44023.979908	3854.024046	22750.806490
4.038000	0.001316	-0.000422	-0.001465	0.000288	6191.397234	44003.269945	3850.536244	22731.361950
4.535000	-0.001508	0.000105	0.001615	0.000468	6168.542466	44036.147573	3857.239423	22723.159866
5.035000	-0.000285	0.000205	-0.001045	0.000153	6180.225835	44075.550688	3851.815519	22737.567915
5.538500	0.000265	-0.000217	0.008241	0.000254	6183.638823	44025.903280	3873.223579	22732.915948
6.036000	0.001551	0.000300	-0.000001	0.000731	6189.809642	44029.731475	3852.891277	22711.134055
6.536000	-0.001270	-0.000309	0.003653	0.000247	6172.026799	44017.862200	3862.490363	22733.258266
7.036500	0.000655	-0.000038	0.003138	0.000529	6184.521604	44016.837718	3860.633239	22720.364294
7.536500	-0.000851	-0.000097	0.001417	-0.000147	6178.198310	44075.321036	3858.205391	22751.288233
8.037000	0.000374	-0.000223	0.001056	0.000105	6185.609331	44039.544919	3856.784274	22739.767981
8.537500	0.000000	0.000000	0.002030	0.000101	6182.791023	44061.006261	3859.052894	22739.949038
9.035000	-0.000998	0.000019	-0.001620	0.000144	6174.865166	44058.698254	3850.511077	22737.952554
9.535000	0.000284	-0.000365	-0.003194	-0.000073	6186.272392	44042.857393	3847.389239	22747.885149
10.043000	0.000001	0.000234	0.000000	0.000186	6182.150294	44075.097737	3854.151548	22736.034767
10.535000	-0.001305	0.000202	0.000139	0.000000	6173.630894	44089.671224	3854.902723	22744.551857
11.038500	0.000371	-0.000191	-0.000005	-0.000504	6190.229219	44100.206017	3855.737677	22767.646681
11.536500	-0.000721	-0.000674	0.001129	-0.000973	6185.476323	44098.909218	3859.454474	22789.136641
12.039000	-0.000365	0.000411	0.002771	-0.000043	6181.107480	44113.612327	3861.111454	22746.529836
12.537000	-0.000195	-0.000266	0.003302	-0.000538	6186.176145	44096.338838	3863.503066	22769.210090
13.039500	0.000814	-0.000081	0.001081	-0.002485	6208.779721	44299.099902	3862.861819	22858.615461
13.537500	-0.004829	0.000349	-0.003552	0.005571	6105.290161	43578.477934	3833.704361	22491.216446
14.043000	-0.000516	0.000249	-0.000517	0.000132	6178.623815	44081.666876	3853.083090	22738.518647
14.537500	-0.001777	-0.000636	-0.003094	0.002169	6153.639789	43805.445001	3842.484658	22645.520984
15.035500	-0.000933	-0.000322	0.005762	0.000370	6173.650954	44005.035991	3867.130628	22727.629790
15.536000	-0.003026	-0.000602	-0.001277	0.005607	6118.455586	43486.085913	3838.786262	22489.570887
16.036000	0.001392	0.000294	-0.001558	0.000133	6193.163686	44085.868847	3850.678619	22738.482247
16.537000	-0.003104	-0.000393	-0.002497	0.004027	6129.689981	43653.659218	3839.607084	22561.096212
17.036500	0.000963	-0.000439	0.002866	-0.000294	6193.147282	44056.786601	3861.918453	22758.028489
17.536500	-0.002519	0.000336	-0.001300	0.005773	6120.999034	43558.319599	3838.356211	22482.061408
18.036500	-0.000324	0.000264	0.003473	0.000382	6178.189268	44059.362346	3861.755490	22727.086533
18.534500	-0.000560	0.001163	0.002725	0.003706	6151.227175	43830.165552	3852.316664	22575.667782
19.035500	-0.001368	-0.001020	-0.004552	0.000605	6168.561191	43916.686235	3842.725238	22716.859995
19.538000	-0.001340	0.000181	-0.000778	0.003256	6148.737137	43780.027252	3845.294616	22596.072403
20.035500	-0.000815	-0.000181	0.003552	0.001159	6168.555015	43943.678061	3860.132404	22691.587361
20.536000	-0.002449	-0.000826	-0.001900	0.000787	6159.004362	43917.901241	3848.387983	22708.584331
21.036000	-0.000810	-0.000064	-0.004205	0.001221	6168.129806	43948.954796	3842.113736	22688.767632
21.536500	-0.000105	-0.000285	-0.001073	0.002898	6160.763747	43769.906080	3845.441054	22612.359921
22.036500	-0.000568	-0.000107	-0.000222	0.001434	6168.347451	43924.681282	3850.759541	22679.028788
22.537000	-0.001815	-0.000808	0.003153	0.000767	6163.951827	43921.524246	3860.115345	22709.471709
23.042500	-0.002447	-0.000621	0.001078	0.001154	6156.242182	43902.584797	3854.405951	22691.804179
23.535000	-0.000852	-0.001135	-0.001469	0.002342	6159.324034	43742.297934	3845.807552	22637.664526
24.035000	-0.001244	0.000340	0.002309	0.001504	6162.690726	43960.351069	3856.445042	22675.833233
24.535500	0.000194	-0.001112	0.000846	0.000708	6179.650177	43898.433675	3854.902189	22712.195449
25.035500	-0.000486	-0.000085	-0.000371	0.001235	6170.476115	43945.559740	3850.874494	22688.094611
25.536000	-0.000429	-0.000215	0.002197	0.001451	6169.265608	43912.889004	3856.308606	22678.236193
26.036500	-0.001518	-0.000032	0.000001	0.001031	6164.193188	43969.803664	3852.202003	22697.398875
26.536000	0.000109	0.000177	-0.001599	0.001711	6171.378857	43925.411255	3846.956175	22666.411619
27.037000	0.000128	0.000080	-0.001254	0.001576	6172.544303	43928.980538	3848.059199	22672.554352
27.534500	-0.003448	-0.000636	-0.002723	0.001391	6146.903392	43878.830245	3845.112513	22680.986618
28.034500	0.000448	0.000155	0.005409	-0.001955	6201.909525	44271.067187	3871.757585	22834.241128
28.540500	-0.004749	-0.000114	0.002362	0.005307	6107.846356	43559.849181	3847.795777	22503.143302
29.038000	0.001293	0.000471	0.002701	0.000800	6187.312292	44039.379207	3858.987912	22707.963674
29.536000	0.001297	0.000309	0.005765	-0.000033	6193.703275	44102.996180	3868.081722	22746.081095
30.036000	-0.003230	-0.000093	0.000623	-0.000239	6160.852188	44084.299842	3856.575471	22755.474045
30.536500	-0.001958	0.000058	0.003927	0.005926	6124.046844	43517.902603	3849.969515	22475.147196
31.036500	-0.001212	-0.000083	0.000250	-0.000218	6175.990098	44083.363581	3855.664191	22754.523794
31.561000	-0.002060	-0.000492	-0.002280	-0.000525	6171.888702	44073.723759	3850.532783	22768.600538
32.037000	-0.002504	-0.000329	0.000346	0.002645	6144.573240	43789.602565	3849.280930	22623.872498
32.537500	-0.001617	-0.000346	0.003822	0.004539	6136.993539	43609.987096	3852.923277	22537.865758
33.085000	-0.001021	-0.000648	0.001478	-0.000556	6180.018468	44061.822001	3859.296176	22770.016822
33.536000	-0.001469	-0.000325	0.001395	-0.000552	6176.579541	44092.073567	3859.093914	22769.833840
34.035500	-0.000252	0.000223	0.001955	0.000150	6180.497730	44077.502717	3858.765596	22737.696754
34.536000	-0.000520	0.000225	0.003587	0.005084	6141.143552	43612.392680	3851.125282	22513.196153
35.036000	0.000039	0.000382	0.004310	0.000253	6181.927709	44082.741512	3864.006914	22732.969549
35.539000	-0.002974	-0.000381	0.002989	0.004268	6128.857054	43632.231567	3851.628595	22550.181157
36.036500	0.000201	-0.000875	0.003590	0.001072	6176.931477	43886.398268	3860.423919	22695.568202
36.537000	-0.002512	-0.001027	-0.001530	0.002383	6146.480554	43748.544000	3845.572980	22635.773930
37.037500	-0.002273	-0.000040	0.002318	0.002113	6150.315984	43866.882747	3855.056597	22648.064904
37.534500	-0.005211	-0.000311	0.001612	0.002964	6121.871192	43761.205266	3851.460743	22609.347647
38.035000	-0.002493	-0.000765	-0.000597	0.001487	6153.379061	43857.651198	3849.774328	22676.617167
38.537500	-0.000199	0.000145	-0.002156	0.002108	6166.028069	43884.848855	3844.768839	22648.279979
39.035000	0.001741	0.000443	-0.003160	0.002406	6178.493773	43884.870315	3841.790668	22634.720502
39.536000	-0.003503	0.000162	0.000025	0.003628	6129.683064	43743.215391	3846.283513	22579.174189
40.036000	-0.001618	-0.000150	-0.000174	0.002095	6155.402634	43858.306611	3849.348924	22648.911581
40.536500	-0.001615	-0.000588	0.003105	0.002171	6154.846295	43809.781537	3856.745267	22645.439406
41.037000	-0.002561	-0.000320	0.002063	0.002013	6148.901371	43849.904555	3854.697156	22652.616344
41.537000	-0.000851	0.000225	-0.000765	0.003560	6150.128924	43755.589839	3844.630819	22582.289006
42.037500	-0.001565	0.000183	-0.001545	0.002055	6156.097317	43893.441910	3846.291173	22650.714314
42.535000	-0.000620	-0.000071	-0.002011	0.002048	6163.299043	43870.135236	3845.240307	22651.054860
43.037500	-0.000181	0.000567	-0.002639	0.002593	6162.500158	43878.918941	3842.554907	22626.232022
43.535500	-0.001572	0.000575	0.000043	0.004227	6139.688671	43725.793769	3844.952837	22552.041974
44.035500	-0.000521	-0.000154	0.001559	0.002267	6162.390026	43841.654862	3852.945138	22641.042070
44.536000	-0.001455	-0.000379	0.001696	0.002427	6154.121077	43805.377343	3852.892550	22633.756571
45.036000	0.000174	-0.000189	0.002661	0.002038	6169.389623	43859.983155	3856.022272	22651.485341
45.536500	-0.002632	-0.000019	-0.000921	0.003957	6133.751158	43695.300008	3843.363713	22564.257145
46.036500	-0.000806	0.000202	0.003614	-0.000180	6178.789828	44106.729581	3863.392778	22752.775716
46.537000	-0.003234	-0.000289	-0.000313	0.005453	6118.048658	43529.802511	3841.336035	22496.533261
47.034500	-0.000663	0.000920	0.007903	0.000768	6172.668911	44084.884978	3871.217383	22709.412961
47.535000	-0.004535	-0.001067	-0.000072	0.003976	6119.357686	43595.224515	3845.263958	22563.392901
48.035000	0.001071	0.000362	0.005810	0.000355	6189.018514	44071.240520	3867.276463	22728.322217
48.536000	-0.001747	-0.000754	0.000823	0.004885	6133.431930	43539.399248	3845.233990	22522.240072
49.069500	-0.000069	-0.000134	0.000907	0.000273	6180.954906	44031.933407	3856.047817	22732.055851
49.536000	-0.000695	-0.000272	-0.001204	0.004495	6144.265919	43621.142914	3841.489977	22539.895237
50.036500	-0.002942	0.000906	-0.001459	0.003194	6137.151003	43854.217470	3843.880247	22598.921279
50.538500	-0.002347	0.000299	0.001821	0.005326	6125.625642	43596.711653	3846.509289	22502.260943
51.037000	0.000871	-0.000455	-0.001574	0.000094	6189.477568	44018.485423	3850.730157	22740.230836
51.537500	-0.001262	-0.000160	0.002220	0.005481	6132.599843	43539.220481	3847.069321	22495.278298
52.037500	0.000928	0.000475	0.011344	-0.001857	6204.831887	44292.168596	3885.580328	22829.715708
52.538000	-0.002819	-0.000133	0.000754	0.006564	6112.856324	43440.521181	3841.235506	22446.390267
53.035500	0.001514	-0.002391	0.003465	0.008878	6127.943689	43015.947214	3842.140623	22342.331625
53.535500	0.019492	-0.023249	0.017211	0.509386	3946.350348	14975.109674	3173.597504	9018.360917
54.036000	0.006281	-0.026224	-0.008232	-0.083863	6946.603299	49914.079876	4045.642617	26978.602726
54.536500	-0.005478	-0.038093	-0.015364	-0.162779	7627.395047	57762.919312	4260.503083	31783.326873
55.036500	-0.012589	-0.044371	-0.010553	-0.185022	7795.880043	59817.306642	4351.148504	33302.879778
55.536500	0.012414	-0.057933	0.012968	-0.223803	8574.252643	63220.340806	4582.676530	36145.716020
56.037500	0.039248	-0.033464	0.038520	-0.158131	8086.774083	57760.580526	4429.804054	31475.507566
56.537500	0.051368	-0.016663	0.053959	-0.036358	6924.006838	45980.684620	4086.760426	24480.304549
57.034500	0.054173	-0.008798	0.067483	0.057454	6158.660726	38245.192239	3878.043331	20281.383616
57.535000	0.075337	0.004752	0.077648	0.089003	6081.091927	36810.162325	3828.662827	19061.193266
58.037500	0.101800	0.023455	0.106998	0.079253	6359.831685	39106.437195	3920.840119	19428.881382
58.535500	0.126911	0.044317	0.129138	0.133204	6135.970191	36450.093674	3845.222112	17494.095644
59.036000	0.166989	0.070289	0.166504	0.123206	6534.426233	39347.423246	3959.878108	17834.745969
59.536500	0.196040	0.089857	0.192069	0.175350	6344.957715	36713.344613	3894.000513	16141.285825
60.036500	0.219638	0.105322	0.221618	0.209239	6263.722414	35308.788648	3883.623949	15144.857509
60.537000	0.236317	0.118997	0.238926	0.249373	6085.596693	33393.098958	3830.710852	14061.069301
61.037500	0.249204	0.129407	0.254113	0.281892	5943.719878	31879.475896	3792.351240	13253.479046
61.537500	0.257562	0.136079	0.259808	0.307848	5821.885553	30620.775087	3749.406517	12650.905296
62.038000	0.268806	0.142704	0.270367	0.331451	5739.228572	29557.878053	3722.799744	12133.348930
62.535500	0.273488	0.147229	0.277354	0.348599	5658.196586	28794.117024	3702.621540	11774.588351
63.035500	0.279188	0.151914	0.284963	0.365994	5584.272352	28047.238111	3683.629897	11424.861136
63.535500	0.287848	0.156748	0.298161	0.385526	5517.307990	27210.341596	3671.564353	11048.506668
64.038500	0.292021	0.160289	0.294509	0.405380	5423.627391	26314.045185	3628.289487	10682.895950
64.536500	0.296539	0.162680	0.298559	0.397310	5498.557581	26884.904627	3650.308756	10829.487512
65.037000	0.294938	0.167179	0.303728	0.398669	5480.743858	27058.993237	3657.360841	10804.620550
65.536500	0.293873	0.166313	0.298052	0.395192	5495.254528	27204.688540	3653.281970	10868.418553
66.073500	0.295992	0.168994	0.296472	0.391033	5533.396370	27590.554612	3658.064833	10945.410612
66.536000	0.295519	0.168828	0.299048	0.392200	5523.377670	27514.887052	3660.692446	10923.739114
67.035500	0.299554	0.171489	0.304139	0.388932	5568.278342	27853.292211	3676.442942	10984.594360
67.535500	0.296279	0.171632	0.288314	0.393400	5520.698052	27605.974840	3638.723235	10901.501468
68.036000	0.299055	0.173688	0.304197	0.387937	5571.349621	28037.438712	3678.447778	11003.202809
68.536000	0.301265	0.174175	0.306011	0.390621	5568.410213	27910.620748	3676.789903	10953.075999
69.036500	0.302934	0.174228	0.305544	0.387196	5600.182121	28111.716968	3682.437999	11017.098403
69.537000	0.300616	0.176026	0.305791	0.395123	5536.665332	27758.423909	3667.851911	10869.697460
70.036500	0.299703	0.176000	0.308181	0.388257	5573.386138	28153.044481	3685.464111	10997.207589
70.537000	0.301311	0.175358	0.306618	0.389421	5576.147033	28048.214492	3680.236461	10975.451083
71.034500	0.300968	0.176818	0.298528	0.388100	5582.235192	28209.799673	3667.399310	11000.149353
71.537500	0.301131	0.175798	0.306124	0.393103	5552.243817	27861.220973	3672.293529	10907.003244
72.035000	0.301428	0.177095	0.310060	0.387812	5586.904933	28242.756020	3689.945612	11005.553970
72.535500	0.303306	0.178583	0.302289	0.391114	5578.029199	28137.125287	3668.807069	10943.908206
73.036000	0.301972	0.178020	0.301720	0.388746	5584.465687	28242.226676	3672.204189	10988.058836
73.536000	0.302510	0.177846	0.300741	0.394816	5550.181113	27880.441198	3658.969881	10875.345641
74.036500	0.304868	0.178543	0.307945	0.389653	5596.904957	28219.832222	3682.331308	10971.128375
74.537000	0.301365	0.178489	0.308866	0.393341	5552.218816	28002.595359	3677.046026	10902.592100
75.037000	0.303854	0.178336	0.306729	0.389318	5592.648814	28227.257038	3680.645253	10977.370680
75.537500	0.303266	0.177984	0.312000	0.388352	5595.020074	28263.161824	3692.658950	10995.446068
76.037500	0.304527	0.178229	0.308733	0.389125	5598.076085	28232.320691	3684.856585	10980.984204
76.535000	0.309767	0.179862	0.302843	0.391882	5613.687328	28166.839288	3668.403147	10929.636152
77.035000	0.307467	0.180432	0.314670	0.390845	5605.735334	28260.549019	3693.002382	10948.919126
77.536000	0.308747	0.178480	0.307589	0.389784	5620.489538	28208.503479	3681.398236	10968.676412
78.039000	0.306544	0.177773	0.311952	0.388420	5615.195620	28246.857026	3692.432503	10994.163007
78.536000	0.305188	0.178689	0.309466	0.390418	5594.116047	28183.767254	3683.780759	10956.859690
79.036500	0.306468	0.178868	0.311341	0.389292	5609.222533	28259.860501	3689.562812	10977.866828
79.537000	0.304413	0.177539	0.305729	0.394208	5565.694576	27897.760280	3669.458696	10886.573174
80.037500	0.307904	0.176866	0.308284	0.387335	5630.654734	28257.232204	3687.437170	11014.487677
80.534500	0.304606	0.177713	0.310378	0.387229	5610.486895	28312.974707	3691.689591	11016.487798
81.037500	0.308038	0.177522	0.307626	0.387423	5630.946343	28290.387862	3685.999648	11012.834474
81.535000	0.303157	0.178283	0.310190	0.393841	5560.194032	27961.783347	3678.616748	10893.343301
82.035500	0.306658	0.178127	0.303965	0.387817	5619.715159	28302.768225	3678.234035	11005.450732
82.536000	0.307358	0.176653	0.307080	0.387230	5627.868641	28250.939099	3685.323009	11016.472576
83.038500	0.304241	0.176235	0.305049	0.386917	5610.154624	28244.781254	3682.024989	11022.342929
83.536000	0.301133	0.176212	0.306014	0.392969	5553.082328	27892.693477	3672.338370	10909.481289
84.036500	0.302557	0.176334	0.303856	0.388257	5591.176393	28172.459769	3677.187507	10997.209544
84.537000	0.304149	0.175298	0.307747	0.388004	5602.739304	28126.934460	3685.115945	11001.953109
85.040500	0.303491	0.175413	0.314619	0.389257	5590.766451	28060.891268	3695.988007	10978.512598
85.540000	0.300132	0.173667	0.306993	0.395083	5533.944755	27626.019467	3670.192588	10870.423760
86.034500	0.306006	0.175728	0.308130	0.391647	5591.547944	27940.943452	3678.872580	10933.994414
86.535500	0.304525	0.173558	0.306475	0.390797	5587.606336	27864.978141	3677.337920	10949.808582
87.035500	0.305594	0.173884	0.309406	0.392211	5585.451386	27802.493794	3680.231348	10923.525451
87.536000	0.303114	0.173397	0.303988	0.398929	5528.666104	27392.743401	3657.359189	10799.864383
88.036500	0.307611	0.174064	0.305735	0.394831	5581.688339	27662.977648	3668.295717	10875.066822
88.536500	0.306732	0.175125	0.308000	0.397198	5561.540907	27588.618349	3668.103748	10831.540156
89.036500	0.306808	0.173997	0.315222	0.396201	5568.181501	27581.177494	3683.729376	10849.847827
89.536500	0.301265	0.171638	0.300348	0.401887	5499.458693	27128.153567	3645.189966	10746.015036
90.034500	0.304034	0.173491	0.311638	0.398174	5538.916480	27440.709871	3673.133044	10813.668563
90.537500	0.304819	0.173670	0.312609	0.399845	5533.486046	27356.521327	3671.807412	10783.152610
91.035500	0.306345	0.172151	0.304163	0.399367	5545.782575	27297.938875	3656.871437	10791.865826
91.535500	0.308453	0.172177	0.312146	0.400414	5552.311507	27240.669353	3669.856213	10772.781890
92.036000	0.306719	0.173185	0.311396	0.401640	5534.132655	27228.431814	3666.137523	10750.500870
92.536000	0.306702	0.172155	0.309026	0.402931	5526.131055	27098.731987	3659.286116	10727.091582
93.036500	0.308899	0.174606	0.311582	0.404507	5529.924488	27147.543129	3661.113564	10698.614732
93.537000	0.307150	0.173412	0.316460	0.404965	5516.470072	27055.494305	3669.408656	10690.365241
94.036500	0.307794	0.172065	0.317578	0.404374	5523.991027	27013.459451	3672.640248	10701.021273
94.536500	0.308078	0.171393	0.310272	0.405742	5517.390996	26900.445705	3656.377281	10676.384640
95.040000	0.307890	0.172385	0.313973	0.406721	5510.304391	26901.176063	3661.446099	10658.805729
95.535000	0.309380	0.172738	0.316553	0.407670	5513.586298	26868.264908	3664.497756	10641.787374
96.035500	0.307704	0.172225	0.308524	0.408398	5499.025430	26799.862384	3648.244636	10628.778347
96.535500	0.305402	0.171942	0.312249	0.409595	5477.973230	26718.513624	3652.901804	10607.402869
97.038500	0.306665	0.171338	0.311391	0.409616	5485.426939	26684.287304	3651.279234	10607.030802
97.535500	0.301032	0.169051	0.306157	0.414468	5423.175649	26296.458475	3632.889712	10521.039222
