sample name	sample
index	1441
start time	 05-10-2021  01:02:22 PM


Wavelength (nm)	Absorbance
494.344910	-0.038730
494.563924	-0.038730
494.782919	-0.038730
495.001897	0.070546
495.220856	-0.005785
495.439797	-0.002812
495.658719	-0.001524
495.877624	-0.002384
496.096510	-0.017427
496.315378	-0.019145
496.534227	-0.010641
496.753059	-0.028249
496.971872	-0.019969
497.190667	0.033001
497.409444	0.059973
497.628203	0.073788
497.846943	0.080402
498.065665	0.085753
498.284369	0.087355
498.503055	0.086831
498.721723	0.087862
498.940372	0.089414
499.159003	0.089341
499.377616	0.090013
499.596210	0.088785
499.814787	0.089106
500.033345	0.088790
500.251885	0.088511
500.470406	0.089795
500.688910	0.090686
500.907395	0.089602
501.125862	0.090456
501.344311	0.090292
501.562742	0.090437
501.781154	0.089672
501.999548	0.089377
502.217924	0.090478
502.436282	0.089508
502.654621	0.089451
502.872942	0.090766
503.091245	0.091317
503.309530	0.091515
503.527797	0.092255
503.746045	0.092008
503.964275	0.092118
504.182487	0.091264
504.400681	0.092139
504.618856	0.092130
504.837013	0.091299
505.055152	0.090856
505.273273	0.090951
505.491376	0.090835
505.709460	0.090698
505.927526	0.090319
506.145574	0.090417
506.363604	0.089867
506.581615	0.090062
506.799608	0.090096
507.017583	0.090152
507.235540	0.090090
507.453478	0.089827
507.671399	0.090808
507.889301	0.091067
508.107185	0.091520
508.325050	0.091057
508.542898	0.091165
508.760727	0.091499
508.978538	0.091447
509.196330	0.091441
509.414105	0.092385
509.631861	0.092469
509.849599	0.093076
510.067319	0.091484
510.285021	0.092231
510.502704	0.092223
510.720369	0.092514
510.938016	0.092947
511.155645	0.092943
511.373255	0.092499
511.590848	0.091976
511.808422	0.091810
512.025977	0.093580
512.243515	0.093368
512.461034	0.093362
512.678536	0.092986
512.896018	0.092735
513.113483	0.092815
513.330930	0.092135
513.548358	0.093045
513.765768	0.093637
513.983160	0.092951
514.200533	0.093874
514.417889	0.094180
514.635226	0.093880
514.852545	0.093757
515.069845	0.093983
515.287128	0.094959
515.504392	0.094951
515.721638	0.094823
515.938866	0.095238
516.156075	0.094626
516.373267	0.094632
516.590440	0.095340
516.807594	0.095456
517.024731	0.095924
517.241850	0.095585
517.458950	0.095662
517.676032	0.095716
517.893095	0.096612
518.110141	0.097104
518.327168	0.096718
518.544177	0.096849
518.761168	0.097212
518.978141	0.096622
519.195095	0.097361
519.412031	0.096697
519.628949	0.096483
519.845849	0.095758
520.062731	0.095148
520.279594	0.095762
520.496439	0.096465
520.713266	0.096916
520.930074	0.097638
521.146865	0.097253
521.363637	0.098305
521.580391	0.098480
521.797127	0.099042
522.013844	0.099993
522.230543	0.100195
522.447224	0.099534
522.663887	0.099084
522.880532	0.098754
523.097158	0.098551
523.313766	0.098093
523.530356	0.098039
523.746928	0.097993
523.963481	0.097709
524.180017	0.097899
524.396534	0.098362
524.613032	0.098677
524.829513	0.098818
525.045975	0.099327
525.262420	0.099575
525.478845	0.099744
525.695253	0.099929
525.911643	0.099770
526.128014	0.099766
526.344367	0.099660
526.560702	0.099766
526.777018	0.099926
526.993316	0.100228
527.209597	0.100383
527.425858	0.100676
527.642102	0.100560
527.858328	0.100940
528.074535	0.100954
528.290724	0.101033
528.506894	0.101781
528.723047	0.101818
528.939181	0.102156
529.155297	0.102109
529.371395	0.101772
529.587475	0.101836
529.803536	0.101333
530.019579	0.101480
530.235604	0.100998
530.451611	0.100320
530.667600	0.100169
530.883570	0.100014
531.099522	0.099844
531.315456	0.099906
531.531372	0.099749
531.747269	0.100819
531.963148	0.100875
532.179009	0.101472
532.394852	0.101851
532.610676	0.102266
532.826482	0.102056
533.042271	0.103156
533.258040	0.103541
533.473792	0.104532
533.689525	0.104120
533.905240	0.104746
534.120937	0.104979
534.336616	0.105205
534.552277	0.105287
534.767919	0.105752
534.983543	0.105529
535.199149	0.105787
535.414736	0.105270
535.630306	0.105857
535.845857	0.105368
536.061390	0.105430
536.276904	0.105065
536.492401	0.105629
536.707879	0.105902
536.923339	0.105881
537.138781	0.105961
537.354204	0.106587
537.569610	0.105949
537.784997	0.106254
538.000366	0.106504
538.215716	0.107265
538.431049	0.106834
538.646363	0.106580
538.861659	0.106490
539.076937	0.106793
539.292196	0.106394
539.507438	0.107094
539.722661	0.106881
539.937866	0.106438
540.153052	0.106095
540.368221	0.106410
540.583371	0.106631
540.798503	0.107359
541.013617	0.107001
541.228712	0.106827
541.443789	0.106727
541.658848	0.107304
541.873889	0.107664
542.088912	0.107904
542.303916	0.107861
542.518902	0.108322
542.733870	0.108047
542.948820	0.108481
543.163752	0.108749
543.378665	0.108879
543.593560	0.108883
543.808437	0.109168
544.023295	0.109212
544.238136	0.109553
544.452958	0.109221
544.667762	0.108970
544.882548	0.108864
545.097315	0.108878
545.312064	0.108851
545.526795	0.108981
545.741508	0.109218
545.956203	0.109109
546.170879	0.109040
546.385537	0.109290
546.600177	0.109539
546.814799	0.109688
547.029402	0.110205
547.243988	0.110274
547.458555	0.110140
547.673103	0.110317
547.887634	0.110384
548.102146	0.110731
548.316640	0.110389
548.531116	0.110741
548.745574	0.110825
548.960013	0.111197
549.174435	0.111222
549.388838	0.111449
549.603222	0.111227
549.817589	0.111422
550.031937	0.111088
550.246267	0.111141
550.460579	0.110766
550.674873	0.111092
550.889148	0.110873
551.103405	0.111306
551.317644	0.111309
551.531865	0.111707
551.746068	0.111878
551.960252	0.112078
552.174418	0.112234
552.388566	0.112646
552.602696	0.112742
552.816807	0.112251
553.030900	0.111989
553.244975	0.111868
553.459032	0.111494
553.673070	0.111694
553.887091	0.112071
554.101093	0.112276
554.315077	0.112529
554.529042	0.112466
554.742990	0.112906
554.956919	0.112990
555.170830	0.113374
555.384722	0.113472
555.598597	0.112993
555.812453	0.112799
556.026291	0.112921
556.240111	0.112622
556.453913	0.112534
556.667696	0.112439
556.881461	0.112647
557.095208	0.112333
557.308937	0.112634
557.522647	0.112901
557.736339	0.113179
557.950013	0.113057
558.163669	0.112869
558.377307	0.112640
558.590926	0.112780
558.804527	0.112799
559.018110	0.112735
559.231675	0.112324
559.445221	0.112421
559.658749	0.112271
559.872259	0.112431
560.085751	0.112653
560.299225	0.112642
560.512680	0.112255
560.726117	0.112054
560.939536	0.112193
561.152937	0.112397
561.366319	0.112434
561.579683	0.112644
561.793029	0.112612
562.006357	0.112771
562.219667	0.113387
562.432958	0.113911
562.646231	0.114385
562.859486	0.114415
563.072723	0.114843
563.285941	0.115055
563.499141	0.114928
563.712323	0.115378
563.925487	0.115501
564.138632	0.115216
564.351760	0.114981
564.564869	0.114986
564.777960	0.115461
564.991032	0.115202
565.204087	0.115407
565.417123	0.115347
565.630141	0.115258
565.843140	0.115196
566.056122	0.115575
566.269085	0.115995
566.482030	0.116101
566.694957	0.116322
566.907866	0.116562
567.120756	0.116210
567.333628	0.116555
567.546482	0.116498
567.759318	0.116579
567.972135	0.116734
568.184935	0.116643
568.397716	0.116267
568.610478	0.116140
568.823223	0.115948
569.035949	0.116085
569.248657	0.116131
569.461347	0.116339
569.674019	0.116141
569.886672	0.115919
570.099308	0.116252
570.311925	0.116265
570.524523	0.115958
570.737104	0.116054
570.949666	0.116286
571.162210	0.115908
571.374736	0.115585
571.587244	0.115771
571.799733	0.116054
572.012205	0.115996
572.224658	0.116445
572.437092	0.116957
572.649509	0.117335
572.861907	0.117421
573.074287	0.117881
573.286649	0.118218
573.498993	0.118520
573.711318	0.118457
573.923625	0.118830
574.135914	0.118971
574.348185	0.118853
574.560438	0.118548
574.772672	0.118497
574.984888	0.118393
575.197086	0.118457
575.409266	0.118741
575.621427	0.118888
575.833570	0.118743
576.045695	0.118807
576.257802	0.118887
576.469890	0.119156
576.681961	0.119405
576.894013	0.119529
577.106046	0.119767
577.318062	0.119476
577.530059	0.119223
577.742039	0.119252
577.954000	0.119078
578.165942	0.119070
578.377867	0.119039
578.589773	0.119285
578.801661	0.119686
579.013531	0.119810
579.225382	0.120040
579.437216	0.120464
579.649031	0.120802
579.860828	0.121401
580.072606	0.121368
580.284367	0.121399
580.496109	0.121363
580.707833	0.120932
580.919539	0.120881
581.131227	0.120768
581.342896	0.120854
581.554547	0.120577
581.766180	0.120127
581.977795	0.120504
582.189391	0.120970
582.400969	0.120731
582.612529	0.121386
582.824071	0.121346
583.035595	0.121630
583.247100	0.121834
583.458587	0.122213
583.670056	0.122743
583.881506	0.122961
584.092939	0.123064
584.304353	0.123468
584.515749	0.123048
584.727127	0.123196
584.938486	0.123212
585.149828	0.122838
585.361151	0.122929
585.572456	0.123251
585.783742	0.123202
585.995011	0.122905
586.206261	0.123008
586.417493	0.123623
586.628706	0.123908
586.839902	0.124067
587.051079	0.124634
587.262238	0.124627
587.473379	0.124753
587.684502	0.124790
587.895606	0.125153
588.106692	0.125348
588.317760	0.125056
588.528810	0.125164
588.739841	0.125518
588.950855	0.125368
589.161850	0.125614
589.372827	0.125295
589.583785	0.125575
589.794726	0.125638
590.005648	0.125817
590.216552	0.125968
590.427437	0.125657
590.638305	0.125520
590.849154	0.125672
591.059985	0.125537
591.270798	0.125707
591.481592	0.125361
591.692369	0.125380
591.903127	0.124842
592.113867	0.124780
592.324588	0.125197
592.535292	0.125101
592.745977	0.125127
592.956644	0.124928
593.167293	0.124875
593.377923	0.125235
593.588536	0.125256
593.799130	0.125434
594.009706	0.125676
594.220263	0.125726
594.430803	0.125897
594.641324	0.125926
594.851827	0.126067
595.062312	0.126097
595.272778	0.126036
595.483227	0.126139
595.693657	0.126422
595.904069	0.126461
596.114462	0.126424
596.324838	0.126761
596.535195	0.126946
596.745534	0.127151
596.955855	0.127200
597.166157	0.127524
597.376441	0.127564
597.586707	0.127709
597.796955	0.127931
598.007185	0.127799
598.217396	0.127844
598.427589	0.127895
598.637764	0.127527
598.847921	0.127797
599.058060	0.127508
599.268180	0.127472
599.478282	0.127611
599.688366	0.127687
599.898431	0.127806
600.108479	0.127924
600.318508	0.127778
600.528519	0.128448
600.738511	0.128363
600.948486	0.128491
601.158442	0.128585
601.368380	0.128506
601.578300	0.128482
601.788202	0.128894
601.998085	0.128652
602.207950	0.128889
602.417797	0.128783
602.627626	0.128842
602.837436	0.128938
603.047228	0.129041
603.257002	0.129024
603.466758	0.128995
603.676496	0.128832
603.886215	0.128807
604.095916	0.129057
604.305599	0.129150
604.515264	0.129153
604.724910	0.129322
604.934538	0.129556
605.144148	0.129503
605.353740	0.129373
605.563314	0.129534
605.772869	0.129830
605.982406	0.129692
606.191925	0.129386
606.401425	0.129464
606.610908	0.129348
606.820372	0.129241
607.029818	0.129438
607.239246	0.129778
607.448655	0.130152
607.658047	0.130145
607.867420	0.130231
608.076775	0.130707
608.286111	0.131037
608.495430	0.131144
608.704730	0.131315
608.914012	0.131451
609.123275	0.131598
609.332521	0.131353
609.541748	0.131467
609.750957	0.131471
609.960148	0.131643
610.169321	0.131821
610.378475	0.132073
610.587611	0.132248
610.796729	0.132221
611.005829	0.132241
611.214910	0.132436
611.423974	0.132503
611.633019	0.132866
611.842045	0.133021
612.051054	0.132900
612.260044	0.133211
612.469017	0.133104
612.677970	0.133276
612.886906	0.133301
613.095824	0.133311
613.304723	0.133326
613.513604	0.133315
613.722467	0.133231
613.931311	0.133314
614.140138	0.133137
614.348946	0.133489
614.557736	0.133854
614.766507	0.133854
614.975261	0.134199
615.183996	0.134220
615.392713	0.134014
615.601412	0.134252
615.810092	0.134202
616.018754	0.134151
616.227399	0.134091
616.436024	0.134181
616.644632	0.134389
616.853222	0.134141
617.061793	0.134436
617.270346	0.134814
617.478880	0.134855
617.687397	0.135007
617.895895	0.135364
618.104375	0.135315
618.312837	0.134967
618.521281	0.134931
618.729706	0.134962
618.938113	0.134992
619.146502	0.134900
619.354873	0.134828
619.563226	0.134831
619.771560	0.134651
619.979876	0.134676
620.188174	0.134948
620.396453	0.134948
620.604715	0.134981
620.812958	0.134845
621.021183	0.135070
621.229390	0.135213
621.437578	0.135137
621.645748	0.135169
621.853900	0.135367
622.062034	0.135436
622.270150	0.135504
622.478247	0.135639
622.686326	0.135890
622.894387	0.136014
623.102430	0.136082
623.310454	0.136361
623.518461	0.136415
623.726449	0.136681
623.934418	0.136885
624.142370	0.137221
624.350303	0.137236
624.558218	0.137404
624.766115	0.137177
624.973994	0.137078
625.181855	0.137210
625.389697	0.137379
625.597521	0.137349
625.805327	0.137101
626.013114	0.136967
626.220883	0.136911
626.428634	0.136657
626.636367	0.136550
626.844082	0.136320
627.051778	0.136485
627.259457	0.136452
627.467117	0.136271
627.674758	0.136106
627.882382	0.136148
628.089987	0.136304
628.297574	0.136284
628.505143	0.136477
628.712694	0.136940
628.920226	0.136710
629.127740	0.136663
629.335236	0.136761
629.542714	0.136993
629.750174	0.136941
629.957615	0.137281
630.165038	0.137389
630.372443	0.137545
630.579829	0.137366
630.787198	0.137447
630.994548	0.137630
631.201880	0.137634
631.409194	0.137667
631.616489	0.137793
631.823766	0.137638
632.031025	0.137904
632.238266	0.138027
632.445489	0.138284
632.652693	0.138170
632.859879	0.138475
633.067047	0.138605
633.274197	0.138772
633.481329	0.138881
633.688442	0.138904
633.895537	0.138882
634.102614	0.138877
634.309672	0.138969
634.516713	0.139162
634.723735	0.138955
634.930739	0.139240
635.137724	0.139393
635.344692	0.139495
635.551641	0.139502
635.758572	0.139593
635.965485	0.139637
636.172379	0.139595
636.379256	0.139782
636.586114	0.139884
636.792954	0.139748
636.999775	0.139699
637.206579	0.139878
637.413364	0.140072
637.620131	0.140078
637.826880	0.140333
638.033610	0.140495
638.240323	0.140623
638.447017	0.140965
638.653692	0.141168
638.860350	0.141418
639.066990	0.141640
639.273611	0.141731
639.480214	0.142065
639.686798	0.142084
639.893365	0.142325
640.099913	0.142490
640.306443	0.142545
640.512955	0.142687
640.719449	0.142871
640.925924	0.142821
641.132381	0.142882
641.338820	0.142836
641.545241	0.143006
641.751644	0.143104
641.958028	0.143069
642.164394	0.143044
642.370742	0.143083
642.577071	0.143103
642.783383	0.143042
642.989676	0.143058
643.195951	0.143069
643.402207	0.143180
643.608446	0.142953
643.814666	0.143069
644.020868	0.143171
644.227052	0.143295
644.433218	0.143199
644.639365	0.143472
644.845494	0.143814
645.051605	0.143993
645.257698	0.143932
645.463772	0.144401
645.669828	0.144563
645.875866	0.144457
646.081886	0.144411
646.287888	0.144637
646.493871	0.144466
646.699836	0.144408
646.905783	0.144603
647.111712	0.144662
647.317622	0.144280
647.523514	0.144193
647.729388	0.144157
647.935244	0.144258
648.141082	0.144232
648.346901	0.144346
648.552702	0.144050
648.758485	0.143982
648.964250	0.144149
649.169996	0.144585
649.375724	0.144725
649.581434	0.145091
649.787126	0.145225
649.992800	0.145394
650.198455	0.145592
650.404092	0.145797
650.609711	0.145677
650.815311	0.145347
651.020894	0.144968
651.226458	0.144940
651.432004	0.144785
651.637532	0.144661
651.843041	0.144621
652.048532	0.144598
652.254006	0.144736
652.459460	0.144978
652.664897	0.145316
652.870315	0.145608
653.075716	0.145891
653.281097	0.146025
653.486461	0.146185
653.691807	0.146277
653.897134	0.146442
654.102443	0.146721
654.307734	0.146768
654.513006	0.147012
654.718261	0.147241
654.923497	0.147206
655.128715	0.147235
655.333915	0.147253
655.539096	0.147579
655.744259	0.147540
655.949404	0.147487
656.154531	0.147716
656.359640	0.147735
656.564730	0.147825
656.769802	0.147850
656.974856	0.148115
657.179892	0.148425
657.384909	0.148288
657.589908	0.148580
657.794889	0.148721
657.999852	0.148863
658.204797	0.149058
658.409723	0.149132
658.614631	0.149457
658.819521	0.149539
659.024393	0.149682
659.229246	0.149960
659.434081	0.150135
659.638898	0.150120
659.843697	0.150014
660.048478	0.149840
660.253240	0.149838
660.457984	0.149890
660.662710	0.150063
660.867417	0.150054
661.072107	0.149936
661.276778	0.149697
661.481431	0.149785
661.686066	0.149815
661.890682	0.149980
662.095281	0.150000
662.299861	0.149843
662.504422	0.149693
662.708966	0.149676
662.913491	0.150006
663.117999	0.150215
663.322488	0.150251
663.526958	0.150618
663.731411	0.150763
663.935845	0.151015
664.140261	0.151259
664.344659	0.151543
664.549038	0.151699
664.753400	0.151767
664.957743	0.151986
665.162068	0.152381
665.366375	0.152117
665.570663	0.152406
665.774933	0.152306
665.979185	0.152105
666.183419	0.152073
666.387635	0.151864
666.591832	0.151665
666.796011	0.151532
667.000172	0.151519
667.204315	0.151665
667.408439	0.151433
667.612545	0.151556
667.816634	0.152127
668.020703	0.152208
668.224755	0.152632
668.428788	0.152915
668.632803	0.152981
668.836800	0.152990
669.040779	0.152960
669.244739	0.153043
669.448681	0.153193
669.652605	0.153067
669.856511	0.153166
670.060399	0.153092
670.264268	0.153266
670.468119	0.153587
670.671952	0.153793
670.875767	0.154034
671.079563	0.154459
671.283341	0.154405
671.487101	0.154418
671.690843	0.154534
671.894567	0.154703
672.098272	0.154580
672.301959	0.154638
672.505628	0.154441
672.709278	0.154614
672.912911	0.154566
673.116525	0.154702
673.320121	0.154786
673.523699	0.154832
673.727258	0.154854
673.930799	0.154922
674.134322	0.154754
674.337827	0.154910
674.541314	0.154983
674.744782	0.154895
674.948232	0.155136
675.151664	0.155227
675.355078	0.155287
675.558474	0.155525
675.761851	0.155665
675.965210	0.155946
676.168551	0.155989
676.371873	0.155961
676.575178	0.156012
676.778464	0.156134
676.981732	0.156170
677.184981	0.156259
677.388213	0.155987
677.591426	0.155780
677.794621	0.155721
677.997798	0.155898
678.200956	0.156070
678.404097	0.156211
678.607219	0.156197
678.810323	0.156284
679.013408	0.156515
679.216476	0.156848
679.419525	0.157214
679.622556	0.157355
679.825569	0.157519
680.028563	0.157463
680.231540	0.157527
680.434498	0.157614
680.637438	0.157780
680.840359	0.157706
681.043263	0.157794
681.246148	0.157811
681.449015	0.157916
681.651864	0.157933
681.854694	0.158211
682.057506	0.158287
682.260301	0.158175
682.463076	0.158105
682.665834	0.158324
682.868573	0.158360
683.071295	0.158625
683.273998	0.158888
683.476682	0.159048
683.679349	0.159005
683.881997	0.159178
684.084627	0.159350
684.287239	0.159485
684.489833	0.159477
684.692408	0.159500
684.894965	0.159181
685.097504	0.158934
685.300025	0.158891
685.502527	0.158840
685.705012	0.158812
685.907478	0.158847
686.109925	0.158698
686.312355	0.158594
686.514766	0.158700
686.717159	0.159070
686.919534	0.159187
687.121891	0.159384
687.324230	0.159594
687.526550	0.159582
687.728852	0.159624
687.931136	0.159944
688.133401	0.159945
688.335649	0.160070
688.537878	0.160085
688.740089	0.160106
688.942281	0.159896
689.144456	0.159895
689.346612	0.160096
689.548750	0.160188
689.750870	0.160229
689.952971	0.160604
690.155055	0.160686
690.357120	0.160763
690.559167	0.160770
690.761195	0.161105
690.963206	0.161140
691.165198	0.161158
691.367172	0.161307
691.569128	0.161284
691.771065	0.161274
691.972984	0.161161
692.174885	0.161065
692.376768	0.161169
692.578633	0.160985
692.780479	0.160851
692.982308	0.160575
693.184118	0.160341
693.385909	0.160222
