sample name	sample
index	617
start time	 03-19-2021  02:16:13 PM


Wavelength (nm)	Absorbance
494.344910	-0.041856
494.563924	-0.041856
494.782919	-0.041856
495.001897	-0.277145
495.220856	-0.053049
495.439797	-0.062528
495.658719	-0.049927
495.877624	-0.028754
496.096510	0.057256
496.315378	0.059092
496.534227	0.065137
496.753059	0.063744
496.971872	0.070398
497.190667	0.131825
497.409444	0.135251
497.628203	0.137415
497.846943	0.136663
498.065665	0.135848
498.284369	0.134896
498.503055	0.135082
498.721723	0.136292
498.940372	0.135955
499.159003	0.136052
499.377616	0.136665
499.596210	0.136048
499.814787	0.136279
500.033345	0.136506
500.251885	0.136669
500.470406	0.136293
500.688910	0.135679
500.907395	0.135591
501.125862	0.135280
501.344311	0.135999
501.562742	0.136317
501.781154	0.135935
501.999548	0.136610
502.217924	0.137244
502.436282	0.137935
502.654621	0.137676
502.872942	0.138689
503.091245	0.139455
503.309530	0.138829
503.527797	0.138601
503.746045	0.138378
503.964275	0.138365
504.182487	0.138662
504.400681	0.138829
504.618856	0.139319
504.837013	0.139709
505.055152	0.140031
505.273273	0.139799
505.491376	0.139760
505.709460	0.140323
505.927526	0.139263
506.145574	0.139766
506.363604	0.139176
506.581615	0.138591
506.799608	0.137719
507.017583	0.137200
507.235540	0.137690
507.453478	0.138657
507.671399	0.139433
507.889301	0.140424
508.107185	0.139782
508.325050	0.140681
508.542898	0.141954
508.760727	0.142972
508.978538	0.143832
509.196330	0.144339
509.414105	0.143961
509.631861	0.143327
509.849599	0.142817
510.067319	0.142856
510.285021	0.143288
510.502704	0.142834
510.720369	0.142382
510.938016	0.141630
511.155645	0.141383
511.373255	0.141590
511.590848	0.141762
511.808422	0.142646
512.025977	0.143013
512.243515	0.142658
512.461034	0.143187
512.678536	0.142791
512.896018	0.142397
513.113483	0.142599
513.330930	0.142552
513.548358	0.142019
513.765768	0.142347
513.983160	0.142966
514.200533	0.143197
514.417889	0.142745
514.635226	0.143221
514.852545	0.143975
515.069845	0.144279
515.287128	0.145409
515.504392	0.146185
515.721638	0.145878
515.938866	0.146016
516.156075	0.146187
516.373267	0.146697
516.590440	0.147375
516.807594	0.147355
517.024731	0.146957
517.241850	0.145869
517.458950	0.145885
517.676032	0.146237
517.893095	0.145556
518.110141	0.146115
518.327168	0.146451
518.544177	0.145897
518.761168	0.145959
518.978141	0.146020
519.195095	0.146995
519.412031	0.147011
519.628949	0.146844
519.845849	0.147679
520.062731	0.147775
520.279594	0.147536
520.496439	0.148204
520.713266	0.148751
520.930074	0.148912
521.146865	0.148582
521.363637	0.149269
521.580391	0.149737
521.797127	0.150190
522.013844	0.150241
522.230543	0.150770
522.447224	0.150917
522.663887	0.151000
522.880532	0.151891
523.097158	0.152217
523.313766	0.153278
523.530356	0.152776
523.746928	0.152296
523.963481	0.152091
524.180017	0.152258
524.396534	0.152404
524.613032	0.152152
524.829513	0.152100
525.045975	0.152265
525.262420	0.151449
525.478845	0.152336
525.695253	0.153026
525.911643	0.153526
526.128014	0.153609
526.344367	0.153931
526.560702	0.154656
526.777018	0.155228
526.993316	0.155178
527.209597	0.155639
527.425858	0.155846
527.642102	0.156435
527.858328	0.156304
528.074535	0.157210
528.290724	0.157042
528.506894	0.157602
528.723047	0.157558
528.939181	0.158142
529.155297	0.158279
529.371395	0.157809
529.587475	0.157695
529.803536	0.157706
530.019579	0.157745
530.235604	0.158463
530.451611	0.158271
530.667600	0.158792
530.883570	0.159157
531.099522	0.159616
531.315456	0.160762
531.531372	0.160916
531.747269	0.161822
531.963148	0.162251
532.179009	0.162709
532.394852	0.163009
532.610676	0.163015
532.826482	0.163101
533.042271	0.163384
533.258040	0.163234
533.473792	0.163873
533.689525	0.163636
533.905240	0.163740
534.120937	0.163449
534.336616	0.163335
534.552277	0.163698
534.767919	0.164163
534.983543	0.163953
535.199149	0.164357
535.414736	0.164022
535.630306	0.164586
535.845857	0.165019
536.061390	0.165382
536.276904	0.166151
536.492401	0.166098
536.707879	0.166185
536.923339	0.166612
537.138781	0.167067
537.354204	0.167435
537.569610	0.168191
537.784997	0.168019
538.000366	0.168256
538.215716	0.168713
538.431049	0.168750
538.646363	0.169219
538.861659	0.170002
539.076937	0.170125
539.292196	0.170351
539.507438	0.169849
539.722661	0.170071
539.937866	0.170425
540.153052	0.170535
540.368221	0.170964
540.583371	0.171114
540.798503	0.171162
541.013617	0.171610
541.228712	0.171797
541.443789	0.172031
541.658848	0.172584
541.873889	0.172495
542.088912	0.172159
542.303916	0.171915
542.518902	0.172204
542.733870	0.172412
542.948820	0.172497
543.163752	0.173107
543.378665	0.173610
543.593560	0.173452
543.808437	0.174281
544.023295	0.174739
544.238136	0.175317
544.452958	0.175213
544.667762	0.175013
544.882548	0.175383
545.097315	0.175480
545.312064	0.175664
545.526795	0.176081
545.741508	0.176110
545.956203	0.176507
546.170879	0.176801
546.385537	0.177218
546.600177	0.177635
546.814799	0.177425
547.029402	0.177616
547.243988	0.177743
547.458555	0.178112
547.673103	0.178509
547.887634	0.178829
548.102146	0.178874
548.316640	0.179092
548.531116	0.179034
548.745574	0.179628
548.960013	0.179720
549.174435	0.180039
549.388838	0.180074
549.603222	0.180189
549.817589	0.180364
550.031937	0.181034
550.246267	0.181245
550.460579	0.181820
550.674873	0.181814
550.889148	0.181779
551.103405	0.181665
551.317644	0.181173
551.531865	0.181194
551.746068	0.181375
551.960252	0.181677
552.174418	0.181898
552.388566	0.181962
552.602696	0.181997
552.816807	0.182723
553.030900	0.183319
553.244975	0.184142
553.459032	0.184324
553.673070	0.184574
553.887091	0.184989
554.101093	0.185047
554.315077	0.185400
554.529042	0.185757
554.742990	0.185502
554.956919	0.185898
555.170830	0.186255
555.384722	0.186786
555.598597	0.186838
555.812453	0.186919
556.026291	0.187387
556.240111	0.187408
556.453913	0.188098
556.667696	0.188158
556.881461	0.188355
557.095208	0.188446
557.308937	0.188035
557.522647	0.187769
557.736339	0.187675
557.950013	0.187811
558.163669	0.187917
558.377307	0.187525
558.590926	0.188096
558.804527	0.187874
559.018110	0.188054
559.231675	0.188632
559.445221	0.189233
559.658749	0.189593
559.872259	0.190069
560.085751	0.190865
560.299225	0.191108
560.512680	0.191335
560.726117	0.192020
560.939536	0.192205
561.152937	0.192071
561.366319	0.192096
561.579683	0.191989
561.793029	0.191675
562.006357	0.191321
562.219667	0.191368
562.432958	0.191328
562.646231	0.191198
562.859486	0.190901
563.072723	0.191592
563.285941	0.192136
563.499141	0.192415
563.712323	0.192740
563.925487	0.193152
564.138632	0.193537
564.351760	0.193782
564.564869	0.193803
564.777960	0.194600
564.991032	0.194773
565.204087	0.194904
565.417123	0.194936
565.630141	0.194823
565.843140	0.194615
566.056122	0.195082
566.269085	0.195267
566.482030	0.195372
566.694957	0.194961
566.907866	0.194853
567.120756	0.194861
567.333628	0.194724
567.546482	0.194948
567.759318	0.195431
567.972135	0.195243
568.184935	0.195065
568.397716	0.195489
568.610478	0.195698
568.823223	0.195934
569.035949	0.196205
569.248657	0.196851
569.461347	0.197027
569.674019	0.196753
569.886672	0.196807
570.099308	0.197246
570.311925	0.197168
570.524523	0.197465
570.737104	0.197646
570.949666	0.197353
571.162210	0.196856
571.374736	0.197198
571.587244	0.197468
571.799733	0.197627
572.012205	0.197757
572.224658	0.197822
572.437092	0.198086
572.649509	0.198098
572.861907	0.198548
573.074287	0.199162
573.286649	0.199200
573.498993	0.199090
573.711318	0.199360
573.923625	0.199236
574.135914	0.199372
574.348185	0.199174
574.560438	0.199338
574.772672	0.199635
574.984888	0.199637
575.197086	0.199521
575.409266	0.200251
575.621427	0.200256
575.833570	0.200669
576.045695	0.200854
576.257802	0.201414
576.469890	0.201503
576.681961	0.201519
576.894013	0.201694
577.106046	0.202102
577.318062	0.202071
577.530059	0.201930
577.742039	0.202059
577.954000	0.202095
578.165942	0.202064
578.377867	0.202256
578.589773	0.202309
578.801661	0.202451
579.013531	0.202281
579.225382	0.202407
579.437216	0.202764
579.649031	0.203111
579.860828	0.203218
580.072606	0.203709
580.284367	0.203424
580.496109	0.203691
580.707833	0.203614
580.919539	0.203853
581.131227	0.203537
581.342896	0.203641
581.554547	0.203458
581.766180	0.203735
581.977795	0.203459
582.189391	0.204327
582.400969	0.204492
582.612529	0.204856
582.824071	0.205305
583.035595	0.205958
583.247100	0.206186
583.458587	0.206548
583.670056	0.206802
583.881506	0.206469
584.092939	0.205880
584.304353	0.205851
584.515749	0.205741
584.727127	0.205865
584.938486	0.205604
585.149828	0.205533
585.361151	0.205500
585.572456	0.205398
585.783742	0.205808
585.995011	0.206359
586.206261	0.206222
586.417493	0.206529
586.628706	0.206267
586.839902	0.206729
587.051079	0.206807
587.262238	0.206744
587.473379	0.206873
587.684502	0.207007
587.895606	0.207033
588.106692	0.207309
588.317760	0.207365
588.528810	0.207784
588.739841	0.207768
588.950855	0.208112
589.161850	0.208365
589.372827	0.208751
589.583785	0.208787
589.794726	0.208906
590.005648	0.209365
590.216552	0.209717
590.427437	0.209908
590.638305	0.210100
590.849154	0.210131
591.059985	0.210192
591.270798	0.210109
591.481592	0.210478
591.692369	0.210681
591.903127	0.210697
592.113867	0.210911
592.324588	0.210835
592.535292	0.211091
592.745977	0.211180
592.956644	0.211751
593.167293	0.211931
593.377923	0.212111
593.588536	0.212372
593.799130	0.212483
594.009706	0.212539
594.220263	0.212621
594.430803	0.212866
594.641324	0.213102
594.851827	0.212939
595.062312	0.212992
595.272778	0.213258
595.483227	0.213316
595.693657	0.213182
595.904069	0.213222
596.114462	0.213570
596.324838	0.213403
596.535195	0.213825
596.745534	0.214154
596.955855	0.214007
597.166157	0.213949
597.376441	0.214090
597.586707	0.214241
597.796955	0.214720
598.007185	0.214634
598.217396	0.214835
598.427589	0.214807
598.637764	0.214618
598.847921	0.215232
599.058060	0.215135
599.268180	0.215021
599.478282	0.215144
599.688366	0.214882
599.898431	0.214916
600.108479	0.214907
600.318508	0.214854
600.528519	0.214914
600.738511	0.214778
600.948486	0.215378
601.158442	0.215542
601.368380	0.215581
601.578300	0.215829
601.788202	0.215750
601.998085	0.215757
602.207950	0.215990
602.417797	0.216279
602.627626	0.216390
602.837436	0.216231
603.047228	0.216221
603.257002	0.216506
603.466758	0.216537
603.676496	0.216922
603.886215	0.217222
604.095916	0.217171
604.305599	0.217336
604.515264	0.217605
604.724910	0.217553
604.934538	0.217889
605.144148	0.217988
605.353740	0.218019
605.563314	0.218218
605.772869	0.218206
605.982406	0.218783
606.191925	0.218809
606.401425	0.218693
606.610908	0.218809
606.820372	0.218736
607.029818	0.218852
607.239246	0.218956
607.448655	0.218984
607.658047	0.219278
607.867420	0.218808
608.076775	0.219085
608.286111	0.219363
608.495430	0.219692
608.704730	0.219848
608.914012	0.219907
609.123275	0.220384
609.332521	0.220485
609.541748	0.220455
609.750957	0.220710
609.960148	0.220774
610.169321	0.220999
610.378475	0.221406
610.587611	0.221469
610.796729	0.221899
611.005829	0.221571
611.214910	0.221889
611.423974	0.221837
611.633019	0.222161
611.842045	0.222213
612.051054	0.222178
612.260044	0.221874
612.469017	0.221624
612.677970	0.221477
612.886906	0.221818
613.095824	0.221647
613.304723	0.221784
613.513604	0.221594
613.722467	0.221901
613.931311	0.222415
614.140138	0.222546
614.348946	0.223027
614.557736	0.223194
614.766507	0.223343
614.975261	0.223784
615.183996	0.224240
615.392713	0.224741
615.601412	0.224786
615.810092	0.224547
616.018754	0.224754
616.227399	0.224768
616.436024	0.224773
616.644632	0.224556
616.853222	0.224550
617.061793	0.224549
617.270346	0.224321
617.478880	0.224142
617.687397	0.223848
617.895895	0.223964
618.104375	0.224133
618.312837	0.224157
618.521281	0.224315
618.729706	0.224329
618.938113	0.224252
619.146502	0.224686
619.354873	0.225004
619.563226	0.225423
619.771560	0.225567
619.979876	0.225891
620.188174	0.226204
620.396453	0.226292
620.604715	0.226473
620.812958	0.226644
621.021183	0.226625
621.229390	0.226753
621.437578	0.226966
621.645748	0.227050
621.853900	0.227126
622.062034	0.226993
622.270150	0.227367
622.478247	0.227489
622.686326	0.227630
622.894387	0.227574
623.102430	0.227558
623.310454	0.227911
623.518461	0.227982
623.726449	0.228052
623.934418	0.228278
624.142370	0.228264
624.350303	0.228244
624.558218	0.228257
624.766115	0.228532
624.973994	0.228674
625.181855	0.228235
625.389697	0.228023
625.597521	0.228036
625.805327	0.228289
626.013114	0.228269
626.220883	0.228215
626.428634	0.228298
626.636367	0.228446
626.844082	0.228462
627.051778	0.228864
627.259457	0.229075
627.467117	0.229363
627.674758	0.229244
627.882382	0.229300
628.089987	0.229732
628.297574	0.230058
628.505143	0.230158
628.712694	0.230236
628.920226	0.229959
629.127740	0.230241
629.335236	0.230143
629.542714	0.230466
629.750174	0.230614
629.957615	0.230675
630.165038	0.230781
630.372443	0.230721
630.579829	0.230798
630.787198	0.231592
630.994548	0.231686
631.201880	0.231879
631.409194	0.231934
631.616489	0.232026
631.823766	0.231973
632.031025	0.232167
632.238266	0.232398
632.445489	0.232461
632.652693	0.232406
632.859879	0.232503
633.067047	0.232565
633.274197	0.232823
633.481329	0.233255
633.688442	0.233232
633.895537	0.233329
634.102614	0.233387
634.309672	0.233701
634.516713	0.233595
634.723735	0.233780
634.930739	0.233905
635.137724	0.233810
635.344692	0.233707
635.551641	0.234302
635.758572	0.234306
635.965485	0.234523
636.172379	0.234973
636.379256	0.235094
636.586114	0.235328
636.792954	0.235294
636.999775	0.235439
637.206579	0.235872
637.413364	0.235647
637.620131	0.235866
637.826880	0.236043
638.033610	0.235838
638.240323	0.236096
638.447017	0.235892
638.653692	0.236390
638.860350	0.236494
639.066990	0.236230
639.273611	0.236661
639.480214	0.236669
639.686798	0.236674
639.893365	0.236803
640.099913	0.236850
640.306443	0.237170
640.512955	0.237077
640.719449	0.237260
640.925924	0.237670
641.132381	0.237615
641.338820	0.237833
641.545241	0.237973
641.751644	0.238037
641.958028	0.238101
642.164394	0.238225
642.370742	0.238413
642.577071	0.238514
642.783383	0.238275
642.989676	0.238452
643.195951	0.238497
643.402207	0.238603
643.608446	0.238724
643.814666	0.239092
644.020868	0.239500
644.227052	0.239599
644.433218	0.239911
644.639365	0.239971
644.845494	0.240144
645.051605	0.240442
645.257698	0.240801
645.463772	0.240962
645.669828	0.241063
645.875866	0.240887
646.081886	0.241112
646.287888	0.241074
646.493871	0.241711
646.699836	0.241862
646.905783	0.241888
647.111712	0.241690
647.317622	0.241887
647.523514	0.241686
647.729388	0.241731
647.935244	0.241698
648.141082	0.241811
648.346901	0.241551
648.552702	0.241587
648.758485	0.241727
648.964250	0.242075
649.169996	0.242079
649.375724	0.242606
649.581434	0.242832
649.787126	0.243002
649.992800	0.243307
650.198455	0.243589
650.404092	0.243562
650.609711	0.243700
650.815311	0.243731
651.020894	0.244026
651.226458	0.243761
651.432004	0.243934
651.637532	0.244074
651.843041	0.244046
652.048532	0.244155
652.254006	0.244456
652.459460	0.244742
652.664897	0.244963
652.870315	0.244895
653.075716	0.245290
653.281097	0.245583
653.486461	0.245739
653.691807	0.245964
653.897134	0.246246
654.102443	0.246462
654.307734	0.246375
654.513006	0.246398
654.718261	0.246735
654.923497	0.246935
655.128715	0.247123
655.333915	0.247093
655.539096	0.247308
655.744259	0.247493
655.949404	0.247567
656.154531	0.248065
656.359640	0.248162
656.564730	0.248257
656.769802	0.248420
656.974856	0.248488
657.179892	0.248901
657.384909	0.249122
657.589908	0.249291
657.794889	0.249503
657.999852	0.249228
658.204797	0.249447
658.409723	0.249643
658.614631	0.249709
658.819521	0.249671
659.024393	0.249832
659.229246	0.249779
659.434081	0.249690
659.638898	0.249954
659.843697	0.250318
660.048478	0.250667
660.253240	0.250786
660.457984	0.250986
660.662710	0.251313
660.867417	0.251576
661.072107	0.251802
661.276778	0.252010
661.481431	0.251735
661.686066	0.251690
661.890682	0.251829
662.095281	0.252310
662.299861	0.252532
662.504422	0.252733
662.708966	0.252584
662.913491	0.252871
663.117999	0.253237
663.322488	0.253686
663.526958	0.253869
663.731411	0.253946
663.935845	0.253690
664.140261	0.253868
664.344659	0.253864
664.549038	0.254085
664.753400	0.254148
664.957743	0.254256
665.162068	0.254442
665.366375	0.254921
665.570663	0.254821
665.774933	0.255163
665.979185	0.255435
666.183419	0.255681
666.387635	0.256095
666.591832	0.256227
666.796011	0.256380
667.000172	0.256528
667.204315	0.256499
667.408439	0.256703
667.612545	0.256838
667.816634	0.256961
668.020703	0.256902
668.224755	0.256790
668.428788	0.256882
668.632803	0.257050
668.836800	0.257281
669.040779	0.257417
669.244739	0.257682
669.448681	0.257775
669.652605	0.257703
669.856511	0.257962
670.060399	0.258225
670.264268	0.258320
670.468119	0.258591
670.671952	0.258646
670.875767	0.258826
671.079563	0.259107
671.283341	0.259317
671.487101	0.259730
671.690843	0.259967
671.894567	0.260343
672.098272	0.260632
672.301959	0.260711
672.505628	0.260929
672.709278	0.261087
672.912911	0.261164
673.116525	0.261331
673.320121	0.261327
673.523699	0.261594
673.727258	0.261530
673.930799	0.261701
674.134322	0.261732
674.337827	0.261876
674.541314	0.262200
674.744782	0.262426
674.948232	0.262633
675.151664	0.262944
675.355078	0.263043
675.558474	0.263351
675.761851	0.263342
675.965210	0.263593
676.168551	0.263696
676.371873	0.263758
676.575178	0.263898
676.778464	0.263988
676.981732	0.263988
677.184981	0.264198
677.388213	0.264294
677.591426	0.264688
677.794621	0.265098
677.997798	0.265228
678.200956	0.265368
678.404097	0.265535
678.607219	0.265799
678.810323	0.265984
679.013408	0.265979
679.216476	0.266113
679.419525	0.266223
679.622556	0.266079
679.825569	0.266418
680.028563	0.266655
680.231540	0.266870
680.434498	0.266967
680.637438	0.267025
680.840359	0.267382
681.043263	0.267495
681.246148	0.267656
681.449015	0.267747
681.651864	0.267766
681.854694	0.267997
682.057506	0.268131
682.260301	0.268172
682.463076	0.268512
682.665834	0.268451
682.868573	0.268806
683.071295	0.268852
683.273998	0.269078
683.476682	0.269230
683.679349	0.269113
683.881997	0.269257
684.084627	0.269405
684.287239	0.269041
684.489833	0.269203
684.692408	0.269060
684.894965	0.269179
685.097504	0.269322
685.300025	0.269599
685.502527	0.269882
685.705012	0.270122
685.907478	0.270244
686.109925	0.270885
686.312355	0.271075
686.514766	0.271168
686.717159	0.271296
686.919534	0.271497
687.121891	0.271650
687.324230	0.271677
687.526550	0.271773
687.728852	0.271944
687.931136	0.272058
688.133401	0.272077
688.335649	0.272484
688.537878	0.272692
688.740089	0.272771
688.942281	0.272849
689.144456	0.273144
689.346612	0.273248
689.548750	0.273626
689.750870	0.273715
689.952971	0.273930
690.155055	0.274026
690.357120	0.274319
690.559167	0.274413
690.761195	0.274386
690.963206	0.274244
691.165198	0.274122
691.367172	0.274109
691.569128	0.274101
691.771065	0.274416
691.972984	0.274370
692.174885	0.274436
692.376768	0.274572
692.578633	0.274775
692.780479	0.275114
692.982308	0.275418
693.184118	0.275510
693.385909	0.275565
