sample name	sample
index	860
start time	 04-08-2021  12:26:26 PM


Wavelength (nm)	Absorbance
494.344910	0.052071
494.563924	0.052071
494.782919	0.052071
495.001897	0.039276
495.220856	0.016637
495.439797	0.014156
495.658719	0.010862
495.877624	-0.002061
496.096510	-0.007785
496.315378	-0.000670
496.534227	0.004722
496.753059	-0.003654
496.971872	-0.008104
497.190667	0.072090
497.409444	0.118098
497.628203	0.132612
497.846943	0.140762
498.065665	0.146518
498.284369	0.149296
498.503055	0.152264
498.721723	0.155631
498.940372	0.157578
499.159003	0.158046
499.377616	0.157274
499.596210	0.157292
499.814787	0.159089
500.033345	0.158671
500.251885	0.159542
500.470406	0.160245
500.688910	0.159424
500.907395	0.160123
501.125862	0.160852
501.344311	0.162115
501.562742	0.162465
501.781154	0.162925
501.999548	0.163069
502.217924	0.164041
502.436282	0.163601
502.654621	0.164950
502.872942	0.165060
503.091245	0.165824
503.309530	0.164669
503.527797	0.165244
503.746045	0.165558
503.964275	0.166477
504.182487	0.166007
504.400681	0.166599
504.618856	0.166317
504.837013	0.166274
505.055152	0.166335
505.273273	0.167361
505.491376	0.168064
505.709460	0.167527
505.927526	0.168022
506.145574	0.168475
506.363604	0.168710
506.581615	0.169524
506.799608	0.170081
507.017583	0.169645
507.235540	0.169245
507.453478	0.168813
507.671399	0.168513
507.889301	0.168863
508.107185	0.169880
508.325050	0.169991
508.542898	0.168985
508.760727	0.170211
508.978538	0.170219
509.196330	0.170298
509.414105	0.170880
509.631861	0.171904
509.849599	0.171373
510.067319	0.171182
510.285021	0.171960
510.502704	0.173802
510.720369	0.172396
510.938016	0.173442
511.155645	0.174440
511.373255	0.174853
511.590848	0.175307
511.808422	0.176253
512.025977	0.175455
512.243515	0.174838
512.461034	0.174749
512.678536	0.175857
512.896018	0.175910
513.113483	0.175434
513.330930	0.175363
513.548358	0.174991
513.765768	0.175599
513.983160	0.175878
514.200533	0.177371
514.417889	0.177827
514.635226	0.177514
514.852545	0.177403
515.069845	0.177908
515.287128	0.179467
515.504392	0.179828
515.721638	0.180155
515.938866	0.180804
516.156075	0.180466
516.373267	0.179705
516.590440	0.180061
516.807594	0.180925
517.024731	0.181274
517.241850	0.180060
517.458950	0.180726
517.676032	0.180643
517.893095	0.181500
518.110141	0.181614
518.327168	0.182538
518.544177	0.182662
518.761168	0.182492
518.978141	0.183128
519.195095	0.183510
519.412031	0.183356
519.628949	0.183439
519.845849	0.183308
520.062731	0.184610
520.279594	0.184428
520.496439	0.185353
520.713266	0.185823
520.930074	0.185741
521.146865	0.186379
521.363637	0.186769
521.580391	0.187082
521.797127	0.186859
522.013844	0.186724
522.230543	0.187535
522.447224	0.187919
522.663887	0.188562
522.880532	0.188962
523.097158	0.189182
523.313766	0.190426
523.530356	0.191536
523.746928	0.192758
523.963481	0.193332
524.180017	0.193680
524.396534	0.194321
524.613032	0.194198
524.829513	0.194178
525.045975	0.194752
525.262420	0.194486
525.478845	0.193954
525.695253	0.194323
525.911643	0.194293
526.128014	0.194887
526.344367	0.195128
526.560702	0.195343
526.777018	0.196660
526.993316	0.197518
527.209597	0.198148
527.425858	0.198422
527.642102	0.197879
527.858328	0.197980
528.074535	0.198808
528.290724	0.199007
528.506894	0.199532
528.723047	0.199985
528.939181	0.199312
529.155297	0.199164
529.371395	0.199980
529.587475	0.201159
529.803536	0.201590
530.019579	0.200834
530.235604	0.200883
530.451611	0.201033
530.667600	0.200447
530.883570	0.200753
531.099522	0.201268
531.315456	0.201307
531.531372	0.201683
531.747269	0.201846
531.963148	0.202976
532.179009	0.203475
532.394852	0.204168
532.610676	0.204643
532.826482	0.205663
533.042271	0.206171
533.258040	0.207159
533.473792	0.207205
533.689525	0.207834
533.905240	0.208182
534.120937	0.208155
534.336616	0.208516
534.552277	0.209592
534.767919	0.209594
534.983543	0.210456
535.199149	0.210756
535.414736	0.211419
535.630306	0.211724
535.845857	0.211881
536.061390	0.212925
536.276904	0.213104
536.492401	0.213347
536.707879	0.213660
536.923339	0.213461
537.138781	0.213099
537.354204	0.213296
537.569610	0.213676
537.784997	0.214105
538.000366	0.214472
538.215716	0.214647
538.431049	0.214443
538.646363	0.215452
538.861659	0.215972
539.076937	0.216615
539.292196	0.217938
539.507438	0.218317
539.722661	0.218299
539.937866	0.218575
540.153052	0.219278
540.368221	0.219813
540.583371	0.219625
540.798503	0.220004
541.013617	0.220333
541.228712	0.219626
541.443789	0.220554
541.658848	0.221255
541.873889	0.221451
542.088912	0.221414
542.303916	0.221928
542.518902	0.222322
542.733870	0.222025
542.948820	0.222481
543.163752	0.222959
543.378665	0.222974
543.593560	0.223165
543.808437	0.223447
544.023295	0.224356
544.238136	0.225065
544.452958	0.225537
544.667762	0.226084
544.882548	0.226458
545.097315	0.226796
545.312064	0.226830
545.526795	0.227186
545.741508	0.227267
545.956203	0.227252
546.170879	0.226450
546.385537	0.226755
546.600177	0.227202
546.814799	0.227289
547.029402	0.227391
547.243988	0.227353
547.458555	0.227164
547.673103	0.227849
547.887634	0.228607
548.102146	0.229449
548.316640	0.229295
548.531116	0.229439
548.745574	0.230254
548.960013	0.230369
549.174435	0.231016
549.388838	0.231865
549.603222	0.232804
549.817589	0.232625
550.031937	0.232954
550.246267	0.233665
550.460579	0.234092
550.674873	0.234038
550.889148	0.234388
551.103405	0.234763
551.317644	0.234636
551.531865	0.233948
551.746068	0.234447
551.960252	0.235172
552.174418	0.235648
552.388566	0.236182
552.602696	0.236093
552.816807	0.236685
553.030900	0.236964
553.244975	0.237873
553.459032	0.238290
553.673070	0.238217
553.887091	0.237755
554.101093	0.238167
554.315077	0.237786
554.529042	0.238407
554.742990	0.238622
554.956919	0.238365
555.170830	0.238119
555.384722	0.238415
555.598597	0.238898
555.812453	0.239347
556.026291	0.239195
556.240111	0.239870
556.453913	0.239983
556.667696	0.239943
556.881461	0.240539
557.095208	0.240754
557.308937	0.240849
557.522647	0.241020
557.736339	0.241449
557.950013	0.241375
558.163669	0.241494
558.377307	0.241866
558.590926	0.242352
558.804527	0.242132
559.018110	0.242624
559.231675	0.242205
559.445221	0.242236
559.658749	0.242095
559.872259	0.242410
560.085751	0.242560
560.299225	0.242502
560.512680	0.242798
560.726117	0.243321
560.939536	0.243361
561.152937	0.244658
561.366319	0.245138
561.579683	0.245732
561.793029	0.245985
562.006357	0.246304
562.219667	0.246847
562.432958	0.246733
562.646231	0.247008
562.859486	0.247061
563.072723	0.246651
563.285941	0.246460
563.499141	0.246343
563.712323	0.246638
563.925487	0.246887
564.138632	0.246946
564.351760	0.247199
564.564869	0.247486
564.777960	0.248040
564.991032	0.248476
565.204087	0.248264
565.417123	0.248499
565.630141	0.248508
565.843140	0.248563
566.056122	0.248800
566.269085	0.249223
566.482030	0.249100
566.694957	0.248910
566.907866	0.249315
567.120756	0.250457
567.333628	0.251249
567.546482	0.251448
567.759318	0.251630
567.972135	0.251731
568.184935	0.251993
568.397716	0.252362
568.610478	0.252845
568.823223	0.252538
569.035949	0.252290
569.248657	0.251912
569.461347	0.252166
569.674019	0.252441
569.886672	0.252695
570.099308	0.252879
570.311925	0.253131
570.524523	0.253008
570.737104	0.253618
570.949666	0.253744
571.162210	0.253971
571.374736	0.254483
571.587244	0.254484
571.799733	0.254428
572.012205	0.254420
572.224658	0.254593
572.437092	0.254848
572.649509	0.255066
572.861907	0.255393
573.074287	0.255372
573.286649	0.255205
573.498993	0.255146
573.711318	0.255566
573.923625	0.255007
574.135914	0.255164
574.348185	0.255456
574.560438	0.255096
574.772672	0.255152
574.984888	0.255550
575.197086	0.255576
575.409266	0.255889
575.621427	0.255901
575.833570	0.256700
576.045695	0.256545
576.257802	0.256904
576.469890	0.257328
576.681961	0.257424
576.894013	0.257511
577.106046	0.257883
577.318062	0.258212
577.530059	0.258579
577.742039	0.258915
577.954000	0.259471
578.165942	0.259402
578.377867	0.259572
578.589773	0.259949
578.801661	0.260363
579.013531	0.260294
579.225382	0.260912
579.437216	0.261182
579.649031	0.261234
579.860828	0.261079
580.072606	0.261032
580.284367	0.261080
580.496109	0.261482
580.707833	0.261743
580.919539	0.262406
581.131227	0.262349
581.342896	0.262438
581.554547	0.262393
581.766180	0.262583
581.977795	0.263145
582.189391	0.263466
582.400969	0.263736
582.612529	0.263371
582.824071	0.263450
583.035595	0.263449
583.247100	0.263443
583.458587	0.263758
583.670056	0.263905
583.881506	0.263908
584.092939	0.264023
584.304353	0.263742
584.515749	0.264196
584.727127	0.264265
584.938486	0.264565
585.149828	0.264532
585.361151	0.264723
585.572456	0.265270
585.783742	0.265482
585.995011	0.265642
586.206261	0.265960
586.417493	0.265824
586.628706	0.265356
586.839902	0.265242
587.051079	0.265506
587.262238	0.265758
587.473379	0.265585
587.684502	0.265237
587.895606	0.265709
588.106692	0.265547
588.317760	0.265869
588.528810	0.266593
588.739841	0.267096
588.950855	0.267411
589.161850	0.267396
589.372827	0.267913
589.583785	0.268487
589.794726	0.268643
590.005648	0.269175
590.216552	0.269544
590.427437	0.269821
590.638305	0.269979
590.849154	0.270039
591.059985	0.270482
591.270798	0.270554
591.481592	0.270960
591.692369	0.271038
591.903127	0.270984
592.113867	0.271444
592.324588	0.271584
592.535292	0.271630
592.745977	0.272002
592.956644	0.271969
593.167293	0.272059
593.377923	0.271993
593.588536	0.271801
593.799130	0.272236
594.009706	0.272018
594.220263	0.272022
594.430803	0.272220
594.641324	0.272375
594.851827	0.272748
595.062312	0.273213
595.272778	0.273411
595.483227	0.273573
595.693657	0.273469
595.904069	0.273761
596.114462	0.274385
596.324838	0.274406
596.535195	0.274567
596.745534	0.274336
596.955855	0.274137
597.166157	0.274598
597.376441	0.275008
597.586707	0.275451
597.796955	0.275742
598.007185	0.275626
598.217396	0.275853
598.427589	0.275962
598.637764	0.276225
598.847921	0.276401
599.058060	0.276459
599.268180	0.277016
599.478282	0.277175
599.688366	0.277175
599.898431	0.277775
600.108479	0.277889
600.318508	0.278455
600.528519	0.278648
600.738511	0.279082
600.948486	0.278879
601.158442	0.278899
601.368380	0.279134
601.578300	0.279510
601.788202	0.279294
601.998085	0.279627
602.207950	0.279820
602.417797	0.280229
602.627626	0.280298
602.837436	0.280629
603.047228	0.280721
603.257002	0.280665
603.466758	0.280718
603.676496	0.280714
603.886215	0.280663
604.095916	0.280805
604.305599	0.280816
604.515264	0.280904
604.724910	0.281167
604.934538	0.281173
605.144148	0.281363
605.353740	0.281583
605.563314	0.281781
605.772869	0.281935
605.982406	0.281708
606.191925	0.281754
606.401425	0.282034
606.610908	0.282357
606.820372	0.282669
607.029818	0.283116
607.239246	0.283438
607.448655	0.283580
607.658047	0.284099
607.867420	0.284471
608.076775	0.284960
608.286111	0.284886
608.495430	0.284899
608.704730	0.285151
608.914012	0.284801
609.123275	0.284527
609.332521	0.284691
609.541748	0.284779
609.750957	0.284707
609.960148	0.284968
610.169321	0.285358
610.378475	0.285502
610.587611	0.285503
610.796729	0.285906
611.005829	0.286231
611.214910	0.286543
611.423974	0.286369
611.633019	0.286818
611.842045	0.286590
612.051054	0.286862
612.260044	0.286793
612.469017	0.287035
612.677970	0.287455
612.886906	0.287219
613.095824	0.287050
613.304723	0.287525
613.513604	0.287805
613.722467	0.287890
613.931311	0.287691
614.140138	0.288104
614.348946	0.288100
614.557736	0.288239
614.766507	0.288571
614.975261	0.288902
615.183996	0.289101
615.392713	0.288620
615.601412	0.289050
615.810092	0.289362
616.018754	0.289499
616.227399	0.289482
616.436024	0.289414
616.644632	0.289523
616.853222	0.289771
617.061793	0.289595
617.270346	0.289683
617.478880	0.289483
617.687397	0.289193
617.895895	0.289604
618.104375	0.289892
618.312837	0.289925
618.521281	0.289964
618.729706	0.290030
618.938113	0.290312
619.146502	0.290504
619.354873	0.291019
619.563226	0.291562
619.771560	0.291394
619.979876	0.291956
620.188174	0.292354
620.396453	0.292945
620.604715	0.292903
620.812958	0.293049
621.021183	0.293589
621.229390	0.293726
621.437578	0.294070
621.645748	0.294316
621.853900	0.294004
622.062034	0.294091
622.270150	0.294303
622.478247	0.294443
622.686326	0.294466
622.894387	0.294464
623.102430	0.294693
623.310454	0.294600
623.518461	0.294586
623.726449	0.294705
623.934418	0.294628
624.142370	0.294672
624.350303	0.294962
624.558218	0.295220
624.766115	0.295511
624.973994	0.295388
625.181855	0.295626
625.389697	0.295603
625.597521	0.295868
625.805327	0.296125
626.013114	0.295968
626.220883	0.296042
626.428634	0.296381
626.636367	0.296424
626.844082	0.296716
627.051778	0.296700
627.259457	0.297242
627.467117	0.297226
627.674758	0.297381
627.882382	0.297599
628.089987	0.298077
628.297574	0.297862
628.505143	0.298051
628.712694	0.298185
628.920226	0.298549
629.127740	0.298652
629.335236	0.299026
629.542714	0.299142
629.750174	0.299570
629.957615	0.299315
630.165038	0.299736
630.372443	0.300225
630.579829	0.300448
630.787198	0.300357
630.994548	0.300157
631.201880	0.300245
631.409194	0.300519
631.616489	0.300482
631.823766	0.300967
632.031025	0.300697
632.238266	0.300490
632.445489	0.300325
632.652693	0.300771
632.859879	0.301172
633.067047	0.301474
633.274197	0.301650
633.481329	0.301580
633.688442	0.301530
633.895537	0.302061
634.102614	0.302134
634.309672	0.302692
634.516713	0.302804
634.723735	0.303193
634.930739	0.303486
635.137724	0.303428
635.344692	0.303739
635.551641	0.303895
635.758572	0.304112
635.965485	0.304141
636.172379	0.303927
636.379256	0.303987
636.586114	0.303844
636.792954	0.303697
636.999775	0.304221
637.206579	0.304435
637.413364	0.304793
637.620131	0.305031
637.826880	0.305341
638.033610	0.305959
638.240323	0.306007
638.447017	0.306296
638.653692	0.306508
638.860350	0.306678
639.066990	0.306919
639.273611	0.306843
639.480214	0.307218
639.686798	0.307459
639.893365	0.307632
640.099913	0.308097
640.306443	0.308329
640.512955	0.308589
640.719449	0.308584
640.925924	0.308657
641.132381	0.309132
641.338820	0.309101
641.545241	0.309324
641.751644	0.309524
641.958028	0.309583
642.164394	0.309448
642.370742	0.309521
642.577071	0.309886
642.783383	0.310327
642.989676	0.310283
643.195951	0.310543
643.402207	0.310859
643.608446	0.310806
643.814666	0.310846
644.020868	0.311358
644.227052	0.311528
644.433218	0.311643
644.639365	0.311663
644.845494	0.312058
645.051605	0.312042
645.257698	0.312049
645.463772	0.312309
645.669828	0.312687
645.875866	0.312972
646.081886	0.313343
646.287888	0.313271
646.493871	0.313607
646.699836	0.313717
646.905783	0.314052
647.111712	0.313931
647.317622	0.313729
647.523514	0.313838
647.729388	0.313888
647.935244	0.313900
648.141082	0.314413
648.346901	0.314407
648.552702	0.314784
648.758485	0.314719
648.964250	0.315328
649.169996	0.315680
649.375724	0.316042
649.581434	0.316156
649.787126	0.316385
649.992800	0.316374
650.198455	0.316669
650.404092	0.316903
650.609711	0.317439
650.815311	0.317299
651.020894	0.317437
651.226458	0.317648
651.432004	0.317910
651.637532	0.318215
651.843041	0.318451
652.048532	0.318797
652.254006	0.318935
652.459460	0.319073
652.664897	0.319526
652.870315	0.320104
653.075716	0.320347
653.281097	0.320475
653.486461	0.320696
653.691807	0.320978
653.897134	0.321137
654.102443	0.321253
654.307734	0.321535
654.513006	0.321504
654.718261	0.321579
654.923497	0.321587
655.128715	0.321824
655.333915	0.322045
655.539096	0.322261
655.744259	0.322508
655.949404	0.322531
656.154531	0.322624
656.359640	0.322849
656.564730	0.323143
656.769802	0.323301
656.974856	0.323601
657.179892	0.323728
657.384909	0.324109
657.589908	0.324077
657.794889	0.324451
657.999852	0.324722
658.204797	0.325306
658.409723	0.325235
658.614631	0.325609
658.819521	0.325792
659.024393	0.325914
659.229246	0.325758
659.434081	0.326068
659.638898	0.326059
659.843697	0.325973
660.048478	0.326034
660.253240	0.326410
660.457984	0.326432
660.662710	0.326793
660.867417	0.327146
661.072107	0.327502
661.276778	0.327615
661.481431	0.327907
661.686066	0.327939
661.890682	0.328437
662.095281	0.328610
662.299861	0.329155
662.504422	0.329242
662.708966	0.329719
662.913491	0.330105
663.117999	0.330477
663.322488	0.330825
663.526958	0.331299
663.731411	0.331289
663.935845	0.331559
664.140261	0.331481
664.344659	0.331904
664.549038	0.331695
664.753400	0.331827
664.957743	0.332164
665.162068	0.332772
665.366375	0.333027
665.570663	0.333121
665.774933	0.333400
665.979185	0.333517
666.183419	0.333889
666.387635	0.334355
666.591832	0.334498
666.796011	0.334826
667.000172	0.334757
667.204315	0.335260
667.408439	0.335684
667.612545	0.335956
667.816634	0.336577
668.020703	0.336274
668.224755	0.336532
668.428788	0.336914
668.632803	0.337029
668.836800	0.337105
669.040779	0.337161
669.244739	0.337417
669.448681	0.337690
669.652605	0.337692
669.856511	0.338342
670.060399	0.338533
670.264268	0.338676
670.468119	0.338821
670.671952	0.338870
670.875767	0.338959
671.079563	0.339158
671.283341	0.339184
671.487101	0.339369
671.690843	0.338931
671.894567	0.338776
672.098272	0.338848
672.301959	0.338890
672.505628	0.339552
672.709278	0.340119
672.912911	0.340307
673.116525	0.340489
673.320121	0.341033
673.523699	0.341677
673.727258	0.342052
673.930799	0.342356
674.134322	0.342587
674.337827	0.342478
674.541314	0.342543
674.744782	0.342980
674.948232	0.343353
675.151664	0.343540
675.355078	0.343928
675.558474	0.344270
675.761851	0.344330
675.965210	0.344696
676.168551	0.344980
676.371873	0.345402
676.575178	0.345479
676.778464	0.345999
676.981732	0.345903
677.184981	0.345910
677.388213	0.346184
677.591426	0.346664
677.794621	0.346870
677.997798	0.347210
678.200956	0.347188
678.404097	0.347573
678.607219	0.347526
678.810323	0.347918
679.013408	0.348124
679.216476	0.348335
679.419525	0.348604
679.622556	0.349066
679.825569	0.349379
680.028563	0.349410
680.231540	0.349743
680.434498	0.350122
680.637438	0.350496
680.840359	0.350717
681.043263	0.351107
681.246148	0.351125
681.449015	0.351227
681.651864	0.351378
681.854694	0.351807
682.057506	0.351636
682.260301	0.351752
682.463076	0.351704
682.665834	0.351999
682.868573	0.351976
683.071295	0.352347
683.273998	0.352281
683.476682	0.352585
683.679349	0.352796
683.881997	0.353206
684.084627	0.353288
684.287239	0.353569
684.489833	0.354043
684.692408	0.354607
684.894965	0.354777
685.097504	0.355275
685.300025	0.355350
685.502527	0.355535
685.705012	0.355514
685.907478	0.355822
686.109925	0.356085
686.312355	0.355863
686.514766	0.355703
686.717159	0.355989
686.919534	0.355865
687.121891	0.355891
687.324230	0.356042
687.526550	0.356322
687.728852	0.356199
687.931136	0.356485
688.133401	0.356934
688.335649	0.357220
688.537878	0.357206
688.740089	0.357372
688.942281	0.357531
689.144456	0.357630
689.346612	0.357833
689.548750	0.358192
689.750870	0.358488
689.952971	0.358804
690.155055	0.358919
690.357120	0.359337
690.559167	0.359754
690.761195	0.360015
690.963206	0.360412
691.165198	0.360574
691.367172	0.360783
691.569128	0.360894
691.771065	0.361001
691.972984	0.361300
692.174885	0.361479
692.376768	0.361563
692.578633	0.361757
692.780479	0.361918
692.982308	0.362071
693.184118	0.362375
693.385909	0.362442
