sample name	sample
index	505
start time	 03-11-2021  02:58:34 PM


Wavelength (nm)	Absorbance
494.344910	-0.092679
494.563924	-0.092679
494.782919	-0.092679
495.001897	-0.428820
495.220856	0.213144
495.439797	0.206144
495.658719	0.088662
495.877624	0.178583
496.096510	0.353057
496.315378	0.259289
496.534227	0.051794
496.753059	-0.054210
496.971872	-0.114641
497.190667	0.128189
497.409444	0.156660
497.628203	0.163948
497.846943	0.164232
498.065665	0.166972
498.284369	0.166762
498.503055	0.167090
498.721723	0.166421
498.940372	0.166164
499.159003	0.167153
499.377616	0.165808
499.596210	0.166623
499.814787	0.167284
500.033345	0.166633
500.251885	0.167295
500.470406	0.167655
500.688910	0.168605
500.907395	0.169498
501.125862	0.169721
501.344311	0.171670
501.562742	0.171268
501.781154	0.171809
501.999548	0.173164
502.217924	0.172773
502.436282	0.172899
502.654621	0.173378
502.872942	0.173599
503.091245	0.173207
503.309530	0.172564
503.527797	0.172616
503.746045	0.172498
503.964275	0.170748
504.182487	0.171038
504.400681	0.170849
504.618856	0.170702
504.837013	0.171386
505.055152	0.171364
505.273273	0.171485
505.491376	0.170560
505.709460	0.169779
505.927526	0.171026
506.145574	0.171270
506.363604	0.172665
506.581615	0.172077
506.799608	0.171524
507.017583	0.172139
507.235540	0.171657
507.453478	0.172783
507.671399	0.172489
507.889301	0.172806
508.107185	0.173221
508.325050	0.173150
508.542898	0.174144
508.760727	0.174175
508.978538	0.174841
509.196330	0.175241
509.414105	0.175730
509.631861	0.177205
509.849599	0.177207
510.067319	0.176872
510.285021	0.176688
510.502704	0.175714
510.720369	0.175437
510.938016	0.174481
511.155645	0.174625
511.373255	0.174390
511.590848	0.173308
511.808422	0.174037
512.025977	0.174384
512.243515	0.174528
512.461034	0.175042
512.678536	0.175566
512.896018	0.176994
513.113483	0.178113
513.330930	0.178210
513.548358	0.179061
513.765768	0.178402
513.983160	0.178610
514.200533	0.179140
514.417889	0.180021
514.635226	0.180778
514.852545	0.180708
515.069845	0.180650
515.287128	0.181517
515.504392	0.181367
515.721638	0.181355
515.938866	0.182534
516.156075	0.181875
516.373267	0.181355
516.590440	0.181719
516.807594	0.180960
517.024731	0.181209
517.241850	0.181206
517.458950	0.181752
517.676032	0.181631
517.893095	0.181080
518.110141	0.181385
518.327168	0.183416
518.544177	0.184114
518.761168	0.185156
518.978141	0.185553
519.195095	0.185920
519.412031	0.186132
519.628949	0.186212
519.845849	0.186478
520.062731	0.187252
520.279594	0.186525
520.496439	0.186110
520.713266	0.187176
520.930074	0.186811
521.146865	0.186899
521.363637	0.186588
521.580391	0.187841
521.797127	0.187955
522.013844	0.187941
522.230543	0.187534
522.447224	0.187637
522.663887	0.187325
522.880532	0.187877
523.097158	0.188033
523.313766	0.188000
523.530356	0.187625
523.746928	0.187506
523.963481	0.188256
524.180017	0.188927
524.396534	0.189610
524.613032	0.189416
524.829513	0.189716
525.045975	0.189757
525.262420	0.191089
525.478845	0.191327
525.695253	0.192363
525.911643	0.193143
526.128014	0.193710
526.344367	0.193356
526.560702	0.193915
526.777018	0.194371
526.993316	0.195162
527.209597	0.195333
527.425858	0.196832
527.642102	0.197082
527.858328	0.196444
528.074535	0.196847
528.290724	0.197782
528.506894	0.198037
528.723047	0.197857
528.939181	0.197990
529.155297	0.198377
529.371395	0.197904
529.587475	0.197997
529.803536	0.198484
530.019579	0.198961
530.235604	0.198494
530.451611	0.198740
530.667600	0.199164
530.883570	0.199445
531.099522	0.199825
531.315456	0.200319
531.531372	0.200815
531.747269	0.201289
531.963148	0.200983
532.179009	0.201618
532.394852	0.202130
532.610676	0.202925
532.826482	0.203294
533.042271	0.203588
533.258040	0.203925
533.473792	0.204385
533.689525	0.204174
533.905240	0.203983
534.120937	0.204238
534.336616	0.204644
534.552277	0.204470
534.767919	0.204725
534.983543	0.204983
535.199149	0.204596
535.414736	0.204908
535.630306	0.205516
535.845857	0.206348
536.061390	0.206971
536.276904	0.206671
536.492401	0.206841
536.707879	0.207316
536.923339	0.207676
537.138781	0.208097
537.354204	0.208262
537.569610	0.208368
537.784997	0.208365
538.000366	0.208859
538.215716	0.209974
538.431049	0.210764
538.646363	0.210780
538.861659	0.211289
539.076937	0.211625
539.292196	0.212002
539.507438	0.212338
539.722661	0.213898
539.937866	0.213670
540.153052	0.213718
540.368221	0.214169
540.583371	0.214196
540.798503	0.213940
541.013617	0.214664
541.228712	0.214988
541.443789	0.215083
541.658848	0.214507
541.873889	0.214890
542.088912	0.214942
542.303916	0.214576
542.518902	0.215125
542.733870	0.215768
542.948820	0.215775
543.163752	0.216217
543.378665	0.216870
543.593560	0.217047
543.808437	0.218115
544.023295	0.218175
544.238136	0.218614
544.452958	0.219175
544.667762	0.219595
544.882548	0.220345
545.097315	0.220680
545.312064	0.220465
545.526795	0.221518
545.741508	0.221045
545.956203	0.221434
546.170879	0.221579
546.385537	0.221361
546.600177	0.221472
546.814799	0.221428
547.029402	0.221444
547.243988	0.222078
547.458555	0.221178
547.673103	0.221638
547.887634	0.222115
548.102146	0.222738
548.316640	0.223730
548.531116	0.223560
548.745574	0.223525
548.960013	0.223663
549.174435	0.224013
549.388838	0.224867
549.603222	0.224913
549.817589	0.225329
550.031937	0.225281
550.246267	0.224838
550.460579	0.225779
550.674873	0.226340
550.889148	0.226523
551.103405	0.226705
551.317644	0.227194
551.531865	0.227527
551.746068	0.227334
551.960252	0.227331
552.174418	0.227683
552.388566	0.227231
552.602696	0.227720
552.816807	0.228166
553.030900	0.228455
553.244975	0.228286
553.459032	0.228586
553.673070	0.228847
553.887091	0.229402
554.101093	0.230103
554.315077	0.230731
554.529042	0.230503
554.742990	0.230577
554.956919	0.230904
555.170830	0.231234
555.384722	0.231216
555.598597	0.231711
555.812453	0.231543
556.026291	0.231586
556.240111	0.231810
556.453913	0.232304
556.667696	0.232403
556.881461	0.232115
557.095208	0.232015
557.308937	0.232642
557.522647	0.232633
557.736339	0.233114
557.950013	0.233074
558.163669	0.233189
558.377307	0.233386
558.590926	0.233493
558.804527	0.234232
559.018110	0.234735
559.231675	0.234736
559.445221	0.234886
559.658749	0.235283
559.872259	0.235763
560.085751	0.235834
560.299225	0.235451
560.512680	0.236305
560.726117	0.236086
560.939536	0.236099
561.152937	0.236227
561.366319	0.236240
561.579683	0.236624
561.793029	0.236169
562.006357	0.236248
562.219667	0.236828
562.432958	0.236820
562.646231	0.236966
562.859486	0.237448
563.072723	0.237442
563.285941	0.237604
563.499141	0.237462
563.712323	0.237856
563.925487	0.238405
564.138632	0.238948
564.351760	0.238774
564.564869	0.239061
564.777960	0.239056
564.991032	0.239565
565.204087	0.240252
565.417123	0.240309
565.630141	0.240634
565.843140	0.240376
566.056122	0.239948
566.269085	0.240284
566.482030	0.240559
566.694957	0.241239
566.907866	0.241244
567.120756	0.241178
567.333628	0.241378
567.546482	0.241488
567.759318	0.241822
567.972135	0.242323
568.184935	0.242608
568.397716	0.243154
568.610478	0.242951
568.823223	0.243300
569.035949	0.243391
569.248657	0.243654
569.461347	0.244062
569.674019	0.244487
569.886672	0.244835
570.099308	0.244782
570.311925	0.244623
570.524523	0.244545
570.737104	0.244439
570.949666	0.244598
571.162210	0.244708
571.374736	0.244921
571.587244	0.245014
571.799733	0.245043
572.012205	0.245356
572.224658	0.245578
572.437092	0.245725
572.649509	0.246157
572.861907	0.246227
573.074287	0.246251
573.286649	0.246632
573.498993	0.246908
573.711318	0.246700
573.923625	0.246700
574.135914	0.246774
574.348185	0.247117
574.560438	0.247234
574.772672	0.248001
574.984888	0.248661
575.197086	0.248401
575.409266	0.248218
575.621427	0.248616
575.833570	0.248829
576.045695	0.248969
576.257802	0.249095
576.469890	0.249082
576.681961	0.249007
576.894013	0.248904
577.106046	0.249244
577.318062	0.249638
577.530059	0.249914
577.742039	0.249929
577.954000	0.250372
578.165942	0.250981
578.377867	0.251295
578.589773	0.251404
578.801661	0.252094
579.013531	0.252280
579.225382	0.252661
579.437216	0.252913
579.649031	0.253239
579.860828	0.253377
580.072606	0.253662
580.284367	0.253780
580.496109	0.254580
580.707833	0.254598
580.919539	0.254995
581.131227	0.254563
581.342896	0.255182
581.554547	0.255783
581.766180	0.255884
581.977795	0.255961
582.189391	0.256483
582.400969	0.256487
582.612529	0.256658
582.824071	0.256632
583.035595	0.257820
583.247100	0.257760
583.458587	0.257692
583.670056	0.258228
583.881506	0.258358
584.092939	0.258504
584.304353	0.258393
584.515749	0.258209
584.727127	0.258470
584.938486	0.258185
585.149828	0.258227
585.361151	0.258411
585.572456	0.258310
585.783742	0.258289
585.995011	0.258644
586.206261	0.258818
586.417493	0.259632
586.628706	0.260181
586.839902	0.260439
587.051079	0.260775
587.262238	0.260926
587.473379	0.261287
587.684502	0.261538
587.895606	0.261590
588.106692	0.261719
588.317760	0.261558
588.528810	0.261252
588.739841	0.261655
588.950855	0.261765
589.161850	0.262170
589.372827	0.262356
589.583785	0.262520
589.794726	0.262822
590.005648	0.262697
590.216552	0.262630
590.427437	0.262943
590.638305	0.263059
590.849154	0.263145
591.059985	0.262872
591.270798	0.262929
591.481592	0.263208
591.692369	0.263073
591.903127	0.263675
592.113867	0.264130
592.324588	0.264193
592.535292	0.263981
592.745977	0.264110
592.956644	0.264532
593.167293	0.264641
593.377923	0.264861
593.588536	0.265318
593.799130	0.265341
594.009706	0.265825
594.220263	0.266496
594.430803	0.266628
594.641324	0.267033
594.851827	0.267394
595.062312	0.267301
595.272778	0.267260
595.483227	0.267589
595.693657	0.267953
595.904069	0.268120
596.114462	0.267874
596.324838	0.268354
596.535195	0.268413
596.745534	0.268338
596.955855	0.268818
597.166157	0.269199
597.376441	0.268832
597.586707	0.269067
597.796955	0.268984
598.007185	0.268917
598.217396	0.269168
598.427589	0.269616
598.637764	0.270108
598.847921	0.270470
599.058060	0.270856
599.268180	0.271511
599.478282	0.271402
599.688366	0.271560
599.898431	0.272370
600.108479	0.272355
600.318508	0.272434
600.528519	0.272762
600.738511	0.272275
600.948486	0.272213
601.158442	0.272490
601.368380	0.273026
601.578300	0.273544
601.788202	0.273430
601.998085	0.273647
602.207950	0.274118
602.417797	0.274129
602.627626	0.274811
602.837436	0.275281
603.047228	0.274915
603.257002	0.275034
603.466758	0.275091
603.676496	0.275387
603.886215	0.275575
604.095916	0.275530
604.305599	0.275930
604.515264	0.276095
604.724910	0.275945
604.934538	0.276636
605.144148	0.276895
605.353740	0.276982
605.563314	0.277140
605.772869	0.277433
605.982406	0.277600
606.191925	0.277497
606.401425	0.277751
606.610908	0.277977
606.820372	0.277786
607.029818	0.277730
607.239246	0.277702
607.448655	0.277754
607.658047	0.278110
607.867420	0.278407
608.076775	0.278509
608.286111	0.278918
608.495430	0.279025
608.704730	0.279380
608.914012	0.279694
609.123275	0.280019
609.332521	0.280253
609.541748	0.280156
609.750957	0.280125
609.960148	0.280010
610.169321	0.280046
610.378475	0.280523
610.587611	0.280626
610.796729	0.280720
611.005829	0.281017
611.214910	0.280963
611.423974	0.280973
611.633019	0.280543
611.842045	0.280980
612.051054	0.280949
612.260044	0.280919
612.469017	0.280865
612.677970	0.280920
612.886906	0.281096
613.095824	0.281474
613.304723	0.281927
613.513604	0.282392
613.722467	0.282578
613.931311	0.282744
614.140138	0.282647
614.348946	0.283338
614.557736	0.283463
614.766507	0.283589
614.975261	0.283661
615.183996	0.283570
615.392713	0.283872
615.601412	0.283907
615.810092	0.284023
616.018754	0.284530
616.227399	0.284495
616.436024	0.284873
616.644632	0.284920
616.853222	0.285427
617.061793	0.285858
617.270346	0.286151
617.478880	0.286668
617.687397	0.287093
617.895895	0.287431
618.104375	0.287656
618.312837	0.287669
618.521281	0.287815
618.729706	0.287647
618.938113	0.287469
619.146502	0.287753
619.354873	0.287537
619.563226	0.287681
619.771560	0.287836
619.979876	0.287996
620.188174	0.288427
620.396453	0.288418
620.604715	0.288741
620.812958	0.289188
621.021183	0.289400
621.229390	0.289770
621.437578	0.289677
621.645748	0.289338
621.853900	0.289603
622.062034	0.289639
622.270150	0.290213
622.478247	0.290366
622.686326	0.290539
622.894387	0.290312
623.102430	0.290535
623.310454	0.290577
623.518461	0.290800
623.726449	0.290510
623.934418	0.290770
624.142370	0.290511
624.350303	0.290476
624.558218	0.290376
624.766115	0.290571
624.973994	0.290623
625.181855	0.290896
625.389697	0.291091
625.597521	0.291334
625.805327	0.291274
626.013114	0.291333
626.220883	0.291351
626.428634	0.291462
626.636367	0.291853
626.844082	0.292147
627.051778	0.292432
627.259457	0.292696
627.467117	0.293039
627.674758	0.293334
627.882382	0.293971
628.089987	0.294520
628.297574	0.295019
628.505143	0.295445
628.712694	0.295561
628.920226	0.295823
629.127740	0.295937
629.335236	0.296388
629.542714	0.296424
629.750174	0.296297
629.957615	0.296574
630.165038	0.297003
630.372443	0.296760
630.579829	0.297127
630.787198	0.297469
630.994548	0.297871
631.201880	0.297729
631.409194	0.298125
631.616489	0.298379
631.823766	0.298122
632.031025	0.297935
632.238266	0.298077
632.445489	0.298066
632.652693	0.297832
632.859879	0.297707
633.067047	0.298092
633.274197	0.298225
633.481329	0.298433
633.688442	0.298870
633.895537	0.299278
634.102614	0.299508
634.309672	0.299521
634.516713	0.299865
634.723735	0.300417
634.930739	0.300437
635.137724	0.300413
635.344692	0.300746
635.551641	0.300908
635.758572	0.300948
635.965485	0.301330
636.172379	0.301671
636.379256	0.301698
636.586114	0.301630
636.792954	0.301866
636.999775	0.302203
637.206579	0.302085
637.413364	0.302148
637.620131	0.302269
637.826880	0.302272
638.033610	0.302501
638.240323	0.302964
638.447017	0.303139
638.653692	0.302933
638.860350	0.302912
639.066990	0.303332
639.273611	0.303553
639.480214	0.303908
639.686798	0.304159
639.893365	0.304203
640.099913	0.304367
640.306443	0.304458
640.512955	0.305057
640.719449	0.305183
640.925924	0.305205
641.132381	0.305361
641.338820	0.305351
641.545241	0.305644
641.751644	0.305860
641.958028	0.306178
642.164394	0.306440
642.370742	0.306137
642.577071	0.306597
642.783383	0.306652
642.989676	0.306934
643.195951	0.307213
643.402207	0.307065
643.608446	0.307255
643.814666	0.307143
644.020868	0.307202
644.227052	0.307559
644.433218	0.307827
644.639365	0.308136
644.845494	0.308219
645.051605	0.308538
645.257698	0.309116
645.463772	0.309140
645.669828	0.309530
645.875866	0.310082
646.081886	0.310453
646.287888	0.310360
646.493871	0.310420
646.699836	0.310740
646.905783	0.310512
647.111712	0.310401
647.317622	0.310744
647.523514	0.310685
647.729388	0.310611
647.935244	0.310658
648.141082	0.311097
648.346901	0.311482
648.552702	0.311534
648.758485	0.311878
648.964250	0.312142
649.169996	0.312274
649.375724	0.312433
649.581434	0.312835
649.787126	0.313170
649.992800	0.313515
650.198455	0.313703
650.404092	0.313867
650.609711	0.314181
650.815311	0.314084
651.020894	0.314300
651.226458	0.314575
651.432004	0.314617
651.637532	0.314567
651.843041	0.314271
652.048532	0.314309
652.254006	0.314283
652.459460	0.314466
652.664897	0.315080
652.870315	0.315341
653.075716	0.315704
653.281097	0.315965
653.486461	0.316647
653.691807	0.316936
653.897134	0.317316
654.102443	0.317661
654.307734	0.317872
654.513006	0.317854
654.718261	0.318024
654.923497	0.318082
655.128715	0.318349
655.333915	0.318338
655.539096	0.318839
655.744259	0.318965
655.949404	0.319187
656.154531	0.318942
656.359640	0.319197
656.564730	0.319040
656.769802	0.319089
656.974856	0.319198
657.179892	0.319167
657.384909	0.319145
657.589908	0.319337
657.794889	0.319862
657.999852	0.320503
658.204797	0.320845
658.409723	0.321632
658.614631	0.321986
658.819521	0.322343
659.024393	0.322777
659.229246	0.323176
659.434081	0.323770
659.638898	0.323746
659.843697	0.323777
660.048478	0.323876
660.253240	0.323952
660.457984	0.324186
660.662710	0.324155
660.867417	0.324474
661.072107	0.324560
661.276778	0.324537
661.481431	0.324766
661.686066	0.325036
661.890682	0.325167
662.095281	0.325257
662.299861	0.325626
662.504422	0.325849
662.708966	0.325848
662.913491	0.326134
663.117999	0.326293
663.322488	0.326512
663.526958	0.326880
663.731411	0.327472
663.935845	0.327833
664.140261	0.328132
664.344659	0.328320
664.549038	0.328780
664.753400	0.328930
664.957743	0.329043
665.162068	0.329330
665.366375	0.329484
665.570663	0.329062
665.774933	0.329280
665.979185	0.329212
666.183419	0.329504
666.387635	0.329656
666.591832	0.329724
666.796011	0.329831
667.000172	0.330235
667.204315	0.330645
667.408439	0.331236
667.612545	0.331286
667.816634	0.331521
668.020703	0.332061
668.224755	0.332154
668.428788	0.332381
668.632803	0.332904
668.836800	0.332994
669.040779	0.332974
669.244739	0.332993
669.448681	0.333092
669.652605	0.333446
669.856511	0.333254
670.060399	0.333503
670.264268	0.333930
670.468119	0.334033
670.671952	0.334279
670.875767	0.334445
671.079563	0.334730
671.283341	0.335220
671.487101	0.335698
671.690843	0.336289
671.894567	0.336570
672.098272	0.336731
672.301959	0.336997
672.505628	0.337242
672.709278	0.337640
672.912911	0.337958
673.116525	0.338100
673.320121	0.337951
673.523699	0.337963
673.727258	0.338295
673.930799	0.338534
674.134322	0.338889
674.337827	0.338988
674.541314	0.339301
674.744782	0.339723
674.948232	0.339785
675.151664	0.340068
675.355078	0.340582
675.558474	0.340858
675.761851	0.341264
675.965210	0.341454
676.168551	0.341657
676.371873	0.341619
676.575178	0.341631
676.778464	0.342128
676.981732	0.342220
677.184981	0.342153
677.388213	0.342279
677.591426	0.342401
677.794621	0.342706
677.997798	0.342795
678.200956	0.343218
678.404097	0.343626
678.607219	0.343748
678.810323	0.344031
679.013408	0.344368
679.216476	0.344461
679.419525	0.344663
679.622556	0.344653
679.825569	0.345069
680.028563	0.345133
680.231540	0.345223
680.434498	0.345711
680.637438	0.346097
680.840359	0.346252
681.043263	0.346667
681.246148	0.346924
681.449015	0.347379
681.651864	0.347714
681.854694	0.348012
682.057506	0.348315
682.260301	0.348357
682.463076	0.348767
682.665834	0.348837
682.868573	0.349355
683.071295	0.349584
683.273998	0.349700
683.476682	0.349807
683.679349	0.350095
683.881997	0.350498
684.084627	0.350905
684.287239	0.350825
684.489833	0.351202
684.692408	0.351137
684.894965	0.351241
685.097504	0.351564
685.300025	0.351967
685.502527	0.352312
685.705012	0.352063
685.907478	0.351783
686.109925	0.352082
686.312355	0.352552
686.514766	0.352615
686.717159	0.352785
686.919534	0.352940
687.121891	0.353415
687.324230	0.353471
687.526550	0.354132
687.728852	0.354746
687.931136	0.355270
688.133401	0.355191
688.335649	0.355553
688.537878	0.355867
688.740089	0.355807
688.942281	0.355504
689.144456	0.355638
689.346612	0.355737
689.548750	0.355822
689.750870	0.355486
689.952971	0.355537
690.155055	0.355395
690.357120	0.355409
690.559167	0.355614
690.761195	0.356056
690.963206	0.356239
691.165198	0.356162
691.367172	0.356207
691.569128	0.356534
691.771065	0.357024
691.972984	0.357442
692.174885	0.357901
692.376768	0.358016
692.578633	0.358149
692.780479	0.358411
692.982308	0.358645
693.184118	0.358850
693.385909	0.358950
