sample name	sample
index	711
start time	 03-25-2021  11:08:15 AM
880	0.260498
Peak Time (s)	180.037
Peak Height 	0.2605
calc peak height	180,183
Baseline Time (s)	10.035
Baseline Value 	-0.007331
subtract baseline	10,4
Abs	0.176282
Peak Time (s)	182.536
Peak Height 	0.1763
calc peak height	180,183
Baseline Time (s)	10.035
Baseline Value 	0.003229
subtract baseline	10,3
PK_550	0.086776
Peak Time (s)	182.536
Peak Height 	0.08678
calc peak height	180,183
Baseline Time (s)	11.036
Baseline Value 	5.2873E-4
subtract baseline	10,2
PK_880	0.162785
Peak Time (s)	182.536
Peak Height 	0.1628
calc peak height	180,183
Baseline Time (s)	11.036
Baseline Value 	0.003885
subtract baseline	10,1


Time (s)	A880-A510	A880-A775	A880-A975	A880	I510	I775	I975	I880	
0.035000	-0.000782	-0.000176	0.001004	0.002581	7161.334161	44151.285632	3908.735362	23458.023467
0.535500	-0.000901	0.000695	-0.004307	0.006185	7123.592922	43891.690713	3884.417883	23286.714199
1.035500	-0.002659	-0.001246	-0.006396	0.005883	7108.936695	43736.892714	3879.605480	23301.043442
1.536500	-0.003641	-0.000837	-0.002868	0.005676	7101.149034	43795.010001	3889.689479	23310.844793
2.036500	-0.000176	-0.000099	0.005273	0.001016	7183.477349	44308.023666	3924.917941	23532.821958
2.539500	0.000451	0.000185	-0.000421	0.001035	7189.703061	44333.397304	3909.066021	23531.930036
3.039000	-0.002988	-0.000879	-0.004448	0.004923	7115.279456	43862.174376	3887.447971	23346.529383
3.537000	-0.000066	-0.000004	-0.000638	0.000494	7189.945410	44366.992547	3909.959347	23557.831171
4.034500	0.001426	-0.000397	0.000402	0.000691	7203.239396	44310.589176	3912.289127	23548.409380
4.535000	-0.000261	-0.000687	0.001275	0.000001	7193.002360	44348.928513	3916.616170	23581.521861
5.035500	-0.004983	-0.000967	-0.003626	0.004072	7103.773314	43934.472460	3891.986812	23386.979222
5.535500	-0.000129	0.000271	-0.000590	0.000499	7189.252456	44392.934969	3910.078966	23557.609237
6.035500	0.000644	-0.000129	0.001997	0.000433	7197.858964	44361.005505	3917.419864	23560.792640
6.536500	0.001712	0.000500	-0.000366	0.000505	7208.087749	44414.330247	3910.680621	23557.331051
7.039000	0.000089	-0.000211	-0.000292	-0.000200	7198.652760	44413.760216	3912.832790	23591.148087
7.536500	-0.001189	0.000943	0.003428	0.000830	7175.030134	44425.667907	3920.294356	23541.763755
8.037000	0.000157	-0.000071	-0.002657	0.000100	7196.280215	44398.437017	3905.488139	23576.772850
8.537000	0.001428	-0.000159	-0.003443	0.000163	7208.682725	44383.979125	3903.156844	23573.744185
9.034500	-0.000776	0.000217	-0.002039	-0.000209	7189.879005	44455.623738	3908.036775	23591.582058
9.535000	-0.000542	-0.000158	0.001913	-0.000012	7190.263847	44400.782322	3918.422204	23582.147329
10.035000	0.000534	-0.000401	0.000000	0.000000	7201.165131	44376.397534	3913.086969	23581.556848
10.535500	-0.000035	0.000126	-0.000351	0.000177	7193.512255	44409.838271	3911.627516	23573.043997
11.036000	0.000000	0.000000	0.001925	-0.000060	7196.306353	44420.558532	3918.588919	23584.443445
11.536500	0.000641	0.000823	0.001146	0.000340	7198.772674	44461.131645	3915.317804	23565.229050
12.036500	0.001141	-0.000025	0.002744	-0.000416	7211.690909	44452.340432	3921.858468	23601.546417
12.539500	0.000012	0.000069	0.000374	-0.000080	7196.631164	44429.068200	3914.342059	23585.399494
13.037500	0.002268	0.000413	0.005405	-0.000529	7224.468133	44505.192649	3929.609072	23606.963485
13.537500	0.000258	-0.000538	0.003730	-0.001179	7210.452239	44476.294461	3926.741481	23638.247279
14.035000	-0.000723	-0.000740	-0.002330	0.002467	7163.088803	44108.396439	3899.894662	23463.453295
14.535500	0.001020	0.000317	0.001854	0.002289	7182.691063	44226.121393	3911.883347	23471.943578
15.038000	0.000125	-0.000277	0.001927	-0.000850	7205.700135	44469.732061	3920.790010	23622.393044
15.536000	0.000107	0.000312	0.002229	-0.000470	7201.613759	44489.789962	3920.575199	23604.129709
16.036000	0.000574	0.000284	0.001184	-0.000602	7207.768916	44499.840785	3918.036857	23610.471969
16.536000	0.000542	-0.000322	0.005373	-0.000192	7203.230947	44402.310897	3928.577278	23590.789944
17.039500	0.003468	0.000708	0.001685	-0.002043	7252.580356	44679.418662	3923.440845	23679.875467
17.539500	-0.000562	0.000554	-0.000235	0.001182	7177.833916	44354.594991	3909.174967	23524.885336
18.036500	-0.001032	0.000149	0.001311	0.001840	7166.329504	44252.930094	3911.624366	23493.393775
18.537000	0.001359	0.000028	-0.001006	0.001734	7191.836667	44251.518048	3905.532086	23498.457396
19.037500	-0.000772	0.000797	-0.003491	0.001953	7167.828754	44304.098259	3898.126344	23488.014278
19.535500	-0.000795	-0.000242	0.000376	0.001225	7175.022822	44274.344048	3910.741403	23522.831188
20.038000	-0.000257	-0.000373	0.001373	0.001269	7180.060903	44257.559601	3913.373595	23520.700816
20.536000	-0.000376	0.000114	0.004509	0.001413	7177.376888	44290.466070	3921.680099	23513.841382
21.041000	-0.001272	-0.000317	0.001662	0.001279	7169.608693	44262.110739	3914.148370	23520.262514
21.539000	0.001019	0.000425	-0.000876	0.002131	7184.300346	44251.575891	3904.799692	23479.499953
22.036500	-0.001119	-0.000170	0.003388	0.001729	7166.570913	44233.085164	3917.682752	23498.703817
22.537000	-0.000539	0.000158	-0.001463	0.001546	7174.363071	44281.997326	3904.794355	23507.491362
23.037500	-0.000292	0.000508	0.000780	0.001702	7175.278313	44300.419113	3910.539296	23499.987176
23.535000	0.000782	0.000507	0.001217	0.001777	7185.497957	44293.209998	3911.539605	23496.415795
24.035000	-0.000829	-0.000085	0.003924	0.001520	7171.661021	44261.236770	3919.754222	23508.720456
24.536000	0.000667	-0.000012	0.003311	0.001714	7184.969139	44249.606394	3917.511148	23499.441604
25.038500	-0.000084	0.000178	0.001113	0.002064	7173.710781	44234.355833	3910.459958	23482.703207
25.539000	0.001338	0.001081	0.000208	0.002579	7182.978867	44271.456216	3906.548404	23458.118341
26.036500	-0.001275	0.001035	-0.003500	0.002435	7157.805162	44280.763882	3896.785752	23464.995915
26.537000	0.001502	0.000358	-0.000017	0.002281	7187.708244	44230.778769	3906.747722	23472.334266
27.037000	-0.000763	-0.001100	-0.001766	0.000648	7181.248484	44247.559261	3906.430972	23550.490298
27.537500	0.002283	0.000365	0.002884	-0.000182	7221.053169	44467.290954	3921.597232	23590.318312
28.034500	0.004264	0.000548	0.002369	0.000229	7237.269221	44445.366096	3919.021157	23570.575942
28.535000	0.001725	-0.000027	0.000395	0.000218	7211.170886	44391.271280	3913.577286	23571.086563
29.035000	0.000869	-0.001061	-0.000861	0.002259	7181.453530	44097.682421	3904.488346	23473.386249
29.535500	0.000139	0.000014	0.001718	0.000206	7195.000092	44396.398819	3917.275457	23571.669162
30.036000	0.003153	0.000723	0.004971	0.000619	7221.763662	44424.799084	3925.185408	23551.883212
30.536000	-0.000289	0.000790	0.000503	0.003736	7154.589957	44133.202427	3904.179704	23402.951435
31.039500	0.000080	-0.000443	-0.001772	0.002781	7168.079156	44106.804526	3900.560939	23448.486737
31.537000	0.004120	0.000643	0.002736	0.000888	7228.966920	44391.318851	3918.208151	23538.976485
32.034500	0.001371	0.000742	0.001244	0.000460	7205.050660	44441.916162	3915.258899	23559.504980
32.537000	0.001873	0.000743	0.001078	0.000934	7205.331152	44396.459446	3913.483522	23536.743746
33.035000	-0.000409	-0.000042	0.001891	0.003431	7156.483535	44083.194902	3908.835890	23417.510518
33.535500	-0.000817	-0.000329	-0.001054	0.001950	7167.407003	44196.898210	3904.810364	23488.169972
34.035500	-0.000680	-0.000391	0.000030	0.002543	7162.756976	44134.397089	3906.158392	23459.830110
34.536000	0.000411	0.000496	0.001093	0.003261	7166.551644	44150.543995	3907.106337	23425.594027
35.035500	-0.001809	-0.000354	0.003283	0.002827	7148.390332	44110.883303	3914.349116	23446.270396
35.539000	0.000561	0.000649	0.001774	0.002925	7171.511215	44197.123999	3909.909977	23441.620712
36.037000	-0.001425	0.000767	0.002770	0.003255	7147.948225	44176.944660	3911.749080	23425.897448
36.536500	-0.000072	-0.000739	0.000808	0.002664	7167.715460	44089.752817	3907.965407	23454.062690
37.037500	-0.000884	0.000962	-0.000042	0.003334	7152.630319	44187.970912	3903.785336	23422.103828
37.535000	0.001040	0.000195	0.000825	0.003108	7174.522018	44136.367630	3906.790481	23432.873233
38.034500	-0.001675	-0.000184	0.000200	0.002609	7151.966961	44147.819604	3906.443589	23456.681091
38.535500	0.000925	0.000061	0.005445	0.003127	7173.164817	44121.936636	3919.516742	23431.997739
39.035500	0.000241	0.000914	0.003563	0.003278	7164.642007	44188.736188	3913.874429	23424.764489
39.538500	0.002137	0.000103	0.002542	0.003053	7186.305440	44132.869155	3911.674699	23435.491153
40.036500	0.001066	0.000795	0.004569	0.003491	7170.884123	44157.147814	3916.073781	23414.646001
40.536500	0.000924	-0.000004	-0.001823	0.002523	7179.316812	44173.200914	3901.126910	23460.781950
41.036500	0.000866	0.001172	0.005215	0.003758	7166.128757	44167.567799	3917.122857	23401.918437
41.537000	0.000904	0.000091	0.004594	0.002649	7177.826356	44170.180677	3918.476978	23454.754453
42.037500	0.000904	0.000528	0.004742	0.003556	7168.575513	44125.533238	3916.371459	23411.555426
42.535000	0.000573	-0.000283	0.003686	0.003049	7170.366075	44096.553458	3914.849727	23435.708757
43.035000	0.002322	0.000470	0.002733	0.003863	7179.905612	44090.651157	3909.966267	23396.906554
43.535500	0.001645	-0.000145	-0.002034	-0.001900	7232.197443	44583.453202	3912.716339	23672.976837
44.038500	0.003831	0.000154	0.003399	0.000609	7228.855504	44371.181444	3920.827725	23552.321001
44.536500	0.001858	0.001002	0.003178	0.002579	7188.305197	44263.845035	3914.746875	23458.126826
45.036500	0.000684	0.000607	0.001169	0.003722	7164.636671	44117.204095	3906.047501	23403.626984
45.537000	0.002215	0.000814	0.002040	0.001033	7207.826180	44393.811813	3915.874084	23532.010773
46.037000	0.000520	0.000156	0.004646	0.000590	7194.965951	44373.176557	3924.354672	23553.247606
46.536500	0.002155	0.000985	0.000154	0.003348	7183.471914	44188.852534	3904.286084	23421.451742
47.035000	-0.000247	-0.000144	0.000193	0.004108	7151.241793	44009.078312	3902.309204	23385.256867
47.537500	0.000677	0.000208	0.004559	0.003609	7165.718321	44089.996862	3915.717732	23409.029256
48.035000	0.002093	0.000641	0.002395	0.001295	7203.881113	44352.130721	3916.131792	23519.460112
48.541000	-0.000312	0.000193	0.000571	0.003361	7158.175182	44112.123449	3905.396768	23420.829795
49.036000	-0.000869	0.000209	0.004142	0.005859	7127.220935	43876.562266	3908.349704	23302.183947
49.538500	0.002835	0.001694	0.009159	0.000305	7221.724679	44548.242024	3937.824291	23566.941270
50.036000	0.002233	0.001043	0.006575	0.001262	7205.654580	44393.779898	3927.871187	23521.056522
50.537000	0.003466	0.001009	0.004525	0.005257	7177.350158	44009.459375	3911.063421	23330.679357
51.036500	-0.056513	-0.015547	0.003821	0.128980	5647.246784	32627.148577	3612.370709	18224.335192
51.537500	-0.040068	-0.013612	0.005596	-0.002709	6828.517593	43382.391552	3936.276636	23712.022366
52.037500	-0.025341	-0.017342	0.005367	-0.107893	8128.237655	54068.397605	4270.941255	29461.398818
52.534500	-0.022269	-0.014000	0.006024	-0.052137	7512.833794	48236.863683	4085.198569	26240.998355
53.035000	-0.018032	-0.013714	-0.007000	-0.099484	8114.610557	53506.822685	4198.122689	28948.840802
53.535500	0.025704	-0.010591	-0.000650	-0.140097	9266.494207	58882.232975	4367.831781	31518.821204
54.036000	0.032686	-0.007207	0.006577	-0.111929	8955.818802	55769.794166	4289.887591	29710.983320
54.536000	0.026384	-0.005716	0.012295	-0.073591	8348.759978	51458.959797	4175.716798	27431.488986
55.036500	0.018869	-0.001950	0.017544	-0.006709	7465.928473	44873.624647	3982.067312	23906.158134
55.536500	0.010658	-0.003889	0.020473	-0.007002	7380.557091	44714.293144	3991.522526	23920.427422
56.036500	0.038996	0.003122	0.029403	-0.019627	7839.459631	46654.169317	4056.628136	24545.428086
56.537500	0.040160	0.005211	0.038777	0.017679	7432.349550	43236.377808	3972.873489	22749.879404
57.035000	0.053825	0.012952	0.055609	0.056019	7173.241450	40483.533514	3911.954113	21058.436977
57.535000	0.062185	0.017733	0.073408	0.100244	6821.938265	37209.512930	3841.118676	19284.092103
58.035500	0.069985	0.023969	0.083651	0.128530	6633.911436	35504.785473	3795.170666	18240.392321
58.536000	0.082894	0.030937	0.095626	0.150709	6551.699527	34378.282598	3770.020265	17468.290675
59.036000	0.095098	0.039563	0.107218	0.169908	6490.823274	33618.151094	3751.650573	16831.042503
59.536000	0.102932	0.045681	0.120940	0.184034	6436.886686	33054.561761	3750.684072	16379.809684
60.036500	0.109686	0.051759	0.126497	0.197570	6379.617794	32539.011847	3731.776209	15961.001553
60.536500	0.114022	0.056770	0.131873	0.206293	6343.058800	32285.748065	3723.948591	15697.965173
61.037000	0.123184	0.061812	0.137322	0.214394	6351.862843	32078.588117	3717.787198	15458.341114
61.537500	0.129159	0.065465	0.140576	0.208663	6450.512549	32718.703617	3738.812974	15627.399449
62.034500	0.132137	0.068006	0.139628	0.208278	6479.347025	32921.103008	3737.482074	15638.832586
62.538000	0.132178	0.068447	0.141729	0.209217	6471.627349	32886.577272	3740.228996	15610.954038
63.054500	0.137198	0.070998	0.147161	0.207783	6527.467991	33164.123101	3756.611737	15653.532836
63.538000	0.136649	0.070825	0.143808	0.207527	6524.920442	33169.946794	3749.190209	15661.163900
64.035500	0.137567	0.071892	0.141578	0.208252	6526.603591	33193.885058	3742.156973	15639.596273
64.536000	0.137312	0.072727	0.145821	0.208894	6518.793448	33207.427709	3750.735231	15620.534569
65.033500	0.138891	0.074670	0.144827	0.211594	6509.053313	33154.398501	3741.937204	15540.643640
65.537000	0.139969	0.074208	0.142981	0.212212	6513.048728	33078.916318	3736.110670	15522.428827
66.037500	0.140746	0.074895	0.151673	0.213203	6511.193440	33057.761204	3754.433179	15493.297516
66.537500	0.140029	0.075880	0.141891	0.214931	6490.028243	33005.978953	3727.167876	15442.612471
67.037500	0.140865	0.075751	0.147167	0.215985	6488.140840	32923.696862	3737.083799	15411.797720
67.535500	0.144530	0.076699	0.150390	0.216330	6516.895175	32965.636281	3743.900125	15401.723989
68.035500	0.142349	0.078262	0.151111	0.218247	6481.438534	32941.028945	3741.060937	15345.927016
68.536000	0.143098	0.078480	0.152867	0.219845	6474.134038	32845.329465	3741.437730	15299.600951
69.036500	0.143740	0.078023	0.148805	0.220281	6475.907455	32783.558209	3730.831793	15286.999966
69.536500	0.143997	0.078659	0.153096	0.220847	6473.244192	32788.331803	3739.605169	15270.630658
70.037000	0.142503	0.078867	0.153136	0.220988	6459.227953	32793.046637	3739.368652	15266.577686
70.537000	0.144509	0.079691	0.152544	0.223352	6456.161120	32686.775946	3732.398228	15198.532870
71.035000	0.144416	0.078424	0.160700	0.223115	6457.391539	32615.875901	3752.308208	15205.326009
71.535500	0.143217	0.080029	0.154687	0.224185	6438.028811	32652.732824	3735.481593	15174.647138
72.035500	0.146445	0.080929	0.156725	0.225460	6454.690280	32626.918759	3737.281620	15138.167608
72.535500	0.146610	0.081159	0.159069	0.225639	6454.566858	32630.380320	3742.404007	15133.049478
73.036000	0.147812	0.081585	0.154636	0.228021	6444.487781	32496.234349	3726.361256	15065.214956
73.535000	0.146111	0.081835	0.157182	0.227597	6433.622467	32542.456013	3733.323417	15077.280688
74.036000	0.147882	0.082464	0.155573	0.227982	6445.421601	32559.149364	3728.644680	15066.330554
74.537000	0.148105	0.083220	0.158146	0.229101	6437.786957	32534.253451	3732.054573	15034.590198
75.037000	0.146995	0.082793	0.155733	0.229698	6423.284341	32464.128808	3725.008564	15017.682511
75.534000	0.149271	0.083312	0.157092	0.230267	6437.793627	32460.725531	3726.854121	15001.607572
76.037500	0.149138	0.084850	0.154257	0.232419	6418.398932	32418.861900	3715.266878	14940.971526
76.535000	0.148654	0.082843	0.158376	0.230993	6426.370838	32379.118316	3728.156773	14981.098934
77.037500	0.149041	0.083464	0.158004	0.231842	6422.457688	32363.649674	3725.305415	14957.199783
77.535500	0.149870	0.084493	0.160513	0.232913	6420.402840	32360.742891	3728.665044	14927.064467
78.038500	0.146909	0.084700	0.155557	0.233932	6386.842347	32305.490657	3714.774754	14898.497348
78.536000	0.150523	0.085536	0.159609	0.235696	6402.401266	32242.465485	3720.071603	14849.179165
79.036500	0.149520	0.084576	0.159804	0.234426	6404.659875	32263.481749	3723.476228	14884.665734
79.536500	0.150584	0.085490	0.160195	0.235505	6404.536106	32252.344536	3721.877637	14854.520581
80.038000	0.152963	0.086036	0.155235	0.235737	6422.684424	32273.592045	3709.875061	14848.030656
80.534500	0.150419	0.086707	0.159637	0.238151	6380.898609	32155.449259	3714.453338	14780.877792
81.038000	0.151784	0.086005	0.160509	0.236848	6403.319572	32196.127786	3719.485491	14817.070201
81.535000	0.153114	0.086544	0.161881	0.237663	6407.673098	32177.468564	3720.779192	14794.421292
82.035500	0.151362	0.086782	0.160277	0.237928	6390.680297	32175.586336	3716.447209	14787.055781
82.535500	0.153049	0.088127	0.160733	0.241480	6375.041583	32026.547155	3709.311413	14688.861993
83.036500	0.151310	0.087132	0.161609	0.239381	6378.056931	32101.077915	3716.168914	14746.802757
83.536000	0.153590	0.087220	0.163392	0.239577	6395.550784	32093.774152	3719.844777	14741.388844
84.037000	0.154044	0.089011	0.168529	0.241267	6385.164386	32100.574500	3727.875396	14694.740288
84.537000	0.154500	0.088111	0.163203	0.242633	6377.531028	31947.942177	3712.341364	14657.157854
85.037500	0.155434	0.089315	0.160906	0.242345	6387.783973	32048.366855	3707.726197	14665.087770
85.534500	0.155895	0.089076	0.168397	0.242830	6387.585203	31999.620241	3723.918312	14651.770444
86.035500	0.156233	0.088285	0.167564	0.242647	6391.957555	31958.710211	3722.405893	14656.792797
86.535000	0.154313	0.089747	0.166772	0.245762	6349.875734	31847.812815	3713.355719	14571.553892
87.036000	0.154322	0.089649	0.163778	0.243851	6365.867916	31969.495146	3710.862081	14623.778736
87.535500	0.156109	0.089629	0.164391	0.244514	6375.261648	31923.564366	3710.746749	14605.625345
88.036500	0.157047	0.089994	0.166659	0.244762	6381.035718	31931.407598	3715.403693	14598.855371
88.536500	0.154590	0.089439	0.165906	0.247818	6335.124939	31690.024315	3706.641574	14515.641133
89.040000	0.154798	0.089210	0.171993	0.244894	6361.139181	31870.029911	3727.491994	14595.246086
89.536500	0.156923	0.090304	0.168082	0.245483	6373.959538	31903.859293	3717.026177	14579.163027
90.037500	0.155572	0.089711	0.163298	0.245381	6363.526844	31870.939238	3706.249910	14581.944133
90.534500	0.154096	0.090165	0.161836	0.249333	6318.540696	31637.534192	3693.933131	14474.619609
91.036000	0.157893	0.090826	0.163161	0.247345	6366.506965	31814.145007	3701.452019	14528.489684
91.535000	0.157273	0.090402	0.165683	0.246891	6365.127678	31816.128438	3708.256106	14540.824154
92.035500	0.157693	0.090053	0.166008	0.247180	6366.211650	31773.492335	3708.335891	14532.957737
92.536000	0.156489	0.091474	0.163385	0.251995	6316.328729	31547.732875	3691.420471	14402.861490
93.036500	0.159254	0.091243	0.170517	0.248381	6369.216326	31772.709168	3715.953656	14500.369259
93.537000	0.158462	0.090692	0.165151	0.248494	6361.672100	31728.500544	3703.370528	14497.330184
94.037000	0.157181	0.090714	0.164941	0.247727	6357.390759	31781.065466	3704.640646	14518.110119
94.537000	0.155412	0.089984	0.163524	0.252486	6303.443400	31416.801839	3690.626245	14389.671735
95.037500	0.158492	0.091082	0.168954	0.249384	6354.510494	31695.136620	3710.042155	14473.236771
95.535000	0.158673	0.090995	0.167499	0.249177	6357.734494	31703.118684	3707.177198	14478.821751
96.036000	0.157733	0.090914	0.170046	0.249315	6348.774864	31688.572004	3712.712217	14475.101109
96.535000	0.151938	0.089716	0.159323	0.253071	6270.303422	31360.576099	3679.902876	14373.985712
97.036000	0.156952	0.090211	0.167938	0.249345	6342.039158	31639.758573	3707.798994	14474.285837
97.536000	0.159093	0.091444	0.168842	0.250387	6351.165689	31652.502238	3707.482089	14446.144112
