sample name	sample
index	1040
start time	 04-19-2021  02:04:11 PM
880	0.248562
Peak Time (s)	101.537
Peak Height 	0.2486
calc peak height	100,103
Baseline Time (s)	10.04
Baseline Value 	-0.003707
subtract baseline	10,4
Abs	0.177398
Peak Time (s)	100.537
Peak Height 	0.1774
calc peak height	100,103
Baseline Time (s)	9.536
Baseline Value 	3.5024E-4
subtract baseline	10,3
PK_550	0.106734
Peak Time (s)	101.037
Peak Height 	0.1067
calc peak height	100,103
Baseline Time (s)	11.537
Baseline Value 	4.4042E-4
subtract baseline	10,2
PK_880	0.165810
Peak Time (s)	102.537
Peak Height 	0.1658
calc peak height	100,103
Baseline Time (s)	10.04
Baseline Value 	9.7629E-4
subtract baseline	10,1


Time (s)	A880-A510	A880-A775	A880-A975	A880	I510	I775	I975	I880	
0.036000	-0.002753	-0.000310	-0.001537	0.007936	6514.064269	45364.993936	3972.370623	24042.091799
0.536500	-0.003429	-0.000403	-0.003426	0.004364	6538.073120	45705.639426	3976.593453	24216.498799
1.039500	-0.002309	-0.000605	-0.006679	0.004042	6550.089454	45717.478121	3969.247443	24232.289175
1.537000	-0.000097	-0.000611	-0.002475	0.001752	6587.857472	45942.708933	3985.590058	24344.921510
2.037500	-0.002012	-0.000462	0.001115	0.006680	6530.601821	45472.795803	3982.203077	24103.236390
2.537500	0.000696	-0.000303	-0.001647	0.001195	6599.262820	46028.300642	3989.107606	24372.415053
3.038000	0.001891	0.000610	0.003527	-0.000687	6625.388428	46306.113368	4007.201791	24465.571991
3.535500	-0.001838	-0.000170	-0.000393	0.001248	6577.440293	46036.186392	3992.165959	24369.797919
4.035500	-0.001827	-0.000498	-0.001370	0.002339	6568.372409	45895.837459	3986.904346	24316.003862
4.535500	0.000046	-0.000123	-0.000689	0.000986	6595.537670	46066.807322	3992.078203	24382.750067
5.036500	-0.001062	-0.000368	-0.000575	0.000427	6590.898315	46098.028274	3993.798892	24410.405566
5.539000	-0.000016	-0.000631	-0.001481	-0.000213	6605.157446	46135.482418	3993.118122	24442.092467
6.034000	0.000060	0.000243	-0.001208	0.000311	6601.369893	46170.249727	3992.478286	24416.156589
6.537500	0.000651	-0.000234	0.003294	-0.000105	6609.895025	46164.122407	4005.095600	24436.714894
7.035000	0.000549	0.000147	-0.002103	0.000854	6600.908072	46106.693692	3988.814593	24389.261981
7.535000	-0.000175	0.000314	-0.000077	0.000701	6596.077852	46138.506500	3994.370044	24396.848464
8.035500	-0.000922	0.000044	0.002876	0.000272	6593.392059	46154.325077	4003.046800	24418.086924
8.535500	-0.000514	-0.000071	-0.000492	0.000285	6596.731823	46141.645115	3994.371250	24417.425451
9.036000	-0.000482	0.000235	0.004230	0.000255	6597.248635	46174.953191	4006.581871	24418.892809
9.536000	-0.000649	0.000482	0.000000	0.000253	6595.862975	46199.800031	3995.712891	24419.019333
10.039500	0.000000	0.000212	0.001630	0.000000	6603.490306	46198.048908	4000.540613	24431.536091
10.536500	0.000108	-0.000150	0.000992	-0.000254	6606.561783	46187.378195	3999.556898	24444.142370
11.037000	0.000124	-0.000447	-0.000360	-0.000769	6611.059434	46209.049469	3997.407431	24469.662867
11.537500	0.001551	0.000000	-0.000571	-0.000554	6621.366531	46232.129676	3996.317559	24459.008730
12.035000	-0.000082	0.001047	0.000980	0.000210	6601.017561	46260.263722	3998.332844	24421.148140
12.535500	0.001024	0.000183	0.001850	-0.000071	6612.779293	46202.306726	4001.289085	24435.076492
13.035500	-0.000137	0.001667	0.002095	0.000625	6597.042157	46280.634004	4000.128516	24400.597625
13.536000	-0.001354	-0.001012	0.001971	-0.000644	6597.478335	46140.396034	4003.075513	24463.443849
14.038500	-0.002773	0.000313	-0.001672	0.004600	6541.569015	45752.914851	3980.418525	24204.941434
14.539000	-0.002475	0.000045	-0.000058	0.002393	6562.482674	45944.123835	3990.100944	24313.336525
15.036500	-0.000354	0.000227	-0.000401	-0.000031	6600.756289	46202.655710	3995.414921	24433.083383
15.536500	-0.000602	0.000987	0.004198	0.000770	6591.893945	46198.631627	4005.171789	24393.460395
16.037500	-0.003834	0.000410	0.000446	0.006761	6514.836869	45550.206705	3980.310939	24099.305996
16.537500	0.002712	0.000809	0.003915	0.000689	6620.668291	46188.948684	4004.650882	24397.439908
17.034500	0.000171	0.000833	0.006957	-0.003033	6630.730816	46563.083928	4022.235144	24582.293881
17.535500	-0.001484	0.000704	-0.001599	0.001183	6580.966673	46129.369069	3989.259982	24373.025422
18.036000	-0.003036	-0.000137	0.002620	0.002387	6557.842727	45926.861975	3996.957085	24313.660521
18.539000	-0.002145	-0.000331	-0.001209	0.000697	6579.492967	46074.837049	3991.491042	24397.024405
19.039000	-0.000304	0.000408	0.000233	0.000989	6592.559921	46119.263772	3994.425869	24382.627758
19.536500	-0.000115	-0.000235	0.001342	0.000805	6595.706597	46073.770195	3997.736283	24391.716319
20.037000	0.000512	0.000097	0.002177	0.002487	6586.801020	45940.066866	3995.567813	24308.741344
20.537000	-0.001381	-0.000259	0.001111	0.000819	6584.905366	46069.946797	3997.108256	24391.003200
21.037500	0.002516	0.000107	0.006322	0.001078	6615.692761	46080.519493	4009.867635	24378.216583
21.535000	-0.000269	0.000636	0.002118	0.001486	6588.653343	46092.571545	3997.979721	24358.056458
22.035000	-0.002079	-0.000153	-0.000312	0.002473	6565.133487	45916.710388	3989.250962	24309.386243
22.535500	-0.001706	-0.000334	0.002091	0.000310	6586.453185	46113.012268	4000.929799	24416.187002
23.036000	-0.001480	-0.000377	-0.000760	0.000612	6585.812061	46078.821324	3992.852978	24401.257325
23.541500	-0.000921	0.000228	0.007540	0.000865	6588.391478	46113.654515	4013.581300	24388.721672
24.036500	-0.003079	0.000361	0.001836	0.002927	6552.974512	45922.709442	3993.570792	24287.087382
24.536500	-0.000386	0.000285	0.001455	0.001083	6591.074357	46097.762055	3997.312910	24377.984842
25.037000	0.000113	0.000551	0.001598	0.000808	6597.604623	46151.372278	3998.384003	24391.547237
25.537500	-0.000735	0.000139	0.002022	0.001002	6588.804632	46091.331784	3998.975898	24381.974679
26.034500	-0.002642	0.000977	-0.001038	0.003311	6553.418644	45945.636315	3985.281708	24268.207095
26.534500	-0.000816	0.000184	0.000497	0.000804	6589.794036	46115.377788	3995.574423	24391.769171
27.035000	-0.000075	-0.000070	0.001356	-0.001540	6615.924931	46323.374131	4003.800763	24507.957641
27.536000	0.001018	0.000178	0.006249	-0.001493	6624.821170	46343.449739	4016.357675	24505.598629
28.039000	-0.001221	0.000890	0.001354	0.000580	6588.270625	46207.808060	3998.343809	24402.831746
28.536500	0.000914	0.000698	0.005998	0.000178	6609.724418	46228.676978	4011.360380	24422.706164
29.037000	-0.000380	-0.000080	-0.000081	-0.000650	6605.778362	46233.734827	3997.817584	24463.763216
29.536000	0.000522	0.000348	0.001646	-0.000495	6612.113069	46260.826739	4001.855056	24456.055655
30.037000	-0.002929	0.000440	0.003258	0.005512	6532.686413	45675.648530	3990.604257	24160.266076
30.537500	-0.000508	-0.001094	-0.000537	0.000944	6591.205487	45974.831173	3992.572875	24384.811464
31.035000	-0.002216	0.000158	0.006538	0.001726	6570.253142	46021.378016	4008.747639	24346.218647
31.535000	0.001403	0.000081	0.004436	-0.000207	6617.154115	46205.706470	4008.313301	24441.814312
32.036500	-0.002568	-0.001318	-0.004844	0.004671	6542.686388	45585.752969	3972.264242	24201.458155
32.538500	0.000777	0.000719	0.003878	-0.000119	6611.087498	46260.431796	4006.640398	24437.453461
33.036000	0.000869	0.000191	0.001937	-0.000563	6615.640042	46251.938333	4002.777456	24459.417015
33.536000	0.001559	0.000933	0.007974	-0.001525	6629.702182	46421.985465	4020.947588	24507.169797
34.036500	-0.002407	-0.000780	-0.002136	0.003774	6551.503869	45726.609712	3981.331010	24245.427819
34.536500	-0.001138	0.000324	0.002323	0.000865	6586.556844	46123.223950	4000.098305	24388.715325
35.037500	-0.000052	0.000424	-0.001495	0.001338	6591.734306	46086.175478	3989.128727	24365.362983
35.537000	0.000474	0.000376	-0.001180	0.001433	6595.377932	46072.020280	3989.690189	24360.700277
36.035000	-0.001357	0.000133	-0.005419	0.002745	6568.911850	45918.185185	3975.654442	24296.042957
36.535500	-0.001937	0.001070	0.005236	0.002115	6569.331575	46073.242646	4004.379507	24327.048053
37.038000	-0.000127	0.000189	0.001231	0.001479	6589.915186	46048.922733	3995.725061	24358.432344
37.535500	-0.000226	-0.000075	0.005760	0.001209	6591.349612	46049.455592	4008.072429	24371.729698
38.036000	-0.000367	-0.000412	0.004892	0.001226	6590.025021	46014.498346	4005.785838	24370.912379
38.536500	-0.001298	-0.000700	0.003124	0.000712	6586.507929	46036.855062	4002.553333	24396.315051
39.036500	-0.000593	-0.000721	0.003760	0.001224	6588.136926	45984.069478	4002.872493	24371.027104
39.537000	-0.002143	-0.001332	0.000096	0.000485	6581.296425	45996.789485	3995.363830	24407.542133
40.037000	-0.002092	0.000134	-0.000245	0.003628	6555.358766	45831.086323	3986.489547	24252.628731
40.535000	-0.001275	0.000098	0.004100	0.002006	6575.804527	45987.733060	4001.733940	24332.411848
41.035000	-0.001536	0.000012	0.002187	0.001377	6578.893840	46041.494237	3998.434336	24363.424650
41.538000	-0.000680	-0.000139	0.000362	0.001364	6586.214789	46027.795378	3993.796860	24364.090813
42.035500	-0.001784	0.000369	0.003442	0.003569	6558.428266	45860.053816	3996.034685	24255.516589
42.536000	-0.000338	0.000639	0.000194	0.001803	6585.399204	46061.440059	3992.248826	24342.443801
43.036000	-0.002430	0.000212	-0.001799	0.001145	6573.334747	46084.404121	3988.848401	24374.923358
43.536000	-0.000625	0.000559	0.007509	0.001545	6585.155175	46079.068958	4011.734985	24355.146489
44.036000	-0.000519	0.000256	-0.001196	0.002748	6575.924145	45929.941775	3986.308475	24295.858744
44.537000	0.002223	-0.000105	0.001381	-0.000869	6629.769624	46253.046898	4002.136346	24474.615283
45.038000	0.000714	0.000535	0.005951	-0.000246	6611.629756	46254.766948	4012.341616	24443.742058
45.537000	-0.000049	-0.000110	-0.006481	-0.000770	6609.608654	46242.715610	3981.836355	24469.724503
46.038000	-0.003853	-0.000087	-0.002806	0.003492	6541.798913	45822.613184	3980.351736	24259.281964
46.535500	0.000729	0.000846	0.001782	0.000257	6607.496640	46235.672738	4000.272680	24418.836382
47.035500	-0.001308	0.000996	0.004817	-0.000541	6596.997097	46330.020742	4010.161940	24458.329118
47.536000	-0.000951	0.000244	-0.001113	0.001892	6579.481208	46013.414555	3988.691979	24338.016594
48.036500	-0.002894	0.000239	0.000484	0.003407	6550.500581	45863.180914	3988.899646	24263.448644
48.536000	-0.000551	-0.000001	0.003520	-0.000501	6603.063121	46226.647239	4006.700733	24456.346473
49.037000	0.000818	0.000443	0.001582	-0.000308	6613.036365	46251.632691	4001.207784	24446.781645
49.537000	0.002151	0.000692	0.002164	0.000090	6620.981886	46236.793095	4001.681197	24427.054619
50.037500	-0.002937	-0.000048	0.001051	0.003738	6547.385428	45802.259620	3989.500854	24247.208862
50.537500	0.008785	0.001108	0.008516	0.028127	6443.255040	43572.805598	3947.267249	23082.699384
51.035000	-0.004885	-0.000982	0.004847	0.065271	6054.770957	40068.260383	3851.937840	21430.172899
51.535000	0.004592	-0.003127	-0.004304	0.444490	4260.885641	18405.436985	3280.075170	10652.086170
52.035500	-0.025654	-0.007896	-0.038127	0.106276	5639.804735	36196.064981	3681.834828	19762.757975
52.536000	-0.027429	-0.050343	-0.038712	-0.192192	8300.676216	62854.304778	4467.693713	36404.206429
53.036500	-0.027443	-0.079993	-0.031682	-0.239454	8918.517940	65331.424056	4678.524745	40253.469822
53.536500	-0.011735	-0.059526	-0.010151	-0.214708	8795.064154	64720.297767	4665.289611	38185.832326
54.037000	-0.000684	-0.019011	0.001804	-0.136016	7948.459617	59526.589282	4411.625952	32341.886470
54.537500	-0.002723	-0.010228	-0.000611	-0.088031	7401.898627	54647.817088	4244.291499	29264.530070
55.037500	-0.002678	-0.011607	-0.000570	-0.115426	7693.887904	57836.027882	4332.970265	30979.634461
55.535000	0.003951	-0.011813	0.001317	-0.129344	7924.946085	59595.006894	4386.656019	31893.364331
56.035000	0.018581	-0.000273	0.013833	-0.088697	7634.205805	55926.342923	4292.434505	29304.938040
56.536000	0.019065	0.002684	0.013885	-0.050014	7237.696702	51747.033132	4172.606012	27056.735533
57.036000	0.022849	0.008459	0.020734	-0.029897	7078.518480	50163.577335	4133.846920	25964.338310
57.536000	0.028107	0.008450	0.022048	-0.018427	7019.524542	48933.296896	4104.968876	25363.756828
58.036500	0.031138	0.013267	0.031702	0.011985	6769.345240	46304.614804	4048.002987	23846.084202
58.536500	0.036060	0.014186	0.030645	0.007630	6852.347882	46833.674098	4056.872623	24056.940227
59.037000	0.041847	0.021275	0.041120	0.059796	6454.558557	42512.337310	3949.558127	21664.967089
59.537500	0.051590	0.025308	0.048609	0.074089	6417.772236	41589.918190	3933.002129	21058.214324
60.035000	0.055460	0.027899	0.052154	0.068939	6491.073923	42283.865180	3954.207703	21274.548846
60.535500	0.059863	0.034725	0.053139	0.097210	6300.376074	40391.297903	3889.062347	20117.973944
61.035500	0.065170	0.041250	0.069886	0.107013	6265.618908	40110.187552	3905.256648	19734.221749
61.535500	0.070700	0.045322	0.077856	0.126968	6156.481220	38777.543316	3877.469613	18979.250388
62.036000	0.079252	0.050141	0.084655	0.145001	6086.700972	37705.477064	3852.112749	18326.216865
62.536500	0.087437	0.052976	0.087659	0.159122	6043.778762	36815.266097	3827.659574	17833.455782
63.036500	0.092633	0.056694	0.095616	0.160554	6070.924211	36993.683608	3841.934764	17784.349398
63.537000	0.100676	0.061102	0.097953	0.166494	6086.198834	36873.945870	3834.025105	17582.483538
64.040000	0.107082	0.063894	0.103584	0.168639	6117.359707	36924.434362	3841.676230	17510.248609
64.535000	0.107086	0.065606	0.113938	0.162475	6163.028334	37545.246323	3878.784814	17718.769718
65.035000	0.115165	0.069113	0.121603	0.180185	6092.008378	36433.844137	3856.050227	17127.552936
65.535000	0.115670	0.071007	0.113901	0.217182	5836.766884	33837.925360	3761.026449	15967.604973
66.035500	0.116904	0.070801	0.119355	0.230880	5754.387678	32866.390499	3744.542887	15562.599189
66.536000	0.122823	0.075114	0.125187	0.204704	5971.406201	35038.326048	3810.326186	16347.838579
67.036500	0.127949	0.077052	0.130518	0.213321	5947.023179	34549.400759	3803.347655	16084.104478
67.536500	0.129103	0.077069	0.136052	0.202660	6030.362045	35334.670939	3838.260932	16411.180287
68.037000	0.131473	0.080606	0.137775	0.193101	6116.839436	36324.453489	3863.363170	16711.326417
68.537000	0.128462	0.082362	0.137860	0.192106	6102.061170	36536.209728	3865.800622	16742.960770
69.037500	0.127662	0.084437	0.134628	0.190791	6105.835383	36799.043715	3861.478779	16784.887208
69.547000	0.124876	0.083282	0.136749	0.187568	6109.033592	36960.341840	3873.574447	16888.127715
70.035000	0.126586	0.083371	0.133237	0.181130	6169.336608	37474.628591	3880.261394	17096.700744
70.535500	0.130514	0.084158	0.137988	0.179558	6210.685207	37662.349245	3894.865883	17148.087176
71.036000	0.131587	0.085815	0.139952	0.179018	6222.906882	37838.074592	3900.708271	17165.774587
71.536500	0.132397	0.087455	0.140847	0.183216	6197.277137	37633.556015	3893.008603	17028.777931
72.036500	0.135288	0.087812	0.138991	0.176960	6266.928627	38164.880486	3903.277805	17233.428686
72.536500	0.133171	0.087955	0.140523	0.175040	6265.414801	38332.259038	3911.408127	17296.824873
73.040000	0.135823	0.089135	0.141816	0.174254	6291.963692	38492.646940	3916.337651	17322.884321
73.537500	0.138977	0.088858	0.143548	0.173403	6323.159744	38539.515593	3922.490937	17351.118630
74.034500	0.135952	0.090076	0.142025	0.173549	6298.438373	38627.404030	3918.509960	17346.266236
74.535000	0.136408	0.091253	0.144268	0.174111	6297.613400	38677.875126	3922.520613	17327.622440
75.036000	0.137166	0.091515	0.143354	0.174355	6301.604911	38679.324398	3919.755962	17319.520348
75.538500	0.139774	0.092431	0.145009	0.181545	6266.165464	38167.644483	3906.645025	17083.145147
76.036000	0.138651	0.093364	0.144335	0.183514	6242.464971	38083.845645	3900.442077	17019.086464
76.536500	0.144842	0.094321	0.146991	0.180175	6316.071953	38432.609540	3914.566630	17127.896668
77.036000	0.145211	0.094756	0.151947	0.181391	6309.457990	38368.941956	3923.473292	17088.162055
77.539500	0.142308	0.094981	0.149659	0.187992	6236.201757	37853.538711	3902.424605	16874.507235
78.037500	0.141646	0.095450	0.147829	0.189830	6217.200502	37743.841670	3893.864971	16815.598508
78.537500	0.145780	0.097418	0.157377	0.187741	6264.704703	38069.839185	3921.276643	16882.559972
79.035000	0.150516	0.098727	0.157623	0.190665	6278.671385	37939.688677	3914.900818	16788.891511
79.535000	0.144228	0.098166	0.148551	0.197149	6181.484367	37377.598146	3878.647552	16583.430748
80.035500	0.144175	0.099477	0.150472	0.199951	6160.142633	37259.694698	3876.630614	16495.562495
80.535500	0.147137	0.098802	0.158461	0.196150	6210.922071	37507.211967	3903.936645	16614.891445
81.036000	0.145974	0.099248	0.151410	0.197734	6190.197943	37416.852340	3883.866250	16565.028293
81.537000	0.147489	0.100102	0.155582	0.204396	6151.723977	36959.677822	3878.151675	16357.354282
82.039500	0.150606	0.100278	0.158208	0.202138	6191.916221	37150.554962	3889.391354	16427.403282
82.537000	0.149275	0.099939	0.150506	0.203709	6170.154170	37000.688761	3868.158358	16378.620084
83.034500	0.151842	0.101172	0.159540	0.206957	6165.070830	36843.306942	3881.353522	16278.375912
83.537500	0.148516	0.100515	0.154943	0.213072	6095.397798	36319.759583	3857.066838	16091.666749
84.035000	0.149213	0.100657	0.159228	0.215872	6080.080486	36116.491570	3860.398442	16007.034180
84.538500	0.153492	0.101034	0.163721	0.212782	6134.071967	36381.839778	3877.585101	16100.436935
85.035500	0.153561	0.100881	0.161769	0.214780	6119.846533	36216.934851	3868.594659	16039.952343
85.536000	0.152006	0.100182	0.156974	0.221721	6057.956616	35637.700783	3842.357534	15831.988689
86.036000	0.151866	0.100698	0.160102	0.223705	6042.673199	35527.614128	3844.883414	15773.157178
86.539000	0.156678	0.101367	0.163188	0.221185	6095.758233	35767.367742	3857.362639	15847.951906
87.037000	0.151845	0.100433	0.158806	0.221323	6059.670201	35686.555449	3847.287885	15843.835313
87.537000	0.152763	0.101281	0.158376	0.229634	6006.758343	35129.684524	3828.103534	15598.916435
88.034500	0.157408	0.101349	0.165653	0.225618	6068.830824	35433.200260	3852.962421	15716.675805
88.535000	0.155997	0.101621	0.165815	0.226902	6049.388153	35357.781267	3850.465237	15678.921218
89.035500	0.158608	0.102243	0.163199	0.228397	6057.427551	35292.816720	3841.363009	15635.091490
89.541000	0.159263	0.102665	0.168099	0.230001	6050.581565	35205.012073	3848.651542	15588.204572
90.035500	0.154343	0.102246	0.155569	0.236603	5968.751929	34688.555305	3807.097141	15397.130709
90.536000	0.158063	0.102842	0.166358	0.232011	6027.574569	35069.450448	3840.361787	15529.746091
91.039000	0.159961	0.104447	0.167376	0.233784	6028.463032	35057.052014	3838.701656	15478.385223
91.536500	0.157023	0.103453	0.164412	0.234095	6005.328611	34960.812589	3831.529952	15469.376407
92.037000	0.159775	0.104693	0.169068	0.234675	6020.771618	35009.363280	3840.461110	15452.632595
92.537500	0.160978	0.104646	0.170635	0.235279	6025.048858	34961.478109	3842.583602	15435.220756
93.034000	0.161823	0.104471	0.165689	0.236034	6025.688500	34893.121801	3830.089367	15413.487172
93.535000	0.161240	0.105298	0.166477	0.236629	6017.287433	34910.104296	3830.508677	15396.385490
94.035000	0.157565	0.104506	0.169499	0.242638	5949.100953	34414.340572	3824.024731	15224.991911
94.535000	0.160561	0.105912	0.170907	0.238001	6002.723303	34854.521152	3837.195624	15357.061148
95.036000	0.160726	0.106007	0.167063	0.238556	5999.956776	34820.812273	3827.591958	15341.176050
95.538500	0.156549	0.104130	0.165290	0.242853	5940.540840	34371.649775	3814.503262	15218.920406
96.036500	0.158623	0.105750	0.170534	0.244509	5943.441857	34369.044440	3822.218474	15172.115522
96.537000	0.160767	0.106064	0.171542	0.239679	5992.304691	34742.816181	3834.908895	15309.103242
97.037000	0.164152	0.106045	0.171434	0.240216	6012.484882	34702.166676	3833.498502	15293.796863
97.534000	0.158683	0.104318	0.165228	0.244178	5946.165498	34289.669572	3811.538224	15181.464549
