sample name	sample
index	348
start time	 03-01-2021  11:45:48 AM


Wavelength (nm)	Absorbance
494.344910	-0.293343
494.563924	-0.293343
494.782919	-0.293343
495.001897	-0.277175
495.220856	-0.278061
495.439797	-0.275692
495.658719	-0.265924
495.877624	-0.252558
496.096510	-0.170903
496.315378	-0.142304
496.534227	-0.056771
496.753059	-0.036746
496.971872	-0.020004
497.190667	0.220270
497.409444	0.255883
497.628203	0.270584
497.846943	0.273181
498.065665	0.273173
498.284369	0.275262
498.503055	0.275166
498.721723	0.273804
498.940372	0.274502
499.159003	0.273853
499.377616	0.270660
499.596210	0.267443
499.814787	0.267801
500.033345	0.266421
500.251885	0.264961
500.470406	0.263611
500.688910	0.262219
500.907395	0.260063
501.125862	0.261298
501.344311	0.262464
501.562742	0.263290
501.781154	0.261451
501.999548	0.259679
502.217924	0.258713
502.436282	0.258278
502.654621	0.258452
502.872942	0.258297
503.091245	0.256361
503.309530	0.255335
503.527797	0.253386
503.746045	0.252385
503.964275	0.252047
504.182487	0.251523
504.400681	0.250358
504.618856	0.249087
504.837013	0.249053
505.055152	0.248839
505.273273	0.248509
505.491376	0.248268
505.709460	0.247243
505.927526	0.247464
506.145574	0.246817
506.363604	0.246679
506.581615	0.246150
506.799608	0.245497
507.017583	0.243921
507.235540	0.242723
507.453478	0.241756
507.671399	0.241470
507.889301	0.239860
508.107185	0.238516
508.325050	0.236738
508.542898	0.236996
508.760727	0.235242
508.978538	0.235173
509.196330	0.234060
509.414105	0.233431
509.631861	0.233175
509.849599	0.233252
510.067319	0.233129
510.285021	0.233028
510.502704	0.231660
510.720369	0.230692
510.938016	0.229596
511.155645	0.229299
511.373255	0.227621
511.590848	0.226291
511.808422	0.225315
512.025977	0.224438
512.243515	0.224123
512.461034	0.223831
512.678536	0.224140
512.896018	0.224247
513.113483	0.224427
513.330930	0.225758
513.548358	0.226252
513.765768	0.225504
513.983160	0.224681
514.200533	0.223659
514.417889	0.222369
514.635226	0.221072
514.852545	0.220870
515.069845	0.220558
515.287128	0.218844
515.504392	0.216849
515.721638	0.216242
515.938866	0.216873
516.156075	0.216987
516.373267	0.217792
516.590440	0.218201
516.807594	0.217616
517.024731	0.216884
517.241850	0.217856
517.458950	0.218455
517.676032	0.218467
517.893095	0.217632
518.110141	0.216776
518.327168	0.216083
518.544177	0.215217
518.761168	0.214850
518.978141	0.213811
519.195095	0.212366
519.412031	0.212561
519.628949	0.212249
519.845849	0.212119
520.062731	0.212137
520.279594	0.212045
520.496439	0.212269
520.713266	0.212033
520.930074	0.212155
521.146865	0.212178
521.363637	0.211325
521.580391	0.210713
521.797127	0.210321
522.013844	0.210335
522.230543	0.210503
522.447224	0.210384
522.663887	0.210094
522.880532	0.209960
523.097158	0.209903
523.313766	0.209267
523.530356	0.209105
523.746928	0.209446
523.963481	0.209078
524.180017	0.208189
524.396534	0.207504
524.613032	0.207036
524.829513	0.206902
525.045975	0.206095
525.262420	0.206365
525.478845	0.206734
525.695253	0.206573
525.911643	0.206227
526.128014	0.205520
526.344367	0.205917
526.560702	0.205436
526.777018	0.205365
526.993316	0.205945
527.209597	0.205841
527.425858	0.205650
527.642102	0.204999
527.858328	0.204467
528.074535	0.204704
528.290724	0.204205
528.506894	0.204906
528.723047	0.204960
528.939181	0.204918
529.155297	0.205051
529.371395	0.204520
529.587475	0.204179
529.803536	0.204504
530.019579	0.205229
530.235604	0.205535
530.451611	0.205389
530.667600	0.204787
530.883570	0.204562
531.099522	0.204394
531.315456	0.204837
531.531372	0.205296
531.747269	0.205276
531.963148	0.204551
532.179009	0.204610
532.394852	0.204536
532.610676	0.204792
532.826482	0.204612
533.042271	0.204585
533.258040	0.204140
533.473792	0.204350
533.689525	0.204538
533.905240	0.204458
534.120937	0.204094
534.336616	0.203767
534.552277	0.203339
534.767919	0.203809
534.983543	0.203795
535.199149	0.204057
535.414736	0.203508
535.630306	0.203521
535.845857	0.204481
536.061390	0.204857
536.276904	0.205178
536.492401	0.206409
536.707879	0.206080
536.923339	0.205856
537.138781	0.205597
537.354204	0.206266
537.569610	0.206266
537.784997	0.205363
538.000366	0.204322
538.215716	0.204253
538.431049	0.204016
538.646363	0.204339
538.861659	0.204113
539.076937	0.204464
539.292196	0.203993
539.507438	0.204011
539.722661	0.204150
539.937866	0.205688
540.153052	0.205807
540.368221	0.205679
540.583371	0.205689
540.798503	0.206079
541.013617	0.206255
541.228712	0.206871
541.443789	0.206555
541.658848	0.206675
541.873889	0.206036
542.088912	0.206258
542.303916	0.206374
542.518902	0.206284
542.733870	0.206803
542.948820	0.206658
543.163752	0.206231
543.378665	0.206321
543.593560	0.206462
543.808437	0.206648
544.023295	0.206645
544.238136	0.206446
544.452958	0.205970
544.667762	0.205595
544.882548	0.205849
545.097315	0.206134
545.312064	0.206534
545.526795	0.206582
545.741508	0.206299
545.956203	0.206389
546.170879	0.206247
546.385537	0.207237
546.600177	0.207401
546.814799	0.207348
547.029402	0.207219
547.243988	0.207400
547.458555	0.207534
547.673103	0.208016
547.887634	0.208339
548.102146	0.208414
548.316640	0.208154
548.531116	0.208055
548.745574	0.208438
548.960013	0.208919
549.174435	0.208659
549.388838	0.208843
549.603222	0.209214
549.817589	0.209080
550.031937	0.209486
550.246267	0.209241
550.460579	0.209959
550.674873	0.209958
550.889148	0.209467
551.103405	0.209871
551.317644	0.210008
551.531865	0.209410
551.746068	0.208830
551.960252	0.208813
552.174418	0.209515
552.388566	0.209242
552.602696	0.209068
552.816807	0.209466
553.030900	0.209592
553.244975	0.209961
553.459032	0.210431
553.673070	0.211059
553.887091	0.211289
554.101093	0.210938
554.315077	0.211220
554.529042	0.211450
554.742990	0.211610
554.956919	0.212222
555.170830	0.211810
555.384722	0.211770
555.598597	0.212015
555.812453	0.212212
556.026291	0.212611
556.240111	0.212654
556.453913	0.212387
556.667696	0.212649
556.881461	0.212261
557.095208	0.212492
557.308937	0.212454
557.522647	0.212638
557.736339	0.212631
557.950013	0.212814
558.163669	0.212655
558.377307	0.213071
558.590926	0.213089
558.804527	0.213202
559.018110	0.213184
559.231675	0.213526
559.445221	0.213522
559.658749	0.213885
559.872259	0.213773
560.085751	0.213743
560.299225	0.213857
560.512680	0.213695
560.726117	0.213859
560.939536	0.214148
561.152937	0.213743
561.366319	0.213781
561.579683	0.213612
561.793029	0.213416
562.006357	0.213576
562.219667	0.213958
562.432958	0.214387
562.646231	0.214233
562.859486	0.214346
563.072723	0.215006
563.285941	0.215076
563.499141	0.215162
563.712323	0.216028
563.925487	0.216513
564.138632	0.216492
564.351760	0.216854
564.564869	0.217439
564.777960	0.217266
564.991032	0.217472
565.204087	0.217473
565.417123	0.217693
565.630141	0.217538
565.843140	0.217725
566.056122	0.217969
566.269085	0.217835
566.482030	0.217547
566.694957	0.218206
566.907866	0.218329
567.120756	0.218364
567.333628	0.218513
567.546482	0.218806
567.759318	0.218895
567.972135	0.219223
568.184935	0.218943
568.397716	0.219218
568.610478	0.219319
568.823223	0.219412
569.035949	0.220124
569.248657	0.220249
569.461347	0.220078
569.674019	0.220524
569.886672	0.220209
570.099308	0.221152
570.311925	0.221439
570.524523	0.221628
570.737104	0.222003
570.949666	0.221956
571.162210	0.222136
571.374736	0.222910
571.587244	0.222888
571.799733	0.223325
572.012205	0.223106
572.224658	0.223038
572.437092	0.222758
572.649509	0.222581
572.861907	0.222757
573.074287	0.222863
573.286649	0.222707
573.498993	0.222667
573.711318	0.222743
573.923625	0.222848
574.135914	0.223018
574.348185	0.223162
574.560438	0.223838
574.772672	0.224467
574.984888	0.225264
575.197086	0.225202
575.409266	0.225395
575.621427	0.225513
575.833570	0.225777
576.045695	0.226129
576.257802	0.226686
576.469890	0.226405
576.681961	0.226041
576.894013	0.225839
577.106046	0.226184
577.318062	0.226520
577.530059	0.227041
577.742039	0.226871
577.954000	0.227189
578.165942	0.227607
578.377867	0.227872
578.589773	0.227901
578.801661	0.227978
579.013531	0.228113
579.225382	0.228452
579.437216	0.228427
579.649031	0.228970
579.860828	0.228952
580.072606	0.228992
580.284367	0.229615
580.496109	0.230683
580.707833	0.230999
580.919539	0.231116
581.131227	0.231235
581.342896	0.231455
581.554547	0.231961
581.766180	0.232047
581.977795	0.232179
582.189391	0.232060
582.400969	0.231878
582.612529	0.232327
582.824071	0.232727
583.035595	0.232526
583.247100	0.232547
583.458587	0.232396
583.670056	0.232832
583.881506	0.232768
584.092939	0.232973
584.304353	0.232857
584.515749	0.233022
584.727127	0.233153
584.938486	0.233508
585.149828	0.233913
585.361151	0.234242
585.572456	0.234391
585.783742	0.234927
585.995011	0.234720
586.206261	0.235063
586.417493	0.234880
586.628706	0.235198
586.839902	0.235538
587.051079	0.235997
587.262238	0.236473
587.473379	0.236749
587.684502	0.236702
587.895606	0.237225
588.106692	0.237651
588.317760	0.237793
588.528810	0.237575
588.739841	0.237914
588.950855	0.237559
589.161850	0.237568
589.372827	0.238028
589.583785	0.238216
589.794726	0.238330
590.005648	0.238334
590.216552	0.238430
590.427437	0.238734
590.638305	0.238845
590.849154	0.239460
591.059985	0.239778
591.270798	0.239501
591.481592	0.240094
591.692369	0.240671
591.903127	0.241038
592.113867	0.241558
592.324588	0.242264
592.535292	0.242889
592.745977	0.243195
592.956644	0.243118
593.167293	0.243750
593.377923	0.244114
593.588536	0.243959
593.799130	0.244221
594.009706	0.244315
594.220263	0.244421
594.430803	0.244380
594.641324	0.244557
594.851827	0.245159
595.062312	0.245206
595.272778	0.245252
595.483227	0.245919
595.693657	0.246196
595.904069	0.246529
596.114462	0.246525
596.324838	0.246839
596.535195	0.247019
596.745534	0.247111
596.955855	0.247305
597.166157	0.247165
597.376441	0.247248
597.586707	0.247357
597.796955	0.247965
598.007185	0.248415
598.217396	0.248298
598.427589	0.248417
598.637764	0.248666
598.847921	0.248793
599.058060	0.249329
599.268180	0.249559
599.478282	0.249556
599.688366	0.249753
599.898431	0.249953
600.108479	0.250447
600.318508	0.250691
600.528519	0.250859
600.738511	0.251313
600.948486	0.251799
601.158442	0.251919
601.368380	0.252327
601.578300	0.252426
601.788202	0.252518
601.998085	0.252726
602.207950	0.252917
602.417797	0.253333
602.627626	0.253369
602.837436	0.253253
603.047228	0.253611
603.257002	0.253817
603.466758	0.253935
603.676496	0.254099
603.886215	0.254216
604.095916	0.254538
604.305599	0.254515
604.515264	0.254909
604.724910	0.255440
604.934538	0.255675
605.144148	0.256001
605.353740	0.256169
605.563314	0.256687
605.772869	0.256638
605.982406	0.256840
606.191925	0.257151
606.401425	0.257548
606.610908	0.257558
606.820372	0.257772
607.029818	0.257899
607.239246	0.258072
607.448655	0.258255
607.658047	0.258912
607.867420	0.259104
608.076775	0.259314
608.286111	0.259309
608.495430	0.259639
608.704730	0.259725
608.914012	0.260050
609.123275	0.260307
609.332521	0.260403
609.541748	0.260511
609.750957	0.260762
609.960148	0.261017
610.169321	0.261160
610.378475	0.261119
610.587611	0.261464
610.796729	0.261859
611.005829	0.262273
611.214910	0.262463
611.423974	0.262607
611.633019	0.262698
611.842045	0.262813
612.051054	0.263129
612.260044	0.263138
612.469017	0.263336
612.677970	0.263131
612.886906	0.263231
613.095824	0.263518
613.304723	0.263818
613.513604	0.263986
613.722467	0.264233
613.931311	0.264479
614.140138	0.265020
614.348946	0.265229
614.557736	0.265758
614.766507	0.265587
614.975261	0.265628
615.183996	0.265893
615.392713	0.266376
615.601412	0.266414
615.810092	0.266370
616.018754	0.266501
616.227399	0.266798
616.436024	0.266835
616.644632	0.267513
616.853222	0.267739
617.061793	0.267908
617.270346	0.268217
617.478880	0.268497
617.687397	0.268871
617.895895	0.269222
618.104375	0.269205
618.312837	0.269387
618.521281	0.269512
618.729706	0.269940
618.938113	0.270456
619.146502	0.270479
619.354873	0.270781
619.563226	0.270947
619.771560	0.270767
619.979876	0.271031
620.188174	0.271349
620.396453	0.271523
620.604715	0.271762
620.812958	0.271353
621.021183	0.271590
621.229390	0.271584
621.437578	0.271748
621.645748	0.272134
621.853900	0.272500
622.062034	0.272752
622.270150	0.272906
622.478247	0.273049
622.686326	0.273409
622.894387	0.273545
623.102430	0.273925
623.310454	0.274360
623.518461	0.274838
623.726449	0.274874
623.934418	0.275102
624.142370	0.275383
624.350303	0.275458
624.558218	0.275785
624.766115	0.276007
624.973994	0.276114
625.181855	0.275965
625.389697	0.275945
625.597521	0.276178
625.805327	0.276121
626.013114	0.276124
626.220883	0.276493
626.428634	0.276703
626.636367	0.277122
626.844082	0.277456
627.051778	0.278001
627.259457	0.278334
627.467117	0.278600
627.674758	0.278826
627.882382	0.279367
628.089987	0.279405
628.297574	0.279671
628.505143	0.279515
628.712694	0.279596
628.920226	0.279777
629.127740	0.279850
629.335236	0.280028
629.542714	0.280189
629.750174	0.280257
629.957615	0.280757
630.165038	0.280879
630.372443	0.281120
630.579829	0.281236
630.787198	0.281342
630.994548	0.281593
631.201880	0.281812
631.409194	0.281972
631.616489	0.282237
631.823766	0.282305
632.031025	0.282366
632.238266	0.282628
632.445489	0.282977
632.652693	0.283105
632.859879	0.283507
633.067047	0.283700
633.274197	0.284052
633.481329	0.284279
633.688442	0.284472
633.895537	0.284995
634.102614	0.285220
634.309672	0.285530
634.516713	0.285942
634.723735	0.286192
634.930739	0.286467
635.137724	0.286755
635.344692	0.286916
635.551641	0.287072
635.758572	0.287008
635.965485	0.287301
636.172379	0.287752
636.379256	0.287805
636.586114	0.287903
636.792954	0.288088
636.999775	0.288302
637.206579	0.288552
637.413364	0.288656
637.620131	0.288994
637.826880	0.289129
638.033610	0.289003
638.240323	0.289419
638.447017	0.289396
638.653692	0.289772
638.860350	0.289759
639.066990	0.290160
639.273611	0.290310
639.480214	0.290776
639.686798	0.291117
639.893365	0.291569
640.099913	0.291615
640.306443	0.292070
640.512955	0.292123
640.719449	0.292558
640.925924	0.292164
641.132381	0.292501
641.338820	0.292560
641.545241	0.292671
641.751644	0.292775
641.958028	0.293020
642.164394	0.293030
642.370742	0.293201
642.577071	0.293347
642.783383	0.293909
642.989676	0.293872
643.195951	0.294047
643.402207	0.294260
643.608446	0.294434
643.814666	0.294687
644.020868	0.295176
644.227052	0.295545
644.433218	0.296030
644.639365	0.296424
644.845494	0.297201
645.051605	0.297649
645.257698	0.298021
645.463772	0.298110
645.669828	0.298247
645.875866	0.298558
646.081886	0.298957
646.287888	0.298955
646.493871	0.299322
646.699836	0.299413
646.905783	0.299367
647.111712	0.299529
647.317622	0.299817
647.523514	0.299960
647.729388	0.299924
647.935244	0.299610
648.141082	0.300128
648.346901	0.300226
648.552702	0.300269
648.758485	0.300813
648.964250	0.301067
649.169996	0.301435
649.375724	0.301662
649.581434	0.302056
649.787126	0.302419
649.992800	0.302454
650.198455	0.302507
650.404092	0.302686
650.609711	0.302580
650.815311	0.302800
651.020894	0.302890
651.226458	0.303046
651.432004	0.303215
651.637532	0.303646
651.843041	0.303745
652.048532	0.304065
652.254006	0.304374
652.459460	0.304784
652.664897	0.304968
652.870315	0.305279
653.075716	0.305816
653.281097	0.305909
653.486461	0.306186
653.691807	0.306669
653.897134	0.306898
654.102443	0.307149
654.307734	0.307164
654.513006	0.307384
654.718261	0.307755
654.923497	0.308010
655.128715	0.308415
655.333915	0.308677
655.539096	0.308787
655.744259	0.308909
655.949404	0.309206
656.154531	0.309586
656.359640	0.309838
656.564730	0.310047
656.769802	0.310325
656.974856	0.310699
657.179892	0.310898
657.384909	0.311347
657.589908	0.311789
657.794889	0.312210
657.999852	0.312585
658.204797	0.312712
658.409723	0.312845
658.614631	0.312924
658.819521	0.313011
659.024393	0.313291
659.229246	0.313196
659.434081	0.313572
659.638898	0.313907
659.843697	0.313970
660.048478	0.314731
660.253240	0.315256
660.457984	0.315484
660.662710	0.315705
660.867417	0.316169
661.072107	0.316488
661.276778	0.316595
661.481431	0.316462
661.686066	0.316550
661.890682	0.316542
662.095281	0.316546
662.299861	0.316787
662.504422	0.316940
662.708966	0.316848
662.913491	0.317100
663.117999	0.317081
663.322488	0.317450
663.526958	0.317746
663.731411	0.317842
663.935845	0.318008
664.140261	0.318459
664.344659	0.318852
664.549038	0.319113
664.753400	0.319499
664.957743	0.319985
665.162068	0.320337
665.366375	0.320609
665.570663	0.320907
665.774933	0.321229
665.979185	0.321408
666.183419	0.321793
666.387635	0.322229
666.591832	0.322543
666.796011	0.323055
667.000172	0.323302
667.204315	0.323740
667.408439	0.324314
667.612545	0.324658
667.816634	0.325011
668.020703	0.324952
668.224755	0.325164
668.428788	0.325260
668.632803	0.325178
668.836800	0.325365
669.040779	0.325527
669.244739	0.325590
669.448681	0.325762
669.652605	0.326114
669.856511	0.326911
670.060399	0.327228
670.264268	0.327479
670.468119	0.327763
670.671952	0.327932
670.875767	0.328230
671.079563	0.328483
671.283341	0.328741
671.487101	0.328881
671.690843	0.328679
671.894567	0.328615
672.098272	0.328885
672.301959	0.329058
672.505628	0.329417
672.709278	0.329554
672.912911	0.329693
673.116525	0.329930
673.320121	0.329976
673.523699	0.330012
673.727258	0.330352
673.930799	0.330752
674.134322	0.331018
674.337827	0.331094
674.541314	0.331418
674.744782	0.331953
674.948232	0.332191
675.151664	0.332465
675.355078	0.333150
675.558474	0.333292
675.761851	0.333469
675.965210	0.333669
676.168551	0.334175
676.371873	0.334514
676.575178	0.334682
676.778464	0.335093
676.981732	0.335241
677.184981	0.335255
677.388213	0.335692
677.591426	0.336019
677.794621	0.336381
677.997798	0.336619
678.200956	0.336520
678.404097	0.336630
678.607219	0.336754
678.810323	0.337217
679.013408	0.337727
679.216476	0.338024
679.419525	0.338051
679.622556	0.338291
679.825569	0.338691
680.028563	0.339189
680.231540	0.339584
680.434498	0.339933
680.637438	0.340384
680.840359	0.340611
681.043263	0.341028
681.246148	0.341417
681.449015	0.341973
681.651864	0.341785
681.854694	0.342119
682.057506	0.342287
682.260301	0.342486
682.463076	0.342578
682.665834	0.342712
682.868573	0.342949
683.071295	0.343172
683.273998	0.343217
683.476682	0.343810
683.679349	0.344015
683.881997	0.344363
684.084627	0.344606
684.287239	0.344699
684.489833	0.344669
684.692408	0.344680
684.894965	0.344775
685.097504	0.345060
685.300025	0.345360
685.502527	0.345446
685.705012	0.345451
685.907478	0.345638
686.109925	0.345781
686.312355	0.346007
686.514766	0.346061
686.717159	0.346188
686.919534	0.346146
687.121891	0.346080
687.324230	0.346476
687.526550	0.346723
687.728852	0.346809
687.931136	0.346949
688.133401	0.347432
688.335649	0.347701
688.537878	0.347986
688.740089	0.348219
688.942281	0.348354
689.144456	0.348466
689.346612	0.348809
689.548750	0.349059
689.750870	0.349524
689.952971	0.349467
690.155055	0.349793
690.357120	0.349782
690.559167	0.349981
690.761195	0.350094
690.963206	0.350229
691.165198	0.350233
691.367172	0.350488
691.569128	0.350453
691.771065	0.350904
691.972984	0.350817
692.174885	0.351337
692.376768	0.351650
692.578633	0.352126
692.780479	0.352217
692.982308	0.352260
693.184118	0.352741
693.385909	0.352959
