sample name	sample
index	1062
start time	 04-22-2021  10:08:56 AM


Wavelength (nm)	Absorbance
494.344910	0.118244
494.563924	0.118244
494.782919	0.118244
495.001897	-0.099237
495.220856	-0.014368
495.439797	-0.016038
495.658719	-0.021386
495.877624	-0.034221
496.096510	-0.017388
496.315378	-0.014424
496.534227	-0.003555
496.753059	0.005373
496.971872	0.010019
497.190667	0.083334
497.409444	0.096079
497.628203	0.101915
497.846943	0.106084
498.065665	0.107254
498.284369	0.111141
498.503055	0.114266
498.721723	0.113878
498.940372	0.114305
499.159003	0.113213
499.377616	0.113160
499.596210	0.111861
499.814787	0.112101
500.033345	0.112567
500.251885	0.111354
500.470406	0.109307
500.688910	0.110510
500.907395	0.109217
501.125862	0.111588
501.344311	0.112759
501.562742	0.114274
501.781154	0.113424
501.999548	0.113792
502.217924	0.114138
502.436282	0.116139
502.654621	0.116204
502.872942	0.117196
503.091245	0.116088
503.309530	0.115076
503.527797	0.114338
503.746045	0.114875
503.964275	0.114860
504.182487	0.114340
504.400681	0.113503
504.618856	0.112943
504.837013	0.113542
505.055152	0.114028
505.273273	0.114326
505.491376	0.114141
505.709460	0.114094
505.927526	0.113618
506.145574	0.113413
506.363604	0.113172
506.581615	0.113157
506.799608	0.113011
507.017583	0.113293
507.235540	0.112900
507.453478	0.113617
507.671399	0.113560
507.889301	0.114409
508.107185	0.114712
508.325050	0.114692
508.542898	0.115646
508.760727	0.115384
508.978538	0.115142
509.196330	0.115659
509.414105	0.115467
509.631861	0.115799
509.849599	0.115580
510.067319	0.115379
510.285021	0.115972
510.502704	0.115045
510.720369	0.114618
510.938016	0.113803
511.155645	0.114459
511.373255	0.114619
511.590848	0.115167
511.808422	0.115359
512.025977	0.117222
512.243515	0.116148
512.461034	0.117324
512.678536	0.117627
512.896018	0.117700
513.113483	0.117369
513.330930	0.116658
513.548358	0.116347
513.765768	0.116167
513.983160	0.114951
514.200533	0.116211
514.417889	0.115351
514.635226	0.116103
514.852545	0.116743
515.069845	0.116820
515.287128	0.118166
515.504392	0.117151
515.721638	0.116935
515.938866	0.116943
516.156075	0.117022
516.373267	0.117100
516.590440	0.116650
516.807594	0.116598
517.024731	0.116667
517.241850	0.116802
517.458950	0.117955
517.676032	0.118351
517.893095	0.118222
518.110141	0.118316
518.327168	0.119083
518.544177	0.118921
518.761168	0.118483
518.978141	0.118576
519.195095	0.118519
519.412031	0.117528
519.628949	0.117501
519.845849	0.118700
520.062731	0.117989
520.279594	0.116857
520.496439	0.117332
520.713266	0.117962
520.930074	0.118105
521.146865	0.118216
521.363637	0.118680
521.580391	0.118997
521.797127	0.118065
522.013844	0.118370
522.230543	0.119227
522.447224	0.118679
522.663887	0.118890
522.880532	0.119125
523.097158	0.118309
523.313766	0.118898
523.530356	0.119627
523.746928	0.119314
523.963481	0.119538
524.180017	0.119512
524.396534	0.119944
524.613032	0.119771
524.829513	0.120202
525.045975	0.121538
525.262420	0.121116
525.478845	0.120879
525.695253	0.120864
525.911643	0.120546
526.128014	0.120422
526.344367	0.120273
526.560702	0.120410
526.777018	0.120025
526.993316	0.119029
527.209597	0.119036
527.425858	0.118268
527.642102	0.119280
527.858328	0.119879
528.074535	0.119873
528.290724	0.120300
528.506894	0.119605
528.723047	0.119460
528.939181	0.119533
529.155297	0.120446
529.371395	0.120876
529.587475	0.120565
529.803536	0.119956
530.019579	0.120582
530.235604	0.121053
530.451611	0.121475
530.667600	0.121446
530.883570	0.122168
531.099522	0.121423
531.315456	0.121620
531.531372	0.121884
531.747269	0.122213
531.963148	0.121927
532.179009	0.121599
532.394852	0.121615
532.610676	0.121440
532.826482	0.121243
533.042271	0.122119
533.258040	0.122174
533.473792	0.122280
533.689525	0.122416
533.905240	0.122283
534.120937	0.122377
534.336616	0.122793
534.552277	0.123745
534.767919	0.124127
534.983543	0.123697
535.199149	0.123824
535.414736	0.123936
535.630306	0.124280
535.845857	0.124670
536.061390	0.124616
536.276904	0.124278
536.492401	0.123823
536.707879	0.123394
536.923339	0.123947
537.138781	0.123312
537.354204	0.122820
537.569610	0.122651
537.784997	0.122984
538.000366	0.122595
538.215716	0.123440
538.431049	0.123344
538.646363	0.123427
538.861659	0.123513
539.076937	0.124656
539.292196	0.124491
539.507438	0.124799
539.722661	0.123856
539.937866	0.124205
540.153052	0.123810
540.368221	0.124161
540.583371	0.123726
540.798503	0.123797
541.013617	0.123182
541.228712	0.123698
541.443789	0.123773
541.658848	0.123815
541.873889	0.123458
542.088912	0.123658
542.303916	0.123518
542.518902	0.124578
542.733870	0.124488
542.948820	0.124874
543.163752	0.125074
543.378665	0.125226
543.593560	0.126131
543.808437	0.127038
544.023295	0.127130
544.238136	0.127400
544.452958	0.127189
544.667762	0.127137
544.882548	0.126945
545.097315	0.127388
545.312064	0.127011
545.526795	0.127381
545.741508	0.127201
545.956203	0.127250
546.170879	0.127188
546.385537	0.127319
546.600177	0.127310
546.814799	0.127640
547.029402	0.127285
547.243988	0.127427
547.458555	0.127314
547.673103	0.127017
547.887634	0.126735
548.102146	0.127051
548.316640	0.127482
548.531116	0.127817
548.745574	0.127782
548.960013	0.128034
549.174435	0.127946
549.388838	0.127909
549.603222	0.128755
549.817589	0.129104
550.031937	0.129322
550.246267	0.128924
550.460579	0.128364
550.674873	0.128490
550.889148	0.128522
551.103405	0.129017
551.317644	0.128704
551.531865	0.128829
551.746068	0.129055
551.960252	0.129135
552.174418	0.129495
552.388566	0.129778
552.602696	0.129968
552.816807	0.129930
553.030900	0.129783
553.244975	0.129987
553.459032	0.129286
553.673070	0.129347
553.887091	0.129503
554.101093	0.129198
554.315077	0.129555
554.529042	0.129420
554.742990	0.129554
554.956919	0.129456
555.170830	0.129413
555.384722	0.130007
555.598597	0.129991
555.812453	0.129797
556.026291	0.130277
556.240111	0.130029
556.453913	0.130014
556.667696	0.130028
556.881461	0.130813
557.095208	0.130890
557.308937	0.130884
557.522647	0.130920
557.736339	0.130815
557.950013	0.130482
558.163669	0.130821
558.377307	0.130969
558.590926	0.131284
558.804527	0.131141
559.018110	0.131377
559.231675	0.131313
559.445221	0.131106
559.658749	0.131373
559.872259	0.131948
560.085751	0.131706
560.299225	0.131928
560.512680	0.131706
560.726117	0.131346
560.939536	0.131539
561.152937	0.131454
561.366319	0.131842
561.579683	0.131913
561.793029	0.131294
562.006357	0.131713
562.219667	0.131661
562.432958	0.131636
562.646231	0.131991
562.859486	0.132101
563.072723	0.132105
563.285941	0.132085
563.499141	0.131972
563.712323	0.132749
563.925487	0.132860
564.138632	0.132763
564.351760	0.133289
564.564869	0.133455
564.777960	0.133165
564.991032	0.133591
565.204087	0.133825
565.417123	0.133785
565.630141	0.133535
565.843140	0.133505
566.056122	0.133781
566.269085	0.133763
566.482030	0.133922
566.694957	0.134463
566.907866	0.134597
567.120756	0.134305
567.333628	0.134688
567.546482	0.134839
567.759318	0.134718
567.972135	0.134793
568.184935	0.134827
568.397716	0.134549
568.610478	0.134401
568.823223	0.134217
569.035949	0.134307
569.248657	0.134348
569.461347	0.134548
569.674019	0.134611
569.886672	0.134827
570.099308	0.135086
570.311925	0.135038
570.524523	0.135050
570.737104	0.135268
570.949666	0.135369
571.162210	0.135146
571.374736	0.135084
571.587244	0.135317
571.799733	0.135023
572.012205	0.134694
572.224658	0.134916
572.437092	0.135159
572.649509	0.135148
572.861907	0.135333
573.074287	0.135894
573.286649	0.135605
573.498993	0.135606
573.711318	0.135593
573.923625	0.135882
574.135914	0.136013
574.348185	0.136413
574.560438	0.136586
574.772672	0.136676
574.984888	0.136210
575.197086	0.136592
575.409266	0.137009
575.621427	0.137431
575.833570	0.137449
576.045695	0.137552
576.257802	0.137431
576.469890	0.137346
576.681961	0.137476
576.894013	0.137792
577.106046	0.137578
577.318062	0.137360
577.530059	0.137280
577.742039	0.137484
577.954000	0.137638
578.165942	0.137270
578.377867	0.137597
578.589773	0.137437
578.801661	0.137238
579.013531	0.137798
579.225382	0.137805
579.437216	0.138053
579.649031	0.137710
579.860828	0.137673
580.072606	0.137906
580.284367	0.137664
580.496109	0.137819
580.707833	0.138081
580.919539	0.137807
581.131227	0.138177
581.342896	0.138002
581.554547	0.138165
581.766180	0.138053
581.977795	0.138473
582.189391	0.138560
582.400969	0.138725
582.612529	0.138889
582.824071	0.138947
583.035595	0.138635
583.247100	0.138765
583.458587	0.138787
583.670056	0.139083
583.881506	0.139055
584.092939	0.139008
584.304353	0.138733
584.515749	0.138681
584.727127	0.138960
584.938486	0.139068
585.149828	0.139170
585.361151	0.139608
585.572456	0.139555
585.783742	0.139501
585.995011	0.139987
586.206261	0.140309
586.417493	0.140400
586.628706	0.140164
586.839902	0.140155
587.051079	0.140272
587.262238	0.140049
587.473379	0.139789
587.684502	0.139676
587.895606	0.139777
588.106692	0.139758
588.317760	0.140205
588.528810	0.140167
588.739841	0.140218
588.950855	0.140281
589.161850	0.140667
589.372827	0.141187
589.583785	0.141742
589.794726	0.141607
590.005648	0.141664
590.216552	0.141525
590.427437	0.141955
590.638305	0.142028
590.849154	0.141776
591.059985	0.141465
591.270798	0.141368
591.481592	0.141159
591.692369	0.141360
591.903127	0.141627
592.113867	0.141665
592.324588	0.141800
592.535292	0.141986
592.745977	0.142298
592.956644	0.142719
593.167293	0.143098
593.377923	0.143108
593.588536	0.143128
593.799130	0.143106
594.009706	0.143326
594.220263	0.143126
594.430803	0.143499
594.641324	0.143581
594.851827	0.143346
595.062312	0.143329
595.272778	0.143315
595.483227	0.143392
595.693657	0.143539
595.904069	0.143488
596.114462	0.143665
596.324838	0.143503
596.535195	0.143604
596.745534	0.144005
596.955855	0.143712
597.166157	0.143925
597.376441	0.143734
597.586707	0.143724
597.796955	0.143891
598.007185	0.144117
598.217396	0.144160
598.427589	0.144126
598.637764	0.143927
598.847921	0.144128
599.058060	0.143956
599.268180	0.143939
599.478282	0.144068
599.688366	0.143958
599.898431	0.143669
600.108479	0.143776
600.318508	0.144172
600.528519	0.144041
600.738511	0.144148
600.948486	0.144333
601.158442	0.144606
601.368380	0.144736
601.578300	0.144810
601.788202	0.144755
601.998085	0.144617
602.207950	0.144439
602.417797	0.144726
602.627626	0.144747
602.837436	0.145028
603.047228	0.144917
603.257002	0.144914
603.466758	0.144825
603.676496	0.145196
603.886215	0.145596
604.095916	0.145361
604.305599	0.145326
604.515264	0.145305
604.724910	0.145124
604.934538	0.144959
605.144148	0.144751
605.353740	0.144887
605.563314	0.144747
605.772869	0.144602
605.982406	0.144961
606.191925	0.145085
606.401425	0.145173
606.610908	0.145121
606.820372	0.145561
607.029818	0.145590
607.239246	0.145679
607.448655	0.145569
607.658047	0.145852
607.867420	0.145898
608.076775	0.145994
608.286111	0.146281
608.495430	0.146463
608.704730	0.146454
608.914012	0.146761
609.123275	0.146677
609.332521	0.147012
609.541748	0.146819
609.750957	0.146752
609.960148	0.146572
610.169321	0.146321
610.378475	0.146406
610.587611	0.146479
610.796729	0.146533
611.005829	0.146320
611.214910	0.146071
611.423974	0.145824
611.633019	0.145675
611.842045	0.145596
612.051054	0.145577
612.260044	0.145245
612.469017	0.145049
612.677970	0.144841
612.886906	0.144863
613.095824	0.145168
613.304723	0.145331
613.513604	0.145465
613.722467	0.145750
613.931311	0.145573
614.140138	0.145877
614.348946	0.145932
614.557736	0.146134
614.766507	0.146243
614.975261	0.146006
615.183996	0.146083
615.392713	0.146074
615.601412	0.146003
615.810092	0.146273
616.018754	0.146064
616.227399	0.146033
616.436024	0.146297
616.644632	0.146644
616.853222	0.146910
617.061793	0.147152
617.270346	0.146973
617.478880	0.147264
617.687397	0.147421
617.895895	0.147655
618.104375	0.147811
618.312837	0.147675
618.521281	0.147530
618.729706	0.147611
618.938113	0.147330
619.146502	0.147569
619.354873	0.147242
619.563226	0.147340
619.771560	0.147282
619.979876	0.147356
620.188174	0.147255
620.396453	0.147233
620.604715	0.147139
620.812958	0.147246
621.021183	0.147373
621.229390	0.147632
621.437578	0.147770
621.645748	0.148123
621.853900	0.148358
622.062034	0.148609
622.270150	0.148910
622.478247	0.149100
622.686326	0.149369
622.894387	0.149230
623.102430	0.149160
623.310454	0.148989
623.518461	0.148792
623.726449	0.148641
623.934418	0.148366
624.142370	0.148295
624.350303	0.148040
624.558218	0.147950
624.766115	0.148084
624.973994	0.148607
625.181855	0.148690
625.389697	0.148565
625.597521	0.148770
625.805327	0.148770
626.013114	0.148813
626.220883	0.149352
626.428634	0.149423
626.636367	0.149503
626.844082	0.149277
627.051778	0.149437
627.259457	0.149658
627.467117	0.149744
627.674758	0.150028
627.882382	0.150197
628.089987	0.149864
628.297574	0.150070
628.505143	0.150347
628.712694	0.150545
628.920226	0.150387
629.127740	0.150597
629.335236	0.150612
629.542714	0.150789
629.750174	0.150595
629.957615	0.150793
630.165038	0.150700
630.372443	0.150715
630.579829	0.150496
630.787198	0.150723
630.994548	0.150743
631.201880	0.150635
631.409194	0.150691
631.616489	0.150978
631.823766	0.151029
632.031025	0.151029
632.238266	0.151282
632.445489	0.151371
632.652693	0.151398
632.859879	0.151619
633.067047	0.151762
633.274197	0.151772
633.481329	0.151872
633.688442	0.151977
633.895537	0.152261
634.102614	0.152197
634.309672	0.152167
634.516713	0.152170
634.723735	0.151964
634.930739	0.151882
635.137724	0.151695
635.344692	0.151767
635.551641	0.151764
635.758572	0.151615
635.965485	0.151603
636.172379	0.151780
636.379256	0.151768
636.586114	0.151764
636.792954	0.151925
636.999775	0.152046
637.206579	0.151866
637.413364	0.151922
637.620131	0.151729
637.826880	0.151426
638.033610	0.151489
638.240323	0.151564
638.447017	0.151674
638.653692	0.151973
638.860350	0.152215
639.066990	0.152487
639.273611	0.152720
639.480214	0.152986
639.686798	0.153371
639.893365	0.153252
640.099913	0.153531
640.306443	0.153647
640.512955	0.153455
640.719449	0.153485
640.925924	0.153412
641.132381	0.153255
641.338820	0.153383
641.545241	0.153485
641.751644	0.153917
641.958028	0.153847
642.164394	0.154053
642.370742	0.154239
642.577071	0.154134
642.783383	0.154188
642.989676	0.154154
643.195951	0.154352
643.402207	0.154433
643.608446	0.154370
643.814666	0.154428
644.020868	0.154501
644.227052	0.154394
644.433218	0.154660
644.639365	0.154738
644.845494	0.155063
645.051605	0.154872
645.257698	0.154881
645.463772	0.154872
645.669828	0.155104
645.875866	0.155183
646.081886	0.155403
646.287888	0.155245
646.493871	0.155214
646.699836	0.155114
646.905783	0.155216
647.111712	0.155100
647.317622	0.155167
647.523514	0.155018
647.729388	0.154969
647.935244	0.154849
648.141082	0.155101
648.346901	0.154978
648.552702	0.154928
648.758485	0.155116
648.964250	0.155316
649.169996	0.155297
649.375724	0.155542
649.581434	0.155426
649.787126	0.155476
649.992800	0.155608
650.198455	0.155979
650.404092	0.156214
650.609711	0.156339
650.815311	0.156385
651.020894	0.156542
651.226458	0.156437
651.432004	0.156664
651.637532	0.156919
651.843041	0.157179
652.048532	0.157290
652.254006	0.157383
652.459460	0.157579
652.664897	0.158034
652.870315	0.158340
653.075716	0.158552
653.281097	0.158918
653.486461	0.159071
653.691807	0.158982
653.897134	0.158966
654.102443	0.159085
654.307734	0.158917
654.513006	0.158971
654.718261	0.158967
654.923497	0.159157
655.128715	0.158937
655.333915	0.158996
655.539096	0.158857
655.744259	0.159117
655.949404	0.159244
656.154531	0.159233
656.359640	0.158835
656.564730	0.158843
656.769802	0.158963
656.974856	0.159099
657.179892	0.159182
657.384909	0.159420
657.589908	0.159359
657.794889	0.159479
657.999852	0.159516
658.204797	0.159899
658.409723	0.159959
658.614631	0.159939
658.819521	0.159972
659.024393	0.160072
659.229246	0.160194
659.434081	0.160249
659.638898	0.160233
659.843697	0.160591
660.048478	0.160498
660.253240	0.160622
660.457984	0.160648
660.662710	0.160730
660.867417	0.160773
661.072107	0.160855
661.276778	0.161411
661.481431	0.161420
661.686066	0.161425
661.890682	0.161494
662.095281	0.161519
662.299861	0.161576
662.504422	0.161723
662.708966	0.161625
662.913491	0.161604
663.117999	0.161165
663.322488	0.161481
663.526958	0.161765
663.731411	0.161821
663.935845	0.161965
664.140261	0.162191
664.344659	0.162245
664.549038	0.162636
664.753400	0.162799
664.957743	0.163189
665.162068	0.163221
665.366375	0.163203
665.570663	0.163421
665.774933	0.163628
665.979185	0.163735
666.183419	0.163858
666.387635	0.163748
666.591832	0.163911
666.796011	0.163993
667.000172	0.163975
667.204315	0.164152
667.408439	0.164260
667.612545	0.164294
667.816634	0.164478
668.020703	0.164583
668.224755	0.164743
668.428788	0.164910
668.632803	0.165036
668.836800	0.165198
669.040779	0.165092
669.244739	0.165222
669.448681	0.165268
669.652605	0.165159
669.856511	0.165111
670.060399	0.165075
670.264268	0.164755
670.468119	0.164752
670.671952	0.164660
670.875767	0.164847
671.079563	0.165026
671.283341	0.164880
671.487101	0.165098
671.690843	0.165371
671.894567	0.165301
672.098272	0.165527
672.301959	0.165500
672.505628	0.165534
672.709278	0.165532
672.912911	0.165424
673.116525	0.165543
673.320121	0.165343
673.523699	0.165339
673.727258	0.165595
673.930799	0.165683
674.134322	0.165841
674.337827	0.166004
674.541314	0.166107
674.744782	0.166276
674.948232	0.166450
675.151664	0.166657
675.355078	0.166881
675.558474	0.167001
675.761851	0.167220
675.965210	0.167472
676.168551	0.167656
676.371873	0.167878
676.575178	0.167870
676.778464	0.168068
676.981732	0.168200
677.184981	0.168070
677.388213	0.168313
677.591426	0.168434
677.794621	0.168448
677.997798	0.168554
678.200956	0.168710
678.404097	0.168793
678.607219	0.168902
678.810323	0.168961
679.013408	0.169199
679.216476	0.169377
679.419525	0.169393
679.622556	0.169253
679.825569	0.169288
680.028563	0.169436
680.231540	0.169663
680.434498	0.169783
680.637438	0.169864
680.840359	0.169962
681.043263	0.169882
681.246148	0.169982
681.449015	0.170154
681.651864	0.170288
681.854694	0.170201
682.057506	0.170343
682.260301	0.170424
682.463076	0.170497
682.665834	0.170278
682.868573	0.170369
683.071295	0.170468
683.273998	0.170624
683.476682	0.170868
683.679349	0.170852
683.881997	0.170640
684.084627	0.170525
684.287239	0.170585
684.489833	0.170771
684.692408	0.170664
684.894965	0.170715
685.097504	0.170697
685.300025	0.170517
685.502527	0.170605
685.705012	0.170807
685.907478	0.170741
686.109925	0.170640
686.312355	0.170659
686.514766	0.170937
686.717159	0.170942
686.919534	0.171138
687.121891	0.171234
687.324230	0.171401
687.526550	0.171332
687.728852	0.171620
687.931136	0.171760
688.133401	0.171635
688.335649	0.171502
688.537878	0.171367
688.740089	0.171150
688.942281	0.171229
689.144456	0.171228
689.346612	0.171465
689.548750	0.171488
689.750870	0.171777
689.952971	0.172391
690.155055	0.172865
690.357120	0.173103
690.559167	0.173311
690.761195	0.173460
690.963206	0.173486
691.165198	0.173619
691.367172	0.173713
691.569128	0.173503
691.771065	0.173430
691.972984	0.173189
692.174885	0.173428
692.376768	0.173640
692.578633	0.173639
692.780479	0.173957
692.982308	0.173950
693.184118	0.173933
693.385909	0.174088
