sample name	sample
index	1383
start time	 05-03-2021  03:00:09 PM


Wavelength (nm)	Absorbance
494.344910	-0.048598
494.563924	-0.048598
494.782919	-0.048598
495.001897	-0.094238
495.220856	-0.062755
495.439797	-0.112777
495.658719	-0.119730
495.877624	-0.095223
496.096510	-0.101109
496.315378	-0.092264
496.534227	-0.066253
496.753059	-0.015168
496.971872	-0.007177
497.190667	0.125684
497.409444	0.142061
497.628203	0.144971
497.846943	0.143865
498.065665	0.143889
498.284369	0.146569
498.503055	0.146345
498.721723	0.147225
498.940372	0.146330
499.159003	0.147126
499.377616	0.147504
499.596210	0.148175
499.814787	0.148963
500.033345	0.150410
500.251885	0.149529
500.470406	0.150347
500.688910	0.150668
500.907395	0.153058
501.125862	0.152825
501.344311	0.152556
501.562742	0.150963
501.781154	0.151543
501.999548	0.150216
502.217924	0.150615
502.436282	0.149977
502.654621	0.149729
502.872942	0.148614
503.091245	0.147409
503.309530	0.148136
503.527797	0.149231
503.746045	0.149362
503.964275	0.150911
504.182487	0.151261
504.400681	0.152346
504.618856	0.152391
504.837013	0.151362
505.055152	0.152197
505.273273	0.152219
505.491376	0.152437
505.709460	0.151872
505.927526	0.151208
506.145574	0.150486
506.363604	0.148868
506.581615	0.148585
506.799608	0.149291
507.017583	0.148765
507.235540	0.149055
507.453478	0.149326
507.671399	0.148959
507.889301	0.149796
508.107185	0.149866
508.325050	0.151555
508.542898	0.151116
508.760727	0.151946
508.978538	0.153013
509.196330	0.153659
509.414105	0.153404
509.631861	0.153705
509.849599	0.153521
510.067319	0.153827
510.285021	0.153927
510.502704	0.154543
510.720369	0.153969
510.938016	0.154182
511.155645	0.153633
511.373255	0.154075
511.590848	0.154693
511.808422	0.154961
512.025977	0.155824
512.243515	0.156351
512.461034	0.157499
512.678536	0.157293
512.896018	0.156829
513.113483	0.157328
513.330930	0.157336
513.548358	0.157321
513.765768	0.156092
513.983160	0.155797
514.200533	0.155532
514.417889	0.154511
514.635226	0.155188
514.852545	0.155114
515.069845	0.154147
515.287128	0.154537
515.504392	0.154905
515.721638	0.156270
515.938866	0.155982
516.156075	0.156682
516.373267	0.156994
516.590440	0.156457
516.807594	0.156914
517.024731	0.158710
517.241850	0.158971
517.458950	0.158826
517.676032	0.159417
517.893095	0.160279
518.110141	0.160373
518.327168	0.160925
518.544177	0.161269
518.761168	0.162115
518.978141	0.161636
519.195095	0.161633
519.412031	0.162501
519.628949	0.162833
519.845849	0.162422
520.062731	0.162295
520.279594	0.163317
520.496439	0.164241
520.713266	0.163844
520.930074	0.164997
521.146865	0.165606
521.363637	0.165536
521.580391	0.165743
521.797127	0.166477
522.013844	0.167136
522.230543	0.166619
522.447224	0.166593
522.663887	0.166632
522.880532	0.165715
523.097158	0.166429
523.313766	0.167054
523.530356	0.166822
523.746928	0.166942
523.963481	0.166726
524.180017	0.167147
524.396534	0.166988
524.613032	0.167301
524.829513	0.167834
525.045975	0.167500
525.262420	0.166980
525.478845	0.166881
525.695253	0.167768
525.911643	0.167589
526.128014	0.168046
526.344367	0.168466
526.560702	0.169125
526.777018	0.169601
526.993316	0.170084
527.209597	0.170932
527.425858	0.171697
527.642102	0.171216
527.858328	0.171855
528.074535	0.171991
528.290724	0.172218
528.506894	0.172645
528.723047	0.172161
528.939181	0.172667
529.155297	0.172917
529.371395	0.172946
529.587475	0.173584
529.803536	0.174649
530.019579	0.175316
530.235604	0.175994
530.451611	0.176401
530.667600	0.177615
530.883570	0.177509
531.099522	0.177566
531.315456	0.178594
531.531372	0.179011
531.747269	0.178749
531.963148	0.178593
532.179009	0.178954
532.394852	0.178903
532.610676	0.178898
532.826482	0.179460
533.042271	0.179831
533.258040	0.180026
533.473792	0.180343
533.689525	0.180355
533.905240	0.180911
534.120937	0.181151
534.336616	0.181545
534.552277	0.183016
534.767919	0.183871
534.983543	0.185021
535.199149	0.185526
535.414736	0.185999
535.630306	0.185850
535.845857	0.186449
536.061390	0.187042
536.276904	0.187387
536.492401	0.187577
536.707879	0.187480
536.923339	0.187731
537.138781	0.187966
537.354204	0.187741
537.569610	0.188931
537.784997	0.188634
538.000366	0.188908
538.215716	0.189646
538.431049	0.189248
538.646363	0.189705
538.861659	0.190108
539.076937	0.190135
539.292196	0.190662
539.507438	0.190894
539.722661	0.191443
539.937866	0.191742
540.153052	0.191928
540.368221	0.192042
540.583371	0.192195
540.798503	0.191774
541.013617	0.192242
541.228712	0.192760
541.443789	0.193706
541.658848	0.194030
541.873889	0.194205
542.088912	0.194387
542.303916	0.194590
542.518902	0.195003
542.733870	0.195436
542.948820	0.195855
543.163752	0.195580
543.378665	0.195436
543.593560	0.195873
543.808437	0.196128
544.023295	0.196332
544.238136	0.196791
544.452958	0.196821
544.667762	0.196851
544.882548	0.197037
545.097315	0.197525
545.312064	0.197336
545.526795	0.197360
545.741508	0.197661
545.956203	0.198515
546.170879	0.199168
546.385537	0.199745
546.600177	0.200086
546.814799	0.200046
547.029402	0.199938
547.243988	0.200169
547.458555	0.200305
547.673103	0.200741
547.887634	0.200230
548.102146	0.200038
548.316640	0.200693
548.531116	0.201063
548.745574	0.201417
548.960013	0.202550
549.174435	0.203162
549.388838	0.203431
549.603222	0.203573
549.817589	0.203738
550.031937	0.204214
550.246267	0.203934
550.460579	0.203776
550.674873	0.204177
550.889148	0.204153
551.103405	0.204270
551.317644	0.204482
551.531865	0.204453
551.746068	0.204781
551.960252	0.204627
552.174418	0.204894
552.388566	0.205533
552.602696	0.205282
552.816807	0.205387
553.030900	0.205362
553.244975	0.205802
553.459032	0.205612
553.673070	0.206089
553.887091	0.206474
554.101093	0.206401
554.315077	0.206909
554.529042	0.207637
554.742990	0.208080
554.956919	0.208250
555.170830	0.208348
555.384722	0.208921
555.598597	0.209438
555.812453	0.209959
556.026291	0.210274
556.240111	0.210200
556.453913	0.210334
556.667696	0.210327
556.881461	0.210798
557.095208	0.211032
557.308937	0.211709
557.522647	0.211432
557.736339	0.211623
557.950013	0.211799
558.163669	0.211871
558.377307	0.212190
558.590926	0.212627
558.804527	0.212690
559.018110	0.212737
559.231675	0.212271
559.445221	0.212284
559.658749	0.212403
559.872259	0.212768
560.085751	0.213324
560.299225	0.213053
560.512680	0.212814
560.726117	0.212891
560.939536	0.213196
561.152937	0.213519
561.366319	0.214032
561.579683	0.213640
561.793029	0.213169
562.006357	0.213007
562.219667	0.213255
562.432958	0.213147
562.646231	0.213381
562.859486	0.213397
563.072723	0.213977
563.285941	0.214064
563.499141	0.214483
563.712323	0.215050
563.925487	0.215659
564.138632	0.215753
564.351760	0.216139
564.564869	0.216060
564.777960	0.216285
564.991032	0.216108
565.204087	0.216010
565.417123	0.215978
565.630141	0.215760
565.843140	0.215145
566.056122	0.215044
566.269085	0.215487
566.482030	0.215699
566.694957	0.215942
566.907866	0.215284
567.120756	0.215536
567.333628	0.215382
567.546482	0.215751
567.759318	0.216228
567.972135	0.216619
568.184935	0.216195
568.397716	0.216644
568.610478	0.216328
568.823223	0.217168
569.035949	0.217236
569.248657	0.217492
569.461347	0.217771
569.674019	0.217657
569.886672	0.217721
570.099308	0.218053
570.311925	0.217910
570.524523	0.218010
570.737104	0.217909
570.949666	0.218079
571.162210	0.218341
571.374736	0.218638
571.587244	0.218917
571.799733	0.219076
572.012205	0.219403
572.224658	0.219765
572.437092	0.220134
572.649509	0.220343
572.861907	0.220298
573.074287	0.220327
573.286649	0.219934
573.498993	0.220274
573.711318	0.220744
573.923625	0.220909
574.135914	0.220597
574.348185	0.220512
574.560438	0.220460
574.772672	0.220447
574.984888	0.220575
575.197086	0.221066
575.409266	0.221380
575.621427	0.221463
575.833570	0.221532
576.045695	0.222196
576.257802	0.222513
576.469890	0.223342
576.681961	0.223348
576.894013	0.223579
577.106046	0.223791
577.318062	0.223219
577.530059	0.222875
577.742039	0.222939
577.954000	0.222882
578.165942	0.223273
578.377867	0.222721
578.589773	0.223428
578.801661	0.223966
579.013531	0.223582
579.225382	0.223950
579.437216	0.224450
579.649031	0.224955
579.860828	0.224816
580.072606	0.224723
580.284367	0.225037
580.496109	0.225224
580.707833	0.225203
580.919539	0.225742
581.131227	0.226148
581.342896	0.225920
581.554547	0.225440
581.766180	0.225611
581.977795	0.225644
582.189391	0.226146
582.400969	0.226244
582.612529	0.226182
582.824071	0.226436
583.035595	0.226416
583.247100	0.226693
583.458587	0.226979
583.670056	0.227094
583.881506	0.227406
584.092939	0.227308
584.304353	0.227044
584.515749	0.227507
584.727127	0.227395
584.938486	0.227627
585.149828	0.228069
585.361151	0.228532
585.572456	0.228835
585.783742	0.228668
585.995011	0.228434
586.206261	0.228597
586.417493	0.228376
586.628706	0.228710
586.839902	0.228723
587.051079	0.228394
587.262238	0.228501
587.473379	0.228652
587.684502	0.229038
587.895606	0.229470
588.106692	0.230078
588.317760	0.230403
588.528810	0.230337
588.739841	0.230606
588.950855	0.230944
589.161850	0.231152
589.372827	0.231316
589.583785	0.231732
589.794726	0.231588
590.005648	0.231527
590.216552	0.231791
590.427437	0.232182
590.638305	0.231848
590.849154	0.231815
591.059985	0.231965
591.270798	0.232268
591.481592	0.232227
591.692369	0.232726
591.903127	0.233079
592.113867	0.233249
592.324588	0.233389
592.535292	0.233822
592.745977	0.234185
592.956644	0.234126
593.167293	0.234384
593.377923	0.234309
593.588536	0.234527
593.799130	0.234368
594.009706	0.234436
594.220263	0.234382
594.430803	0.234463
594.641324	0.234521
594.851827	0.234804
595.062312	0.234933
595.272778	0.235397
595.483227	0.235638
595.693657	0.235987
595.904069	0.236262
596.114462	0.236583
596.324838	0.237036
596.535195	0.237259
596.745534	0.237272
596.955855	0.237095
597.166157	0.237343
597.376441	0.237320
597.586707	0.237403
597.796955	0.237411
598.007185	0.237577
598.217396	0.237813
598.427589	0.238039
598.637764	0.238615
598.847921	0.238910
599.058060	0.239094
599.268180	0.239653
599.478282	0.239728
599.688366	0.239803
599.898431	0.239778
600.108479	0.239857
600.318508	0.240028
600.528519	0.239939
600.738511	0.240361
600.948486	0.240506
601.158442	0.240090
601.368380	0.240387
601.578300	0.240570
601.788202	0.240867
601.998085	0.240630
602.207950	0.240471
602.417797	0.240535
602.627626	0.240372
602.837436	0.240329
603.047228	0.240619
603.257002	0.240530
603.466758	0.240695
603.676496	0.240850
603.886215	0.241555
604.095916	0.242084
604.305599	0.242301
604.515264	0.242685
604.724910	0.243062
604.934538	0.243218
605.144148	0.243505
605.353740	0.243553
605.563314	0.243908
605.772869	0.243842
605.982406	0.244293
606.191925	0.244169
606.401425	0.244012
606.610908	0.244198
606.820372	0.244394
607.029818	0.244468
607.239246	0.245111
607.448655	0.245071
607.658047	0.245175
607.867420	0.245364
608.076775	0.245812
608.286111	0.246378
608.495430	0.246453
608.704730	0.246515
608.914012	0.246553
609.123275	0.245983
609.332521	0.245964
609.541748	0.246030
609.750957	0.246050
609.960148	0.246265
610.169321	0.245931
610.378475	0.245668
610.587611	0.246045
610.796729	0.246406
611.005829	0.246950
611.214910	0.247283
611.423974	0.247438
611.633019	0.247234
611.842045	0.247031
612.051054	0.247574
612.260044	0.248082
612.469017	0.248472
612.677970	0.248551
612.886906	0.248777
613.095824	0.249032
613.304723	0.249186
613.513604	0.249270
613.722467	0.249387
613.931311	0.249300
614.140138	0.249532
614.348946	0.249476
614.557736	0.249647
614.766507	0.249430
614.975261	0.249378
615.183996	0.249305
615.392713	0.249291
615.601412	0.249760
615.810092	0.249758
616.018754	0.249551
616.227399	0.249472
616.436024	0.249490
616.644632	0.249797
616.853222	0.249542
617.061793	0.249794
617.270346	0.250331
617.478880	0.250011
617.687397	0.250262
617.895895	0.250641
618.104375	0.250769
618.312837	0.250831
618.521281	0.250832
618.729706	0.251221
618.938113	0.251228
619.146502	0.251284
619.354873	0.251491
619.563226	0.251660
619.771560	0.251448
619.979876	0.251514
620.188174	0.251863
620.396453	0.252032
620.604715	0.252445
620.812958	0.252743
621.021183	0.252593
621.229390	0.253179
621.437578	0.253293
621.645748	0.253817
621.853900	0.253787
622.062034	0.253772
622.270150	0.254247
622.478247	0.254450
622.686326	0.254678
622.894387	0.254855
623.102430	0.254622
623.310454	0.254810
623.518461	0.254727
623.726449	0.255147
623.934418	0.255687
624.142370	0.255458
624.350303	0.254980
624.558218	0.254935
624.766115	0.255198
624.973994	0.255219
625.181855	0.255224
625.389697	0.255137
625.597521	0.255058
625.805327	0.254895
626.013114	0.255160
626.220883	0.255656
626.428634	0.255845
626.636367	0.256189
626.844082	0.256486
627.051778	0.256917
627.259457	0.257370
627.467117	0.257646
627.674758	0.257758
627.882382	0.257934
628.089987	0.257892
628.297574	0.258125
628.505143	0.258109
628.712694	0.258335
628.920226	0.258501
629.127740	0.258660
629.335236	0.259039
629.542714	0.259551
629.750174	0.259681
629.957615	0.259915
630.165038	0.260166
630.372443	0.260417
630.579829	0.260499
630.787198	0.260474
630.994548	0.260507
631.201880	0.260658
631.409194	0.260321
631.616489	0.260677
631.823766	0.261112
632.031025	0.261193
632.238266	0.260978
632.445489	0.261308
632.652693	0.261462
632.859879	0.261873
633.067047	0.261806
633.274197	0.261992
633.481329	0.261814
633.688442	0.261679
633.895537	0.261840
634.102614	0.262141
634.309672	0.262293
634.516713	0.262393
634.723735	0.262203
634.930739	0.262310
635.137724	0.262456
635.344692	0.262609
635.551641	0.262779
635.758572	0.262723
635.965485	0.262925
636.172379	0.263137
636.379256	0.263114
636.586114	0.263566
636.792954	0.263808
636.999775	0.263995
637.206579	0.264255
637.413364	0.264421
637.620131	0.264548
637.826880	0.264881
638.033610	0.264688
638.240323	0.264992
638.447017	0.264979
638.653692	0.265052
638.860350	0.265018
639.066990	0.265029
639.273611	0.265155
639.480214	0.265433
639.686798	0.265607
639.893365	0.265784
640.099913	0.265845
640.306443	0.266191
640.512955	0.266254
640.719449	0.266467
640.925924	0.266616
641.132381	0.266700
641.338820	0.266733
641.545241	0.266947
641.751644	0.266906
641.958028	0.267121
642.164394	0.266999
642.370742	0.267227
642.577071	0.267581
642.783383	0.267839
642.989676	0.268297
643.195951	0.268692
643.402207	0.268773
643.608446	0.269247
643.814666	0.269119
644.020868	0.269357
644.227052	0.269847
644.433218	0.269897
644.639365	0.269981
644.845494	0.269816
645.051605	0.269898
645.257698	0.269800
645.463772	0.269577
645.669828	0.269937
645.875866	0.270165
646.081886	0.269830
646.287888	0.270176
646.493871	0.270256
646.699836	0.270460
646.905783	0.270376
647.111712	0.270630
647.317622	0.271211
647.523514	0.271725
647.729388	0.271833
647.935244	0.272097
648.141082	0.272070
648.346901	0.272266
648.552702	0.272642
648.758485	0.272944
648.964250	0.273055
649.169996	0.273256
649.375724	0.273019
649.581434	0.273254
649.787126	0.273543
649.992800	0.273846
650.198455	0.274246
650.404092	0.274333
650.609711	0.274324
650.815311	0.274460
651.020894	0.274651
651.226458	0.274980
651.432004	0.274929
651.637532	0.275191
651.843041	0.275205
652.048532	0.275379
652.254006	0.275786
652.459460	0.276218
652.664897	0.276460
652.870315	0.276516
653.075716	0.276657
653.281097	0.276902
653.486461	0.277221
653.691807	0.277778
653.897134	0.278116
654.102443	0.277864
654.307734	0.277987
654.513006	0.278301
654.718261	0.278474
654.923497	0.278932
655.128715	0.279428
655.333915	0.279571
655.539096	0.279492
655.744259	0.279438
655.949404	0.280094
656.154531	0.280376
656.359640	0.280576
656.564730	0.280806
656.769802	0.280774
656.974856	0.280809
657.179892	0.280597
657.384909	0.280577
657.589908	0.280795
657.794889	0.280416
657.999852	0.280473
658.204797	0.280481
658.409723	0.280605
658.614631	0.280903
658.819521	0.281056
659.024393	0.281508
659.229246	0.281755
659.434081	0.281750
659.638898	0.282279
659.843697	0.282445
660.048478	0.282407
660.253240	0.282412
660.457984	0.282416
660.662710	0.282400
660.867417	0.282273
661.072107	0.282266
661.276778	0.282454
661.481431	0.282496
661.686066	0.282555
661.890682	0.282719
662.095281	0.282964
662.299861	0.282884
662.504422	0.283199
662.708966	0.283468
662.913491	0.284111
663.117999	0.284341
663.322488	0.284496
663.526958	0.284774
663.731411	0.285174
663.935845	0.285404
664.140261	0.285742
664.344659	0.285771
664.549038	0.285909
664.753400	0.285527
664.957743	0.285711
665.162068	0.285788
665.366375	0.285819
665.570663	0.285889
665.774933	0.286207
665.979185	0.286389
666.183419	0.286588
666.387635	0.286921
666.591832	0.287517
666.796011	0.287619
667.000172	0.287692
667.204315	0.287915
667.408439	0.288324
667.612545	0.288571
667.816634	0.288932
668.020703	0.289064
668.224755	0.289300
668.428788	0.289286
668.632803	0.289575
668.836800	0.290128
669.040779	0.290532
669.244739	0.290525
669.448681	0.290629
669.652605	0.290742
669.856511	0.291247
670.060399	0.291324
670.264268	0.291605
670.468119	0.291921
670.671952	0.291942
670.875767	0.292123
671.079563	0.292535
671.283341	0.292802
671.487101	0.292960
671.690843	0.292762
671.894567	0.293121
672.098272	0.293510
672.301959	0.293631
672.505628	0.293988
672.709278	0.294118
672.912911	0.294413
673.116525	0.294512
673.320121	0.294808
673.523699	0.295167
673.727258	0.295395
673.930799	0.295571
674.134322	0.295581
674.337827	0.295651
674.541314	0.295909
674.744782	0.296005
674.948232	0.296253
675.151664	0.296473
675.355078	0.296656
675.558474	0.296917
675.761851	0.296985
675.965210	0.297569
676.168551	0.297860
676.371873	0.298165
676.575178	0.298311
676.778464	0.298277
676.981732	0.298490
677.184981	0.298687
677.388213	0.298477
677.591426	0.298604
677.794621	0.298365
677.997798	0.298413
678.200956	0.298420
678.404097	0.298557
678.607219	0.298713
678.810323	0.298940
679.013408	0.298961
679.216476	0.299302
679.419525	0.299711
679.622556	0.300223
679.825569	0.300714
680.028563	0.300942
680.231540	0.301238
680.434498	0.301547
680.637438	0.301671
680.840359	0.302027
681.043263	0.302339
681.246148	0.302518
681.449015	0.302602
681.651864	0.302583
681.854694	0.302641
682.057506	0.302574
682.260301	0.302369
682.463076	0.302378
682.665834	0.302435
682.868573	0.302779
683.071295	0.303027
683.273998	0.303331
683.476682	0.303437
683.679349	0.303858
683.881997	0.304290
684.084627	0.305142
684.287239	0.305548
684.489833	0.306240
684.692408	0.306341
684.894965	0.306368
685.097504	0.306726
685.300025	0.306982
685.502527	0.307049
685.705012	0.307262
685.907478	0.307048
686.109925	0.307112
686.312355	0.307097
686.514766	0.307327
686.717159	0.307599
686.919534	0.307477
687.121891	0.307775
687.324230	0.308237
687.526550	0.308215
687.728852	0.308424
687.931136	0.308586
688.133401	0.308913
688.335649	0.309021
688.537878	0.308833
688.740089	0.308952
688.942281	0.309013
689.144456	0.308900
689.346612	0.309246
689.548750	0.309684
689.750870	0.310074
689.952971	0.309719
690.155055	0.309740
690.357120	0.310286
690.559167	0.310478
690.761195	0.310616
690.963206	0.311060
691.165198	0.311156
691.367172	0.311324
691.569128	0.311150
691.771065	0.311587
691.972984	0.312024
692.174885	0.311981
692.376768	0.312215
692.578633	0.312533
692.780479	0.312522
692.982308	0.312824
693.184118	0.312942
