sample name	sample
index	167
start time	 02-18-2021  10:16:47 AM


Wavelength (nm)	Absorbance
494.344910	-0.094768
494.563924	-0.094768
494.782919	-0.094768
495.001897	0.024008
495.220856	-0.003257
495.439797	0.028238
495.658719	0.031276
495.877624	0.034011
496.096510	0.002615
496.315378	-0.030776
496.534227	-0.056395
496.753059	-0.087020
496.971872	-0.072386
497.190667	0.080386
497.409444	0.103732
497.628203	0.113444
497.846943	0.119588
498.065665	0.123560
498.284369	0.125925
498.503055	0.126696
498.721723	0.128834
498.940372	0.128408
499.159003	0.129287
499.377616	0.130155
499.596210	0.130102
499.814787	0.130077
500.033345	0.131040
500.251885	0.132202
500.470406	0.134113
500.688910	0.133738
500.907395	0.135213
501.125862	0.133861
501.344311	0.134072
501.562742	0.134138
501.781154	0.134869
501.999548	0.133469
502.217924	0.133330
502.436282	0.132695
502.654621	0.132930
502.872942	0.132122
503.091245	0.132429
503.309530	0.132538
503.527797	0.133108
503.746045	0.132756
503.964275	0.134221
504.182487	0.133280
504.400681	0.133705
504.618856	0.133511
504.837013	0.133957
505.055152	0.134631
505.273273	0.134728
505.491376	0.135573
505.709460	0.135131
505.927526	0.133998
506.145574	0.135191
506.363604	0.135067
506.581615	0.135655
506.799608	0.135314
507.017583	0.134094
507.235540	0.134694
507.453478	0.133654
507.671399	0.133511
507.889301	0.134605
508.107185	0.134408
508.325050	0.133993
508.542898	0.133642
508.760727	0.132519
508.978538	0.134349
509.196330	0.134180
509.414105	0.134878
509.631861	0.135813
509.849599	0.135578
510.067319	0.135313
510.285021	0.135469
510.502704	0.136458
510.720369	0.137949
510.938016	0.136791
511.155645	0.137029
511.373255	0.136491
511.590848	0.137153
511.808422	0.137377
512.025977	0.137620
512.243515	0.138527
512.461034	0.138255
512.678536	0.138056
512.896018	0.138659
513.113483	0.138765
513.330930	0.139763
513.548358	0.138355
513.765768	0.138698
513.983160	0.138615
514.200533	0.137619
514.417889	0.137394
514.635226	0.137504
514.852545	0.137711
515.069845	0.137817
515.287128	0.137638
515.504392	0.139140
515.721638	0.138155
515.938866	0.138589
516.156075	0.139689
516.373267	0.140358
516.590440	0.141077
516.807594	0.141368
517.024731	0.141900
517.241850	0.142130
517.458950	0.140904
517.676032	0.141568
517.893095	0.140997
518.110141	0.140704
518.327168	0.140766
518.544177	0.140210
518.761168	0.140614
518.978141	0.139502
519.195095	0.139780
519.412031	0.140348
519.628949	0.141185
519.845849	0.141967
520.062731	0.142532
520.279594	0.142534
520.496439	0.143149
520.713266	0.142750
520.930074	0.143878
521.146865	0.143678
521.363637	0.144825
521.580391	0.145030
521.797127	0.145636
522.013844	0.145742
522.230543	0.146294
522.447224	0.146277
522.663887	0.146333
522.880532	0.145818
523.097158	0.146441
523.313766	0.146247
523.530356	0.147011
523.746928	0.146730
523.963481	0.146937
524.180017	0.146905
524.396534	0.146653
524.613032	0.147568
524.829513	0.147480
525.045975	0.147896
525.262420	0.148604
525.478845	0.148494
525.695253	0.149008
525.911643	0.149769
526.128014	0.150429
526.344367	0.151260
526.560702	0.151023
526.777018	0.151391
526.993316	0.151318
527.209597	0.151040
527.425858	0.150558
527.642102	0.150876
527.858328	0.150866
528.074535	0.150878
528.290724	0.150874
528.506894	0.150446
528.723047	0.150661
528.939181	0.151099
529.155297	0.151199
529.371395	0.151191
529.587475	0.151010
529.803536	0.150878
530.019579	0.151114
530.235604	0.151430
530.451611	0.152657
530.667600	0.153171
530.883570	0.153208
531.099522	0.154127
531.315456	0.154778
531.531372	0.155331
531.747269	0.155521
531.963148	0.155361
532.179009	0.155617
532.394852	0.155493
532.610676	0.156526
532.826482	0.156888
533.042271	0.156310
533.258040	0.156303
533.473792	0.156385
533.689525	0.157344
533.905240	0.158140
534.120937	0.158289
534.336616	0.158519
534.552277	0.158190
534.767919	0.158391
534.983543	0.158689
535.199149	0.159134
535.414736	0.159446
535.630306	0.159192
535.845857	0.159104
536.061390	0.159836
536.276904	0.160268
536.492401	0.159887
536.707879	0.159789
536.923339	0.160283
537.138781	0.160585
537.354204	0.160806
537.569610	0.161164
537.784997	0.161648
538.000366	0.161851
538.215716	0.161755
538.431049	0.162807
538.646363	0.163669
538.861659	0.163939
539.076937	0.164543
539.292196	0.164440
539.507438	0.164747
539.722661	0.164461
539.937866	0.164641
540.153052	0.165277
540.368221	0.165178
540.583371	0.165607
540.798503	0.165434
541.013617	0.165317
541.228712	0.165708
541.443789	0.166216
541.658848	0.166539
541.873889	0.166633
542.088912	0.166755
542.303916	0.167382
542.518902	0.166901
542.733870	0.167497
542.948820	0.167638
543.163752	0.168325
543.378665	0.168088
543.593560	0.168514
543.808437	0.168840
544.023295	0.169143
544.238136	0.169445
544.452958	0.169839
544.667762	0.170029
544.882548	0.170554
545.097315	0.170783
545.312064	0.170918
545.526795	0.171269
545.741508	0.171310
545.956203	0.171808
546.170879	0.171847
546.385537	0.172186
546.600177	0.172414
546.814799	0.172605
547.029402	0.172377
547.243988	0.172693
547.458555	0.172967
547.673103	0.173226
547.887634	0.172976
548.102146	0.172992
548.316640	0.172859
548.531116	0.173054
548.745574	0.173028
548.960013	0.172825
549.174435	0.173027
549.388838	0.172837
549.603222	0.173075
549.817589	0.173285
550.031937	0.173706
550.246267	0.174289
550.460579	0.174116
550.674873	0.174589
550.889148	0.175199
551.103405	0.175658
551.317644	0.175944
551.531865	0.176054
551.746068	0.176548
551.960252	0.176550
552.174418	0.176478
552.388566	0.177071
552.602696	0.177145
552.816807	0.177026
553.030900	0.177008
553.244975	0.176959
553.459032	0.176970
553.673070	0.177038
553.887091	0.177275
554.101093	0.177715
554.315077	0.177478
554.529042	0.177534
554.742990	0.178046
554.956919	0.177694
555.170830	0.177729
555.384722	0.178204
555.598597	0.178255
555.812453	0.178646
556.026291	0.178286
556.240111	0.178852
556.453913	0.179373
556.667696	0.179158
556.881461	0.179934
557.095208	0.180416
557.308937	0.180675
557.522647	0.180941
557.736339	0.181025
557.950013	0.181513
558.163669	0.181231
558.377307	0.180898
558.590926	0.181257
558.804527	0.180931
559.018110	0.181141
559.231675	0.181055
559.445221	0.181022
559.658749	0.181012
559.872259	0.181094
560.085751	0.181643
560.299225	0.181871
560.512680	0.182373
560.726117	0.182968
560.939536	0.183353
561.152937	0.183207
561.366319	0.183434
561.579683	0.183755
561.793029	0.184034
562.006357	0.184467
562.219667	0.184615
562.432958	0.184980
562.646231	0.185038
562.859486	0.185103
563.072723	0.185745
563.285941	0.185812
563.499141	0.185804
563.712323	0.185838
563.925487	0.185791
564.138632	0.185782
564.351760	0.185757
564.564869	0.185297
564.777960	0.185600
564.991032	0.185212
565.204087	0.185468
565.417123	0.185536
565.630141	0.186042
565.843140	0.185829
566.056122	0.186195
566.269085	0.185836
566.482030	0.186845
566.694957	0.186955
566.907866	0.187208
567.120756	0.187423
567.333628	0.187544
567.546482	0.187401
567.759318	0.187767
567.972135	0.187495
568.184935	0.187929
568.397716	0.187930
568.610478	0.188029
568.823223	0.188171
569.035949	0.188210
569.248657	0.188569
569.461347	0.188591
569.674019	0.188690
569.886672	0.189099
570.099308	0.189504
570.311925	0.189637
570.524523	0.189633
570.737104	0.190181
570.949666	0.190425
571.162210	0.190261
571.374736	0.190157
571.587244	0.190276
571.799733	0.190369
572.012205	0.190292
572.224658	0.190240
572.437092	0.190189
572.649509	0.190211
572.861907	0.189947
573.074287	0.190289
573.286649	0.190776
573.498993	0.191151
573.711318	0.191351
573.923625	0.191627
574.135914	0.192130
574.348185	0.192639
574.560438	0.193067
574.772672	0.193751
574.984888	0.193872
575.197086	0.193974
575.409266	0.193962
575.621427	0.194597
575.833570	0.194670
576.045695	0.194454
576.257802	0.194427
576.469890	0.194742
576.681961	0.194902
576.894013	0.195230
577.106046	0.195589
577.318062	0.195661
577.530059	0.195696
577.742039	0.195551
577.954000	0.195885
578.165942	0.196157
578.377867	0.196209
578.589773	0.196238
578.801661	0.196105
579.013531	0.196227
579.225382	0.196320
579.437216	0.196327
579.649031	0.196430
579.860828	0.196718
580.072606	0.196938
580.284367	0.196610
580.496109	0.196880
580.707833	0.197108
580.919539	0.197066
581.131227	0.197728
581.342896	0.197961
581.554547	0.198529
581.766180	0.198556
581.977795	0.198552
582.189391	0.198795
582.400969	0.198852
582.612529	0.199007
582.824071	0.199489
583.035595	0.199310
583.247100	0.199521
583.458587	0.199673
583.670056	0.199446
583.881506	0.199671
584.092939	0.199984
584.304353	0.200211
584.515749	0.200482
584.727127	0.200404
584.938486	0.200647
585.149828	0.200837
585.361151	0.201309
585.572456	0.201910
585.783742	0.201854
585.995011	0.202270
586.206261	0.202045
586.417493	0.202168
586.628706	0.202190
586.839902	0.202408
587.051079	0.202321
587.262238	0.201823
587.473379	0.201862
587.684502	0.201942
587.895606	0.201707
588.106692	0.202061
588.317760	0.202446
588.528810	0.202864
588.739841	0.203308
588.950855	0.203542
589.161850	0.204010
589.372827	0.204141
589.583785	0.204593
589.794726	0.204964
590.005648	0.205227
590.216552	0.205022
590.427437	0.205361
590.638305	0.205081
590.849154	0.205580
591.059985	0.205695
591.270798	0.205953
591.481592	0.206267
591.692369	0.206462
591.903127	0.206315
592.113867	0.206571
592.324588	0.206557
592.535292	0.206571
592.745977	0.206411
592.956644	0.206724
593.167293	0.206520
593.377923	0.206552
593.588536	0.206375
593.799130	0.206808
594.009706	0.207287
594.220263	0.207480
594.430803	0.208040
594.641324	0.208289
594.851827	0.208235
595.062312	0.208705
595.272778	0.209146
595.483227	0.209402
595.693657	0.209734
595.904069	0.209576
596.114462	0.209630
596.324838	0.209670
596.535195	0.209730
596.745534	0.209787
596.955855	0.209950
597.166157	0.209902
597.376441	0.210012
597.586707	0.209859
597.796955	0.209970
598.007185	0.210106
598.217396	0.209664
598.427589	0.209799
598.637764	0.210007
598.847921	0.210171
599.058060	0.210010
599.268180	0.210304
599.478282	0.210447
599.688366	0.210472
599.898431	0.211007
600.108479	0.211353
600.318508	0.211558
600.528519	0.211949
600.738511	0.212018
600.948486	0.212399
601.158442	0.212471
601.368380	0.212574
601.578300	0.213046
601.788202	0.212580
601.998085	0.213115
602.207950	0.212911
602.417797	0.212724
602.627626	0.212594
602.837436	0.212583
603.047228	0.212432
603.257002	0.212589
603.466758	0.212550
603.676496	0.212797
603.886215	0.212936
604.095916	0.213407
604.305599	0.213928
604.515264	0.214160
604.724910	0.214333
604.934538	0.214648
605.144148	0.214859
605.353740	0.214963
605.563314	0.215247
605.772869	0.215243
605.982406	0.215297
606.191925	0.215045
606.401425	0.215334
606.610908	0.215387
606.820372	0.215548
607.029818	0.215847
607.239246	0.216182
607.448655	0.216046
607.658047	0.216175
607.867420	0.216346
608.076775	0.216549
608.286111	0.216659
608.495430	0.216992
608.704730	0.217243
608.914012	0.217189
609.123275	0.217040
609.332521	0.217452
609.541748	0.217500
609.750957	0.217619
609.960148	0.217853
610.169321	0.218008
610.378475	0.217862
610.587611	0.217962
610.796729	0.218205
611.005829	0.218617
611.214910	0.218567
611.423974	0.218634
611.633019	0.218809
611.842045	0.218632
612.051054	0.218740
612.260044	0.218834
612.469017	0.218891
612.677970	0.218517
612.886906	0.218371
613.095824	0.218713
613.304723	0.218784
613.513604	0.218469
613.722467	0.219256
613.931311	0.219316
614.140138	0.219701
614.348946	0.220177
614.557736	0.220533
614.766507	0.220692
614.975261	0.220704
615.183996	0.220956
615.392713	0.221588
615.601412	0.221317
615.810092	0.221586
616.018754	0.221843
616.227399	0.221849
616.436024	0.222335
616.644632	0.222249
616.853222	0.222219
617.061793	0.222467
617.270346	0.222145
617.478880	0.221987
617.687397	0.221770
617.895895	0.221703
618.104375	0.221551
618.312837	0.221392
618.521281	0.221774
618.729706	0.221801
618.938113	0.221998
619.146502	0.222302
619.354873	0.222859
619.563226	0.223391
619.771560	0.223335
619.979876	0.223501
620.188174	0.223783
620.396453	0.224011
620.604715	0.224521
620.812958	0.224514
621.021183	0.224807
621.229390	0.224690
621.437578	0.224669
621.645748	0.224798
621.853900	0.224864
622.062034	0.224782
622.270150	0.224905
622.478247	0.224848
622.686326	0.224915
622.894387	0.225144
623.102430	0.225413
623.310454	0.225819
623.518461	0.225953
623.726449	0.226178
623.934418	0.226399
624.142370	0.226383
624.350303	0.226494
624.558218	0.226734
624.766115	0.226645
624.973994	0.226386
625.181855	0.226139
625.389697	0.226388
625.597521	0.226694
625.805327	0.226753
626.013114	0.226896
626.220883	0.227041
626.428634	0.227148
626.636367	0.227381
626.844082	0.227744
627.051778	0.228037
627.259457	0.228087
627.467117	0.227999
627.674758	0.228121
627.882382	0.228294
628.089987	0.228348
628.297574	0.228678
628.505143	0.228728
628.712694	0.228825
628.920226	0.229091
629.127740	0.229306
629.335236	0.229387
629.542714	0.229707
629.750174	0.229902
629.957615	0.230224
630.165038	0.230152
630.372443	0.230254
630.579829	0.230420
630.787198	0.230560
630.994548	0.230394
631.201880	0.230522
631.409194	0.230556
631.616489	0.230609
631.823766	0.230800
632.031025	0.230870
632.238266	0.231004
632.445489	0.231182
632.652693	0.231084
632.859879	0.231706
633.067047	0.231769
633.274197	0.231969
633.481329	0.232196
633.688442	0.232100
633.895537	0.232116
634.102614	0.232165
634.309672	0.232453
634.516713	0.232809
634.723735	0.232738
634.930739	0.232822
635.137724	0.232848
635.344692	0.232384
635.551641	0.232509
635.758572	0.232904
635.965485	0.232997
636.172379	0.232986
636.379256	0.232711
636.586114	0.232771
636.792954	0.232737
636.999775	0.232914
637.206579	0.233586
637.413364	0.233941
637.620131	0.233937
637.826880	0.234353
638.033610	0.234584
638.240323	0.234909
638.447017	0.235120
638.653692	0.235546
638.860350	0.235773
639.066990	0.235869
639.273611	0.236037
639.480214	0.236298
639.686798	0.236177
639.893365	0.236324
640.099913	0.236350
640.306443	0.236349
640.512955	0.236520
640.719449	0.236520
640.925924	0.236542
641.132381	0.236588
641.338820	0.236619
641.545241	0.236847
641.751644	0.236872
641.958028	0.237051
642.164394	0.237486
642.370742	0.237847
642.577071	0.238072
642.783383	0.238080
642.989676	0.238288
643.195951	0.238181
643.402207	0.238297
643.608446	0.238143
643.814666	0.238346
644.020868	0.238150
644.227052	0.238029
644.433218	0.238209
644.639365	0.238606
644.845494	0.238646
645.051605	0.239016
645.257698	0.239112
645.463772	0.239598
645.669828	0.239601
645.875866	0.239672
646.081886	0.239924
646.287888	0.239932
646.493871	0.240036
646.699836	0.240080
646.905783	0.240158
647.111712	0.240542
647.317622	0.240619
647.523514	0.240894
647.729388	0.241216
647.935244	0.241158
648.141082	0.241299
648.346901	0.241429
648.552702	0.241605
648.758485	0.241996
648.964250	0.242141
649.169996	0.242032
649.375724	0.242034
649.581434	0.242015
649.787126	0.242347
649.992800	0.242486
650.198455	0.242468
650.404092	0.242539
650.609711	0.242626
650.815311	0.242574
651.020894	0.243212
651.226458	0.243608
651.432004	0.243959
651.637532	0.244150
651.843041	0.244413
652.048532	0.244812
652.254006	0.245183
652.459460	0.245125
652.664897	0.245423
652.870315	0.245329
653.075716	0.245264
653.281097	0.245663
653.486461	0.245448
653.691807	0.245181
653.897134	0.245354
654.102443	0.245447
654.307734	0.245734
654.513006	0.245606
654.718261	0.245799
654.923497	0.246115
655.128715	0.245877
655.333915	0.246457
655.539096	0.247131
655.744259	0.247087
655.949404	0.247360
656.154531	0.247367
656.359640	0.247615
656.564730	0.247813
656.769802	0.247819
656.974856	0.248114
657.179892	0.248283
657.384909	0.248272
657.589908	0.248428
657.794889	0.248507
657.999852	0.248887
658.204797	0.249134
658.409723	0.249342
658.614631	0.249653
658.819521	0.250015
659.024393	0.250005
659.229246	0.250131
659.434081	0.250326
659.638898	0.250495
659.843697	0.250685
660.048478	0.251055
660.253240	0.251084
660.457984	0.251247
660.662710	0.251262
660.867417	0.251556
661.072107	0.251991
661.276778	0.252383
661.481431	0.252592
661.686066	0.252994
661.890682	0.253043
662.095281	0.253317
662.299861	0.253429
662.504422	0.253520
662.708966	0.253453
662.913491	0.253401
663.117999	0.253436
663.322488	0.253405
663.526958	0.253382
663.731411	0.253707
663.935845	0.253744
664.140261	0.253934
664.344659	0.254319
664.549038	0.254386
664.753400	0.254806
664.957743	0.254956
665.162068	0.255320
665.366375	0.255618
665.570663	0.255635
665.774933	0.255981
665.979185	0.256055
666.183419	0.256200
666.387635	0.256629
666.591832	0.256537
666.796011	0.256800
667.000172	0.257093
667.204315	0.257098
667.408439	0.257351
667.612545	0.257421
667.816634	0.257742
668.020703	0.257859
668.224755	0.258076
668.428788	0.258176
668.632803	0.258593
668.836800	0.258510
669.040779	0.258665
669.244739	0.258909
669.448681	0.259327
669.652605	0.259255
669.856511	0.259532
670.060399	0.259390
670.264268	0.259769
670.468119	0.259615
670.671952	0.259980
670.875767	0.260017
671.079563	0.260010
671.283341	0.259920
671.487101	0.260518
671.690843	0.260793
671.894567	0.261075
672.098272	0.261326
672.301959	0.261650
672.505628	0.261540
672.709278	0.261723
672.912911	0.261921
673.116525	0.262101
673.320121	0.262254
673.523699	0.262167
673.727258	0.262606
673.930799	0.262498
674.134322	0.262670
674.337827	0.263015
674.541314	0.263183
674.744782	0.263388
674.948232	0.263681
675.151664	0.263572
675.355078	0.263644
675.558474	0.263751
675.761851	0.264037
675.965210	0.264311
676.168551	0.264467
676.371873	0.264991
676.575178	0.265150
676.778464	0.265250
676.981732	0.265476
677.184981	0.265723
677.388213	0.265843
677.591426	0.266255
677.794621	0.266202
677.997798	0.266441
678.200956	0.266187
678.404097	0.266347
678.607219	0.266583
678.810323	0.266883
679.013408	0.267139
679.216476	0.267390
679.419525	0.267346
679.622556	0.267556
679.825569	0.267546
680.028563	0.268099
680.231540	0.268367
680.434498	0.268474
680.637438	0.268705
680.840359	0.268878
681.043263	0.268954
681.246148	0.269022
681.449015	0.269064
681.651864	0.269215
681.854694	0.268961
682.057506	0.269090
682.260301	0.269417
682.463076	0.269616
682.665834	0.269845
682.868573	0.270128
683.071295	0.270247
683.273998	0.270708
683.476682	0.271046
683.679349	0.271507
683.881997	0.271799
684.084627	0.271800
684.287239	0.271916
684.489833	0.271922
684.692408	0.271823
684.894965	0.272186
685.097504	0.272108
685.300025	0.272390
685.502527	0.272448
685.705012	0.272401
685.907478	0.272455
686.109925	0.272707
686.312355	0.272917
686.514766	0.273363
686.717159	0.273430
686.919534	0.273923
687.121891	0.273904
687.324230	0.274064
687.526550	0.274225
687.728852	0.274499
687.931136	0.274450
688.133401	0.274505
688.335649	0.274585
688.537878	0.274751
688.740089	0.274763
688.942281	0.275257
689.144456	0.275463
689.346612	0.275703
689.548750	0.275886
689.750870	0.276179
689.952971	0.276789
690.155055	0.277176
690.357120	0.277409
690.559167	0.277657
690.761195	0.277663
690.963206	0.277770
691.165198	0.277974
691.367172	0.277974
691.569128	0.277906
691.771065	0.277750
691.972984	0.277429
692.174885	0.277899
692.376768	0.277993
692.578633	0.277916
692.780479	0.278068
692.982308	0.278096
693.184118	0.278589
693.385909	0.278757
