sample name	sample
index	346
start time	 03-01-2021  11:40:59 AM


Wavelength (nm)	Absorbance
494.344910	0.214948
494.563924	0.214948
494.782919	0.214948
495.001897	0.214855
495.220856	0.232923
495.439797	0.267827
495.658719	0.317485
495.877624	0.292147
496.096510	0.230368
496.315378	0.099284
496.534227	0.075130
496.753059	0.026582
496.971872	-0.110884
497.190667	0.258739
497.409444	0.281750
497.628203	0.287379
497.846943	0.290872
498.065665	0.292601
498.284369	0.294724
498.503055	0.295406
498.721723	0.296277
498.940372	0.296227
499.159003	0.294180
499.377616	0.293696
499.596210	0.293664
499.814787	0.293098
500.033345	0.292425
500.251885	0.292515
500.470406	0.291100
500.688910	0.290152
500.907395	0.290235
501.125862	0.289731
501.344311	0.288313
501.562742	0.287810
501.781154	0.286290
501.999548	0.284159
502.217924	0.282356
502.436282	0.282184
502.654621	0.280934
502.872942	0.279406
503.091245	0.277935
503.309530	0.277462
503.527797	0.274623
503.746045	0.273098
503.964275	0.272961
504.182487	0.272180
504.400681	0.271456
504.618856	0.270227
504.837013	0.268813
505.055152	0.267806
505.273273	0.266339
505.491376	0.265715
505.709460	0.266115
505.927526	0.265212
506.145574	0.265074
506.363604	0.264218
506.581615	0.264835
506.799608	0.264848
507.017583	0.265046
507.235540	0.265215
507.453478	0.265013
507.671399	0.263930
507.889301	0.264048
508.107185	0.263231
508.325050	0.262712
508.542898	0.262338
508.760727	0.262806
508.978538	0.260944
509.196330	0.259567
509.414105	0.257961
509.631861	0.256221
509.849599	0.255173
510.067319	0.255026
510.285021	0.254438
510.502704	0.252515
510.720369	0.250801
510.938016	0.249893
511.155645	0.249397
511.373255	0.250078
511.590848	0.250425
511.808422	0.251051
512.025977	0.249588
512.243515	0.249401
512.461034	0.247903
512.678536	0.248059
512.896018	0.248770
513.113483	0.248470
513.330930	0.246978
513.548358	0.246278
513.765768	0.245848
513.983160	0.245853
514.200533	0.244930
514.417889	0.245467
514.635226	0.243463
514.852545	0.241907
515.069845	0.240722
515.287128	0.241735
515.504392	0.241296
515.721638	0.239678
515.938866	0.239208
516.156075	0.239178
516.373267	0.238492
516.590440	0.239014
516.807594	0.239876
517.024731	0.240499
517.241850	0.239365
517.458950	0.239774
517.676032	0.239882
517.893095	0.239364
518.110141	0.238372
518.327168	0.238925
518.544177	0.238793
518.761168	0.237560
518.978141	0.236338
519.195095	0.235501
519.412031	0.234139
519.628949	0.233259
519.845849	0.233178
520.062731	0.232501
520.279594	0.231510
520.496439	0.231014
520.713266	0.231007
520.930074	0.231448
521.146865	0.231282
521.363637	0.230891
521.580391	0.230880
521.797127	0.230326
522.013844	0.230982
522.230543	0.231169
522.447224	0.231274
522.663887	0.230556
522.880532	0.230450
523.097158	0.230137
523.313766	0.230269
523.530356	0.229995
523.746928	0.229814
523.963481	0.229215
524.180017	0.228947
524.396534	0.228875
524.613032	0.229290
524.829513	0.229010
525.045975	0.229029
525.262420	0.228485
525.478845	0.227695
525.695253	0.227184
525.911643	0.226811
526.128014	0.226139
526.344367	0.225691
526.560702	0.225312
526.777018	0.225015
526.993316	0.224630
527.209597	0.224843
527.425858	0.225091
527.642102	0.225193
527.858328	0.225433
528.074535	0.224954
528.290724	0.224831
528.506894	0.224590
528.723047	0.224019
528.939181	0.224521
529.155297	0.224103
529.371395	0.223349
529.587475	0.223465
529.803536	0.223140
530.019579	0.223432
530.235604	0.222937
530.451611	0.222798
530.667600	0.222936
530.883570	0.222756
531.099522	0.223274
531.315456	0.224204
531.531372	0.223869
531.747269	0.223961
531.963148	0.223832
532.179009	0.224073
532.394852	0.223769
532.610676	0.223998
532.826482	0.223841
533.042271	0.223943
533.258040	0.223845
533.473792	0.223740
533.689525	0.223565
533.905240	0.223700
534.120937	0.223793
534.336616	0.223882
534.552277	0.223528
534.767919	0.223293
534.983543	0.222908
535.199149	0.222331
535.414736	0.222635
535.630306	0.222606
535.845857	0.222679
536.061390	0.222546
536.276904	0.222790
536.492401	0.222964
536.707879	0.223205
536.923339	0.223386
537.138781	0.223718
537.354204	0.223530
537.569610	0.223436
537.784997	0.222950
538.000366	0.222813
538.215716	0.222975
538.431049	0.222304
538.646363	0.222058
538.861659	0.221518
539.076937	0.221353
539.292196	0.221514
539.507438	0.221637
539.722661	0.222283
539.937866	0.222519
540.153052	0.221889
540.368221	0.221875
540.583371	0.221878
540.798503	0.222102
541.013617	0.222167
541.228712	0.221939
541.443789	0.221941
541.658848	0.221478
541.873889	0.221310
542.088912	0.221978
542.303916	0.222013
542.518902	0.221884
542.733870	0.221711
542.948820	0.222149
543.163752	0.222543
543.378665	0.222692
543.593560	0.222978
543.808437	0.223031
544.023295	0.222406
544.238136	0.222318
544.452958	0.222562
544.667762	0.222036
544.882548	0.221690
545.097315	0.221669
545.312064	0.221468
545.526795	0.221562
545.741508	0.221093
545.956203	0.221168
546.170879	0.221901
546.385537	0.222220
546.600177	0.222943
546.814799	0.222497
547.029402	0.221984
547.243988	0.221615
547.458555	0.221244
547.673103	0.221723
547.887634	0.222071
548.102146	0.222244
548.316640	0.222053
548.531116	0.222270
548.745574	0.222720
548.960013	0.223002
549.174435	0.223511
549.388838	0.224385
549.603222	0.224848
549.817589	0.224604
550.031937	0.224176
550.246267	0.223843
550.460579	0.223686
550.674873	0.223695
550.889148	0.223541
551.103405	0.223897
551.317644	0.223489
551.531865	0.222997
551.746068	0.223145
551.960252	0.223302
552.174418	0.223888
552.388566	0.224004
552.602696	0.224459
552.816807	0.224749
553.030900	0.224079
553.244975	0.223772
553.459032	0.223962
553.673070	0.224480
553.887091	0.224897
554.101093	0.224838
554.315077	0.224982
554.529042	0.224263
554.742990	0.223783
554.956919	0.224104
555.170830	0.224827
555.384722	0.225077
555.598597	0.224624
555.812453	0.223870
556.026291	0.223670
556.240111	0.223620
556.453913	0.223928
556.667696	0.224441
556.881461	0.224678
557.095208	0.224512
557.308937	0.224363
557.522647	0.224428
557.736339	0.224803
557.950013	0.225065
558.163669	0.225097
558.377307	0.225216
558.590926	0.225185
558.804527	0.225114
559.018110	0.224886
559.231675	0.225070
559.445221	0.225282
559.658749	0.225454
559.872259	0.225480
560.085751	0.225755
560.299225	0.225622
560.512680	0.225667
560.726117	0.225638
560.939536	0.226204
561.152937	0.225916
561.366319	0.225819
561.579683	0.226093
561.793029	0.226236
562.006357	0.225944
562.219667	0.226281
562.432958	0.226108
562.646231	0.226097
562.859486	0.225557
563.072723	0.225475
563.285941	0.225621
563.499141	0.225612
563.712323	0.225609
563.925487	0.225875
564.138632	0.225868
564.351760	0.226053
564.564869	0.226241
564.777960	0.226535
564.991032	0.226745
565.204087	0.226747
565.417123	0.226519
565.630141	0.226763
565.843140	0.226834
566.056122	0.226935
566.269085	0.227035
566.482030	0.226859
566.694957	0.227159
566.907866	0.227071
567.120756	0.226997
567.333628	0.226998
567.546482	0.226645
567.759318	0.226710
567.972135	0.226678
568.184935	0.226629
568.397716	0.226513
568.610478	0.226207
568.823223	0.226244
569.035949	0.226519
569.248657	0.226900
569.461347	0.227440
569.674019	0.227207
569.886672	0.227469
570.099308	0.227650
570.311925	0.228018
570.524523	0.228678
570.737104	0.228947
570.949666	0.229156
571.162210	0.229261
571.374736	0.228887
571.587244	0.229583
571.799733	0.229830
572.012205	0.230106
572.224658	0.229988
572.437092	0.229722
572.649509	0.230213
572.861907	0.230278
573.074287	0.230354
573.286649	0.230671
573.498993	0.230437
573.711318	0.230036
573.923625	0.230258
574.135914	0.230487
574.348185	0.230679
574.560438	0.230729
574.772672	0.230814
574.984888	0.230818
575.197086	0.230469
575.409266	0.230626
575.621427	0.230952
575.833570	0.230670
576.045695	0.230882
576.257802	0.230648
576.469890	0.230707
576.681961	0.230895
576.894013	0.230954
577.106046	0.231283
577.318062	0.231401
577.530059	0.231737
577.742039	0.231968
577.954000	0.232334
578.165942	0.232557
578.377867	0.232620
578.589773	0.232377
578.801661	0.232155
579.013531	0.232442
579.225382	0.232305
579.437216	0.232265
579.649031	0.232513
579.860828	0.232235
580.072606	0.232381
580.284367	0.232484
580.496109	0.233002
580.707833	0.233361
580.919539	0.232896
581.131227	0.233220
581.342896	0.233204
581.554547	0.233180
581.766180	0.233472
581.977795	0.233764
582.189391	0.233870
582.400969	0.233773
582.612529	0.233806
582.824071	0.234479
583.035595	0.234692
583.247100	0.234673
583.458587	0.234992
583.670056	0.235533
583.881506	0.235985
584.092939	0.235989
584.304353	0.236315
584.515749	0.236727
584.727127	0.236901
584.938486	0.236968
585.149828	0.237073
585.361151	0.237086
585.572456	0.236812
585.783742	0.236683
585.995011	0.236813
586.206261	0.236725
586.417493	0.236430
586.628706	0.236770
586.839902	0.236760
587.051079	0.237200
587.262238	0.237099
587.473379	0.237173
587.684502	0.237142
587.895606	0.237079
588.106692	0.237346
588.317760	0.237870
588.528810	0.237934
588.739841	0.238367
588.950855	0.238155
589.161850	0.238720
589.372827	0.239037
589.583785	0.238887
589.794726	0.239216
590.005648	0.239551
590.216552	0.239641
590.427437	0.239273
590.638305	0.239151
590.849154	0.239263
591.059985	0.239616
591.270798	0.239441
591.481592	0.239570
591.692369	0.239525
591.903127	0.239447
592.113867	0.239628
592.324588	0.239807
592.535292	0.240355
592.745977	0.240594
592.956644	0.240397
593.167293	0.240808
593.377923	0.241369
593.588536	0.241728
593.799130	0.241866
594.009706	0.242148
594.220263	0.242899
594.430803	0.242557
594.641324	0.243245
594.851827	0.243391
595.062312	0.243782
595.272778	0.244168
595.483227	0.244368
595.693657	0.244734
595.904069	0.244759
596.114462	0.244680
596.324838	0.245082
596.535195	0.245104
596.745534	0.245186
596.955855	0.245365
597.166157	0.245092
597.376441	0.245576
597.586707	0.245333
597.796955	0.245323
598.007185	0.245557
598.217396	0.245187
598.427589	0.245419
598.637764	0.245590
598.847921	0.245531
599.058060	0.245767
599.268180	0.245277
599.478282	0.245822
599.688366	0.246174
599.898431	0.245953
600.108479	0.246786
600.318508	0.246399
600.528519	0.246637
600.738511	0.246403
600.948486	0.246691
601.158442	0.247235
601.368380	0.246949
601.578300	0.247145
601.788202	0.247330
601.998085	0.247373
602.207950	0.247947
602.417797	0.247990
602.627626	0.248543
602.837436	0.248477
603.047228	0.248715
603.257002	0.249090
603.466758	0.249113
603.676496	0.249829
603.886215	0.249722
604.095916	0.249656
604.305599	0.249795
604.515264	0.250007
604.724910	0.250219
604.934538	0.249995
605.144148	0.250269
605.353740	0.250290
605.563314	0.249865
605.772869	0.249892
605.982406	0.250237
606.191925	0.250444
606.401425	0.250452
606.610908	0.250670
606.820372	0.251194
607.029818	0.251246
607.239246	0.251857
607.448655	0.252328
607.658047	0.252773
607.867420	0.252821
608.076775	0.253014
608.286111	0.253382
608.495430	0.253389
608.704730	0.253206
608.914012	0.253194
609.123275	0.252674
609.332521	0.252694
609.541748	0.252689
609.750957	0.252808
609.960148	0.252985
610.169321	0.253034
610.378475	0.253471
610.587611	0.253437
610.796729	0.253839
611.005829	0.254524
611.214910	0.254853
611.423974	0.255140
611.633019	0.255280
611.842045	0.255170
612.051054	0.255046
612.260044	0.255159
612.469017	0.255669
612.677970	0.255574
612.886906	0.255606
613.095824	0.255579
613.304723	0.255607
613.513604	0.255762
613.722467	0.256013
613.931311	0.255927
614.140138	0.255716
614.348946	0.255776
614.557736	0.255747
614.766507	0.255604
614.975261	0.255913
615.183996	0.256152
615.392713	0.256099
615.601412	0.256076
615.810092	0.256658
616.018754	0.257121
616.227399	0.257313
616.436024	0.257804
616.644632	0.258140
616.853222	0.258333
617.061793	0.258362
617.270346	0.258400
617.478880	0.258975
617.687397	0.258997
617.895895	0.258917
618.104375	0.258965
618.312837	0.258871
618.521281	0.259075
618.729706	0.258826
618.938113	0.259133
619.146502	0.259456
619.354873	0.259482
619.563226	0.259529
619.771560	0.259537
619.979876	0.259810
620.188174	0.260244
620.396453	0.260612
620.604715	0.260988
620.812958	0.260992
621.021183	0.261071
621.229390	0.261232
621.437578	0.261495
621.645748	0.262036
621.853900	0.262135
622.062034	0.262295
622.270150	0.262279
622.478247	0.262340
622.686326	0.262667
622.894387	0.263314
623.102430	0.263196
623.310454	0.263010
623.518461	0.263009
623.726449	0.263216
623.934418	0.263168
624.142370	0.263338
624.350303	0.263335
624.558218	0.263238
624.766115	0.263030
624.973994	0.263453
625.181855	0.263890
625.389697	0.264263
625.597521	0.264332
625.805327	0.264632
626.013114	0.264769
626.220883	0.265066
626.428634	0.265148
626.636367	0.265450
626.844082	0.265631
627.051778	0.265994
627.259457	0.265818
627.467117	0.266002
627.674758	0.266157
627.882382	0.266278
628.089987	0.266472
628.297574	0.266789
628.505143	0.266760
628.712694	0.266602
628.920226	0.266388
629.127740	0.266679
629.335236	0.266720
629.542714	0.266621
629.750174	0.266799
629.957615	0.266864
630.165038	0.267085
630.372443	0.267335
630.579829	0.267808
630.787198	0.268084
630.994548	0.268186
631.201880	0.268366
631.409194	0.268782
631.616489	0.268848
631.823766	0.269270
632.031025	0.269279
632.238266	0.269279
632.445489	0.269283
632.652693	0.269305
632.859879	0.269435
633.067047	0.269624
633.274197	0.269819
633.481329	0.269755
633.688442	0.269614
633.895537	0.269866
634.102614	0.270246
634.309672	0.270565
634.516713	0.271025
634.723735	0.271206
634.930739	0.271570
635.137724	0.271599
635.344692	0.272010
635.551641	0.272000
635.758572	0.272234
635.965485	0.272434
636.172379	0.272668
636.379256	0.272653
636.586114	0.272865
636.792954	0.272833
636.999775	0.273034
637.206579	0.273040
637.413364	0.273634
637.620131	0.273779
637.826880	0.274023
638.033610	0.274128
638.240323	0.274432
638.447017	0.274420
638.653692	0.274689
638.860350	0.274892
639.066990	0.275348
639.273611	0.275284
639.480214	0.275523
639.686798	0.275561
639.893365	0.275635
640.099913	0.275746
640.306443	0.276114
640.512955	0.275957
640.719449	0.276229
640.925924	0.276214
641.132381	0.276529
641.338820	0.276409
641.545241	0.276661
641.751644	0.276753
641.958028	0.277080
642.164394	0.277020
642.370742	0.277478
642.577071	0.277540
642.783383	0.277713
642.989676	0.278021
643.195951	0.278288
643.402207	0.278107
643.608446	0.278256
643.814666	0.278304
644.020868	0.278589
644.227052	0.278867
644.433218	0.278883
644.639365	0.279200
644.845494	0.279332
645.051605	0.279510
645.257698	0.279962
645.463772	0.280256
645.669828	0.280444
645.875866	0.280454
646.081886	0.280335
646.287888	0.280500
646.493871	0.280507
646.699836	0.280570
646.905783	0.280992
647.111712	0.280980
647.317622	0.281029
647.523514	0.281138
647.729388	0.281340
647.935244	0.281419
648.141082	0.281685
648.346901	0.281967
648.552702	0.282140
648.758485	0.281928
648.964250	0.282294
649.169996	0.282493
649.375724	0.282986
649.581434	0.283173
649.787126	0.283487
649.992800	0.283685
650.198455	0.283662
650.404092	0.283936
650.609711	0.284397
650.815311	0.284515
651.020894	0.284677
651.226458	0.284636
651.432004	0.284948
651.637532	0.285216
651.843041	0.285250
652.048532	0.285303
652.254006	0.285397
652.459460	0.285486
652.664897	0.285354
652.870315	0.285550
653.075716	0.285646
653.281097	0.286110
653.486461	0.286461
653.691807	0.286854
653.897134	0.287390
654.102443	0.287365
654.307734	0.287675
654.513006	0.288125
654.718261	0.288421
654.923497	0.288455
655.128715	0.288642
655.333915	0.288718
655.539096	0.288906
655.744259	0.289206
655.949404	0.289647
656.154531	0.289789
656.359640	0.289899
656.564730	0.290068
656.769802	0.290446
656.974856	0.290609
657.179892	0.290970
657.384909	0.291037
657.589908	0.291266
657.794889	0.291338
657.999852	0.291350
658.204797	0.291797
658.409723	0.291974
658.614631	0.292356
658.819521	0.292546
659.024393	0.292701
659.229246	0.292940
659.434081	0.293153
659.638898	0.293605
659.843697	0.294043
660.048478	0.294074
660.253240	0.294262
660.457984	0.294457
660.662710	0.294688
660.867417	0.294791
661.072107	0.295109
661.276778	0.295311
661.481431	0.295518
661.686066	0.295655
661.890682	0.295887
662.095281	0.296093
662.299861	0.296313
662.504422	0.296254
662.708966	0.296456
662.913491	0.296810
663.117999	0.296827
663.322488	0.296894
663.526958	0.297052
663.731411	0.297457
663.935845	0.297616
664.140261	0.297716
664.344659	0.297816
664.549038	0.297903
664.753400	0.297764
664.957743	0.298222
665.162068	0.298312
665.366375	0.298657
665.570663	0.298688
665.774933	0.298886
665.979185	0.299163
666.183419	0.299508
666.387635	0.299622
666.591832	0.299997
666.796011	0.300165
667.000172	0.300801
667.204315	0.300907
667.408439	0.301169
667.612545	0.301583
667.816634	0.301909
668.020703	0.302130
668.224755	0.302781
668.428788	0.302858
668.632803	0.303035
668.836800	0.302815
669.040779	0.302985
669.244739	0.303185
669.448681	0.303144
669.652605	0.303194
669.856511	0.303595
670.060399	0.303780
670.264268	0.304082
670.468119	0.304214
670.671952	0.304299
670.875767	0.304582
671.079563	0.304991
671.283341	0.305808
671.487101	0.305965
671.690843	0.306144
671.894567	0.306361
672.098272	0.306648
672.301959	0.306845
672.505628	0.307232
672.709278	0.307536
672.912911	0.307458
673.116525	0.306978
673.320121	0.307238
673.523699	0.307213
673.727258	0.307285
673.930799	0.307551
674.134322	0.307747
674.337827	0.307914
674.541314	0.308168
674.744782	0.308667
674.948232	0.309070
675.151664	0.309185
675.355078	0.309566
675.558474	0.309684
675.761851	0.309791
675.965210	0.310059
676.168551	0.310524
676.371873	0.310520
676.575178	0.310377
676.778464	0.310857
676.981732	0.311010
677.184981	0.311282
677.388213	0.311788
677.591426	0.312088
677.794621	0.312299
677.997798	0.312314
678.200956	0.312650
678.404097	0.313200
678.607219	0.313138
678.810323	0.313525
679.013408	0.313796
679.216476	0.313683
679.419525	0.313834
679.622556	0.314048
679.825569	0.314179
680.028563	0.314242
680.231540	0.314330
680.434498	0.314563
680.637438	0.314836
680.840359	0.314933
681.043263	0.315254
681.246148	0.315326
681.449015	0.315382
681.651864	0.315583
681.854694	0.315916
682.057506	0.316083
682.260301	0.316250
682.463076	0.316310
682.665834	0.316473
682.868573	0.316771
683.071295	0.317022
683.273998	0.316973
683.476682	0.317352
683.679349	0.317506
683.881997	0.317578
684.084627	0.317899
684.287239	0.318140
684.489833	0.318469
684.692408	0.318519
684.894965	0.318761
685.097504	0.319360
685.300025	0.319369
685.502527	0.319604
685.705012	0.319741
685.907478	0.319989
686.109925	0.320128
686.312355	0.320318
686.514766	0.320709
686.717159	0.320943
686.919534	0.320924
687.121891	0.321243
687.324230	0.321464
687.526550	0.321684
687.728852	0.321615
687.931136	0.321713
688.133401	0.321730
688.335649	0.321819
688.537878	0.321939
688.740089	0.322070
688.942281	0.322323
689.144456	0.322339
689.346612	0.322520
689.548750	0.322628
689.750870	0.323108
689.952971	0.323107
690.155055	0.323244
690.357120	0.323156
690.559167	0.323262
690.761195	0.323428
690.963206	0.323778
691.165198	0.323996
691.367172	0.324112
691.569128	0.324110
691.771065	0.324615
691.972984	0.324528
692.174885	0.325024
692.376768	0.325425
692.578633	0.325529
692.780479	0.325653
692.982308	0.325829
693.184118	0.326322
693.385909	0.326369
