sample name	sample
index	1409
start time	 05-10-2021  11:32:26 AM
880	0.341598
Peak Time (s)	92.537
Peak Height 	0.3416
calc peak height	90,93
Baseline Time (s)	8.536
Baseline Value 	-0.006744
subtract baseline	10,4
Abs	0.241348
Peak Time (s)	91.535
Peak Height 	0.2413
calc peak height	90,93
Baseline Time (s)	10.536
Baseline Value 	8.4292E-5
subtract baseline	10,3
PK_550	0.135853
Peak Time (s)	90.538
Peak Height 	0.1359
calc peak height	90,93
Baseline Time (s)	10.536
Baseline Value 	4.7054E-4
subtract baseline	10,2
PK_880	0.229378
Peak Time (s)	90.538
Peak Height 	0.2294
calc peak height	90,93
Baseline Time (s)	9.035
Baseline Value 	0.002249
subtract baseline	10,1


Time (s)	A880-A510	A880-A775	A880-A975	A880	I510	I775	I975	I880	
0.035500	-0.001511	0.000238	-0.001454	0.004679	6442.460503	43682.360822	3894.329296	22364.119658
0.536000	-0.003706	-0.000410	0.001760	0.006781	6407.094476	43425.179580	3897.095600	22269.928821
1.036500	-0.001493	0.000029	-0.002348	0.006500	6427.578035	43492.330715	3887.603050	22282.487875
1.537000	-0.000310	0.000169	0.001616	0.002983	6466.499938	43835.302027	3906.237127	22440.461196
2.036500	-0.002905	-0.000213	0.003242	0.002353	6450.175781	43858.656766	3911.916776	22468.862930
2.537000	-0.001389	-0.000712	0.000825	0.002156	6464.401709	43830.191315	3906.325865	22477.756028
3.037000	-0.000543	0.000303	-0.003357	0.002874	6465.469525	43858.128906	3894.085566	22445.367228
3.537500	-0.000413	-0.000145	0.000639	0.001751	6475.907060	43921.792022	3906.877342	22496.063791
4.035000	-0.002078	-0.000132	0.000306	0.001323	6465.605349	43963.482672	3907.115649	22515.445703
4.535500	-0.000117	-0.001499	0.003336	0.000202	6491.353427	43940.267588	3917.601607	22566.247824
5.035500	0.000216	-0.000612	0.008097	0.001328	6484.700776	43917.655511	3926.867555	22515.204636
5.538500	0.001465	0.000236	0.000760	0.001055	6497.469106	44023.603843	3908.933940	22527.596564
6.036000	-0.002193	-0.000019	-0.002669	0.000707	6469.779276	44032.387769	3901.201670	22543.344254
6.536500	-0.001079	-0.000021	0.000843	0.000879	6477.627462	44015.848978	3909.584362	22535.530476
7.036500	0.000322	-0.000661	0.000419	0.000148	6495.480416	44024.525622	3910.358379	22568.688415
7.537000	-0.001425	0.000217	0.000537	0.000484	6478.044272	44075.846681	3909.810430	22553.465422
8.037500	-0.000591	0.000480	0.005792	0.000534	6484.593214	44096.012304	3923.004836	22551.172491
8.535500	-0.001770	-0.000155	-0.001479	0.000000	6479.201517	44086.448948	3905.955614	22575.413991
9.035000	0.000000	0.000341	0.000737	0.000085	6493.308915	44125.322976	3911.320147	22571.543216
9.535500	0.000915	0.000026	-0.002454	-0.000034	6501.996156	44106.829667	3903.596828	22576.978636
10.036000	-0.000829	-0.000369	0.003851	-0.000109	6487.986241	44076.443976	3919.699535	22580.341257
10.536000	0.001288	0.000000	0.000000	0.000171	6503.411955	44084.948297	3909.246043	22567.666728
11.036500	-0.002986	-0.000741	-0.001905	0.002957	6444.504382	43752.091273	3897.493049	22441.614425
11.536500	0.000096	0.000110	0.005391	-0.000613	6499.976437	44169.687095	3924.910436	22603.260591
12.036500	0.000668	0.000807	0.001516	-0.000099	6500.471510	44187.134864	3913.754966	22579.924250
12.537500	-0.001987	0.000394	0.006797	-0.000115	6478.350259	44149.397874	3927.234656	22580.642126
13.034500	-0.004114	-0.000002	0.002455	0.005654	6412.992215	43568.567335	3901.644046	22320.398851
13.535500	0.001193	0.000403	0.003061	-0.000301	6506.582495	44167.876572	3918.182606	22589.096136
14.035500	-0.001066	0.001011	0.004105	0.002646	6463.017482	43946.461816	3913.358275	22455.649353
14.537000	-0.000592	-0.000626	0.000981	0.000625	6483.822986	43982.719870	3910.572656	22547.042876
15.038500	-0.004311	0.000301	0.000616	0.005099	6415.922482	43648.882072	3898.437018	22345.259618
15.536000	0.000203	0.000231	0.004058	-0.000752	6502.043489	44194.358885	3921.864184	22609.587300
16.036000	-0.000016	0.000579	0.001683	-0.001267	6504.539258	44276.435622	3917.135716	22633.027689
16.536500	-0.000441	-0.000552	0.000834	-0.001763	6505.133593	44216.041053	3916.240428	22655.608615
17.037000	-0.002329	0.000192	-0.002132	0.003492	6445.515131	43789.579109	3895.595575	22417.518429
17.537500	-0.000641	0.000143	0.003522	-0.000311	6491.258217	44144.178013	3919.379548	22589.555135
18.034500	-0.002066	0.000243	0.001384	0.000076	6476.098172	44116.909714	3912.976525	22571.952762
18.535500	0.000172	0.000709	-0.001378	0.000773	6488.986614	44095.063262	3904.270162	22540.368105
19.035000	-0.002125	-0.000071	0.001306	0.001789	6461.334087	43925.240875	3908.460906	22494.373591
19.536000	-0.002547	0.000220	0.005466	-0.000009	6472.793883	44122.808737	3923.561495	22575.825644
20.036000	-0.000026	0.000903	0.002336	0.000947	6485.872943	44096.990204	3913.182918	22532.464058
20.536500	-0.002056	0.000275	-0.001224	-0.000249	6478.895036	44150.801699	3907.220911	22586.708605
21.036500	-0.001170	0.000546	0.002394	0.001454	6472.071581	44015.114098	3912.047360	22509.511935
21.537000	-0.002874	-0.000410	0.005301	-0.000104	6470.860135	44072.123186	3923.379753	22580.124317
22.037500	0.000202	0.000316	0.002284	0.000295	6493.245375	44103.124099	3914.701792	22562.047936
22.535000	-0.001542	-0.000115	0.003202	0.000043	6480.754029	44086.134939	3917.665762	22573.461247
23.035000	-0.001941	-0.000166	0.004244	0.001329	6466.693076	43959.673538	3917.046600	22515.153556
23.535000	-0.001113	0.001045	0.002978	0.001197	6474.697097	44086.750067	3914.173312	22521.145920
24.035500	-0.000206	0.000133	0.006133	0.000121	6491.283662	44102.238136	3924.931092	22569.927705
24.539000	-0.000433	-0.000354	0.003740	-0.000094	6491.183313	44076.528863	3919.382474	22579.704630
25.036000	-0.002370	0.000121	0.004719	0.000662	6468.673861	44049.896311	3919.947998	22545.376139
25.536000	-0.000191	0.000884	0.003550	0.000836	6485.412703	44105.646230	3916.535403	22537.483220
26.037000	-0.000919	0.000226	0.000470	0.000129	6485.239773	44110.288152	3910.536438	22569.553110
26.537000	0.001689	-0.000218	0.001033	0.000003	6508.191481	44080.213888	3912.274410	22575.271289
27.037500	0.001197	0.000889	0.005000	0.001130	6494.591212	44078.263855	3919.473088	22524.185568
27.538000	-0.000663	0.000245	0.001581	-0.001997	6505.233496	44314.137986	3918.729039	22666.272163
28.035500	0.000172	-0.000427	0.004242	-0.001748	6510.169302	44226.540873	3924.875870	22654.928400
28.535500	-0.000765	0.000015	0.003461	-0.000573	6492.417240	44156.861802	3919.889919	22601.449105
29.038500	0.000307	0.000660	0.001021	-0.001256	6507.161216	44283.089594	3915.427198	22632.498119
29.536000	-0.000045	0.000993	0.002775	-0.001134	6503.173213	44303.182634	3919.570380	22626.955100
30.036000	-0.000939	0.000932	0.003388	-0.001098	6495.357784	44293.955004	3921.038318	22625.323075
30.536500	-0.000822	0.000070	0.000184	-0.000072	6487.743250	44114.558220	3910.322540	22578.693652
31.037000	-0.000744	-0.000498	0.000022	0.000598	6482.776317	43997.314342	3908.223631	22548.265501
31.537000	0.001282	0.000712	-0.001213	-0.001076	6513.858680	44270.971843	3909.329960	22624.323707
32.037500	-0.002255	0.001711	-0.002691	-0.001155	6484.808536	44373.643132	3905.810984	22627.912660
32.534500	-0.001961	-0.000093	0.000725	0.000141	6476.426639	44078.922545	3911.147872	22569.009768
33.035000	-0.000548	0.000157	0.001307	-0.001890	6505.296838	44295.610985	3917.760817	22661.403738
33.536000	0.001446	-0.000299	0.006619	-0.002362	6526.113706	44297.121818	3932.542917	22682.945587
34.035500	0.000587	-0.000018	0.004949	0.000040	6498.618989	44095.612161	3922.117226	22573.592973
34.536000	-0.000594	-0.000234	0.001670	0.000671	6483.428855	44015.421039	3912.196948	22544.985512
35.036500	-0.000261	0.000503	-0.000197	0.000371	6488.729739	44113.644755	3908.247455	22558.588571
35.536500	-0.001761	0.000038	0.004145	-0.000063	6479.812107	44110.722188	3920.333277	22578.288948
36.037000	-0.000182	0.000609	0.000067	0.001225	6482.235344	44042.746980	3906.762078	22519.870924
36.537500	0.000376	0.000381	0.004941	0.001291	6486.352007	44014.941190	3918.911695	22516.868334
37.034500	-0.002119	0.001211	0.001642	0.001835	6460.994848	44042.002340	3909.189169	22492.261931
37.535000	-0.001355	0.000602	0.001082	0.000790	6476.078754	44083.368726	3910.412844	22539.596323
38.035500	0.001293	0.000314	0.001417	0.000455	6501.067475	44087.784950	3912.104905	22554.782349
38.538500	0.000076	0.000222	0.002185	0.001378	6483.111356	43991.653467	3911.711364	22512.935656
39.036000	-0.001773	0.000218	0.003466	0.000294	6476.727240	44093.900003	3917.697780	22562.070674
39.536000	-0.001953	-0.000422	0.000122	-0.000273	6479.956478	44087.047414	3910.671601	22587.826373
40.036500	-0.002480	0.000981	0.000242	0.000827	6466.389609	44115.685590	3908.203130	22537.908773
40.537000	-0.000624	0.001167	0.000748	0.002620	6466.912647	43963.615095	3904.969557	22456.829986
41.040000	0.001146	0.000976	0.001294	0.001042	6494.896507	44094.790762	3910.310749	22528.147039
41.534500	-0.000105	0.000262	0.002961	0.000191	6491.543946	44107.825677	3916.678449	22566.751434
42.035000	-0.000190	0.001150	0.004785	0.001389	6480.798102	44078.500356	3918.268106	22512.455417
42.535000	-0.002290	0.001247	0.000305	0.002718	6452.251627	43961.969294	3903.613130	22452.410211
43.035500	-0.001824	0.000600	0.004118	0.002435	6458.467952	43927.579075	3913.925744	22465.158350
43.536000	0.000435	0.001697	0.004364	-0.001456	6509.925817	44401.026275	3924.442135	22641.635286
44.036000	0.000666	-0.000074	0.002390	-0.003760	6531.347444	44451.931280	3925.283613	22746.867044
44.536500	-0.000039	0.001020	0.002399	-0.001505	6506.350226	44341.129537	3919.558657	22643.869407
45.036000	-0.002589	0.000092	0.004868	0.003811	6440.722363	43750.205914	3912.344728	22403.162690
45.537000	-0.000304	0.000991	0.001727	-0.001154	6501.165204	44304.940423	3916.960497	22627.875267
46.037500	0.000072	0.000422	0.007029	-0.001798	6509.747699	44312.068733	3932.145469	22657.197052
46.535000	-0.002463	0.000023	0.003807	0.003072	6447.878436	43813.110235	3911.529622	22436.432376
47.037500	-0.003122	0.000411	-0.000325	0.003314	6440.426456	43826.823633	3900.542382	22425.515213
47.535500	-0.000312	0.000341	0.003416	0.000988	6483.137493	44039.911315	3915.811426	22530.619333
48.038500	0.003238	0.000890	0.005575	-0.001468	6533.724584	44325.263609	3927.569223	22642.197048
48.538000	-0.001864	0.000471	0.008547	0.002512	6457.496335	43908.105486	3924.990514	22461.690116
49.036000	-0.003982	-0.000823	-0.001663	0.003715	6430.016984	43673.206710	3896.206561	22407.457002
49.536500	0.002886	0.000831	0.002641	-0.003684	6549.556929	44531.266011	3925.729605	22743.358707
50.036500	0.000785	0.000613	0.008535	-0.001693	6514.873480	44320.201128	3935.755145	22652.408395
50.537500	-0.001154	0.000865	-0.001053	0.000478	6480.357181	44137.792457	3905.825254	22553.723842
51.035000	0.002807	-0.004424	0.016464	0.115637	5660.382614	34159.546237	3686.244291	17966.290692
51.535000	-0.002588	-0.019844	0.006146	0.085869	5822.593921	35208.227318	3726.137804	19038.165103
52.035000	-0.016732	-0.056926	-0.029021	-0.218603	8650.092196	62666.000288	4508.674930	35475.437389
52.535500	-0.023282	-0.105629	-0.033283	-0.287678	9548.161565	65534.475875	4781.227672	41098.560606
53.035500	-0.006848	-0.049474	-0.012269	-0.205220	8603.554227	61855.921189	4521.861074	34485.654722
53.535500	0.001543	-0.033430	0.000143	-0.165231	8199.832479	58695.573498	4416.864498	31703.525343
54.036000	0.001472	-0.021615	0.002762	-0.114788	7612.445976	53950.585052	4249.862065	28540.428328
54.536500	-0.004981	-0.026630	0.004462	-0.149656	7934.436066	57580.309041	4375.890940	30687.397886
55.037000	0.009905	-0.026406	0.013295	-0.161618	8258.661739	59135.172090	4452.435186	31464.588120
55.537500	0.021851	-0.014020	0.030970	-0.123256	7939.492873	55872.537946	4376.274274	29046.084584
56.040000	0.032547	-0.003432	0.051738	-0.030954	7067.709443	46794.085111	4139.218890	24032.049413
56.535000	0.041457	0.006237	0.064184	0.037358	6528.575778	41254.779472	3979.407320	20950.241113
57.035500	0.063718	0.017570	0.088922	0.074486	6404.790461	39045.305677	3946.664991	19467.838743
57.538500	0.080827	0.029872	0.098081	0.109130	6264.141101	37234.911140	3882.185997	18194.364086
58.035500	0.099110	0.044764	0.111807	0.140641	6161.731659	35947.320915	3839.375145	17121.027847
58.536500	0.110011	0.053569	0.125262	0.166294	6051.135039	34691.328677	3811.011397	16302.951062
59.036000	0.132980	0.062502	0.147120	0.200052	5972.609395	32927.309357	3784.098460	15297.492477
59.536500	0.141414	0.069112	0.154998	0.216748	5913.769265	32238.903582	3764.624247	14828.347370
60.034500	0.150420	0.074820	0.167184	0.238509	5825.107231	31175.720370	3743.922142	14243.359956
60.537500	0.161174	0.080967	0.176673	0.248334	5831.481712	30937.597450	3743.204620	13988.688875
61.035000	0.169622	0.085878	0.187484	0.256492	5833.468277	30729.016905	3748.890052	13781.545489
61.535000	0.172979	0.092276	0.194824	0.283355	5676.304290	29449.930012	3707.849861	13126.376751
62.038500	0.181434	0.096123	0.196894	0.311351	5551.965746	28016.051511	3656.124462	12485.342239
62.536000	0.184734	0.103545	0.197024	0.308145	5592.745556	28637.312395	3662.608408	12556.679715
63.036000	0.185069	0.105448	0.198570	0.307364	5599.799502	28796.583692	3667.159487	12574.130780
63.539000	0.190110	0.108584	0.207378	0.302019	5666.342162	29306.495931	3695.379879	12694.445710
64.036000	0.193054	0.110592	0.207727	0.302496	5682.387310	29399.596997	3695.121277	12683.655187
64.537000	0.191733	0.112458	0.205773	0.303760	5665.581075	29436.338838	3688.626814	12655.109003
65.037000	0.193531	0.113386	0.209886	0.304052	5675.362466	29475.157586	3696.344883	12648.526731
65.537500	0.196697	0.115630	0.205319	0.305598	5685.920064	29517.840162	3684.028551	12613.733308
66.035000	0.199640	0.115933	0.210801	0.304950	5709.461709	29576.123344	3696.378467	12628.303252
66.535000	0.198396	0.117795	0.209459	0.312041	5655.110238	29257.280362	3679.434128	12470.065012
67.035000	0.204455	0.119309	0.214166	0.306377	5731.853768	29695.896019	3700.318113	12596.246537
67.535500	0.206438	0.123036	0.216485	0.308805	5728.903589	29776.083735	3700.096555	12541.960960
68.035500	0.210043	0.124366	0.217728	0.309326	5749.414075	29826.090399	3701.567954	12530.343762
68.536000	0.208995	0.124595	0.217282	0.315136	5703.991798	29482.797918	3688.893007	12401.814055
69.036500	0.214876	0.127156	0.219711	0.311515	5767.117173	29863.337798	3701.148712	12481.719298
69.536500	0.217166	0.129034	0.219102	0.314206	5764.422782	29812.919912	3694.442383	12422.268970
70.037000	0.217091	0.128750	0.225492	0.315461	5755.514586	29717.892985	3704.899180	12394.666836
70.534500	0.217665	0.130028	0.220638	0.323853	5703.683736	29282.857724	3678.175353	12212.168208
71.035000	0.215656	0.129885	0.217070	0.325240	5681.456504	29190.152810	3668.384591	12182.338634
71.538000	0.217199	0.130717	0.220246	0.320788	5720.813548	29511.488059	3683.502774	12278.414866
72.035500	0.219192	0.132847	0.230209	0.323993	5712.817333	29445.861526	3697.119279	12209.163602
72.535500	0.215841	0.130699	0.221314	0.329216	5656.852627	28999.746859	3668.912331	12097.364227
73.036500	0.218105	0.132832	0.227163	0.331330	5657.823553	29000.913505	3676.284713	12052.507063
73.536500	0.222114	0.133360	0.228827	0.326777	5713.724226	29307.615684	3688.700678	12149.406723
74.036500	0.220873	0.133955	0.230914	0.328468	5694.456263	29241.149954	3689.496626	12113.296824
74.536500	0.219209	0.132976	0.225372	0.335352	5639.026156	28769.290454	3664.838865	11967.764671
75.034500	0.222599	0.135353	0.233443	0.332664	5678.327961	29072.211533	3686.147291	12024.313935
75.537500	0.222270	0.133627	0.228176	0.332546	5676.950799	28975.638854	3675.882152	12026.797541
76.035000	0.222616	0.134926	0.230794	0.334964	5663.498360	28908.663776	3676.280806	11975.900307
76.535000	0.224532	0.135611	0.232774	0.336530	5665.764924	28856.026069	3677.100577	11943.075033
77.035500	0.223986	0.135901	0.235477	0.338011	5652.657256	28785.062302	3679.529612	11912.151666
77.536000	0.223682	0.134933	0.232328	0.338324	5648.676220	28708.909052	3672.666327	11905.621010
78.036500	0.224261	0.136326	0.233644	0.338826	5649.177617	28761.896090	3674.275814	11895.183246
78.536500	0.223550	0.137046	0.228232	0.344992	5605.209727	28440.070517	3651.678421	11767.783512
79.037000	0.227156	0.137451	0.238132	0.341269	5652.093012	28683.601771	3678.330122	11844.489655
79.537500	0.229348	0.137367	0.234862	0.340859	5668.930128	28702.966723	3672.665277	11852.981266
80.035000	0.225721	0.137255	0.237102	0.340818	5645.749411	28698.714416	3677.180518	11853.817175
80.535000	0.225506	0.136267	0.232303	0.344718	5619.386544	28410.435618	3660.087330	11773.401250
81.038000	0.223388	0.138037	0.238805	0.346992	5591.527934	28380.920983	3668.352367	11726.854098
81.536000	0.229066	0.136948	0.234185	0.340145	5671.732229	28720.453769	3672.738453	11867.784364
82.036000	0.228995	0.137704	0.243852	0.340457	5669.247132	28746.837717	3691.410848	11861.315343
82.536000	0.224278	0.137137	0.233924	0.343916	5616.673575	28508.702181	3664.814369	11789.889285
83.036500	0.225882	0.137073	0.239606	0.339470	5655.482778	28768.004972	3684.859064	11881.792041
83.537000	0.225772	0.137018	0.235036	0.339230	5656.319213	28778.991415	3676.232194	11886.767225
84.037500	0.228078	0.136731	0.234656	0.339186	5671.543440	28764.544693	3675.565918	11887.688415
84.537500	0.226402	0.137091	0.236754	0.341405	5646.358914	28654.260539	3675.326922	11841.683162
85.035000	0.228138	0.137905	0.228801	0.344357	5638.537951	28527.931708	3653.999181	11780.819284
85.535500	0.226453	0.137061	0.235118	0.338666	5664.374421	28815.095129	3677.512898	11898.501048
86.035000	0.227974	0.138225	0.237044	0.339352	5669.791465	28843.603336	3679.977927	11884.235701
86.535500	0.226191	0.137511	0.236624	0.341817	5642.348380	28654.692195	3674.254400	11833.151514
87.036000	0.229155	0.138304	0.241614	0.339903	5673.881052	28815.490054	3688.018014	11872.799347
87.536500	0.227477	0.136677	0.233000	0.338839	5669.894334	28782.013025	3672.978877	11894.916792
88.036500	0.227311	0.137589	0.239101	0.339388	5665.259129	28803.597763	3684.012921	11883.500800
88.537000	0.226582	0.136102	0.233038	0.341066	5649.695714	28615.774642	3668.665141	11848.685090
89.037500	0.226602	0.135339	0.235466	0.338146	5668.712879	28743.600280	3679.237873	11909.336420
89.537500	0.228743	0.136204	0.236448	0.339182	5675.887480	28733.425640	3679.130063	11887.764669
90.035000	0.227201	0.134815	0.231582	0.338779	5668.492369	28675.017542	3670.299571	11896.165797
90.538000	0.229378	0.135853	0.233953	0.339425	5678.444120	28698.205782	3673.701357	11882.723908
91.035500	0.228682	0.134168	0.238215	0.338488	5680.016248	28653.898647	3684.040876	11902.212365
91.535500	0.227418	0.134004	0.241348	0.339098	5667.828616	28608.085146	3689.102103	11889.515092
92.036000	0.228140	0.133408	0.235234	0.338757	5674.740710	28593.043271	3677.564523	11896.624559
92.536500	0.223630	0.131840	0.233370	0.341598	5627.330978	28333.890794	3668.272426	11837.679553
93.036000	0.226702	0.132672	0.242230	0.339107	5663.132787	28528.966975	3690.860507	11889.330154
93.534000	0.227068	0.131865	0.243294	0.338531	5669.243624	28515.353260	3694.173624	11901.327453
94.037500	0.226497	0.132166	0.244676	0.340043	5655.749188	28444.136788	3693.909462	11869.884201
94.534500	0.224041	0.131591	0.237986	0.343525	5617.653987	28206.997462	3673.570326	11797.930620
95.035000	0.226607	0.131417	0.235974	0.343475	5634.377513	28199.802483	3669.702650	11798.968131
95.535500	0.227362	0.131453	0.239213	0.341141	5654.250629	28338.028073	3680.736091	11847.143068
96.036000	0.228754	0.130965	0.245252	0.341708	5659.575873	28276.352947	3691.709129	11835.401667
