sample name	sample
index	1398
start time	 05-10-2021  11:02:36 AM


Wavelength (nm)	Absorbance
494.344910	-0.084731
494.563924	-0.084731
494.782919	-0.084731
495.001897	-0.069735
495.220856	-0.022707
495.439797	-0.015955
495.658719	-0.005557
495.877624	-0.016170
496.096510	-0.008997
496.315378	-0.012847
496.534227	-0.019810
496.753059	-0.023184
496.971872	-0.021639
497.190667	0.091828
497.409444	0.139597
497.628203	0.154355
497.846943	0.165627
498.065665	0.167238
498.284369	0.172002
498.503055	0.174533
498.721723	0.177512
498.940372	0.178086
499.159003	0.178731
499.377616	0.178837
499.596210	0.178842
499.814787	0.177822
500.033345	0.179565
500.251885	0.179860
500.470406	0.179521
500.688910	0.177707
500.907395	0.176886
501.125862	0.177050
501.344311	0.176681
501.562742	0.175486
501.781154	0.175341
501.999548	0.175472
502.217924	0.175231
502.436282	0.176651
502.654621	0.177179
502.872942	0.177915
503.091245	0.178143
503.309530	0.178066
503.527797	0.179667
503.746045	0.179708
503.964275	0.179371
504.182487	0.178747
504.400681	0.177758
504.618856	0.177045
504.837013	0.177400
505.055152	0.176786
505.273273	0.176896
505.491376	0.177755
505.709460	0.178895
505.927526	0.179700
506.145574	0.179609
506.363604	0.179623
506.581615	0.181461
506.799608	0.181826
507.017583	0.182936
507.235540	0.182439
507.453478	0.183102
507.671399	0.183142
507.889301	0.182857
508.107185	0.182986
508.325050	0.182639
508.542898	0.182186
508.760727	0.181657
508.978538	0.181339
509.196330	0.182402
509.414105	0.182308
509.631861	0.183207
509.849599	0.183569
510.067319	0.184692
510.285021	0.186791
510.502704	0.187477
510.720369	0.187846
510.938016	0.188088
511.155645	0.188685
511.373255	0.187879
511.590848	0.186811
511.808422	0.187032
512.025977	0.188110
512.243515	0.187731
512.461034	0.187072
512.678536	0.187575
512.896018	0.187508
513.113483	0.187235
513.330930	0.185931
513.548358	0.186222
513.765768	0.186707
513.983160	0.185419
514.200533	0.186516
514.417889	0.187427
514.635226	0.187370
514.852545	0.188716
515.069845	0.190230
515.287128	0.192044
515.504392	0.192797
515.721638	0.193005
515.938866	0.193317
516.156075	0.193059
516.373267	0.192512
516.590440	0.193224
516.807594	0.193021
517.024731	0.192638
517.241850	0.193696
517.458950	0.193977
517.676032	0.194475
517.893095	0.196488
518.110141	0.197076
518.327168	0.198431
518.544177	0.198417
518.761168	0.197948
518.978141	0.198412
519.195095	0.197899
519.412031	0.198339
519.628949	0.197663
519.845849	0.197158
520.062731	0.197197
520.279594	0.197877
520.496439	0.198338
520.713266	0.198960
520.930074	0.198671
521.146865	0.198545
521.363637	0.199670
521.580391	0.201154
521.797127	0.201059
522.013844	0.200647
522.230543	0.200255
522.447224	0.201483
522.663887	0.202026
522.880532	0.203358
523.097158	0.204630
523.313766	0.203568
523.530356	0.204005
523.746928	0.204574
523.963481	0.206006
524.180017	0.206290
524.396534	0.206235
524.613032	0.205822
524.829513	0.205826
525.045975	0.205894
525.262420	0.206970
525.478845	0.206249
525.695253	0.206826
525.911643	0.206335
526.128014	0.207336
526.344367	0.207698
526.560702	0.208429
526.777018	0.208633
526.993316	0.209208
527.209597	0.209503
527.425858	0.210462
527.642102	0.210470
527.858328	0.210868
528.074535	0.211080
528.290724	0.212215
528.506894	0.212446
528.723047	0.213090
528.939181	0.213210
529.155297	0.213865
529.371395	0.214458
529.587475	0.214800
529.803536	0.216277
530.019579	0.216616
530.235604	0.215897
530.451611	0.217373
530.667600	0.217757
530.883570	0.217747
531.099522	0.218088
531.315456	0.217809
531.531372	0.218635
531.747269	0.218346
531.963148	0.219195
532.179009	0.219900
532.394852	0.220122
532.610676	0.220387
532.826482	0.221669
533.042271	0.222047
533.258040	0.223126
533.473792	0.223667
533.689525	0.223994
533.905240	0.224506
534.120937	0.224767
534.336616	0.225066
534.552277	0.225158
534.767919	0.225279
534.983543	0.225566
535.199149	0.225672
535.414736	0.225649
535.630306	0.226058
535.845857	0.225889
536.061390	0.226025
536.276904	0.226810
536.492401	0.227582
536.707879	0.227753
536.923339	0.228005
537.138781	0.228578
537.354204	0.228965
537.569610	0.229093
537.784997	0.229232
538.000366	0.229541
538.215716	0.229350
538.431049	0.229734
538.646363	0.230536
538.861659	0.231319
539.076937	0.231675
539.292196	0.232413
539.507438	0.233408
539.722661	0.234260
539.937866	0.235322
540.153052	0.236002
540.368221	0.236406
540.583371	0.236397
540.798503	0.236991
541.013617	0.237120
541.228712	0.237515
541.443789	0.237150
541.658848	0.237273
541.873889	0.237575
542.088912	0.237978
542.303916	0.238290
542.518902	0.239086
542.733870	0.238891
542.948820	0.239748
543.163752	0.239819
543.378665	0.240954
543.593560	0.241507
543.808437	0.241501
544.023295	0.241875
544.238136	0.242119
544.452958	0.241647
544.667762	0.242245
544.882548	0.242029
545.097315	0.242922
545.312064	0.242668
545.526795	0.242607
545.741508	0.242808
545.956203	0.242898
546.170879	0.243260
546.385537	0.244213
546.600177	0.244293
546.814799	0.244724
547.029402	0.244479
547.243988	0.244932
547.458555	0.245184
547.673103	0.245771
547.887634	0.245732
548.102146	0.246190
548.316640	0.246433
548.531116	0.247064
548.745574	0.247575
548.960013	0.248222
549.174435	0.248723
549.388838	0.249398
549.603222	0.249524
549.817589	0.250078
550.031937	0.250320
550.246267	0.250548
550.460579	0.250853
550.674873	0.251299
550.889148	0.250715
551.103405	0.251127
551.317644	0.250932
551.531865	0.251154
551.746068	0.251427
551.960252	0.251350
552.174418	0.251474
552.388566	0.251490
552.602696	0.251423
552.816807	0.251972
553.030900	0.251433
553.244975	0.251806
553.459032	0.252214
553.673070	0.252233
553.887091	0.252079
554.101093	0.252179
554.315077	0.252235
554.529042	0.252389
554.742990	0.252516
554.956919	0.252950
555.170830	0.253226
555.384722	0.253018
555.598597	0.253476
555.812453	0.253721
556.026291	0.253785
556.240111	0.254088
556.453913	0.254542
556.667696	0.254764
556.881461	0.255324
557.095208	0.255598
557.308937	0.256345
557.522647	0.256384
557.736339	0.257225
557.950013	0.257458
558.163669	0.257785
558.377307	0.257735
558.590926	0.258081
558.804527	0.257987
559.018110	0.257787
559.231675	0.257848
559.445221	0.257705
559.658749	0.257885
559.872259	0.258424
560.085751	0.258200
560.299225	0.258539
560.512680	0.258840
560.726117	0.259005
560.939536	0.259439
561.152937	0.260027
561.366319	0.260623
561.579683	0.260594
561.793029	0.260819
562.006357	0.261168
562.219667	0.261180
562.432958	0.261289
562.646231	0.261198
562.859486	0.261147
563.072723	0.260592
563.285941	0.261004
563.499141	0.260980
563.712323	0.260957
563.925487	0.261385
564.138632	0.261550
564.351760	0.261944
564.564869	0.262663
564.777960	0.262886
564.991032	0.262999
565.204087	0.263149
565.417123	0.263501
565.630141	0.263676
565.843140	0.263749
566.056122	0.263883
566.269085	0.264006
566.482030	0.263888
566.694957	0.264244
566.907866	0.264548
567.120756	0.264573
567.333628	0.264528
567.546482	0.264927
567.759318	0.264868
567.972135	0.264849
568.184935	0.264890
568.397716	0.265035
568.610478	0.265197
568.823223	0.265210
569.035949	0.265447
569.248657	0.265746
569.461347	0.265397
569.674019	0.265393
569.886672	0.265996
570.099308	0.266133
570.311925	0.266094
570.524523	0.266081
570.737104	0.266498
570.949666	0.266701
571.162210	0.266958
571.374736	0.267292
571.587244	0.267428
571.799733	0.267028
572.012205	0.266799
572.224658	0.267461
572.437092	0.267844
572.649509	0.268011
572.861907	0.268364
573.074287	0.268671
573.286649	0.269531
573.498993	0.270114
573.711318	0.270591
573.923625	0.271101
574.135914	0.271027
574.348185	0.271225
574.560438	0.271679
574.772672	0.271103
574.984888	0.271403
575.197086	0.271543
575.409266	0.271832
575.621427	0.272249
575.833570	0.271920
576.045695	0.271846
576.257802	0.271873
576.469890	0.271392
576.681961	0.272340
576.894013	0.272171
577.106046	0.271819
577.318062	0.271633
577.530059	0.271337
577.742039	0.271387
577.954000	0.271754
578.165942	0.272094
578.377867	0.272937
578.589773	0.272544
578.801661	0.272660
579.013531	0.272169
579.225382	0.272064
579.437216	0.272660
579.649031	0.273666
579.860828	0.273844
580.072606	0.273324
580.284367	0.273318
580.496109	0.273837
580.707833	0.273951
580.919539	0.275137
581.131227	0.275881
581.342896	0.276346
581.554547	0.276388
581.766180	0.276984
581.977795	0.277837
582.189391	0.278191
582.400969	0.277966
582.612529	0.278342
582.824071	0.277943
583.035595	0.278304
583.247100	0.278136
583.458587	0.278165
583.670056	0.278104
583.881506	0.277986
584.092939	0.277981
584.304353	0.278202
584.515749	0.278377
584.727127	0.279002
584.938486	0.278542
585.149828	0.278717
585.361151	0.279340
585.572456	0.279216
585.783742	0.279710
585.995011	0.279791
586.206261	0.280416
586.417493	0.280777
586.628706	0.280946
586.839902	0.281822
587.051079	0.282009
587.262238	0.282193
587.473379	0.282698
587.684502	0.283121
587.895606	0.283173
588.106692	0.283006
588.317760	0.283161
588.528810	0.283512
588.739841	0.282991
588.950855	0.283443
589.161850	0.283358
589.372827	0.283127
589.583785	0.283529
589.794726	0.283800
590.005648	0.284187
590.216552	0.284517
590.427437	0.284583
590.638305	0.285069
590.849154	0.285095
591.059985	0.285628
591.270798	0.286036
591.481592	0.285682
591.692369	0.285811
591.903127	0.285991
592.113867	0.286114
592.324588	0.286309
592.535292	0.286875
592.745977	0.287509
592.956644	0.287379
593.167293	0.287991
593.377923	0.288357
593.588536	0.288860
593.799130	0.288985
594.009706	0.289327
594.220263	0.289150
594.430803	0.289062
594.641324	0.288890
594.851827	0.289053
595.062312	0.288989
595.272778	0.289364
595.483227	0.289508
595.693657	0.289466
595.904069	0.289251
596.114462	0.289746
596.324838	0.290129
596.535195	0.289927
596.745534	0.290135
596.955855	0.290358
597.166157	0.290599
597.376441	0.290656
597.586707	0.291119
597.796955	0.291447
598.007185	0.291338
598.217396	0.291045
598.427589	0.291257
598.637764	0.291498
598.847921	0.291665
599.058060	0.291543
599.268180	0.291878
599.478282	0.291957
599.688366	0.292044
599.898431	0.292272
600.108479	0.293019
600.318508	0.293304
600.528519	0.293097
600.738511	0.293255
600.948486	0.293292
601.158442	0.293588
601.368380	0.294046
601.578300	0.294746
601.788202	0.295364
601.998085	0.295630
602.207950	0.296240
602.417797	0.297034
602.627626	0.297039
602.837436	0.297602
603.047228	0.297550
603.257002	0.297742
603.466758	0.297549
603.676496	0.297691
603.886215	0.297390
604.095916	0.297499
604.305599	0.297507
604.515264	0.298144
604.724910	0.298418
604.934538	0.298608
605.144148	0.298662
605.353740	0.298970
605.563314	0.298646
605.772869	0.299200
605.982406	0.299174
606.191925	0.299273
606.401425	0.299096
606.610908	0.299477
606.820372	0.299751
607.029818	0.299926
607.239246	0.300254
607.448655	0.300904
607.658047	0.301094
607.867420	0.301507
608.076775	0.301785
608.286111	0.302385
608.495430	0.302288
608.704730	0.302862
608.914012	0.303169
609.123275	0.303274
609.332521	0.303589
609.541748	0.304011
609.750957	0.303589
609.960148	0.303877
610.169321	0.303882
610.378475	0.304212
610.587611	0.304408
610.796729	0.304679
611.005829	0.304970
611.214910	0.304812
611.423974	0.304832
611.633019	0.305651
611.842045	0.306152
612.051054	0.306161
612.260044	0.305957
612.469017	0.305968
612.677970	0.305845
612.886906	0.305776
613.095824	0.306123
613.304723	0.306126
613.513604	0.306104
613.722467	0.305967
613.931311	0.306354
614.140138	0.306652
614.348946	0.306672
614.557736	0.306932
614.766507	0.307258
614.975261	0.307291
615.183996	0.307514
615.392713	0.307673
615.601412	0.307668
615.810092	0.307892
616.018754	0.308257
616.227399	0.308372
616.436024	0.308687
616.644632	0.308717
616.853222	0.309270
617.061793	0.309349
617.270346	0.309496
617.478880	0.309851
617.687397	0.309913
617.895895	0.310004
618.104375	0.310298
618.312837	0.310245
618.521281	0.310502
618.729706	0.310568
618.938113	0.310560
619.146502	0.310751
619.354873	0.310999
619.563226	0.311337
619.771560	0.311523
619.979876	0.311719
620.188174	0.312005
620.396453	0.312163
620.604715	0.312113
620.812958	0.312718
621.021183	0.312763
621.229390	0.312716
621.437578	0.312612
621.645748	0.312834
621.853900	0.313029
622.062034	0.313165
622.270150	0.313314
622.478247	0.313728
622.686326	0.313745
622.894387	0.313989
623.102430	0.314279
623.310454	0.314704
623.518461	0.314638
623.726449	0.314903
623.934418	0.315314
624.142370	0.315703
624.350303	0.315765
624.558218	0.316063
624.766115	0.316451
624.973994	0.316665
625.181855	0.316490
625.389697	0.316918
625.597521	0.317073
625.805327	0.317381
626.013114	0.317152
626.220883	0.317285
626.428634	0.317346
626.636367	0.317408
626.844082	0.317462
627.051778	0.318027
627.259457	0.318366
627.467117	0.318524
627.674758	0.318511
627.882382	0.318950
628.089987	0.319190
628.297574	0.319501
628.505143	0.319565
628.712694	0.319864
628.920226	0.320070
629.127740	0.319790
629.335236	0.320016
629.542714	0.320056
629.750174	0.320191
629.957615	0.320390
630.165038	0.320858
630.372443	0.321342
630.579829	0.321596
630.787198	0.321435
630.994548	0.321921
631.201880	0.322112
631.409194	0.322256
631.616489	0.321977
631.823766	0.322232
632.031025	0.322335
632.238266	0.322737
632.445489	0.322792
632.652693	0.323234
632.859879	0.323493
633.067047	0.323527
633.274197	0.323998
633.481329	0.324827
633.688442	0.324867
633.895537	0.324669
634.102614	0.324569
634.309672	0.324684
634.516713	0.324946
634.723735	0.325091
634.930739	0.325335
635.137724	0.325331
635.344692	0.325430
635.551641	0.325819
635.758572	0.326183
635.965485	0.326542
636.172379	0.326750
636.379256	0.326742
636.586114	0.326736
636.792954	0.326694
636.999775	0.327001
637.206579	0.327276
637.413364	0.327275
637.620131	0.327395
637.826880	0.327538
638.033610	0.327881
638.240323	0.328306
638.447017	0.328778
638.653692	0.329171
638.860350	0.329418
639.066990	0.329646
639.273611	0.330212
639.480214	0.330783
639.686798	0.330808
639.893365	0.331078
640.099913	0.331292
640.306443	0.331527
640.512955	0.331774
640.719449	0.331882
640.925924	0.332056
641.132381	0.332139
641.338820	0.332060
641.545241	0.332458
641.751644	0.332873
641.958028	0.333222
642.164394	0.333198
642.370742	0.333870
642.577071	0.334182
642.783383	0.334312
642.989676	0.334371
643.195951	0.334630
643.402207	0.334557
643.608446	0.334394
643.814666	0.334425
644.020868	0.334723
644.227052	0.334448
644.433218	0.334385
644.639365	0.334504
644.845494	0.334687
645.051605	0.334832
645.257698	0.335238
645.463772	0.335668
645.669828	0.335728
645.875866	0.335766
646.081886	0.335931
646.287888	0.336237
646.493871	0.336408
646.699836	0.336384
646.905783	0.336791
647.111712	0.336922
647.317622	0.336825
647.523514	0.336942
647.729388	0.337326
647.935244	0.337639
648.141082	0.338025
648.346901	0.338670
648.552702	0.339184
648.758485	0.339039
648.964250	0.339079
649.169996	0.339254
649.375724	0.339762
649.581434	0.340035
649.787126	0.340328
649.992800	0.340437
650.198455	0.340411
650.404092	0.340491
650.609711	0.340604
650.815311	0.340910
651.020894	0.341504
651.226458	0.341521
651.432004	0.341674
651.637532	0.341626
651.843041	0.341788
652.048532	0.341898
652.254006	0.342342
652.459460	0.343055
652.664897	0.343599
652.870315	0.343712
653.075716	0.344164
653.281097	0.344290
653.486461	0.344821
653.691807	0.345085
653.897134	0.345389
654.102443	0.345615
654.307734	0.345328
654.513006	0.345397
654.718261	0.345724
654.923497	0.345826
655.128715	0.346098
655.333915	0.345834
655.539096	0.346004
655.744259	0.346162
655.949404	0.346277
656.154531	0.346697
656.359640	0.346574
656.564730	0.346326
656.769802	0.346598
656.974856	0.346561
657.179892	0.346993
657.384909	0.347136
657.589908	0.347141
657.794889	0.347143
657.999852	0.347308
658.204797	0.347543
658.409723	0.347893
658.614631	0.347697
658.819521	0.348143
659.024393	0.348166
659.229246	0.348544
659.434081	0.348692
659.638898	0.348599
659.843697	0.348708
660.048478	0.349034
660.253240	0.349294
660.457984	0.349899
660.662710	0.350130
660.867417	0.350232
661.072107	0.350531
661.276778	0.351055
661.481431	0.351753
661.686066	0.352148
661.890682	0.352256
662.095281	0.352596
662.299861	0.352394
662.504422	0.352303
662.708966	0.352838
662.913491	0.352600
663.117999	0.352543
663.322488	0.352773
663.526958	0.352759
663.731411	0.352973
663.935845	0.353021
664.140261	0.353367
664.344659	0.353586
664.549038	0.353755
664.753400	0.354207
664.957743	0.354696
665.162068	0.355038
665.366375	0.355305
665.570663	0.355789
665.774933	0.356045
665.979185	0.356467
666.183419	0.356801
666.387635	0.357257
666.591832	0.357565
666.796011	0.357898
667.000172	0.358034
667.204315	0.358295
667.408439	0.358383
667.612545	0.358582
667.816634	0.358498
668.020703	0.358653
668.224755	0.358604
668.428788	0.358643
668.632803	0.358757
668.836800	0.358776
669.040779	0.359150
669.244739	0.358901
669.448681	0.359357
669.652605	0.359924
669.856511	0.360159
670.060399	0.360563
670.264268	0.361081
670.468119	0.361051
670.671952	0.361246
670.875767	0.361370
671.079563	0.362071
671.283341	0.362185
671.487101	0.362276
671.690843	0.362696
671.894567	0.362747
672.098272	0.363049
672.301959	0.363573
672.505628	0.363854
672.709278	0.364406
672.912911	0.364641
673.116525	0.365012
673.320121	0.365497
673.523699	0.365785
673.727258	0.366085
673.930799	0.366150
674.134322	0.366315
674.337827	0.366272
674.541314	0.366405
674.744782	0.366625
674.948232	0.366963
675.151664	0.367235
675.355078	0.367502
675.558474	0.367901
675.761851	0.368026
675.965210	0.368304
676.168551	0.369113
676.371873	0.369563
676.575178	0.369807
676.778464	0.369857
676.981732	0.370032
677.184981	0.370374
677.388213	0.370566
677.591426	0.371057
677.794621	0.371232
677.997798	0.371408
678.200956	0.371187
678.404097	0.371608
678.607219	0.372036
678.810323	0.372122
679.013408	0.372449
679.216476	0.372857
679.419525	0.372988
679.622556	0.373236
679.825569	0.373401
680.028563	0.373781
680.231540	0.374002
680.434498	0.374206
680.637438	0.374367
680.840359	0.374619
681.043263	0.374887
681.246148	0.375017
681.449015	0.375301
681.651864	0.375779
681.854694	0.376246
682.057506	0.376586
682.260301	0.376832
682.463076	0.377296
682.665834	0.377549
682.868573	0.377908
683.071295	0.378251
683.273998	0.378610
683.476682	0.379011
683.679349	0.379347
683.881997	0.379515
684.084627	0.379757
684.287239	0.379833
684.489833	0.379943
684.692408	0.379928
684.894965	0.380343
685.097504	0.380542
685.300025	0.380357
685.502527	0.380361
685.705012	0.380533
685.907478	0.380698
686.109925	0.381162
686.312355	0.381435
686.514766	0.381544
686.717159	0.381618
686.919534	0.381877
687.121891	0.382029
687.324230	0.382052
687.526550	0.382278
687.728852	0.382413
687.931136	0.382329
688.133401	0.382338
688.335649	0.382707
688.537878	0.382716
688.740089	0.382660
688.942281	0.382844
689.144456	0.383107
689.346612	0.383313
689.548750	0.383390
689.750870	0.383659
689.952971	0.383698
690.155055	0.383817
690.357120	0.384004
690.559167	0.384168
690.761195	0.384491
690.963206	0.384602
691.165198	0.384765
691.367172	0.385170
691.569128	0.385349
691.771065	0.385776
691.972984	0.386002
692.174885	0.386407
692.376768	0.386780
692.578633	0.386960
692.780479	0.387436
692.982308	0.387625
693.184118	0.387714
