sample name	sample
index	556
start time	 03-15-2021  12:25:45 PM


Wavelength (nm)	Absorbance
494.344910	0.215209
494.563924	0.215209
494.782919	0.215209
495.001897	NaN
495.220856	-0.139906
495.439797	-0.089519
495.658719	-0.022315
495.877624	0.090227
496.096510	-0.032765
496.315378	0.160844
496.534227	0.107753
496.753059	0.244207
496.971872	0.345679
497.190667	0.051237
497.409444	0.048394
497.628203	0.046395
497.846943	0.046370
498.065665	0.047485
498.284369	0.046635
498.503055	0.046444
498.721723	0.045978
498.940372	0.045411
499.159003	0.045877
499.377616	0.045641
499.596210	0.046555
499.814787	0.045834
500.033345	0.044024
500.251885	0.044869
500.470406	0.045291
500.688910	0.045402
500.907395	0.046343
501.125862	0.047733
501.344311	0.047472
501.562742	0.046197
501.781154	0.046334
501.999548	0.047341
502.217924	0.046352
502.436282	0.046423
502.654621	0.046148
502.872942	0.045533
503.091245	0.044167
503.309530	0.044041
503.527797	0.043966
503.746045	0.043519
503.964275	0.043879
504.182487	0.043677
504.400681	0.044415
504.618856	0.044841
504.837013	0.045366
505.055152	0.045062
505.273273	0.045378
505.491376	0.045421
505.709460	0.044739
505.927526	0.044674
506.145574	0.044366
506.363604	0.043963
506.581615	0.042641
506.799608	0.042448
507.017583	0.043241
507.235540	0.043476
507.453478	0.044239
507.671399	0.044344
507.889301	0.043487
508.107185	0.043914
508.325050	0.043344
508.542898	0.044924
508.760727	0.045337
508.978538	0.045079
509.196330	0.044808
509.414105	0.043749
509.631861	0.044611
509.849599	0.045363
510.067319	0.045433
510.285021	0.046596
510.502704	0.046705
510.720369	0.046635
510.938016	0.046719
511.155645	0.047182
511.373255	0.047368
511.590848	0.047449
511.808422	0.047354
512.025977	0.047070
512.243515	0.046423
512.461034	0.045750
512.678536	0.045263
512.896018	0.045322
513.113483	0.044764
513.330930	0.045419
513.548358	0.046267
513.765768	0.046431
513.983160	0.046502
514.200533	0.045437
514.417889	0.045862
514.635226	0.045358
514.852545	0.044954
515.069845	0.045674
515.287128	0.045584
515.504392	0.044610
515.721638	0.044929
515.938866	0.045797
516.156075	0.047332
516.373267	0.047387
516.590440	0.048044
516.807594	0.048169
517.024731	0.047811
517.241850	0.048163
517.458950	0.048243
517.676032	0.048027
517.893095	0.048210
518.110141	0.048070
518.327168	0.048306
518.544177	0.048847
518.761168	0.049302
518.978141	0.048360
519.195095	0.047861
519.412031	0.047893
519.628949	0.047772
519.845849	0.047432
520.062731	0.047428
520.279594	0.047059
520.496439	0.046841
520.713266	0.046705
520.930074	0.046920
521.146865	0.046855
521.363637	0.046686
521.580391	0.046477
521.797127	0.046779
522.013844	0.046145
522.230543	0.046673
522.447224	0.046698
522.663887	0.046950
522.880532	0.047716
523.097158	0.047643
523.313766	0.047457
523.530356	0.047894
523.746928	0.047356
523.963481	0.048109
524.180017	0.047749
524.396534	0.047255
524.613032	0.047123
524.829513	0.046933
525.045975	0.047302
525.262420	0.047705
525.478845	0.047976
525.695253	0.047998
525.911643	0.047445
526.128014	0.047795
526.344367	0.048404
526.560702	0.048225
526.777018	0.048370
526.993316	0.047925
527.209597	0.048438
527.425858	0.047959
527.642102	0.048026
527.858328	0.047982
528.074535	0.047734
528.290724	0.047835
528.506894	0.048119
528.723047	0.048029
528.939181	0.048472
529.155297	0.048233
529.371395	0.048464
529.587475	0.048482
529.803536	0.048764
530.019579	0.048563
530.235604	0.048917
530.451611	0.048794
530.667600	0.048465
530.883570	0.048972
531.099522	0.048820
531.315456	0.049012
531.531372	0.049295
531.747269	0.049907
531.963148	0.050420
532.179009	0.050104
532.394852	0.050343
532.610676	0.050797
532.826482	0.050444
533.042271	0.050607
533.258040	0.050722
533.473792	0.051340
533.689525	0.050971
533.905240	0.050727
534.120937	0.050511
534.336616	0.051013
534.552277	0.051016
534.767919	0.050963
534.983543	0.051212
535.199149	0.050512
535.414736	0.050204
535.630306	0.050409
535.845857	0.050861
536.061390	0.051350
536.276904	0.050817
536.492401	0.051254
536.707879	0.051659
536.923339	0.051883
537.138781	0.052624
537.354204	0.052495
537.569610	0.053050
537.784997	0.052849
538.000366	0.052455
538.215716	0.052746
538.431049	0.052716
538.646363	0.052862
538.861659	0.052697
539.076937	0.052697
539.292196	0.053058
539.507438	0.052588
539.722661	0.052963
539.937866	0.053365
540.153052	0.053431
540.368221	0.053341
540.583371	0.053620
540.798503	0.053865
541.013617	0.053854
541.228712	0.053833
541.443789	0.054081
541.658848	0.053965
541.873889	0.053737
542.088912	0.053650
542.303916	0.054081
542.518902	0.053824
542.733870	0.053418
542.948820	0.053404
543.163752	0.053273
543.378665	0.053003
543.593560	0.053372
543.808437	0.053783
544.023295	0.053888
544.238136	0.053799
544.452958	0.054006
544.667762	0.054575
544.882548	0.054688
545.097315	0.054566
545.312064	0.054493
545.526795	0.054012
545.741508	0.053264
545.956203	0.053287
546.170879	0.052870
546.385537	0.052741
546.600177	0.052721
546.814799	0.052789
547.029402	0.053071
547.243988	0.053504
547.458555	0.053523
547.673103	0.054209
547.887634	0.054186
548.102146	0.054238
548.316640	0.054002
548.531116	0.053808
548.745574	0.054219
548.960013	0.054007
549.174435	0.053672
549.388838	0.053747
549.603222	0.053797
549.817589	0.053880
550.031937	0.054147
550.246267	0.054590
550.460579	0.054414
550.674873	0.054359
550.889148	0.054659
551.103405	0.054888
551.317644	0.054965
551.531865	0.054654
551.746068	0.054943
551.960252	0.054916
552.174418	0.054640
552.388566	0.054583
552.602696	0.054265
552.816807	0.054298
553.030900	0.054573
553.244975	0.054913
553.459032	0.055248
553.673070	0.055010
553.887091	0.055680
554.101093	0.055770
554.315077	0.056379
554.529042	0.056540
554.742990	0.056536
554.956919	0.056637
555.170830	0.056382
555.384722	0.056713
555.598597	0.056623
555.812453	0.056425
556.026291	0.056470
556.240111	0.056097
556.453913	0.056085
556.667696	0.055776
556.881461	0.055633
557.095208	0.055694
557.308937	0.055302
557.522647	0.055595
557.736339	0.055330
557.950013	0.055467
558.163669	0.055487
558.377307	0.055532
558.590926	0.055841
558.804527	0.055768
559.018110	0.055484
559.231675	0.055871
559.445221	0.055735
559.658749	0.055532
559.872259	0.055589
560.085751	0.056197
560.299225	0.056055
560.512680	0.055936
560.726117	0.055872
560.939536	0.055893
561.152937	0.055770
561.366319	0.056027
561.579683	0.056563
561.793029	0.056322
562.006357	0.055567
562.219667	0.055639
562.432958	0.055914
562.646231	0.055934
562.859486	0.056060
563.072723	0.056120
563.285941	0.056217
563.499141	0.055939
563.712323	0.055871
563.925487	0.056408
564.138632	0.056790
564.351760	0.057102
564.564869	0.057140
564.777960	0.057643
564.991032	0.057594
565.204087	0.057662
565.417123	0.057469
565.630141	0.057983
565.843140	0.058055
566.056122	0.057936
566.269085	0.057841
566.482030	0.057972
566.694957	0.057938
566.907866	0.058132
567.120756	0.058182
567.333628	0.058354
567.546482	0.058426
567.759318	0.058191
567.972135	0.058025
568.184935	0.057986
568.397716	0.057901
568.610478	0.058049
568.823223	0.057890
569.035949	0.057883
569.248657	0.058002
569.461347	0.057891
569.674019	0.058119
569.886672	0.058356
570.099308	0.058164
570.311925	0.058114
570.524523	0.057735
570.737104	0.057605
570.949666	0.057413
571.162210	0.057652
571.374736	0.057226
571.587244	0.057022
571.799733	0.057005
572.012205	0.057246
572.224658	0.057601
572.437092	0.057588
572.649509	0.057773
572.861907	0.057982
573.074287	0.057888
573.286649	0.058048
573.498993	0.058190
573.711318	0.057951
573.923625	0.058099
574.135914	0.057925
574.348185	0.058289
574.560438	0.058238
574.772672	0.057916
574.984888	0.058043
575.197086	0.058522
575.409266	0.058512
575.621427	0.058883
575.833570	0.058534
576.045695	0.058721
576.257802	0.058614
576.469890	0.058918
576.681961	0.059068
576.894013	0.058909
577.106046	0.058751
577.318062	0.058839
577.530059	0.058718
577.742039	0.058839
577.954000	0.058599
578.165942	0.058681
578.377867	0.058556
578.589773	0.058366
578.801661	0.058532
579.013531	0.058264
579.225382	0.058375
579.437216	0.058498
579.649031	0.058816
579.860828	0.058982
580.072606	0.059025
580.284367	0.059416
580.496109	0.059697
580.707833	0.059697
580.919539	0.060103
581.131227	0.060036
581.342896	0.060284
581.554547	0.059884
581.766180	0.060062
581.977795	0.059957
582.189391	0.059849
582.400969	0.059891
582.612529	0.059802
582.824071	0.059878
583.035595	0.060203
583.247100	0.060212
583.458587	0.060440
583.670056	0.060608
583.881506	0.060791
584.092939	0.060679
584.304353	0.060966
584.515749	0.061381
584.727127	0.061448
584.938486	0.060821
585.149828	0.060473
585.361151	0.060351
585.572456	0.060067
585.783742	0.060245
585.995011	0.060412
586.206261	0.060604
586.417493	0.060298
586.628706	0.060049
586.839902	0.060450
587.051079	0.060854
587.262238	0.060899
587.473379	0.061200
587.684502	0.060879
587.895606	0.060608
588.106692	0.060510
588.317760	0.060642
588.528810	0.060992
588.739841	0.060874
588.950855	0.060724
589.161850	0.060805
589.372827	0.060702
589.583785	0.061077
589.794726	0.061225
590.005648	0.061128
590.216552	0.061106
590.427437	0.061036
590.638305	0.061224
590.849154	0.061238
591.059985	0.061397
591.270798	0.061422
591.481592	0.061143
591.692369	0.061114
591.903127	0.060715
592.113867	0.060802
592.324588	0.060662
592.535292	0.060775
592.745977	0.060803
592.956644	0.061028
593.167293	0.060608
593.377923	0.060533
593.588536	0.060673
593.799130	0.060979
594.009706	0.061262
594.220263	0.061247
594.430803	0.061125
594.641324	0.061274
594.851827	0.061158
595.062312	0.061354
595.272778	0.061610
595.483227	0.061579
595.693657	0.061578
595.904069	0.061299
596.114462	0.061417
596.324838	0.061661
596.535195	0.061518
596.745534	0.061494
596.955855	0.061596
597.166157	0.061475
597.376441	0.061529
597.586707	0.061683
597.796955	0.061875
598.007185	0.061830
598.217396	0.061681
598.427589	0.061697
598.637764	0.061489
598.847921	0.061865
599.058060	0.062116
599.268180	0.062310
599.478282	0.062327
599.688366	0.062156
599.898431	0.062475
600.108479	0.062310
600.318508	0.062242
600.528519	0.062381
600.738511	0.062262
600.948486	0.062052
601.158442	0.061814
601.368380	0.061934
601.578300	0.061816
601.788202	0.061516
601.998085	0.061702
602.207950	0.061819
602.417797	0.061898
602.627626	0.061700
602.837436	0.061688
603.047228	0.061464
603.257002	0.061488
603.466758	0.061513
603.676496	0.061615
603.886215	0.061560
604.095916	0.061570
604.305599	0.061546
604.515264	0.061542
604.724910	0.061581
604.934538	0.061743
605.144148	0.061717
605.353740	0.061730
605.563314	0.061586
605.772869	0.061805
605.982406	0.061926
606.191925	0.062104
606.401425	0.062400
606.610908	0.062701
606.820372	0.062693
607.029818	0.062771
607.239246	0.062902
607.448655	0.062750
607.658047	0.062988
607.867420	0.062748
608.076775	0.062890
608.286111	0.062677
608.495430	0.062766
608.704730	0.063082
608.914012	0.062950
609.123275	0.063214
609.332521	0.063613
609.541748	0.063399
609.750957	0.063793
609.960148	0.063698
610.169321	0.064010
610.378475	0.063837
610.587611	0.063498
610.796729	0.063827
611.005829	0.063541
611.214910	0.063505
611.423974	0.063622
611.633019	0.063555
611.842045	0.063584
612.051054	0.063663
612.260044	0.063693
612.469017	0.063830
612.677970	0.063509
612.886906	0.063608
613.095824	0.063807
613.304723	0.063822
613.513604	0.063940
613.722467	0.063786
613.931311	0.063672
614.140138	0.063741
614.348946	0.063835
614.557736	0.064067
614.766507	0.064110
614.975261	0.064113
615.183996	0.063899
615.392713	0.063977
615.601412	0.064242
615.810092	0.064276
616.018754	0.064414
616.227399	0.064350
616.436024	0.064094
616.644632	0.064363
616.853222	0.064259
617.061793	0.064633
617.270346	0.064632
617.478880	0.064453
617.687397	0.064219
617.895895	0.064289
618.104375	0.064335
618.312837	0.064649
618.521281	0.064446
618.729706	0.064501
618.938113	0.064459
619.146502	0.064537
619.354873	0.064722
619.563226	0.065198
619.771560	0.065111
619.979876	0.065265
620.188174	0.065354
620.396453	0.065287
620.604715	0.065287
620.812958	0.065274
621.021183	0.065235
621.229390	0.065029
621.437578	0.064991
621.645748	0.064809
621.853900	0.064960
622.062034	0.064843
622.270150	0.065076
622.478247	0.065274
622.686326	0.065262
622.894387	0.065181
623.102430	0.065479
623.310454	0.065354
623.518461	0.065577
623.726449	0.065517
623.934418	0.065475
624.142370	0.065654
624.350303	0.065505
624.558218	0.065536
624.766115	0.065603
624.973994	0.065754
625.181855	0.065814
625.389697	0.065904
625.597521	0.065775
625.805327	0.065831
626.013114	0.065584
626.220883	0.065722
626.428634	0.065660
626.636367	0.065771
626.844082	0.065512
627.051778	0.065749
627.259457	0.065741
627.467117	0.065766
627.674758	0.065829
627.882382	0.065855
628.089987	0.065965
628.297574	0.066110
628.505143	0.066031
628.712694	0.066126
628.920226	0.066019
629.127740	0.065932
629.335236	0.066108
629.542714	0.066106
629.750174	0.066183
629.957615	0.066149
630.165038	0.066031
630.372443	0.065889
630.579829	0.065896
630.787198	0.065980
630.994548	0.066008
631.201880	0.065933
631.409194	0.065912
631.616489	0.065911
631.823766	0.065739
632.031025	0.065851
632.238266	0.066184
632.445489	0.066509
632.652693	0.066336
632.859879	0.066262
633.067047	0.066479
633.274197	0.066718
633.481329	0.066989
633.688442	0.067129
633.895537	0.067021
634.102614	0.066760
634.309672	0.066574
634.516713	0.066658
634.723735	0.066842
634.930739	0.066854
635.137724	0.066642
635.344692	0.066762
635.551641	0.066938
635.758572	0.067317
635.965485	0.067697
636.172379	0.067594
636.379256	0.067700
636.586114	0.067861
636.792954	0.067940
636.999775	0.068166
637.206579	0.068097
637.413364	0.067907
637.620131	0.067893
637.826880	0.067805
638.033610	0.067867
638.240323	0.067934
638.447017	0.067913
638.653692	0.067727
638.860350	0.067672
639.066990	0.067423
639.273611	0.067589
639.480214	0.067758
639.686798	0.067849
639.893365	0.067772
640.099913	0.067929
640.306443	0.067978
640.512955	0.068145
640.719449	0.068217
640.925924	0.068384
641.132381	0.068463
641.338820	0.068342
641.545241	0.068334
641.751644	0.068614
641.958028	0.068585
642.164394	0.068613
642.370742	0.068787
642.577071	0.068772
642.783383	0.068789
642.989676	0.069008
643.195951	0.069072
643.402207	0.069107
643.608446	0.069185
643.814666	0.069289
644.020868	0.069290
644.227052	0.069222
644.433218	0.069412
644.639365	0.069416
644.845494	0.069361
645.051605	0.069301
645.257698	0.069526
645.463772	0.069369
645.669828	0.069373
645.875866	0.069361
646.081886	0.069346
646.287888	0.069412
646.493871	0.069658
646.699836	0.069409
646.905783	0.069538
647.111712	0.069313
647.317622	0.069496
647.523514	0.069539
647.729388	0.069728
647.935244	0.069701
648.141082	0.069614
648.346901	0.069419
648.552702	0.069703
648.758485	0.069588
648.964250	0.069903
649.169996	0.070061
649.375724	0.069976
649.581434	0.069984
649.787126	0.070055
649.992800	0.070115
650.198455	0.070327
650.404092	0.070258
650.609711	0.070453
650.815311	0.070218
651.020894	0.070235
651.226458	0.070370
651.432004	0.070438
651.637532	0.070759
651.843041	0.070654
652.048532	0.070596
652.254006	0.070610
652.459460	0.070601
652.664897	0.070848
652.870315	0.070920
653.075716	0.070961
653.281097	0.070931
653.486461	0.070854
653.691807	0.071053
653.897134	0.071124
654.102443	0.071164
654.307734	0.071306
654.513006	0.071132
654.718261	0.071161
654.923497	0.071045
655.128715	0.071111
655.333915	0.071156
655.539096	0.071361
655.744259	0.071618
655.949404	0.071866
656.154531	0.071636
656.359640	0.071823
656.564730	0.071712
656.769802	0.071689
656.974856	0.071898
657.179892	0.071967
657.384909	0.071867
657.589908	0.071756
657.794889	0.071821
657.999852	0.071983
658.204797	0.072078
658.409723	0.072215
658.614631	0.072457
658.819521	0.072466
659.024393	0.072413
659.229246	0.072370
659.434081	0.072421
659.638898	0.072231
659.843697	0.072382
660.048478	0.072208
660.253240	0.072043
660.457984	0.072098
660.662710	0.072121
660.867417	0.072114
661.072107	0.072534
661.276778	0.072340
661.481431	0.072294
661.686066	0.072344
661.890682	0.072577
662.095281	0.072820
662.299861	0.072950
662.504422	0.072886
662.708966	0.073095
662.913491	0.072988
663.117999	0.073167
663.322488	0.073438
663.526958	0.073413
663.731411	0.073165
663.935845	0.073258
664.140261	0.073154
664.344659	0.073354
664.549038	0.073455
664.753400	0.073451
664.957743	0.073592
665.162068	0.073669
665.366375	0.073714
665.570663	0.074039
665.774933	0.074172
665.979185	0.074299
666.183419	0.074136
666.387635	0.074009
666.591832	0.073952
666.796011	0.074041
667.000172	0.074164
667.204315	0.074283
667.408439	0.074220
667.612545	0.074337
667.816634	0.074341
668.020703	0.074422
668.224755	0.074570
668.428788	0.074686
668.632803	0.074500
668.836800	0.074422
669.040779	0.074156
669.244739	0.074172
669.448681	0.073824
669.652605	0.073707
669.856511	0.073893
670.060399	0.073940
670.264268	0.073922
670.468119	0.074176
670.671952	0.074139
670.875767	0.074601
671.079563	0.074821
671.283341	0.074975
671.487101	0.075256
671.690843	0.075443
671.894567	0.075394
672.098272	0.075473
672.301959	0.075535
672.505628	0.075610
672.709278	0.075604
672.912911	0.075512
673.116525	0.075627
673.320121	0.075622
673.523699	0.075510
673.727258	0.075679
673.930799	0.075772
674.134322	0.075879
674.337827	0.076034
674.541314	0.075990
674.744782	0.076322
674.948232	0.076325
675.151664	0.076540
675.355078	0.076588
675.558474	0.076609
675.761851	0.076689
675.965210	0.076694
676.168551	0.076613
676.371873	0.076754
676.575178	0.076599
676.778464	0.076712
676.981732	0.076498
677.184981	0.076632
677.388213	0.076727
677.591426	0.076776
677.794621	0.076851
677.997798	0.077011
678.200956	0.076899
678.404097	0.076922
678.607219	0.076804
678.810323	0.076941
679.013408	0.076990
679.216476	0.076883
679.419525	0.076859
679.622556	0.076844
679.825569	0.076945
680.028563	0.077182
680.231540	0.077294
680.434498	0.077660
680.637438	0.077743
680.840359	0.077598
681.043263	0.077771
681.246148	0.077843
681.449015	0.077804
681.651864	0.077789
681.854694	0.077816
682.057506	0.077912
682.260301	0.077743
682.463076	0.077728
682.665834	0.077676
682.868573	0.077522
683.071295	0.077616
683.273998	0.077631
683.476682	0.077680
683.679349	0.077504
683.881997	0.077459
684.084627	0.077665
684.287239	0.077756
684.489833	0.077942
684.692408	0.077959
684.894965	0.078010
685.097504	0.078123
685.300025	0.078114
685.502527	0.078140
685.705012	0.078249
685.907478	0.078135
686.109925	0.078073
686.312355	0.078061
686.514766	0.078183
686.717159	0.078202
686.919534	0.078465
687.121891	0.078539
687.324230	0.078674
687.526550	0.078749
687.728852	0.078882
687.931136	0.078939
688.133401	0.079163
688.335649	0.079258
688.537878	0.079118
688.740089	0.079062
688.942281	0.079183
689.144456	0.079405
689.346612	0.079353
689.548750	0.079286
689.750870	0.079283
689.952971	0.079029
690.155055	0.078981
690.357120	0.079067
690.559167	0.079155
690.761195	0.079040
690.963206	0.078806
691.165198	0.078863
691.367172	0.078922
691.569128	0.079000
691.771065	0.079193
691.972984	0.079391
692.174885	0.079501
692.376768	0.079382
692.578633	0.079469
692.780479	0.079757
692.982308	0.079723
693.184118	0.079879
693.385909	0.079980
