sample name	sample
index	758
start time	 03-31-2021  12:14:17 PM
880	0.195612
Peak Time (s)	91.537
Peak Height 	0.1956
calc peak height	90,93
Baseline Time (s)	10.537
Baseline Value 	-0.004267
subtract baseline	10,4
Abs	0.162602
Peak Time (s)	91.537
Peak Height 	0.1626
calc peak height	90,93
Baseline Time (s)	8.536
Baseline Value 	0.002156
subtract baseline	10,3
PK_550	0.080093
Peak Time (s)	90.039
Peak Height 	0.08009
calc peak height	90,93
Baseline Time (s)	8.536
Baseline Value 	3.0155E-4
subtract baseline	10,2
PK_880	0.159357
Peak Time (s)	90.536
Peak Height 	0.1594
calc peak height	90,93
Baseline Time (s)	10.037
Baseline Value 	0.002227
subtract baseline	10,1


Time (s)	A880-A510	A880-A775	A880-A975	A880	I510	I775	I975	I880	
0.036500	-0.001430	-0.000304	0.001605	0.001764	6723.668114	40780.218397	3993.349750	22271.692748
0.540000	-0.000131	-0.000488	0.000338	0.003747	6717.786335	40592.205266	3985.638739	22183.756184
1.037500	-0.002283	-0.000046	0.005176	0.005816	6681.705417	40451.637997	3992.203830	22092.437654
1.537500	-0.001967	-0.000672	-0.002830	0.001757	6719.108258	40748.840541	3982.858388	22271.988591
2.035000	-0.002147	-0.000467	-0.000419	0.001588	6719.012306	40781.351590	3988.958776	22279.507457
2.535000	-0.001591	-0.000479	0.002019	0.001289	6726.374709	40806.354895	3995.469987	22292.818796
3.035500	-0.002858	-0.000196	0.001139	0.004208	6690.503185	40577.525211	3986.442209	22163.372169
3.536000	0.000586	-0.000107	-0.001148	0.000351	6753.280329	40920.502437	3990.162931	22334.583400
4.036000	0.001560	0.000676	-0.001333	0.001041	6755.749171	40928.662115	3988.088516	22303.846231
4.536000	-0.001669	-0.000534	0.004771	0.000087	6736.062867	40906.273264	4004.947510	22346.368656
5.039000	0.000837	0.000005	-0.008197	0.000139	6757.292196	40948.771030	3974.059088	22344.020474
5.540000	0.001373	0.000239	0.003837	0.000774	6756.431699	40913.749257	4001.050158	22315.714905
6.037000	0.000000	0.000156	-0.001661	0.000836	6744.011402	40901.163211	3987.799480	22312.989599
6.534500	-0.000774	-0.000341	-0.001545	0.000494	6740.270096	40887.617356	3988.882966	22328.191145
7.035500	-0.000953	-0.000760	0.000938	-0.000339	6745.923509	40923.758405	3996.774894	22365.370741
7.535000	-0.002154	-0.000143	0.001004	-0.000087	6733.374652	40955.558249	3996.329350	22354.110992
8.035500	0.000989	-0.000338	0.002511	-0.000258	6762.062978	40953.488318	4000.345495	22361.728308
8.535500	-0.000342	0.000000	0.000000	0.000178	6746.737514	40944.936298	3993.304288	22342.286807
9.036000	0.001510	-0.000076	0.003068	-0.000075	6764.995962	40960.388533	4001.240697	22353.558111
9.536500	-0.000452	0.000060	-0.001699	-0.000082	6748.035869	40972.837597	3989.883275	22353.870193
10.036500	0.000000	-0.000323	0.001372	-0.000371	6754.457238	40964.694783	3997.888952	22366.780203
10.537000	-0.001416	0.000112	0.001003	0.000000	6738.988835	40970.244732	3996.121459	22350.232938
11.037000	0.000989	-0.000198	-0.000970	0.000095	6758.999110	40934.919661	3991.195550	22346.010641
11.538000	0.000437	0.000221	-0.004084	0.000195	6753.338581	40962.780237	3983.584172	22341.526458
12.035500	0.000489	-0.000427	0.004711	0.000254	6753.275388	40900.950368	4004.398287	22338.881110
12.535500	-0.001444	0.001038	-0.000898	0.001040	6729.780187	40960.280134	3989.120757	22303.881005
13.035500	-0.000269	-0.000294	0.002838	-0.001537	6762.244702	41069.215743	4004.202877	22418.914680
13.536000	-0.000117	0.000064	0.000815	0.001183	6739.996570	40862.800051	3992.851015	22297.517269
14.036000	-0.001053	-0.000356	-0.003391	0.001149	6732.209452	40829.203051	3982.970708	22299.052013
14.539000	-0.003344	-0.000201	-0.004363	0.003144	6695.442746	40669.307157	3975.999234	22210.476386
15.036500	-0.000945	-0.000879	-0.001354	0.000734	6736.721185	40819.819670	3988.767118	22317.515323
15.560000	-0.002003	-0.000310	0.000013	0.001030	6725.050563	40843.555638	3991.309522	22304.331672
16.037500	-0.002697	-0.000078	0.004748	0.001290	6716.856813	40841.170086	4001.999687	22292.779752
16.535000	0.000510	-0.000193	0.001383	0.000631	6750.194178	40888.525675	3995.522128	22322.096720
17.038000	0.000572	0.000010	-0.000237	0.000841	6748.916327	40887.932501	3991.164737	22312.747601
17.535000	0.000587	0.000591	0.004188	-0.001526	6769.595395	41145.909104	4007.428393	22418.424306
18.036000	0.001600	-0.001085	-0.000938	0.000626	6759.691471	40811.311284	3990.010554	22322.328972
18.536000	-0.002131	-0.000250	-0.001791	0.001747	6717.789694	40786.422733	3985.334985	22272.459986
19.036500	-0.001303	-0.000420	-0.001307	0.001737	6724.994978	40772.473291	3986.502319	22272.901570
19.537000	-0.001351	-0.000533	-0.003109	0.001444	6727.102743	40788.167355	3982.940429	22285.925489
20.036500	-0.001918	-0.000649	-0.000977	0.001646	6720.489076	40760.443249	3987.499168	22276.933454
20.540000	-0.002684	-0.001243	-0.001681	0.001239	6717.399714	40744.270178	3986.795934	22295.045754
21.037000	-0.001308	-0.000368	-0.000857	0.002116	6721.683822	40743.989951	3986.670911	22256.036266
21.535000	-0.000730	-0.000429	0.000515	0.001275	6733.903866	40811.834658	3991.919751	22293.418724
22.035000	0.000587	-0.000604	0.000103	0.001893	6739.945877	40742.902498	3989.472762	22265.959742
22.535500	-0.003581	0.000194	0.004935	0.002039	6702.859745	40799.587012	4000.651659	22259.478509
23.036000	0.000627	-0.000519	0.001659	0.001458	6744.051374	40788.102682	3994.207684	22285.284952
23.536500	-0.001810	0.000334	-0.001776	0.002426	6714.716785	40778.105089	3983.767636	22242.291133
24.039500	0.000241	0.000050	-0.002338	0.002451	6732.141565	40751.245923	3982.381962	22241.182325
24.536500	-0.002351	-0.000148	0.001977	0.002228	6711.768385	40753.407719	3993.130584	22251.054972
25.037000	-0.002850	0.000032	-0.000647	0.003640	6695.415176	40646.473979	3983.566511	22188.490813
25.537500	-0.003044	-0.000585	-0.003763	0.001599	6711.219260	40770.072286	3981.033711	22279.001922
26.035000	-0.001751	-0.000916	-0.001264	0.001189	6725.852462	40777.054879	3987.901058	22297.265945
26.535000	0.001231	0.000101	0.002843	0.001690	6747.270087	40821.885261	3996.479695	22274.987508
27.035500	-0.003257	-0.000567	0.001411	0.001775	6707.893873	40756.392963	3992.862738	22271.201021
27.536000	-0.001580	0.000172	0.000021	0.001785	6722.191592	40819.806633	3989.534370	22270.734560
28.038500	0.000633	0.000152	0.006253	-0.001545	6770.158948	41109.087721	4012.473163	22419.282776
28.536500	-0.001324	0.001304	0.006467	0.001844	6723.887191	40913.331408	4004.800935	22268.123530
29.039000	-0.006066	-0.001229	-0.004297	0.005714	6650.536886	40358.631616	3970.153765	22096.967556
29.537000	-0.000906	-0.000228	-0.000887	0.001074	6734.125611	40846.905613	3989.068169	22302.388765
30.037500	-0.000856	-0.000672	-0.002222	0.000901	6736.046760	40823.236003	3986.314706	22310.062423
30.535000	-0.002417	-0.000508	-0.000178	0.000660	6724.678418	40858.550967	3991.735374	22320.820700
31.039500	-0.005156	-0.000237	0.000654	0.006306	6653.214676	40392.965163	3980.351736	22070.896919
31.535500	-0.000494	0.000521	0.003332	0.003096	6720.257992	40736.111818	3994.289880	22212.581760
32.035500	-0.000985	-0.000029	0.003054	0.002011	6725.365196	40782.598456	3996.216204	22260.703059
32.542500	-0.000035	-0.000011	0.002190	0.001236	6740.244551	40851.700374	3996.003735	22295.167850
33.058000	-0.000402	-0.000264	0.003228	0.000845	6740.446187	40863.721573	3999.421133	22312.553582
33.539500	0.001263	0.000640	0.002549	0.001163	6752.114586	40914.822464	3997.035975	22298.411926
34.037000	-0.001825	-0.001240	0.001798	0.000225	6733.521691	40832.657873	3997.481365	22340.192958
34.537500	-0.000852	0.000013	-0.000005	0.000396	6740.438282	40927.053522	3992.773330	22332.557831
35.034500	-0.000242	-0.000255	0.001450	0.001348	6737.485238	40820.677819	3993.971167	22290.160809
35.534500	-0.002155	-0.000442	-0.001700	0.002812	6708.442109	40677.165881	3983.035844	22225.172847
36.035500	-0.004146	-0.000761	0.000658	0.002175	6696.867883	40704.799514	3990.122358	22253.437837
36.535500	-0.000814	-0.000379	-0.000817	0.002265	6724.662015	40730.174434	3986.414185	22249.450771
37.036000	-0.001421	-0.000030	-0.002599	0.003531	6708.577686	40650.645170	3979.229329	22193.343932
37.536000	-0.002118	-0.000403	0.000934	0.002950	6707.577906	40668.643011	3988.936312	22219.053065
38.039000	-0.001864	-0.000983	0.003301	0.002108	6716.978408	40691.358835	3996.574285	22256.392057
38.537000	-0.001059	-0.000419	0.002213	0.002208	6723.040924	40731.606622	3993.740055	22251.969120
39.037000	-0.003378	-0.001106	-0.000446	0.001436	6709.759042	40739.020964	3989.255472	22286.278936
39.537500	-0.001210	0.000121	0.007238	0.002604	6718.337338	40744.187285	4004.827220	22234.399870
40.034500	-0.002636	-0.000194	0.002764	0.002555	6706.531583	40721.047440	3994.227067	22236.581194
40.535000	-0.001006	-0.000503	0.001172	0.002166	6723.862438	40728.035838	3991.364297	22253.844228
41.035500	-0.001286	0.000088	0.003023	0.002761	6716.337382	40727.674276	3994.353141	22227.447425
41.535500	-0.001496	-0.000508	-0.000013	0.002356	6718.011934	40711.014231	3988.100755	22245.396655
42.036000	-0.001140	0.000359	0.001788	0.002499	6719.838218	40773.961821	3992.037183	22239.059238
42.536000	-0.000855	0.000125	0.000798	0.002476	6722.492737	40755.591670	3989.739248	22240.085408
43.036500	-0.002117	-0.000209	-0.004299	0.002386	6712.428482	40734.450380	3977.925558	22244.081890
43.539500	-0.002082	0.000029	0.002086	0.002705	6709.991509	40727.337505	3992.255523	22229.913824
44.034000	-0.001558	-0.000601	0.004397	0.002677	6714.722171	40675.097067	3997.832835	22231.140091
44.537000	-0.002239	-0.000833	0.003522	0.002144	6713.458204	40701.235029	3997.016145	22254.816132
45.037500	-0.001207	0.000010	0.005234	0.003626	6709.587595	40645.833307	3997.565660	22189.106987
45.535500	-0.002200	-0.000985	-0.000033	0.000527	6727.685961	40828.635347	3992.396537	22326.738223
46.038500	-0.002303	-0.000975	0.002485	0.000303	6728.725069	40848.950403	3998.938252	22336.714826
46.536000	-0.000622	0.000318	0.006205	0.000934	6737.785641	40906.732331	4006.361879	22308.603124
47.036000	-0.002370	-0.000755	0.000750	0.003168	6703.557096	40619.270115	3987.984304	22209.414029
47.539000	-0.001099	-0.000420	0.001574	0.001903	6725.313317	40757.998096	3992.943660	22265.502936
48.036500	-0.003121	0.000004	0.002192	0.000865	6716.859975	40885.374261	3996.894874	22311.694058
48.536500	-0.001848	-0.000816	0.002629	0.000592	6730.157964	40837.702099	3998.593770	22323.843652
49.037000	-0.002565	0.000121	-0.000955	0.002876	6704.386021	40720.502075	3984.643748	22222.350742
49.534500	-0.001327	-0.000804	0.002613	0.001985	6722.653462	40717.623379	3995.226189	22261.882346
50.035000	-0.000386	-0.000651	0.001758	0.001040	6738.904792	40813.006963	3995.440156	22303.871680
50.535500	0.000038	0.000683	0.002935	0.001321	6740.138521	40904.819726	3997.580309	22291.385663
51.036000	-0.002954	-0.000537	-0.001622	0.004722	6685.309813	40503.694743	3978.724518	22140.676334
51.536000	-0.000697	-0.000400	-0.000105	-0.000540	6749.883547	40972.789586	3994.765014	22374.355223
52.036500	-0.001370	0.000044	0.000366	-0.000877	6746.973093	41041.079774	3996.694799	22389.410187
52.537000	0.000514	-0.000391	0.003898	-0.002720	6779.368881	41164.591343	4009.613767	22471.971584
53.037000	-0.040919	-0.000840	0.005118	0.312874	4654.206218	21438.105634	3468.494373	12400.692255
53.537000	-0.048796	-0.006978	-0.003440	0.108116	5610.022308	32125.017040	3759.369623	18079.808725
54.037500	-0.040818	-0.012525	0.004534	-0.081917	7124.792757	47535.856498	4221.600032	26372.721966
54.537500	-0.013848	-0.048120	0.018838	-0.252676	9510.351500	63792.893893	4892.343192	37644.522161
55.035000	0.001616	-0.014119	0.036148	-0.171250	8591.245248	57504.834054	4627.015189	31716.922888
55.535500	0.020949	-0.000171	0.044589	-0.137824	8412.315701	55114.554907	4533.766203	29587.517715
56.036000	0.035183	0.009400	0.051920	-0.129515	8486.840396	55266.327946	4530.226552	29083.192828
56.536000	0.053488	0.023744	0.067133	-0.087572	8195.527323	52048.678469	4436.446073	26679.435749
57.038500	0.080356	0.035853	0.078162	-0.070233	8311.046902	51461.620211	4415.136373	25751.554477
57.536500	0.094983	0.044273	0.089550	-0.054865	8301.975362	50692.509498	4401.853987	24959.585662
58.036500	0.108323	0.053185	0.096847	-0.025564	8110.218047	48505.698243	4330.580666	23525.124447
58.537500	0.115916	0.057942	0.110623	0.003126	7867.323923	46066.251373	4284.284646	22211.272197
59.037500	0.118959	0.062702	0.114531	0.042260	7478.214428	42789.621425	4181.046026	20553.488432
59.535000	0.127493	0.067244	0.120730	0.051480	7471.118633	42363.384043	4172.574975	20184.147594
60.035500	0.131111	0.070692	0.127007	0.075603	7264.364716	40533.819288	4123.725809	19254.215031
60.536000	0.133657	0.073007	0.132346	0.109390	6967.515673	37910.547324	4049.884762	18035.531516
61.036000	0.132923	0.075379	0.137251	0.121972	6847.349921	37099.634815	4030.774258	17605.415986
61.536000	0.137114	0.078043	0.139640	0.139199	6733.217879	35975.398052	3994.779439	17036.333429
62.036500	0.137155	0.079051	0.144938	0.153622	6611.213292	34972.644254	3973.246597	16576.946719
62.536500	0.138353	0.079961	0.142901	0.156804	6594.702519	34805.837361	3961.134404	16477.635102
63.039500	0.139123	0.080415	0.142594	0.159199	6581.231008	34664.007899	3954.919286	16403.355205
63.537500	0.145394	0.085397	0.147623	0.176769	6488.937699	33759.675335	3926.576350	15870.830089
64.046000	0.147004	0.084719	0.147495	0.183727	6446.092024	33223.695190	3910.919462	15665.824322
64.535000	0.149675	0.086513	0.143210	0.190396	6414.400949	32886.377026	3887.212814	15472.394394
65.035000	0.149530	0.085512	0.145413	0.189393	6421.179739	32886.600453	3894.091040	15501.313371
65.536000	0.146949	0.085760	0.148098	0.191234	6386.394113	32777.159927	3895.908280	15448.303722
66.038500	0.148470	0.086325	0.155475	0.190380	6405.032167	32874.567353	3913.832514	15472.864315
66.539000	0.152415	0.087127	0.154074	0.191122	6430.327664	32878.724920	3909.133792	15451.524847
67.036500	0.151354	0.087119	0.150180	0.191062	6422.397904	32882.295210	3900.782497	15453.243834
67.539500	0.151753	0.086889	0.152090	0.190701	6428.418275	32891.342333	3905.719768	15463.633381
68.037500	0.151105	0.086554	0.156306	0.190138	6427.742021	32906.946894	3916.193623	15479.816882
68.537000	0.151364	0.086084	0.153720	0.189705	6433.230460	32904.453365	3911.461093	15492.316073
69.038000	0.149525	0.086272	0.149797	0.188887	6425.135379	32973.807934	3904.676028	15515.905663
69.535000	0.150518	0.086104	0.154512	0.189953	6424.566639	32888.784789	3912.655178	15485.167562
70.036000	0.151227	0.085145	0.150315	0.187421	6450.306318	32997.172396	3909.004568	15558.311316
70.535500	0.153554	0.086524	0.151852	0.187690	6466.754787	33073.947862	3911.784248	15550.541790
71.035500	0.153889	0.085706	0.152156	0.186155	6481.765420	33123.656099	3915.826075	15595.074446
71.536500	0.154370	0.086027	0.154823	0.185433	6491.463459	33196.064889	3923.320468	15616.081134
72.036500	0.153993	0.084900	0.154404	0.184342	6497.223003	33193.550668	3924.814107	15647.877979
72.537000	0.155672	0.085694	0.150620	0.183640	6516.515274	33297.637482	3917.984940	15668.369326
73.037000	0.154171	0.085515	0.157303	0.184281	6499.149735	33240.540630	3931.416379	15649.641218
73.537500	0.154489	0.085567	0.155588	0.182832	6513.467464	33345.179016	3930.821558	15692.014533
74.035000	0.156412	0.085984	0.157308	0.182929	6528.324289	33367.570156	3934.460221	15689.181781
74.535000	0.154832	0.084365	0.153884	0.181615	6526.161533	33346.266542	3929.733717	15727.722793
75.035500	0.156324	0.084687	0.157463	0.181525	6539.071171	33375.015223	3937.965995	15730.348022
75.536000	0.156738	0.083976	0.158287	0.181769	6540.458462	33308.315207	3939.275860	15723.181403
76.036000	0.155948	0.083784	0.157242	0.183562	6519.394700	33170.158374	3932.891238	15670.648502
76.536000	0.154893	0.084530	0.156247	0.182368	6520.522200	33305.178204	3933.336472	15705.607127
77.037000	0.155669	0.083242	0.155456	0.181578	6533.282971	33270.520887	3933.335801	15728.798988
77.537000	0.157372	0.084574	0.157267	0.183841	6528.712985	33205.659703	3932.320757	15662.491870
78.034500	0.158080	0.084535	0.158045	0.182004	6549.531039	33330.985072	3938.199655	15716.287883
78.534500	0.157860	0.085316	0.156732	0.181797	6549.422785	33400.051706	3935.710062	15722.364620
79.057000	0.158985	0.084663	0.156070	0.181754	6559.007926	33357.316048	3934.317709	15723.617542
79.535500	0.155487	0.084435	0.156179	0.183534	6515.881660	33217.383939	3930.575573	15671.484655
80.035500	0.159656	0.083894	0.154531	0.181735	6564.693357	33305.039555	3930.912171	15724.197376
80.539000	0.157217	0.083336	0.156427	0.181555	6546.132874	33278.645994	3935.567463	15729.475384
81.036500	0.156687	0.082194	0.162139	0.181501	6542.232521	33202.875290	3948.618221	15731.053442
81.536500	0.158159	0.081850	0.160100	0.181644	6553.130692	33169.042759	3943.657814	15726.852774
82.037000	0.158540	0.083675	0.160381	0.183692	6539.470293	33153.568112	3939.661362	15666.858946
82.540000	0.156640	0.082128	0.163330	0.183291	6527.230386	33074.136865	3947.254855	15678.581306
83.037500	0.158403	0.083454	0.157099	0.184679	6530.285854	33069.788390	3930.068507	15638.024258
83.535000	0.157709	0.082001	0.154414	0.184273	6527.943894	32997.437443	3924.987743	15649.872746
84.035500	0.158513	0.082650	0.158700	0.185312	6526.024721	32970.523712	3932.236685	15619.579178
84.535500	0.158616	0.081716	0.154228	0.184746	6531.477388	32945.146632	3923.524538	15636.072269
85.036000	0.157472	0.081426	0.157175	0.185645	6514.858609	32863.377075	3928.084861	15609.908286
85.536000	0.158180	0.081466	0.153583	0.186485	6513.781307	32808.419789	3918.246555	15585.483055
86.036500	0.158794	0.081377	0.158347	0.186666	6517.296768	32789.840877	3928.418826	15580.220902
86.537000	0.157469	0.080240	0.153989	0.186999	6503.849812	32689.185796	3918.007025	15570.551965
87.037000	0.157419	0.080609	0.156593	0.187774	6497.180561	32661.538851	3922.055170	15548.108119
87.537500	0.158146	0.080561	0.158151	0.188176	6499.796986	32630.732874	3924.619144	15536.449740
88.035000	0.156867	0.079127	0.157625	0.188237	6488.984045	32528.972835	3923.315442	15534.704701
88.535000	0.159051	0.079517	0.163965	0.189236	6498.543098	32487.586545	3935.245445	15505.825012
89.035500	0.159188	0.079651	0.161189	0.190705	6487.798044	32397.134962	3925.753790	15463.521153
89.535500	0.156709	0.079062	0.158383	0.192102	6456.693694	32263.018471	3916.441485	15423.386046
90.039000	0.157902	0.080093	0.161964	0.191881	6468.014060	32347.482188	3924.859724	15429.736425
90.536000	0.159357	0.079964	0.155382	0.192335	6476.036214	32308.131258	3909.340185	15416.707785
91.036500	0.157610	0.079003	0.159515	0.192911	6457.436945	32204.674406	3917.156906	15400.236743
91.536500	0.157690	0.078736	0.162602	0.195612	6436.555402	32005.773398	3918.005889	15323.158295
92.037000	0.158698	0.078362	0.156361	0.193937	6457.933550	32092.774041	3907.979161	15370.908824
92.537500	0.158210	0.078583	0.162366	0.194918	6446.211592	32041.932208	3919.017112	15342.917835
93.035000	0.158629	0.079005	0.163418	0.196107	6440.077731	31990.638706	3918.714098	15309.091931
93.535000	0.157046	0.077173	0.158653	0.197563	6416.013048	31772.096658	3905.068898	15267.822544
94.035500	0.158887	0.076853	0.155924	0.196422	6439.629892	31826.533902	3901.615351	15300.153534
94.536000	0.158836	0.077468	0.160110	0.197431	6431.216374	31800.402989	3908.535510	15271.551007
95.036000	0.159669	0.076276	0.158431	0.198104	6432.478760	31676.988705	3903.406357	15252.492221
95.599500	0.154710	0.074955	0.155404	0.204488	6343.676258	31172.850483	3883.167595	15073.311067
96.071500	0.159993	0.076363	0.161079	0.199600	6423.206375	31584.154463	3905.917657	15210.284589
96.534500	0.159939	0.077296	0.162079	0.201494	6407.828933	31520.989983	3903.969024	15157.024670
97.034000	0.160585	0.075157	0.164527	0.201067	6416.288697	31408.810619	3910.244700	15169.013788
97.538000	0.159959	0.076415	0.159084	0.202527	6399.858707	31395.616420	3895.248391	15128.088401
