sample name	sample
index	711
start time	 03-25-2021  11:11:19 AM


Wavelength (nm)	Absorbance
494.344910	0.121195
494.563924	0.121195
494.782919	0.121195
495.001897	-0.003219
495.220856	-0.016439
495.439797	-0.030438
495.658719	-0.030248
495.877624	-0.038358
496.096510	-0.039156
496.315378	-0.020779
496.534227	-0.010874
496.753059	-0.004124
496.971872	-0.011461
497.190667	0.053205
497.409444	0.069206
497.628203	0.071596
497.846943	0.074328
498.065665	0.075510
498.284369	0.077111
498.503055	0.077740
498.721723	0.078017
498.940372	0.079415
499.159003	0.079394
499.377616	0.080473
499.596210	0.080831
499.814787	0.080842
500.033345	0.081862
500.251885	0.082448
500.470406	0.084038
500.688910	0.084416
500.907395	0.083768
501.125862	0.084271
501.344311	0.083461
501.562742	0.083363
501.781154	0.083466
501.999548	0.084058
502.217924	0.084143
502.436282	0.083761
502.654621	0.084377
502.872942	0.085569
503.091245	0.085524
503.309530	0.084599
503.527797	0.085490
503.746045	0.084950
503.964275	0.082980
504.182487	0.082985
504.400681	0.082354
504.618856	0.081359
504.837013	0.080067
505.055152	0.080329
505.273273	0.081467
505.491376	0.081119
505.709460	0.081769
505.927526	0.082755
506.145574	0.082408
506.363604	0.082451
506.581615	0.083229
506.799608	0.084677
507.017583	0.084853
507.235540	0.085151
507.453478	0.084752
507.671399	0.085618
507.889301	0.086469
508.107185	0.086405
508.325050	0.087527
508.542898	0.087701
508.760727	0.086925
508.978538	0.086751
509.196330	0.087073
509.414105	0.087225
509.631861	0.086413
509.849599	0.084993
510.067319	0.085062
510.285021	0.084367
510.502704	0.084706
510.720369	0.084227
510.938016	0.084169
511.155645	0.083792
511.373255	0.084031
511.590848	0.084537
511.808422	0.086189
512.025977	0.086782
512.243515	0.087348
512.461034	0.086641
512.678536	0.087381
512.896018	0.087681
513.113483	0.087058
513.330930	0.086707
513.548358	0.086452
513.765768	0.086084
513.983160	0.085989
514.200533	0.085739
514.417889	0.085949
514.635226	0.086257
514.852545	0.086270
515.069845	0.087675
515.287128	0.087841
515.504392	0.087853
515.721638	0.088221
515.938866	0.088069
516.156075	0.088050
516.373267	0.088240
516.590440	0.088159
516.807594	0.087698
517.024731	0.087578
517.241850	0.088523
517.458950	0.088944
517.676032	0.087970
517.893095	0.087765
518.110141	0.087973
518.327168	0.088127
518.544177	0.087934
518.761168	0.088409
518.978141	0.088113
519.195095	0.087664
519.412031	0.087091
519.628949	0.087940
519.845849	0.088454
520.062731	0.088077
520.279594	0.088470
520.496439	0.089138
520.713266	0.089810
520.930074	0.089787
521.146865	0.089915
521.363637	0.090498
521.580391	0.090600
521.797127	0.090668
522.013844	0.091063
522.230543	0.091105
522.447224	0.091002
522.663887	0.091152
522.880532	0.091597
523.097158	0.092112
523.313766	0.092154
523.530356	0.092750
523.746928	0.093123
523.963481	0.093472
524.180017	0.093652
524.396534	0.094103
524.613032	0.093912
524.829513	0.093699
525.045975	0.094118
525.262420	0.094293
525.478845	0.094030
525.695253	0.093546
525.911643	0.093389
526.128014	0.093628
526.344367	0.093369
526.560702	0.093167
526.777018	0.093875
526.993316	0.094185
527.209597	0.095111
527.425858	0.095430
527.642102	0.095727
527.858328	0.096173
528.074535	0.096450
528.290724	0.097015
528.506894	0.097606
528.723047	0.097720
528.939181	0.097392
529.155297	0.096909
529.371395	0.096820
529.587475	0.097601
529.803536	0.098029
530.019579	0.098553
530.235604	0.098839
530.451611	0.098887
530.667600	0.098911
530.883570	0.099192
531.099522	0.099432
531.315456	0.099459
531.531372	0.099916
531.747269	0.099674
531.963148	0.099215
532.179009	0.099391
532.394852	0.099477
532.610676	0.099710
532.826482	0.099484
533.042271	0.099227
533.258040	0.100043
533.473792	0.100030
533.689525	0.099898
533.905240	0.099801
534.120937	0.099578
534.336616	0.100490
534.552277	0.100227
534.767919	0.100730
534.983543	0.101216
535.199149	0.101337
535.414736	0.101205
535.630306	0.102074
535.845857	0.102240
536.061390	0.102536
536.276904	0.101908
536.492401	0.102407
536.707879	0.102420
536.923339	0.102501
537.138781	0.102345
537.354204	0.102394
537.569610	0.101955
537.784997	0.102824
538.000366	0.103025
538.215716	0.103427
538.431049	0.103422
538.646363	0.103517
538.861659	0.103620
539.076937	0.103545
539.292196	0.103885
539.507438	0.104221
539.722661	0.104055
539.937866	0.104198
540.153052	0.104505
540.368221	0.105389
540.583371	0.105800
540.798503	0.106306
541.013617	0.106867
541.228712	0.106684
541.443789	0.106992
541.658848	0.106873
541.873889	0.107218
542.088912	0.106966
542.303916	0.106137
542.518902	0.105902
542.733870	0.105775
542.948820	0.105726
543.163752	0.106164
543.378665	0.106510
543.593560	0.107189
543.808437	0.106657
544.023295	0.106986
544.238136	0.107853
544.452958	0.108277
544.667762	0.109157
544.882548	0.109142
545.097315	0.109063
545.312064	0.108985
545.526795	0.108613
545.741508	0.109085
545.956203	0.109512
546.170879	0.109281
546.385537	0.109639
546.600177	0.109441
546.814799	0.109588
547.029402	0.109796
547.243988	0.109916
547.458555	0.110219
547.673103	0.110562
547.887634	0.110569
548.102146	0.110922
548.316640	0.110559
548.531116	0.110498
548.745574	0.110967
548.960013	0.111592
549.174435	0.111571
549.388838	0.111741
549.603222	0.111677
549.817589	0.111767
550.031937	0.111635
550.246267	0.112081
550.460579	0.112166
550.674873	0.112387
550.889148	0.112575
551.103405	0.112726
551.317644	0.113023
551.531865	0.113184
551.746068	0.113302
551.960252	0.113354
552.174418	0.113430
552.388566	0.113562
552.602696	0.113393
552.816807	0.113490
553.030900	0.113851
553.244975	0.113794
553.459032	0.113736
553.673070	0.113723
553.887091	0.113751
554.101093	0.113735
554.315077	0.114040
554.529042	0.114065
554.742990	0.113802
554.956919	0.113773
555.170830	0.113858
555.384722	0.114108
555.598597	0.114139
555.812453	0.114676
556.026291	0.115004
556.240111	0.114861
556.453913	0.115110
556.667696	0.115228
556.881461	0.115350
557.095208	0.115730
557.308937	0.115991
557.522647	0.116600
557.736339	0.116777
557.950013	0.117128
558.163669	0.117451
558.377307	0.117971
558.590926	0.118368
558.804527	0.118552
559.018110	0.118357
559.231675	0.118556
559.445221	0.118572
559.658749	0.118557
559.872259	0.118241
560.085751	0.118435
560.299225	0.118141
560.512680	0.117925
560.726117	0.118142
560.939536	0.118586
561.152937	0.118327
561.366319	0.118293
561.579683	0.118152
561.793029	0.118549
562.006357	0.118383
562.219667	0.118454
562.432958	0.118555
562.646231	0.118728
562.859486	0.118752
563.072723	0.119072
563.285941	0.119351
563.499141	0.119690
563.712323	0.119774
563.925487	0.119947
564.138632	0.120040
564.351760	0.120290
564.564869	0.120264
564.777960	0.120235
564.991032	0.120390
565.204087	0.120396
565.417123	0.120274
565.630141	0.120396
565.843140	0.120563
566.056122	0.120548
566.269085	0.120609
566.482030	0.120436
566.694957	0.120546
566.907866	0.120696
567.120756	0.120858
567.333628	0.121188
567.546482	0.121269
567.759318	0.121585
567.972135	0.121775
568.184935	0.121977
568.397716	0.122458
568.610478	0.122785
568.823223	0.122792
569.035949	0.122762
569.248657	0.123144
569.461347	0.122900
569.674019	0.122739
569.886672	0.123181
570.099308	0.123377
570.311925	0.123416
570.524523	0.123452
570.737104	0.123771
570.949666	0.123911
571.162210	0.123843
571.374736	0.124172
571.587244	0.124492
571.799733	0.124833
572.012205	0.124858
572.224658	0.124903
572.437092	0.124651
572.649509	0.124526
572.861907	0.124507
573.074287	0.124244
573.286649	0.124821
573.498993	0.124697
573.711318	0.124191
573.923625	0.124360
574.135914	0.124446
574.348185	0.124824
574.560438	0.124690
574.772672	0.124739
574.984888	0.124981
575.197086	0.124640
575.409266	0.124910
575.621427	0.125537
575.833570	0.125725
576.045695	0.125966
576.257802	0.126151
576.469890	0.126692
576.681961	0.127021
576.894013	0.127060
577.106046	0.126924
577.318062	0.126909
577.530059	0.126602
577.742039	0.126115
577.954000	0.126180
578.165942	0.125959
578.377867	0.125991
578.589773	0.126207
578.801661	0.126512
579.013531	0.126993
579.225382	0.126779
579.437216	0.126987
579.649031	0.127448
579.860828	0.127504
580.072606	0.127914
580.284367	0.128025
580.496109	0.128054
580.707833	0.127849
580.919539	0.128050
581.131227	0.128429
581.342896	0.128427
581.554547	0.128426
581.766180	0.128963
581.977795	0.128985
582.189391	0.129248
582.400969	0.129413
582.612529	0.130065
582.824071	0.130267
583.035595	0.130474
583.247100	0.130366
583.458587	0.130603
583.670056	0.130181
583.881506	0.130340
584.092939	0.130270
584.304353	0.130116
584.515749	0.130004
584.727127	0.130016
584.938486	0.129870
585.149828	0.129963
585.361151	0.129919
585.572456	0.130181
585.783742	0.130315
585.995011	0.130391
586.206261	0.130618
586.417493	0.130721
586.628706	0.130310
586.839902	0.130614
587.051079	0.131195
587.262238	0.131418
587.473379	0.131580
587.684502	0.131356
587.895606	0.131625
588.106692	0.131983
588.317760	0.131990
588.528810	0.132410
588.739841	0.132344
588.950855	0.131847
589.161850	0.131893
589.372827	0.131994
589.583785	0.132297
589.794726	0.132222
590.005648	0.131881
590.216552	0.132129
590.427437	0.132151
590.638305	0.132380
590.849154	0.132768
591.059985	0.133153
591.270798	0.133021
591.481592	0.133375
591.692369	0.133697
591.903127	0.133956
592.113867	0.133962
592.324588	0.133957
592.535292	0.134112
592.745977	0.134470
592.956644	0.134304
593.167293	0.134374
593.377923	0.133993
593.588536	0.133985
593.799130	0.134071
594.009706	0.134273
594.220263	0.134669
594.430803	0.135010
594.641324	0.135008
594.851827	0.134966
595.062312	0.135076
595.272778	0.135214
595.483227	0.135040
595.693657	0.135299
595.904069	0.135234
596.114462	0.135243
596.324838	0.134970
596.535195	0.134989
596.745534	0.135530
596.955855	0.135778
597.166157	0.136243
597.376441	0.136355
597.586707	0.136307
597.796955	0.136626
598.007185	0.136983
598.217396	0.137026
598.427589	0.137286
598.637764	0.136812
598.847921	0.136649
599.058060	0.136755
599.268180	0.136945
599.478282	0.137024
599.688366	0.136901
599.898431	0.136670
600.108479	0.136663
600.318508	0.136360
600.528519	0.136517
600.738511	0.136808
600.948486	0.136496
601.158442	0.136517
601.368380	0.136643
601.578300	0.136889
601.788202	0.137033
601.998085	0.137128
602.207950	0.137472
602.417797	0.137894
602.627626	0.137956
602.837436	0.138159
603.047228	0.138386
603.257002	0.138662
603.466758	0.138872
603.676496	0.139114
603.886215	0.139613
604.095916	0.139931
604.305599	0.139842
604.515264	0.140102
604.724910	0.140190
604.934538	0.140164
605.144148	0.140040
605.353740	0.140061
605.563314	0.139976
605.772869	0.139771
605.982406	0.139652
606.191925	0.140000
606.401425	0.140013
606.610908	0.140354
606.820372	0.140318
607.029818	0.140381
607.239246	0.140537
607.448655	0.140668
607.658047	0.140734
607.867420	0.140768
608.076775	0.140666
608.286111	0.140644
608.495430	0.140570
608.704730	0.140674
608.914012	0.140777
609.123275	0.140629
609.332521	0.140504
609.541748	0.140789
609.750957	0.140949
609.960148	0.141307
610.169321	0.141403
610.378475	0.141361
610.587611	0.141618
610.796729	0.141607
611.005829	0.141597
611.214910	0.141712
611.423974	0.141738
611.633019	0.141699
611.842045	0.141624
612.051054	0.141739
612.260044	0.141781
612.469017	0.141858
612.677970	0.142169
612.886906	0.142334
613.095824	0.142519
613.304723	0.142624
613.513604	0.142615
613.722467	0.142579
613.931311	0.142502
614.140138	0.142624
614.348946	0.142511
614.557736	0.142471
614.766507	0.142620
614.975261	0.142610
615.183996	0.142405
615.392713	0.142689
615.601412	0.142581
615.810092	0.142735
616.018754	0.142850
616.227399	0.143357
616.436024	0.143558
616.644632	0.143581
616.853222	0.143708
617.061793	0.143973
617.270346	0.144080
617.478880	0.144328
617.687397	0.144597
617.895895	0.144791
618.104375	0.144420
618.312837	0.144255
618.521281	0.144326
618.729706	0.144475
618.938113	0.144717
619.146502	0.144621
619.354873	0.144608
619.563226	0.144400
619.771560	0.144339
619.979876	0.144540
620.188174	0.144728
620.396453	0.144880
620.604715	0.144904
620.812958	0.144876
621.021183	0.145081
621.229390	0.145297
621.437578	0.145737
621.645748	0.145942
621.853900	0.146050
622.062034	0.146216
622.270150	0.146451
622.478247	0.146533
622.686326	0.146461
622.894387	0.146381
623.102430	0.146629
623.310454	0.146574
623.518461	0.146637
623.726449	0.146866
623.934418	0.146800
624.142370	0.146686
624.350303	0.146843
624.558218	0.147061
624.766115	0.147012
624.973994	0.146711
625.181855	0.146436
625.389697	0.146609
625.597521	0.146474
625.805327	0.146666
626.013114	0.146792
626.220883	0.146837
626.428634	0.146881
626.636367	0.146950
626.844082	0.147180
627.051778	0.147444
627.259457	0.147101
627.467117	0.147156
627.674758	0.147161
627.882382	0.147311
628.089987	0.147511
628.297574	0.147675
628.505143	0.148111
628.712694	0.148211
628.920226	0.148293
629.127740	0.148861
629.335236	0.148930
629.542714	0.149050
629.750174	0.149014
629.957615	0.149066
630.165038	0.149195
630.372443	0.148979
630.579829	0.149042
630.787198	0.149048
630.994548	0.148746
631.201880	0.148734
631.409194	0.148762
631.616489	0.148709
631.823766	0.148470
632.031025	0.148284
632.238266	0.148479
632.445489	0.148414
632.652693	0.148625
632.859879	0.148886
633.067047	0.149093
633.274197	0.149241
633.481329	0.149465
633.688442	0.149697
633.895537	0.150030
634.102614	0.149967
634.309672	0.150116
634.516713	0.150373
634.723735	0.150284
634.930739	0.150411
635.137724	0.150371
635.344692	0.150399
635.551641	0.150375
635.758572	0.150517
635.965485	0.151076
636.172379	0.151354
636.379256	0.151350
636.586114	0.151770
636.792954	0.151864
636.999775	0.152137
637.206579	0.152397
637.413364	0.152747
637.620131	0.152841
637.826880	0.152844
638.033610	0.152788
638.240323	0.152798
638.447017	0.152604
638.653692	0.152809
638.860350	0.152822
639.066990	0.152869
639.273611	0.153114
639.480214	0.153130
639.686798	0.153181
639.893365	0.153396
640.099913	0.153358
640.306443	0.153604
640.512955	0.153501
640.719449	0.153631
640.925924	0.153765
641.132381	0.153562
641.338820	0.153595
641.545241	0.153511
641.751644	0.153185
641.958028	0.153245
642.164394	0.153193
642.370742	0.153324
642.577071	0.153324
642.783383	0.153254
642.989676	0.153504
643.195951	0.153641
643.402207	0.153637
643.608446	0.154058
643.814666	0.154438
644.020868	0.154749
644.227052	0.154872
644.433218	0.155007
644.639365	0.155157
644.845494	0.154932
645.051605	0.155089
645.257698	0.155239
645.463772	0.155228
645.669828	0.155278
645.875866	0.155188
646.081886	0.155162
646.287888	0.155253
646.493871	0.155346
646.699836	0.155618
646.905783	0.155625
647.111712	0.155837
647.317622	0.156029
647.523514	0.156186
647.729388	0.156385
647.935244	0.156528
648.141082	0.156809
648.346901	0.156979
648.552702	0.157188
648.758485	0.157172
648.964250	0.157247
649.169996	0.157355
649.375724	0.157504
649.581434	0.157382
649.787126	0.157652
649.992800	0.157495
650.198455	0.157720
650.404092	0.157767
650.609711	0.158036
650.815311	0.157952
651.020894	0.157965
651.226458	0.157942
651.432004	0.158173
651.637532	0.157987
651.843041	0.157889
652.048532	0.157651
652.254006	0.157572
652.459460	0.157527
652.664897	0.157748
652.870315	0.157826
653.075716	0.157718
653.281097	0.157816
653.486461	0.157981
653.691807	0.158137
653.897134	0.158083
654.102443	0.158500
654.307734	0.158619
654.513006	0.158773
654.718261	0.159144
654.923497	0.159457
655.128715	0.159577
655.333915	0.159838
655.539096	0.160104
655.744259	0.160479
655.949404	0.160482
656.154531	0.160640
656.359640	0.160748
656.564730	0.160370
656.769802	0.160501
656.974856	0.160617
657.179892	0.160743
657.384909	0.160525
657.589908	0.160301
657.794889	0.160207
657.999852	0.160267
658.204797	0.160447
658.409723	0.160966
658.614631	0.161073
658.819521	0.161262
659.024393	0.161275
659.229246	0.161749
659.434081	0.161997
659.638898	0.162127
659.843697	0.162050
660.048478	0.161867
660.253240	0.161823
660.457984	0.161864
660.662710	0.161800
660.867417	0.162136
661.072107	0.162318
661.276778	0.162596
661.481431	0.162736
661.686066	0.163032
661.890682	0.163202
662.095281	0.163268
662.299861	0.163412
662.504422	0.163730
662.708966	0.163697
662.913491	0.163547
663.117999	0.163505
663.322488	0.163464
663.526958	0.163521
663.731411	0.163655
663.935845	0.163693
664.140261	0.163772
664.344659	0.163593
664.549038	0.163598
664.753400	0.163627
664.957743	0.163871
665.162068	0.164100
665.366375	0.164284
665.570663	0.164430
665.774933	0.164678
665.979185	0.164798
666.183419	0.165007
666.387635	0.165180
666.591832	0.165624
666.796011	0.165553
667.000172	0.165747
667.204315	0.165916
667.408439	0.165896
667.612545	0.165849
667.816634	0.165936
668.020703	0.166199
668.224755	0.166319
668.428788	0.166399
668.632803	0.166676
668.836800	0.166860
669.040779	0.166907
669.244739	0.167085
669.448681	0.167403
669.652605	0.167538
669.856511	0.167489
670.060399	0.167573
670.264268	0.167551
670.468119	0.167417
670.671952	0.167176
670.875767	0.167164
671.079563	0.167390
671.283341	0.167303
671.487101	0.167214
671.690843	0.167330
671.894567	0.167530
672.098272	0.167594
672.301959	0.167740
672.505628	0.167824
672.709278	0.168107
672.912911	0.168005
673.116525	0.168290
673.320121	0.168422
673.523699	0.168541
673.727258	0.168547
673.930799	0.168654
674.134322	0.169042
674.337827	0.169489
674.541314	0.169520
674.744782	0.169791
674.948232	0.169654
675.151664	0.169875
675.355078	0.170147
675.558474	0.170300
675.761851	0.170509
675.965210	0.170497
676.168551	0.170768
676.371873	0.170879
676.575178	0.171034
676.778464	0.171302
676.981732	0.171422
677.184981	0.171486
677.388213	0.171680
677.591426	0.171955
677.794621	0.171942
677.997798	0.171751
678.200956	0.171971
678.404097	0.172187
678.607219	0.172335
678.810323	0.172501
679.013408	0.172604
679.216476	0.172756
679.419525	0.172803
679.622556	0.173277
679.825569	0.173573
680.028563	0.173594
680.231540	0.173585
680.434498	0.173708
680.637438	0.173777
680.840359	0.173735
681.043263	0.173689
681.246148	0.173697
681.449015	0.173763
681.651864	0.173792
681.854694	0.174078
682.057506	0.174208
682.260301	0.174181
682.463076	0.174230
682.665834	0.174347
682.868573	0.174463
683.071295	0.174550
683.273998	0.174623
683.476682	0.174739
683.679349	0.174473
683.881997	0.174528
684.084627	0.174853
684.287239	0.175015
684.489833	0.175221
684.692408	0.175490
684.894965	0.175537
685.097504	0.175619
685.300025	0.175675
685.502527	0.175858
685.705012	0.176023
685.907478	0.176022
686.109925	0.176183
686.312355	0.176217
686.514766	0.175984
686.717159	0.176208
686.919534	0.176237
687.121891	0.176146
687.324230	0.176095
687.526550	0.175930
687.728852	0.175947
687.931136	0.175934
688.133401	0.176070
688.335649	0.176472
688.537878	0.176535
688.740089	0.176521
688.942281	0.176805
689.144456	0.177067
689.346612	0.177334
689.548750	0.177463
689.750870	0.177810
689.952971	0.177779
690.155055	0.178044
690.357120	0.178321
690.559167	0.178586
690.761195	0.178804
690.963206	0.179043
691.165198	0.178861
691.367172	0.178958
691.569128	0.178746
691.771065	0.178974
691.972984	0.178681
692.174885	0.178564
692.376768	0.178614
692.578633	0.178530
692.780479	0.178646
692.982308	0.178847
693.184118	0.179107
693.385909	0.179212
