sample name	sample
index	417
start time	 03-08-2021  11:24:56 AM


Wavelength (nm)	Absorbance
494.344910	NaN
494.563924	NaN
494.782919	NaN
495.001897	-0.259347
495.220856	0.244096
495.439797	0.120654
495.658719	-0.083779
495.877624	-0.166270
496.096510	-0.182945
496.315378	-0.216992
496.534227	-0.218952
496.753059	-0.205147
496.971872	-0.169655
497.190667	0.019372
497.409444	0.041144
497.628203	0.049818
497.846943	0.049929
498.065665	0.051835
498.284369	0.054298
498.503055	0.055202
498.721723	0.055317
498.940372	0.055374
499.159003	0.056011
499.377616	0.056256
499.596210	0.056967
499.814787	0.058364
500.033345	0.058921
500.251885	0.058668
500.470406	0.059467
500.688910	0.059916
500.907395	0.061376
501.125862	0.062151
501.344311	0.062182
501.562742	0.061696
501.781154	0.062395
501.999548	0.063186
502.217924	0.063073
502.436282	0.062107
502.654621	0.062419
502.872942	0.061845
503.091245	0.061642
503.309530	0.061559
503.527797	0.061793
503.746045	0.060536
503.964275	0.059907
504.182487	0.059821
504.400681	0.059800
504.618856	0.059460
504.837013	0.059305
505.055152	0.059013
505.273273	0.058909
505.491376	0.059131
505.709460	0.059850
505.927526	0.060092
506.145574	0.060079
506.363604	0.060665
506.581615	0.061315
506.799608	0.061548
507.017583	0.061810
507.235540	0.061520
507.453478	0.061608
507.671399	0.061249
507.889301	0.060875
508.107185	0.060560
508.325050	0.060825
508.542898	0.060644
508.760727	0.060496
508.978538	0.060229
509.196330	0.061281
509.414105	0.061185
509.631861	0.061978
509.849599	0.061915
510.067319	0.062664
510.285021	0.062763
510.502704	0.062647
510.720369	0.062659
510.938016	0.063200
511.155645	0.062658
511.373255	0.062577
511.590848	0.062442
511.808422	0.063122
512.025977	0.063211
512.243515	0.063861
512.461034	0.063573
512.678536	0.063329
512.896018	0.063061
513.113483	0.063362
513.330930	0.063173
513.548358	0.063850
513.765768	0.063720
513.983160	0.063409
514.200533	0.062455
514.417889	0.062927
514.635226	0.063683
514.852545	0.063386
515.069845	0.062986
515.287128	0.063356
515.504392	0.062331
515.721638	0.062481
515.938866	0.063165
516.156075	0.063139
516.373267	0.063439
516.590440	0.063539
516.807594	0.063989
517.024731	0.064505
517.241850	0.065282
517.458950	0.065716
517.676032	0.065237
517.893095	0.064835
518.110141	0.065086
518.327168	0.065128
518.544177	0.065339
518.761168	0.065820
518.978141	0.066068
519.195095	0.065095
519.412031	0.065597
519.628949	0.065993
519.845849	0.066217
520.062731	0.066779
520.279594	0.066935
520.496439	0.066191
520.713266	0.065750
520.930074	0.065976
521.146865	0.066623
521.363637	0.065959
521.580391	0.065897
521.797127	0.066118
522.013844	0.065895
522.230543	0.066080
522.447224	0.066793
522.663887	0.067266
522.880532	0.067618
523.097158	0.067578
523.313766	0.068430
523.530356	0.068823
523.746928	0.069161
523.963481	0.069586
524.180017	0.068991
524.396534	0.069476
524.613032	0.069509
524.829513	0.069177
525.045975	0.069447
525.262420	0.068887
525.478845	0.068766
525.695253	0.069058
525.911643	0.069136
526.128014	0.069563
526.344367	0.069180
526.560702	0.069766
526.777018	0.069829
526.993316	0.069872
527.209597	0.070514
527.425858	0.070452
527.642102	0.069966
527.858328	0.070092
528.074535	0.070502
528.290724	0.070796
528.506894	0.070266
528.723047	0.070566
528.939181	0.070918
529.155297	0.071045
529.371395	0.071668
529.587475	0.072290
529.803536	0.072145
530.019579	0.072110
530.235604	0.072301
530.451611	0.073094
530.667600	0.072992
530.883570	0.072828
531.099522	0.072701
531.315456	0.072661
531.531372	0.072636
531.747269	0.073180
531.963148	0.074098
532.179009	0.074175
532.394852	0.074450
532.610676	0.074859
532.826482	0.074957
533.042271	0.074630
533.258040	0.075015
533.473792	0.075069
533.689525	0.075090
533.905240	0.074744
534.120937	0.074782
534.336616	0.074563
534.552277	0.074874
534.767919	0.075106
534.983543	0.075838
535.199149	0.075611
535.414736	0.075695
535.630306	0.075478
535.845857	0.075319
536.061390	0.075799
536.276904	0.075938
536.492401	0.075744
536.707879	0.075575
536.923339	0.075699
537.138781	0.076421
537.354204	0.076712
537.569610	0.076768
537.784997	0.077137
538.000366	0.076896
538.215716	0.076886
538.431049	0.076923
538.646363	0.077202
538.861659	0.077593
539.076937	0.077256
539.292196	0.077741
539.507438	0.078402
539.722661	0.078669
539.937866	0.078919
540.153052	0.079057
540.368221	0.079429
540.583371	0.079581
540.798503	0.079707
541.013617	0.080047
541.228712	0.079395
541.443789	0.079416
541.658848	0.079485
541.873889	0.079428
542.088912	0.079874
542.303916	0.079864
542.518902	0.080175
542.733870	0.079955
542.948820	0.080310
543.163752	0.080698
543.378665	0.081016
543.593560	0.081137
543.808437	0.081555
544.023295	0.081429
544.238136	0.081924
544.452958	0.081799
544.667762	0.082076
544.882548	0.082129
545.097315	0.082638
545.312064	0.082386
545.526795	0.082310
545.741508	0.082283
545.956203	0.082578
546.170879	0.082253
546.385537	0.082704
546.600177	0.082924
546.814799	0.083037
547.029402	0.082735
547.243988	0.083037
547.458555	0.083196
547.673103	0.083308
547.887634	0.083209
548.102146	0.083467
548.316640	0.083542
548.531116	0.083594
548.745574	0.083363
548.960013	0.084078
549.174435	0.084267
549.388838	0.084390
549.603222	0.084390
549.817589	0.084867
550.031937	0.085198
550.246267	0.085161
550.460579	0.085387
550.674873	0.085907
550.889148	0.085683
551.103405	0.085600
551.317644	0.085687
551.531865	0.085989
551.746068	0.085892
551.960252	0.086026
552.174418	0.086217
552.388566	0.085743
552.602696	0.085589
552.816807	0.085431
553.030900	0.085539
553.244975	0.085695
553.459032	0.085467
553.673070	0.085478
553.887091	0.085213
554.101093	0.085074
554.315077	0.085405
554.529042	0.085588
554.742990	0.085884
554.956919	0.085777
555.170830	0.085863
555.384722	0.086307
555.598597	0.086287
555.812453	0.086727
556.026291	0.087317
556.240111	0.087751
556.453913	0.087836
556.667696	0.088086
556.881461	0.088879
557.095208	0.088950
557.308937	0.089358
557.522647	0.089728
557.736339	0.089436
557.950013	0.089299
558.163669	0.089236
558.377307	0.089148
558.590926	0.089226
558.804527	0.088912
559.018110	0.089255
559.231675	0.089136
559.445221	0.089169
559.658749	0.089529
559.872259	0.089726
560.085751	0.089928
560.299225	0.089893
560.512680	0.090222
560.726117	0.090242
560.939536	0.090113
561.152937	0.090088
561.366319	0.089971
561.579683	0.090232
561.793029	0.090225
562.006357	0.090078
562.219667	0.090329
562.432958	0.090021
562.646231	0.090293
562.859486	0.090529
563.072723	0.090430
563.285941	0.090889
563.499141	0.090667
563.712323	0.090862
563.925487	0.090553
564.138632	0.090703
564.351760	0.090820
564.564869	0.090471
564.777960	0.090601
564.991032	0.090543
565.204087	0.090364
565.417123	0.090768
565.630141	0.090907
565.843140	0.091782
566.056122	0.092078
566.269085	0.092560
566.482030	0.092764
566.694957	0.092908
566.907866	0.093404
567.120756	0.093700
567.333628	0.093793
567.546482	0.093840
567.759318	0.093748
567.972135	0.094025
568.184935	0.093653
568.397716	0.093824
568.610478	0.093572
568.823223	0.093706
569.035949	0.093938
569.248657	0.093669
569.461347	0.093840
569.674019	0.093865
569.886672	0.093366
570.099308	0.093378
570.311925	0.093501
570.524523	0.093713
570.737104	0.093631
570.949666	0.093376
571.162210	0.093862
571.374736	0.093886
571.587244	0.094120
571.799733	0.094479
572.012205	0.094518
572.224658	0.094931
572.437092	0.095024
572.649509	0.095356
572.861907	0.095722
573.074287	0.095951
573.286649	0.095950
573.498993	0.095877
573.711318	0.095948
573.923625	0.096298
574.135914	0.096409
574.348185	0.096583
574.560438	0.096642
574.772672	0.096482
574.984888	0.096065
575.197086	0.095817
575.409266	0.096103
575.621427	0.096503
575.833570	0.096828
576.045695	0.096925
576.257802	0.096969
576.469890	0.096869
576.681961	0.097024
576.894013	0.097328
577.106046	0.097602
577.318062	0.097478
577.530059	0.097423
577.742039	0.097419
577.954000	0.097205
578.165942	0.097241
578.377867	0.097362
578.589773	0.097433
578.801661	0.097533
579.013531	0.097698
579.225382	0.097975
579.437216	0.097858
579.649031	0.097506
579.860828	0.097621
580.072606	0.097985
580.284367	0.098160
580.496109	0.098425
580.707833	0.098196
580.919539	0.098661
581.131227	0.098706
581.342896	0.099149
581.554547	0.099859
581.766180	0.100225
581.977795	0.100278
582.189391	0.100596
582.400969	0.101142
582.612529	0.101488
582.824071	0.101436
583.035595	0.101517
583.247100	0.101419
583.458587	0.101442
583.670056	0.101520
583.881506	0.101742
584.092939	0.101671
584.304353	0.101388
584.515749	0.101712
584.727127	0.101939
584.938486	0.102211
585.149828	0.102268
585.361151	0.102309
585.572456	0.102403
585.783742	0.102381
585.995011	0.102678
586.206261	0.102238
586.417493	0.102025
586.628706	0.102186
586.839902	0.102125
587.051079	0.102168
587.262238	0.102441
587.473379	0.102182
587.684502	0.102415
587.895606	0.102304
588.106692	0.102710
588.317760	0.103234
588.528810	0.103019
588.739841	0.102993
588.950855	0.103129
589.161850	0.103033
589.372827	0.103416
589.583785	0.103423
589.794726	0.103580
590.005648	0.103856
590.216552	0.103725
590.427437	0.103908
590.638305	0.103946
590.849154	0.104480
591.059985	0.104145
591.270798	0.104293
591.481592	0.104072
591.692369	0.103922
591.903127	0.103989
592.113867	0.103769
592.324588	0.103749
592.535292	0.104220
592.745977	0.103905
592.956644	0.104346
593.167293	0.104388
593.377923	0.104597
593.588536	0.105028
593.799130	0.105152
594.009706	0.105892
594.220263	0.106456
594.430803	0.106362
594.641324	0.106266
594.851827	0.106522
595.062312	0.106654
595.272778	0.107015
595.483227	0.106755
595.693657	0.106984
595.904069	0.107118
596.114462	0.106800
596.324838	0.106674
596.535195	0.106902
596.745534	0.106915
596.955855	0.106860
597.166157	0.106726
597.376441	0.106943
597.586707	0.106813
597.796955	0.106741
598.007185	0.106979
598.217396	0.107560
598.427589	0.107655
598.637764	0.107628
598.847921	0.107904
599.058060	0.107937
599.268180	0.107797
599.478282	0.107917
599.688366	0.107674
599.898431	0.107484
600.108479	0.106952
600.318508	0.107002
600.528519	0.107038
600.738511	0.107029
600.948486	0.107057
601.158442	0.107565
601.368380	0.107508
601.578300	0.107665
601.788202	0.107961
601.998085	0.108396
602.207950	0.108523
602.417797	0.108793
602.627626	0.109284
602.837436	0.109620
603.047228	0.109669
603.257002	0.109877
603.466758	0.110281
603.676496	0.110282
603.886215	0.110580
604.095916	0.110752
604.305599	0.110877
604.515264	0.110972
604.724910	0.111232
604.934538	0.111262
605.144148	0.111385
605.353740	0.111176
605.563314	0.111255
605.772869	0.111445
605.982406	0.111382
606.191925	0.111236
606.401425	0.110963
606.610908	0.110733
606.820372	0.110902
607.029818	0.110774
607.239246	0.110859
607.448655	0.111035
607.658047	0.110882
607.867420	0.111177
608.076775	0.111598
608.286111	0.111712
608.495430	0.111774
608.704730	0.111737
608.914012	0.112000
609.123275	0.111808
609.332521	0.111880
609.541748	0.112016
609.750957	0.112273
609.960148	0.112077
610.169321	0.112161
610.378475	0.112273
610.587611	0.112498
610.796729	0.112793
611.005829	0.113153
611.214910	0.113226
611.423974	0.113060
611.633019	0.112954
611.842045	0.113119
612.051054	0.113137
612.260044	0.113215
612.469017	0.113107
612.677970	0.113182
612.886906	0.113397
613.095824	0.113563
613.304723	0.113741
613.513604	0.113785
613.722467	0.114025
613.931311	0.114066
614.140138	0.114071
614.348946	0.114298
614.557736	0.114183
614.766507	0.114087
614.975261	0.114040
615.183996	0.113988
615.392713	0.114228
615.601412	0.114246
615.810092	0.114170
616.018754	0.114515
616.227399	0.114457
616.436024	0.114607
616.644632	0.114773
616.853222	0.114984
617.061793	0.115454
617.270346	0.115347
617.478880	0.115396
617.687397	0.115895
617.895895	0.115927
618.104375	0.115896
618.312837	0.116049
618.521281	0.116064
618.729706	0.116082
618.938113	0.116008
619.146502	0.115989
619.354873	0.116018
619.563226	0.116010
619.771560	0.115808
619.979876	0.116060
620.188174	0.115974
620.396453	0.116069
620.604715	0.116201
620.812958	0.115964
621.021183	0.116230
621.229390	0.116156
621.437578	0.116176
621.645748	0.116526
621.853900	0.116544
622.062034	0.116456
622.270150	0.116507
622.478247	0.116521
622.686326	0.116952
622.894387	0.116852
623.102430	0.117115
623.310454	0.116975
623.518461	0.116995
623.726449	0.117207
623.934418	0.117353
624.142370	0.117430
624.350303	0.117585
624.558218	0.117572
624.766115	0.117869
624.973994	0.118083
625.181855	0.118269
625.389697	0.118489
625.597521	0.118703
625.805327	0.118850
626.013114	0.119120
626.220883	0.119089
626.428634	0.119188
626.636367	0.119100
626.844082	0.119163
627.051778	0.119114
627.259457	0.119069
627.467117	0.118985
627.674758	0.119208
627.882382	0.119180
628.089987	0.119293
628.297574	0.119463
628.505143	0.119651
628.712694	0.119588
628.920226	0.119990
629.127740	0.119990
629.335236	0.120005
629.542714	0.120031
629.750174	0.120159
629.957615	0.120061
630.165038	0.120033
630.372443	0.119884
630.579829	0.119915
630.787198	0.119802
630.994548	0.119878
631.201880	0.120039
631.409194	0.119994
631.616489	0.119840
631.823766	0.119910
632.031025	0.120046
632.238266	0.120257
632.445489	0.120475
632.652693	0.120620
632.859879	0.120533
633.067047	0.120490
633.274197	0.120576
633.481329	0.120898
633.688442	0.121182
633.895537	0.121059
634.102614	0.121177
634.309672	0.121195
634.516713	0.121212
634.723735	0.121450
634.930739	0.121775
635.137724	0.121900
635.344692	0.121958
635.551641	0.122030
635.758572	0.122458
635.965485	0.122639
636.172379	0.122939
636.379256	0.122991
636.586114	0.123245
636.792954	0.123117
636.999775	0.123171
637.206579	0.123359
637.413364	0.123561
637.620131	0.123382
637.826880	0.123495
638.033610	0.123525
638.240323	0.123680
638.447017	0.123663
638.653692	0.123831
638.860350	0.124083
639.066990	0.124144
639.273611	0.123976
639.480214	0.124283
639.686798	0.124347
639.893365	0.124278
640.099913	0.124315
640.306443	0.124444
640.512955	0.124608
640.719449	0.124654
640.925924	0.124844
641.132381	0.125385
641.338820	0.125527
641.545241	0.125646
641.751644	0.125769
641.958028	0.125979
642.164394	0.126129
642.370742	0.126050
642.577071	0.126119
642.783383	0.125959
642.989676	0.125750
643.195951	0.125742
643.402207	0.125873
643.608446	0.126080
643.814666	0.126165
644.020868	0.126189
644.227052	0.126267
644.433218	0.126203
644.639365	0.126394
644.845494	0.126324
645.051605	0.126436
645.257698	0.126354
645.463772	0.126333
645.669828	0.126324
645.875866	0.126558
646.081886	0.126754
646.287888	0.127099
646.493871	0.127027
646.699836	0.127164
646.905783	0.127034
647.111712	0.127122
647.317622	0.126959
647.523514	0.127123
647.729388	0.127119
647.935244	0.127222
648.141082	0.127225
648.346901	0.127386
648.552702	0.127715
648.758485	0.128028
648.964250	0.128225
649.169996	0.128473
649.375724	0.128733
649.581434	0.128862
649.787126	0.128992
649.992800	0.129033
650.198455	0.129211
650.404092	0.129107
650.609711	0.129228
650.815311	0.129203
651.020894	0.129302
651.226458	0.129078
651.432004	0.128938
651.637532	0.128820
651.843041	0.128906
652.048532	0.128961
652.254006	0.129112
652.459460	0.128915
652.664897	0.129120
652.870315	0.129494
653.075716	0.129830
653.281097	0.130136
653.486461	0.130293
653.691807	0.130450
653.897134	0.130641
654.102443	0.130659
654.307734	0.130941
654.513006	0.130898
654.718261	0.130713
654.923497	0.130739
655.128715	0.130612
655.333915	0.130798
655.539096	0.130952
655.744259	0.130913
655.949404	0.131005
656.154531	0.131098
656.359640	0.131356
656.564730	0.131439
656.769802	0.131670
656.974856	0.131812
657.179892	0.131913
657.384909	0.131722
657.589908	0.131752
657.794889	0.132049
657.999852	0.132072
658.204797	0.132031
658.409723	0.132319
658.614631	0.132220
658.819521	0.132242
659.024393	0.132321
659.229246	0.132582
659.434081	0.132846
659.638898	0.132889
659.843697	0.132791
660.048478	0.133001
660.253240	0.132864
660.457984	0.133132
660.662710	0.133306
660.867417	0.133133
661.072107	0.133317
661.276778	0.133233
661.481431	0.133214
661.686066	0.133482
661.890682	0.133394
662.095281	0.133477
662.299861	0.133410
662.504422	0.133681
662.708966	0.134077
662.913491	0.134176
663.117999	0.134350
663.322488	0.134598
663.526958	0.134726
663.731411	0.135055
663.935845	0.135177
664.140261	0.135331
664.344659	0.135148
664.549038	0.135166
664.753400	0.135140
664.957743	0.135319
665.162068	0.135205
665.366375	0.135260
665.570663	0.135391
665.774933	0.135718
665.979185	0.135903
666.183419	0.136089
666.387635	0.136360
666.591832	0.136766
666.796011	0.136938
667.000172	0.137431
667.204315	0.137553
667.408439	0.137544
667.612545	0.137467
667.816634	0.137595
668.020703	0.138046
668.224755	0.138227
668.428788	0.138179
668.632803	0.138351
668.836800	0.138501
669.040779	0.138675
669.244739	0.138753
669.448681	0.139006
669.652605	0.139086
669.856511	0.138950
670.060399	0.139055
670.264268	0.139194
670.468119	0.139169
670.671952	0.139137
670.875767	0.139106
671.079563	0.139259
671.283341	0.139116
671.487101	0.139126
671.690843	0.139135
671.894567	0.138907
672.098272	0.138720
672.301959	0.138668
672.505628	0.138535
672.709278	0.139069
672.912911	0.139215
673.116525	0.139502
673.320121	0.139499
673.523699	0.139741
673.727258	0.139977
673.930799	0.140263
674.134322	0.140613
674.337827	0.140704
674.541314	0.140518
674.744782	0.140531
674.948232	0.140625
675.151664	0.140902
675.355078	0.141044
675.558474	0.141141
675.761851	0.141263
675.965210	0.141311
676.168551	0.141508
676.371873	0.141668
676.575178	0.141800
676.778464	0.141877
676.981732	0.141970
677.184981	0.141992
677.388213	0.142274
677.591426	0.142400
677.794621	0.142429
677.997798	0.142516
678.200956	0.142533
678.404097	0.142687
678.607219	0.142742
678.810323	0.142714
679.013408	0.142989
679.216476	0.143087
679.419525	0.143204
679.622556	0.143216
679.825569	0.143582
680.028563	0.143680
680.231540	0.143668
680.434498	0.143700
680.637438	0.143934
680.840359	0.143839
681.043263	0.143588
681.246148	0.143807
681.449015	0.143904
681.651864	0.143694
681.854694	0.143759
682.057506	0.143855
682.260301	0.143978
682.463076	0.144054
682.665834	0.144411
682.868573	0.144774
683.071295	0.144849
683.273998	0.145183
683.476682	0.145394
683.679349	0.145848
683.881997	0.146189
684.084627	0.146416
684.287239	0.146585
684.489833	0.146523
684.692408	0.146725
684.894965	0.146546
685.097504	0.146445
685.300025	0.146655
685.502527	0.146635
685.705012	0.146648
685.907478	0.146775
686.109925	0.146676
686.312355	0.146700
686.514766	0.146702
686.717159	0.146862
686.919534	0.147033
687.121891	0.146951
687.324230	0.147002
687.526550	0.146982
687.728852	0.146752
687.931136	0.146805
688.133401	0.146902
688.335649	0.146888
688.537878	0.147034
688.740089	0.147163
688.942281	0.147335
689.144456	0.147300
689.346612	0.147444
689.548750	0.147943
689.750870	0.148210
689.952971	0.148237
690.155055	0.148384
690.357120	0.148592
690.559167	0.148463
690.761195	0.148321
690.963206	0.148453
691.165198	0.148395
691.367172	0.148270
691.569128	0.148276
691.771065	0.148294
691.972984	0.148445
692.174885	0.148613
692.376768	0.148806
692.578633	0.149049
692.780479	0.149044
692.982308	0.149283
693.184118	0.149430
693.385909	0.149469
