sample name	sample
index	1413
start time	 05-10-2021  11:44:49 AM
880	0.356244
Peak Time (s)	92.038
Peak Height 	0.3562
calc peak height	90,93
Baseline Time (s)	9.036
Baseline Value 	-0.003521
subtract baseline	10,4
Abs	0.252354
Peak Time (s)	90.537
Peak Height 	0.2524
calc peak height	90,93
Baseline Time (s)	8.536
Baseline Value 	0.003148
subtract baseline	10,3
PK_550	0.142336
Peak Time (s)	90.036
Peak Height 	0.1423
calc peak height	90,93
Baseline Time (s)	11.034
Baseline Value 	7.803E-4
subtract baseline	10,2
PK_880	0.241129
Peak Time (s)	90.537
Peak Height 	0.2411
calc peak height	90,93
Baseline Time (s)	9.537
Baseline Value 	7.9048E-4
subtract baseline	10,1


Time (s)	A880-A510	A880-A775	A880-A975	A880	I510	I775	I975	I880	
0.036500	0.000363	-0.000254	-0.003510	0.003066	6505.370506	44251.694984	3924.345962	22605.344275
0.537000	-0.001843	-0.000603	-0.001287	0.008146	6444.571083	43738.561549	3917.075382	22375.724223
1.037000	-0.000073	-0.000171	-0.000932	0.004770	6487.412905	44097.871974	3926.582426	22528.034537
1.534500	0.001455	0.000599	-0.003434	0.002492	6519.420442	44387.744881	3926.009105	22631.474264
2.035000	-0.000398	-0.000037	-0.005609	0.002020	6507.775808	44372.070482	3921.659598	22652.960076
2.535500	-0.001333	-0.000885	-0.005455	0.003639	6486.325277	44137.362467	3917.934142	22579.302455
3.035500	0.001813	-0.000328	-0.003073	-0.001258	6554.291642	44657.967391	3936.571456	22802.940699
3.536000	-0.000569	-0.000505	-0.008395	0.000620	6518.139824	44460.996347	3918.134596	22716.868955
4.036000	0.001177	0.000389	-0.003090	0.001357	6526.671527	44476.045344	3929.798182	22683.214989
4.536500	-0.001216	-0.000598	-0.001817	0.001468	6505.533208	44371.181169	3932.783497	22678.132809
5.037000	-0.000956	-0.000538	0.000838	0.001200	6509.981599	44402.542802	3940.331770	22690.389430
5.534500	-0.000699	0.000095	-0.004515	0.000883	6514.821108	44493.323593	3927.358630	22704.854875
6.037000	0.002145	-0.000453	-0.001250	0.000294	6543.902280	44497.171967	3937.272590	22731.787801
6.537500	0.000073	0.000288	-0.004590	0.000476	6524.786595	44550.831941	3928.211985	22723.487505
7.035000	-0.000374	-0.000650	-0.000066	0.000065	6524.475025	44500.227983	3940.929294	22742.269878
7.535500	0.001664	-0.000698	-0.002324	0.000067	6541.747133	44495.530360	3935.087061	22742.191249
8.038500	0.001158	0.000691	0.002545	0.000813	6531.112112	44557.078428	3945.768360	22708.052921
8.536000	0.000335	0.000562	0.000000	0.001099	6521.729743	44517.305419	3938.422194	22694.989117
9.036000	-0.000487	-0.000040	-0.001980	0.000000	6524.075409	44564.926714	3936.145002	22745.251380
9.536500	0.000000	-0.000082	-0.001459	-0.000200	6529.885201	44580.030222	3938.006792	22754.397307
10.037000	-0.000579	0.000058	0.001812	-0.000244	6525.353408	44597.713155	3946.609701	22756.417759
10.537500	0.000540	0.001318	0.000030	0.000850	6525.567446	44613.666810	3939.142866	22706.365668
11.034500	0.000214	0.000000	0.002613	-0.000308	6532.617390	44598.274378	3948.867424	22759.350411
11.535000	-0.002153	-0.001032	-0.003511	0.000438	6506.319790	44428.094383	3931.077389	22725.217986
12.035500	0.002685	0.000404	0.002687	-0.000029	6551.249762	44610.297352	3948.330837	22746.572370
12.535500	0.001135	-0.000419	-0.005026	-0.000153	6539.118801	44543.299020	3928.705073	22752.268019
13.035500	-0.000395	-0.000605	-0.001288	-0.000964	6533.015276	44603.200481	3940.428459	22789.427009
13.536000	-0.003383	-0.000889	-0.002522	0.003317	6471.895292	44167.557215	3926.232763	22593.958307
14.035500	-0.000397	0.000338	-0.000395	0.002414	6504.469246	44370.234800	3934.009669	22635.033614
14.536500	-0.000732	-0.000878	-0.003265	0.001391	6510.261053	44351.897864	3929.260992	22681.666857
15.037000	-0.000816	0.000291	-0.001649	-0.000205	6523.024146	44616.405483	3937.531055	22754.663158
15.537500	-0.001440	-0.000716	-0.004659	0.002637	6493.825579	44248.582901	3922.508443	22624.865550
16.037500	-0.000059	0.000277	-0.004606	0.000598	6522.630311	44537.965083	3927.856452	22717.874762
16.535000	0.001589	0.000113	-0.002372	0.000451	6537.842531	44536.405177	3933.972246	22724.617424
17.035000	0.001020	-0.000096	0.002385	-0.003179	6563.925302	44865.392715	3955.789322	22891.378741
17.535500	-0.001708	-0.001066	-0.000282	0.000974	6505.545363	44373.657505	3938.016328	22700.682781
18.036000	-0.000749	-0.000092	0.000027	0.001479	6509.370417	44418.399758	3937.509865	22677.622700
18.536000	-0.001133	0.000121	-0.002556	0.001595	6505.171835	44427.739321	3930.558445	22672.369988
19.037000	0.000914	-0.000487	0.000332	0.001130	6526.365886	44414.123555	3939.202753	22693.597105
19.537000	0.001441	0.001260	0.000626	0.002497	6519.262236	44450.293022	3936.427584	22631.229134
20.037000	-0.000218	0.000150	-0.001771	0.001262	6515.682791	44462.385633	3933.431664	22687.563987
20.534500	0.000773	-0.000464	-0.001122	0.001062	6525.749763	44422.755685	3935.621256	22696.693004
21.035000	0.000227	-0.000434	-0.008636	0.000818	6523.193468	44448.911391	3917.023241	22707.842602
21.535000	-0.001032	-0.000030	-0.000783	0.000953	6511.422942	44474.611142	3936.775371	22701.659588
22.035500	0.000765	0.000111	0.000795	0.001302	6523.645111	44454.767970	3939.954822	22685.709547
22.535500	-0.000599	-0.000173	0.001752	0.001088	6513.932941	44448.119509	3942.990781	22695.498203
23.036000	0.001786	0.000075	-0.000460	0.001521	6530.437489	44430.392337	3936.142679	22675.719799
23.536500	-0.001973	-0.000387	-0.000806	0.001161	6501.745309	44420.597278	3936.179791	22692.142106
24.036500	0.001504	0.000472	-0.000172	0.001738	6526.212819	44447.569401	3936.327279	22665.810758
24.537000	0.001237	0.000608	-0.000086	0.001490	6526.048437	44484.258288	3937.188673	22677.130370
25.037000	0.000146	-0.000571	-0.000867	0.000787	6522.770088	44438.808658	3936.987995	22709.233408
25.537500	0.001507	0.000068	0.001256	0.001113	6531.528724	44468.756468	3941.639672	22694.355560
26.035000	0.001448	0.000769	-0.002417	0.001799	6525.227713	44470.199258	3930.390749	22663.058500
26.538000	-0.000245	-0.000244	-0.005000	0.000612	6520.939109	44486.747002	3926.809407	22717.232811
27.038000	0.001487	-0.000129	0.000056	-0.001810	6556.223118	44730.208840	3946.117421	22828.303182
27.540500	0.000087	0.001248	0.001821	0.000038	6528.613625	44684.940595	3945.901044	22743.528392
28.036500	0.002461	0.000438	-0.005180	-0.000000	6549.100741	44610.815032	3927.919041	22745.266931
28.536000	0.000633	-0.000332	0.002538	-0.000175	6535.042208	44553.684726	3948.325500	22753.273162
29.036500	-0.002090	0.000065	0.000827	-0.000419	6514.064467	44615.156713	3944.501926	22764.426397
29.537000	-0.000647	-0.000273	0.004725	-0.000453	6526.543708	44586.016459	3954.772178	22765.985535
30.037500	0.000620	-0.000434	0.002133	-0.000435	6537.143649	44568.895316	3947.947950	22765.198928
30.534500	0.000259	-0.000255	-0.004598	0.002735	6507.281032	44283.117903	3922.414680	22620.399958
31.035500	0.000838	0.000427	0.001189	0.001951	6518.782677	44422.891093	3939.294261	22656.110447
31.537500	-0.002693	0.000252	-0.006349	0.003335	6477.491490	44274.232115	3916.435856	22593.102273
32.038500	0.000746	-0.000033	-0.002052	0.000127	6533.447007	44553.502517	3935.634786	22739.456977
32.536000	0.002173	0.000699	-0.002969	0.000145	6545.406570	44621.856225	3933.223326	22738.615385
33.036000	0.001229	0.000152	-0.000989	-0.000197	6540.292746	44602.182225	3939.215078	22754.269400
33.536000	0.000009	-0.000498	-0.003017	0.003238	6500.950969	44212.163145	3925.165802	22597.532787
34.036500	0.000437	0.000530	-0.003001	0.000585	6526.937839	44563.527888	3932.009256	22718.486239
34.537500	-0.001233	-0.000050	-0.000516	0.001505	6505.077613	44419.931373	3936.039964	22676.439058
35.034500	-0.001890	-0.000630	-0.000825	0.001113	6502.849044	44402.016151	3936.252451	22694.334832
35.535000	-0.001066	-0.000983	-0.000803	0.000731	6513.004655	44404.719557	3937.295588	22711.784667
36.038000	-0.001680	0.000069	-0.001309	0.001720	6499.507501	44410.747011	3933.440840	22666.625495
36.535500	-0.001156	-0.000546	-0.002918	0.001023	6509.784855	44418.620695	3931.095945	22698.449354
37.036000	-0.000920	0.000755	-0.000609	0.002018	6503.395304	44447.925580	3934.479019	22653.065987
37.536000	0.001083	-0.000083	-0.001101	0.001722	6522.784564	44396.019879	3933.971420	22666.536096
38.036000	-0.003403	-0.000485	0.000215	0.001050	6490.677964	44421.878842	3939.104548	22697.228593
38.536000	0.000297	0.000887	0.002823	0.002130	6512.706278	44449.784536	3943.065472	22647.948674
39.037000	-0.000890	0.000459	-0.002069	0.001874	6504.864316	44433.398438	3931.091522	22659.630997
39.537000	-0.001048	0.000032	-0.002975	0.001241	6508.864820	44453.083900	3930.391351	22688.520822
40.034500	-0.001480	-0.000255	-0.003674	0.000965	6507.548925	44451.958233	3929.303579	22701.111038
40.534500	-0.001283	0.000012	-0.004285	0.001586	6503.979806	44418.197132	3926.149001	22672.759622
41.035000	-0.001324	0.000317	-0.002704	0.001361	6505.523425	44468.766300	3930.775580	22683.005749
41.536000	-0.001688	0.000080	-0.000210	0.001754	6499.161395	44408.553557	3936.187383	22665.077271
42.036000	-0.000059	-0.000465	0.000492	0.000987	6519.339807	44429.790886	3939.984809	22700.088145
42.539000	-0.000217	0.000472	-0.001643	0.002235	6507.482915	44400.081316	3931.257032	22643.156014
43.037000	-0.001705	-0.000575	-0.000406	0.000989	6505.453413	44419.175490	3937.657197	22700.030840
43.537000	-0.001149	-0.000832	-0.002594	0.001588	6505.085370	44337.470716	3930.476473	22672.672422
44.037000	0.003014	-0.000096	-0.003294	-0.002392	6574.264910	44789.447016	3938.930707	22855.087693
44.537000	0.001182	0.000922	-0.000770	0.000358	6535.180404	44622.832458	3938.347522	22728.872387
45.035000	-0.001127	0.000053	-0.000369	-0.000217	6520.490184	44594.592485	3940.874451	22755.177507
45.535500	-0.001583	-0.000569	-0.001578	0.002485	6493.899889	44277.016839	3930.782121	22631.767640
46.038000	-0.002241	-0.000378	-0.000661	0.002454	6488.652860	44298.203448	3933.221450	22633.202308
46.535500	-0.000191	-0.000710	0.000138	-0.000339	6529.448381	44533.284671	3942.506936	22760.797437
47.036000	0.000399	-0.000339	-0.005599	-0.000572	6536.424706	44591.050943	3928.310035	22771.446465
47.539000	-0.002436	-0.000384	-0.002781	0.003365	6479.392481	44210.975825	3925.445973	22591.748824
48.036500	-0.000897	-0.000576	-0.001757	0.002801	6497.009558	44246.276580	3929.511401	22617.387507
48.537000	-0.000595	0.000081	-0.001105	0.000237	6521.154925	44553.840843	3937.793565	22734.399703
49.037500	0.000994	-0.000578	0.005918	-0.000688	6542.466174	44579.355657	3958.527000	22776.786498
49.537500	-0.002269	0.000059	0.000520	0.003562	6479.144055	44234.303904	3933.408977	22582.796076
50.035000	-0.000843	-0.001004	-0.003403	0.001612	6507.460582	44318.674530	3928.339935	22671.549843
50.535000	0.000803	0.000345	-0.001058	0.001094	6525.722786	44496.957054	3935.699923	22695.197517
51.036000	-0.003033	-0.012320	0.007141	0.017223	6360.589166	41831.068634	3915.428248	21972.006342
51.536000	0.005126	-0.035196	0.075084	0.465654	4124.069388	16078.472575	3273.375227	9664.672834
52.036500	-0.011872	-0.036360	-0.021913	-0.105170	7409.571611	51715.710757	4179.211142	28194.318578
52.536500	-0.013341	-0.095348	-0.029689	-0.270124	9493.494275	65194.332959	4773.993602	39900.071595
53.037000	-0.002386	-0.074882	-0.014035	-0.244162	9267.877249	64411.496708	4728.051531	37750.619120
53.540000	-0.006683	-0.062527	-0.015298	-0.225396	8935.962582	63510.707278	4641.838776	36275.011247
54.037000	0.003368	-0.030656	-0.000320	-0.152186	8112.290781	58011.061067	4412.632802	31091.089173
54.534500	-0.003890	-0.026057	-0.004694	-0.139640	7877.732061	57012.460131	4351.598180	30287.152447
55.035000	-0.007763	-0.028635	-0.007799	-0.155334	8016.449452	58670.493050	4396.784256	31296.494441
55.535500	0.003948	-0.027566	0.004871	-0.157931	8189.476171	59142.874166	4453.367501	31467.039808
56.035500	0.015022	-0.014094	0.021251	-0.094783	7586.195562	53068.178353	4286.132613	27595.526289
56.536000	0.031935	-0.002264	0.040693	-0.030531	7097.119972	47368.388938	4141.937943	24193.637189
57.036500	0.053035	0.010263	0.056007	0.008377	6926.503150	44749.923838	4071.784705	22365.320325
57.536500	0.069082	0.023350	0.074922	0.057938	6623.788682	41381.991848	3986.175567	20261.558524
58.039500	0.077848	0.034497	0.087141	0.091095	6417.705040	39482.204195	3931.063119	18982.309618
58.537000	0.094765	0.038608	0.105066	0.138425	6176.441741	36020.860738	3858.016298	17317.478077
59.035000	0.108138	0.046280	0.119202	0.166765	6063.770657	34483.450475	3824.464337	16404.081772
59.535000	0.120593	0.055825	0.120852	0.143925	6335.824019	36925.546973	3883.008695	17135.533268
60.035500	0.138192	0.066065	0.146507	0.168084	6283.568504	35853.590969	3886.693715	16362.999004
60.536000	0.154255	0.079015	0.161869	0.214294	6053.337766	33427.010573	3813.228187	14999.867681
61.036000	0.161412	0.084977	0.172102	0.249069	5855.995468	31469.999376	3758.397786	14065.578659
61.536500	0.172341	0.089242	0.185079	0.266997	5807.940659	30586.415136	3747.707243	13612.344336
62.036500	0.176470	0.094993	0.193784	0.291176	5674.509281	29437.845147	3715.067921	13029.991080
62.539500	0.186524	0.107266	0.202616	0.303702	5658.472779	29422.376250	3707.445871	12740.797728
63.037000	0.188699	0.107747	0.198536	0.295020	5729.557658	29987.121390	3716.950523	12940.351172
63.537500	0.193182	0.109810	0.201282	0.290777	5787.993034	30382.690143	3731.579507	13039.330636
64.038000	0.189051	0.111308	0.194695	0.295636	5727.809933	30171.142865	3707.746630	12926.069312
64.539500	0.197691	0.116148	0.205881	0.293814	5797.970034	30592.061893	3734.881211	12968.394708
65.035500	0.202102	0.117107	0.206772	0.295347	5817.568440	30555.583322	3733.522890	12932.778887
65.535500	0.201165	0.117581	0.205146	0.300163	5778.525486	30280.872279	3720.003230	12821.672177
66.036000	0.203781	0.120860	0.211945	0.306798	5751.550052	30070.364352	3720.343580	12670.602871
66.536000	0.207135	0.122090	0.217639	0.302244	5804.855151	30434.105704	3741.955245	12774.030599
67.036500	0.208915	0.124544	0.217891	0.304866	5799.137802	30423.516785	3736.911593	12714.358781
67.537000	0.209650	0.124825	0.217440	0.308792	5777.553473	30193.793523	3727.671190	12625.669452
68.037000	0.211575	0.126718	0.214858	0.313537	5758.607012	30015.421312	3712.406208	12519.530288
68.537500	0.215219	0.128961	0.224786	0.309083	5813.346784	30436.164301	3742.613706	12619.127790
69.037500	0.217355	0.132210	0.220638	0.312030	5807.815211	30455.311758	3727.586136	12553.110887
69.535500	0.217953	0.131614	0.224108	0.315401	5788.995680	30205.080096	3727.793648	12478.155197
70.035500	0.216228	0.133546	0.225873	0.322446	5730.244139	29886.004275	3716.766301	12323.360766
70.536000	0.223170	0.134286	0.228878	0.319018	5799.840835	30145.842488	3730.220807	12398.368918
71.036500	0.224839	0.135729	0.227859	0.322615	5786.772250	30011.178764	3720.547116	12319.669994
71.539000	0.221619	0.136192	0.227979	0.328381	5726.642214	29682.732985	3708.854680	12194.899881
72.036500	0.221578	0.136163	0.226194	0.333045	5695.649329	29395.261999	3695.683272	12095.167469
72.537000	0.227795	0.138028	0.228423	0.330691	5752.361240	29653.505113	3705.022998	12145.370173
73.037500	0.225988	0.138337	0.232406	0.331185	5737.023325	29642.147073	3712.200039	12134.813706
73.534500	0.228659	0.139430	0.231404	0.335566	5725.679490	29440.707821	3701.149986	12041.694520
74.035000	0.225045	0.139500	0.231564	0.341645	5662.219521	29076.591924	3689.160183	11914.052612
74.538000	0.231605	0.141522	0.233770	0.338403	5726.400804	29395.322534	3700.190542	11981.909062
75.036000	0.229616	0.140573	0.231081	0.337909	5716.516742	29367.616866	3695.728423	11992.281317
75.536500	0.230483	0.140711	0.238731	0.338122	5720.842205	29363.039288	3710.937959	11987.814463
76.036500	0.228297	0.142153	0.230934	0.345851	5656.046528	28983.244396	3679.481224	11826.762421
76.536000	0.232951	0.142622	0.239484	0.340946	5718.487349	29307.564377	3706.676587	11928.641413
77.036500	0.233629	0.142532	0.241831	0.341351	5720.284630	29277.478596	3710.670561	11920.176244
77.537000	0.231829	0.141133	0.241926	0.340085	5716.760375	29269.479924	3713.481724	11946.638927
78.037000	0.233283	0.143126	0.237229	0.348415	5671.735589	28888.046794	3686.938591	11773.977776
78.535000	0.233394	0.143769	0.245825	0.343025	5707.703262	29251.053248	3715.467401	11885.319924
79.035500	0.235347	0.143745	0.244276	0.342711	5722.658954	29268.614946	3712.910864	11891.854582
79.535500	0.236306	0.145551	0.241918	0.344080	5719.943070	29295.111175	3705.238704	11863.408986
80.035500	0.236169	0.144469	0.243455	0.343197	5724.875269	29283.013603	3710.212330	11881.736271
80.535500	0.238372	0.145151	0.244865	0.344547	5730.530263	29242.545191	3710.337801	11853.742967
81.036000	0.236019	0.144186	0.242964	0.343089	5724.598976	29272.416554	3709.423664	11883.984255
81.537000	0.236461	0.145994	0.242287	0.347580	5697.926071	29110.241787	3698.846491	11791.135404
82.037000	0.236832	0.145872	0.241238	0.345310	5715.294229	29240.005628	3701.334810	11837.948833
82.537500	0.238027	0.146331	0.248558	0.345412	5722.519572	29261.642899	3716.183787	11835.850019
83.035000	0.237715	0.145853	0.243181	0.345487	5719.957102	29228.142945	3704.943058	11834.282968
83.535000	0.237644	0.145366	0.239266	0.347034	5709.290361	29105.325278	3693.826216	11802.378792
84.035000	0.237730	0.145402	0.239967	0.350739	5685.562248	28885.207028	3687.770532	11726.402767
84.538000	0.241054	0.146233	0.241169	0.347516	5728.621961	29128.502843	3696.703945	11792.443279
85.036000	0.240035	0.145810	0.241216	0.347735	5720.435425	29089.871963	3696.356227	11787.959103
85.539000	0.239237	0.144267	0.239046	0.348426	5710.615248	28955.667526	3690.570868	11773.760806
86.036500	0.235211	0.144590	0.251219	0.354320	5646.014883	28624.043561	3703.316735	11653.570859
86.536500	0.240271	0.144830	0.246009	0.349322	5711.518484	28935.709216	3702.884429	11755.369869
87.037000	0.238877	0.145247	0.253339	0.350853	5692.316284	28869.093943	3714.815929	11724.067577
87.534500	0.239057	0.144289	0.243847	0.350389	5696.533592	28839.671740	3696.310628	11733.555158
88.035000	0.234888	0.141726	0.246831	0.355041	5639.302596	28412.887912	3692.931995	11638.979109
88.535500	0.239347	0.141815	0.240162	0.349226	5706.069275	28761.625293	3691.209120	11757.349987
89.041000	0.241830	0.141421	0.248175	0.350207	5715.962774	28679.953002	3705.506103	11737.272432
89.536000	0.236839	0.141216	0.243381	0.349788	5685.952377	28692.648144	3696.582674	11745.835424
90.036000	0.237836	0.142336	0.252341	0.351510	5681.228682	28657.022357	3711.394692	11710.672583
90.536500	0.241129	0.141904	0.252354	0.351734	5701.295875	28618.110334	3710.957945	11706.093892
91.037000	0.239485	0.142214	0.246226	0.352451	5685.840220	28594.077385	3696.950756	11691.498018
91.536500	0.237377	0.141290	0.248123	0.352323	5672.941797	28547.091342	3701.072679	11694.105498
92.037500	0.237015	0.140547	0.245597	0.356244	5645.244506	28273.615702	3688.021251	11614.695106
92.534500	0.237081	0.138679	0.248859	0.351843	5674.138223	28421.750317	3703.556557	11703.874572
93.035000	0.239489	0.139514	0.249476	0.353021	5682.149409	28401.688497	3702.410860	11679.923294
93.535000	0.237295	0.139223	0.246345	0.356314	5646.599632	28192.404877	3689.383635	11613.288384
94.035500	0.235755	0.139103	0.244428	0.357471	5629.292938	28118.268529	3683.220571	11589.999242
94.536000	0.238708	0.139428	0.248690	0.355784	5659.134408	28235.155258	3695.189650	11623.969597
95.036500	0.239459	0.139712	0.251958	0.356534	5659.144833	28208.071402	3700.307975	11608.857328
95.536500	0.238582	0.137540	0.249438	0.355780	5658.350049	28125.741520	3696.715289	11624.066908
96.036500	0.237151	0.137286	0.242514	0.359718	5623.848275	27883.760759	3674.943743	11544.940025
96.534500	0.237754	0.135940	0.247431	0.356427	5648.829534	27995.742295	3691.345935	11611.017028
