sample name	sample
index	868
start time	 04-08-2021  01:17:16 PM
880	0.466669
Peak Time (s)	102.535
Peak Height 	0.4667
calc peak height	100,103
Baseline Time (s)	10.54
Baseline Value 	-0.005377
subtract baseline	10,4
Abs	0.349907
Peak Time (s)	101.537
Peak Height 	0.3499
calc peak height	100,103
Baseline Time (s)	9.036
Baseline Value 	0.002772
subtract baseline	10,3
PK_550	0.172686
Peak Time (s)	102.037
Peak Height 	0.1727
calc peak height	100,103
Baseline Time (s)	9.036
Baseline Value 	9.1914E-4
subtract baseline	10,2
PK_880	0.315625
Peak Time (s)	102.037
Peak Height 	0.3156
calc peak height	100,103
Baseline Time (s)	10.54
Baseline Value 	0.002108
subtract baseline	10,1


Time (s)	A880-A510	A880-A775	A880-A975	A880	I510	I775	I975	I880	
0.036500	0.001300	-0.000971	-0.000413	0.001525	6881.715426	42375.348424	3912.893124	22711.574854
0.537000	-0.001649	0.000043	0.003199	0.004063	6829.194588	42236.459986	3915.971084	22594.870080
1.037000	-0.003882	-0.000890	-0.001885	0.006543	6784.609438	41927.109992	3894.451754	22481.496253
1.542000	0.000116	-0.000530	0.003187	0.000699	6878.271113	42491.236341	3925.632226	22749.714531
2.038000	0.000556	-0.000836	-0.005593	-0.000122	6890.426433	42538.451066	3902.820624	22787.676166
2.535500	0.000283	-0.000131	-0.001159	0.000699	6879.878766	42527.784638	3913.122808	22749.709238
3.035500	-0.006331	-0.001600	-0.004544	0.005398	6772.359106	41966.466543	3890.189332	22533.768864
3.535500	0.001114	0.000303	-0.000888	0.000402	6890.753615	42594.913141	3914.751006	22763.438339
4.036000	0.000521	0.000366	0.001611	0.000693	6882.230213	42573.930166	3921.099324	22749.975210
4.536500	0.000026	-0.000101	0.000571	0.000307	6881.176380	42566.460709	3919.214709	22767.803758
5.036500	-0.002038	-0.000308	0.003315	0.000078	6863.540478	42568.454779	3927.798149	22778.403660
5.537000	0.000018	-0.000856	0.002301	-0.000117	6885.184542	42536.143115	3925.427795	22787.434526
6.037000	-0.000367	-0.000207	-0.003048	-0.000373	6883.952493	42619.196470	3910.788362	22799.301245
6.537500	0.001333	-0.000900	0.001450	-0.000569	6902.254569	42573.530719	3924.273836	22808.366465
7.035000	0.000374	-0.000045	-0.001143	0.000304	6884.554337	42571.876019	3914.299231	22767.943755
7.535500	-0.000121	-0.000371	-0.000452	-0.000118	6883.853725	42580.672597	3917.494399	22787.477724
8.035500	0.000407	-0.000138	-0.001097	-0.000320	6890.902780	42620.616573	3916.223679	22796.834603
8.536000	-0.000180	0.000240	0.001302	-0.000332	6885.351690	42656.478000	3923.163668	22797.381259
9.036000	0.003538	0.000000	0.000000	0.000473	6913.528046	42560.486063	3917.094696	22760.125890
9.535500	0.000793	-0.000097	-0.002146	0.000345	6888.203201	42563.326928	3911.310611	22766.055442
10.037000	-0.000072	-0.000388	-0.002410	-0.000075	6883.918845	42575.245788	3911.758100	22785.505940
10.539500	0.000000	0.000081	0.002563	0.000000	6883.888212	42611.357229	3925.848845	22782.024616
11.036500	-0.000732	0.000566	0.001399	0.000120	6875.679591	42644.920812	3922.136832	22776.449473
11.535000	0.000198	-0.000201	-0.001413	-0.000689	6892.445114	42648.778763	3916.373869	22813.917274
12.035000	0.000061	0.000238	-0.003755	0.000132	6883.206573	42613.734779	3907.328429	22775.926249
12.535500	0.001191	0.001162	0.003395	0.000531	6890.251576	42661.922314	3926.720154	22757.473860
13.035500	-0.001260	-0.000468	-0.002013	0.004232	6831.296868	42174.669614	3900.626454	22587.141614
13.535000	-0.000561	-0.000408	-0.001704	-0.000423	6882.553789	42605.337685	3914.775191	22801.596789
14.035500	-0.002167	-0.001289	0.001614	-0.000948	6872.152914	42572.610882	3925.842750	22825.921035
14.536000	-0.000528	-0.000766	-0.000299	0.001590	6863.530942	42388.218889	3913.034518	22708.593894
15.042500	-0.002735	0.000070	-0.002250	0.003596	6823.316711	42281.500502	3901.756073	22616.318170
15.557000	0.000096	0.000283	-0.002903	-0.000287	6887.588362	42656.382492	3910.957109	22795.327354
16.037500	0.001352	0.000117	0.000518	-0.000517	6901.941270	42662.208858	3921.433822	22805.957609
16.535000	0.000795	0.000783	0.007678	0.000512	6886.615657	42628.895160	3939.233480	22758.351134
17.035000	-0.002563	-0.000950	-0.000157	0.004467	6816.676758	42109.578100	3905.226972	22576.354551
17.535500	-0.000252	-0.000324	0.000249	-0.000572	6886.979748	42626.778867	3920.819463	22808.526465
18.035500	0.001065	-0.000145	0.001257	-0.000381	6897.852968	42625.618391	3923.176975	22799.674695
18.536000	0.000228	-0.000025	0.000959	0.001049	6875.977425	42505.386961	3918.195757	22733.521711
19.036500	-0.000364	-0.000171	-0.000354	0.001952	6861.631631	42409.457134	3911.840898	22691.907027
19.537000	-0.001560	-0.000559	-0.003416	0.000494	6864.136788	42507.366254	3907.262845	22759.185751
20.037000	-0.000784	-0.000600	0.000465	0.000924	6867.454368	42464.257222	3917.136990	22739.308921
20.537500	-0.000556	-0.000057	0.003623	0.001576	6863.392796	42454.304270	3924.357529	22709.241497
21.037500	-0.002853	-0.000682	-0.003850	0.001217	6844.850446	42429.968976	3903.970229	22725.803021
21.535000	-0.000229	0.000542	-0.003420	0.001000	6872.052961	42561.910286	3905.808952	22735.783894
22.035500	-0.001027	-0.000586	-0.001342	0.000706	6867.225162	42485.522622	3912.580126	22749.399561
22.535500	-0.000857	-0.000099	-0.000568	0.000888	6867.103272	42513.430970	3914.276991	22740.985557
23.035500	0.000490	0.000594	0.004122	0.001814	6871.147353	42492.128547	3925.111406	22698.266585
23.536000	-0.001609	-0.000297	-0.000262	0.000878	6859.984354	42496.211956	3915.181437	22741.431198
24.036500	-0.000534	-0.000858	-0.000252	-0.000056	6879.281467	42530.377082	3917.893122	22784.613177
24.537000	-0.001013	-0.000484	-0.001171	0.000750	6866.932170	42490.739023	3912.944525	22747.348812
25.037000	0.000442	0.000446	0.000783	0.001245	6876.154604	42530.615744	3917.126541	22724.484590
25.537500	0.000150	0.000225	0.005267	0.000972	6875.972682	42535.352222	3930.868138	22737.077212
26.035000	0.000091	-0.000029	-0.003404	0.000542	6879.545901	42551.565485	3907.160285	22756.963361
26.535500	0.001325	0.000661	0.002688	0.001575	6881.478068	42520.101276	3921.661922	22709.282167
27.035500	-0.001385	-0.000735	-0.001858	0.001656	6854.681789	42384.950012	3908.392240	22705.543087
27.536000	-0.000141	0.000926	-0.001825	0.001496	6868.142430	42551.642958	3908.941600	22712.927639
28.035500	0.002147	-0.000239	-0.001297	-0.002286	6926.834137	42792.390952	3921.303772	22888.087678
28.536000	0.000247	-0.000194	0.001354	-0.000927	6895.222659	42671.390382	3925.034323	22824.983424
29.039500	0.002375	-0.000008	0.002276	-0.000420	6910.918885	42641.805360	3926.233142	22801.490725
29.536000	0.000881	-0.000174	0.003125	-0.000360	6895.860374	42621.008660	3928.515291	22798.669010
30.037500	0.001581	-0.000264	0.000331	-0.000639	6905.346599	42638.464577	3921.250719	22811.636800
30.534500	0.000857	0.000247	0.001999	-0.000452	6896.527586	42668.218038	3925.524864	22802.970363
31.035000	-0.000017	0.000528	0.002244	0.001546	6868.854110	42510.599535	3920.463929	22710.610167
31.539500	0.001765	0.000500	0.005994	0.000398	6897.083382	42613.313817	3934.652345	22763.603060
32.035500	-0.003083	-0.000221	-0.003851	0.001611	6838.886549	42436.021497	3902.846704	22707.594196
32.549500	0.002262	0.000335	-0.000908	0.000344	6902.416481	42603.151281	3914.860779	22766.133804
33.053000	0.000740	-0.000478	-0.001466	-0.000089	6891.887342	42568.270207	3914.503369	22786.165366
33.539500	0.000039	-0.000088	-0.002628	-0.000605	6890.094111	42651.400101	3912.652321	22810.035760
34.037000	0.001342	0.000338	0.002898	-0.000306	6899.808110	42663.121206	3927.703938	22796.206369
34.537000	0.001130	0.000154	0.005041	0.000014	6894.659403	42616.840399	3932.996724	22781.398941
35.039000	-0.002778	-0.000956	-0.002048	0.002438	6833.919024	42293.411323	3905.621271	22669.500330
35.537500	-0.001460	0.000297	0.005143	0.001628	6854.234148	42481.838934	3928.604097	22706.813783
36.035000	0.000048	0.000180	0.002272	0.001871	6866.357155	42448.907527	3919.609971	22695.618794
36.535500	0.000410	0.000411	0.000418	0.001496	6873.427010	42504.421403	3915.359358	22712.893499
37.035500	-0.000079	-0.000121	-0.000657	0.001812	6865.706989	42426.880422	3911.376350	22698.354899
37.536000	-0.000749	0.000274	0.004848	0.001785	6859.539678	42465.438298	3927.295816	22699.585138
38.039000	-0.001413	-0.000684	0.002877	0.000863	6862.010347	42462.165978	3924.261063	22742.125946
38.536500	0.001397	-0.000244	-0.001672	0.001255	6885.251342	42466.495318	3910.064454	22724.017014
39.037000	-0.000454	0.000231	0.001903	0.002080	6859.542296	42434.560744	3917.946244	22686.011975
39.537000	-0.001215	-0.000439	0.000841	0.000937	6863.194816	42477.758400	3918.178698	22738.711795
40.037500	0.000574	0.000070	-0.001142	0.001627	6873.751723	42461.271410	3910.518485	22706.882186
40.535000	-0.001213	-0.000338	0.001462	0.000750	6865.004401	42504.152162	3920.502402	22747.325861
41.035000	0.000372	-0.000012	-0.000692	0.002266	6865.674429	42395.278993	3909.976251	22677.418691
41.535500	-0.000754	-0.000111	0.000109	0.001429	6862.902763	42462.752945	3914.664972	22716.014608
42.036000	0.000232	0.000307	0.005207	0.002163	6865.319528	42433.891142	3927.240595	22682.199467
42.536000	-0.001286	0.000490	0.003940	0.001610	6856.073230	42501.227343	3925.174219	22707.650447
43.036500	0.000674	0.000052	0.002552	0.002721	6864.208529	42359.658845	3917.970807	22656.515394
43.539500	-0.000799	0.000003	0.002251	0.001491	6861.875610	42467.522383	3920.643348	22713.159685
44.037000	-0.000803	0.000606	-0.004098	0.002058	6856.406539	42470.790362	3900.877930	22687.005928
44.537500	-0.000114	-0.000164	0.000249	0.001274	6870.536418	42472.164323	3915.513077	22723.175599
45.035000	-0.002315	-0.000450	-0.001597	0.003553	6827.715546	42238.102912	3903.735296	22618.300876
45.535500	-0.000171	-0.000193	-0.001004	-0.000966	6891.560406	42674.962136	3918.345724	22826.781704
46.035000	0.000845	0.000186	-0.002333	-0.000163	6893.607102	42636.022555	3912.230153	22789.553496
46.544000	0.001727	0.000693	0.003504	0.000255	6898.098231	42644.121936	3927.834590	22770.214240
47.036000	-0.002890	-0.000546	-0.005289	0.005130	6807.302641	42086.079860	3888.849791	22546.028615
47.536000	0.000474	0.000492	0.004326	0.000467	6883.952789	42606.247470	3929.603512	22760.420558
48.036000	-0.002354	-0.000045	0.000224	-0.000579	6866.811910	42653.006937	3920.767322	22808.828984
48.537000	0.000531	0.000063	0.002208	-0.000450	6893.353142	42651.043190	3926.123972	22802.861649
49.037000	-0.003030	-0.000786	-0.001425	0.004659	6810.437410	42107.013872	3901.079659	22567.572030
49.537500	-0.001110	-0.000221	0.002271	0.001905	6854.937873	42409.168411	3919.510269	22694.071448
50.035000	0.000953	0.000989	0.003088	0.000245	6890.712804	42672.304835	3926.655688	22770.668878
50.535000	-0.000058	0.000179	0.001063	-0.000561	6888.739430	42671.986705	3923.134078	22808.006579
51.035500	-0.002367	-0.000334	-0.002079	0.005001	6813.475832	42117.066929	3898.261059	22551.940272
51.535500	0.000886	0.000940	0.005455	-0.001900	6910.832766	42865.657524	3939.787350	22870.154900
52.039000	0.001331	-0.000292	0.003215	-0.001040	6906.807261	42672.708293	3930.752358	22830.220762
52.536500	-0.002304	-0.000511	0.001958	0.000463	6857.304834	42514.662785	3922.764343	22760.621558
53.036500	-0.049290	-0.021889	0.046415	0.250543	4796.885377	24019.851726	3450.091252	13972.254448
53.537000	-0.039369	-0.018145	-0.000243	-0.051101	6998.495662	45748.142703	4073.618539	25291.451030
54.037500	-0.037431	-0.015711	0.002289	-0.031186	6824.131011	44050.663327	4018.528623	24278.217388
54.534500	-0.013068	-0.011591	-0.010769	-0.115338	7995.250162	53365.748466	4258.464439	28895.189805
55.035000	-0.025857	-0.014582	-0.007275	-0.076723	7403.977488	48739.030706	4135.025375	26665.289854
55.535500	-0.018428	-0.012336	-0.006482	-0.084235	7568.681649	49784.697959	4163.321955	27083.732081
56.035500	-0.004408	-0.008037	-0.011029	-0.095161	7856.633713	51463.906427	4185.424297	27705.331409
56.539000	0.010514	-0.000832	0.000659	-0.040358	7404.042756	46404.064035	4042.162406	24739.142606
57.036000	0.006769	-0.000603	0.006206	-0.013284	7081.676175	43785.669120	3975.781429	23406.230583
57.536500	0.005715	-0.001756	0.005124	0.008568	6856.480701	41666.993804	3908.588700	22389.405162
58.037000	0.004943	-0.001032	0.005396	0.010639	6829.355807	41546.484967	3903.468121	22295.695045
58.537000	0.008577	0.000398	0.015375	0.021753	6758.805923	40690.213777	3900.247407	21800.178487
59.034000	0.014192	0.000697	0.018005	0.026275	6769.044293	40322.928906	3894.898572	21602.212639
59.535000	0.013417	0.001329	0.019434	0.034777	6683.010640	39647.565570	3875.102118	21235.466075
60.035500	0.018437	0.002274	0.022447	0.042873	6654.888782	39044.581233	3861.075839	20892.855849
60.535500	0.021586	0.003808	0.031719	0.052548	6595.878193	38370.007161	3859.971765	20491.728631
61.036000	0.024778	0.004820	0.029696	0.036547	6771.983849	39794.147147	3898.907126	21159.993692
61.535500	0.025413	0.006032	0.029284	0.054728	6610.688525	38373.634909	3847.386382	20402.562187
62.036500	0.032275	0.008473	0.036682	0.074395	6497.017068	36987.173210	3814.578538	19618.114552
62.537000	0.032669	0.009578	0.043347	0.085532	6404.204427	36204.667557	3802.846510	19189.399519
63.037000	0.038731	0.010757	0.048864	0.090823	6410.791760	35889.154573	3803.436685	18989.551560
63.537500	0.044060	0.014394	0.057055	0.098833	6387.934125	35556.804682	3803.908135	18691.567896
64.037000	0.051081	0.018794	0.062766	0.107522	6373.791845	35234.201016	3796.156637	18374.516364
64.535000	0.055371	0.021382	0.070261	0.117072	6329.550529	34717.132689	3790.840853	18033.283074
65.035500	0.066235	0.025982	0.087570	0.125357	6351.177548	34446.736026	3814.380717	17743.242325
65.535500	0.073788	0.030329	0.088078	0.134444	6338.295726	34102.371144	3791.987755	17431.448494
66.036000	0.083376	0.034185	0.101272	0.146534	6317.388688	33513.030991	3794.845567	17026.605025
66.536000	0.090845	0.039814	0.110048	0.161016	6259.413255	32891.686171	3780.158125	16556.244536
67.036500	0.098692	0.044551	0.116621	0.168251	6264.439182	32718.705338	3778.465994	16327.081321
67.537000	0.108805	0.050226	0.127341	0.170654	6328.303954	32945.479648	3799.906123	16251.787192
68.037000	0.117370	0.055677	0.139204	0.193022	6214.756118	31790.829068	3772.891608	15570.732992
68.537000	0.127967	0.060183	0.150915	0.206675	6190.095816	31184.943789	3767.970793	15171.950046
69.037500	0.136539	0.066093	0.163389	0.213987	6200.241249	31093.218240	3781.103522	14963.456012
69.535000	0.146886	0.071876	0.163178	0.218445	6248.044963	31179.873690	3769.215968	14838.065035
70.038000	0.154217	0.077525	0.179396	0.222795	6272.499331	31265.197625	3799.684857	14716.960069
70.538500	0.162385	0.082577	0.186413	0.229066	6288.149804	31185.164048	3801.627861	14544.476905
71.036000	0.171001	0.087176	0.189671	0.234523	6314.351699	31128.957937	3795.906745	14396.371084
71.536000	0.174154	0.091277	0.194824	0.232614	6356.747412	31524.831875	3814.374331	14447.968444
72.036500	0.180310	0.096069	0.199072	0.246417	6292.889754	30933.353914	3789.460980	14079.991343
72.534000	0.186300	0.099266	0.204452	0.255471	6267.628942	30555.455184	3780.027920	13844.897278
73.037000	0.189603	0.103117	0.212961	0.266670	6203.318901	30088.469658	3773.169971	13560.805902
73.537500	0.193555	0.103461	0.214806	0.271541	6195.912031	29804.688365	3765.507658	13439.507123
74.035000	0.200436	0.106141	0.223139	0.280290	6180.897494	29428.844130	3764.456774	13225.017540
74.535500	0.199176	0.106760	0.226073	0.290896	6087.028451	28821.633342	3745.283699	12970.717625
75.038500	0.205756	0.109559	0.231255	0.294316	6111.778676	28784.323741	3749.658286	12890.039608
75.536000	0.209101	0.111677	0.231855	0.299983	6093.573588	28572.208997	3737.127298	12757.740072
76.036000	0.211805	0.113309	0.235668	0.304394	6080.253663	28407.342249	3735.659515	12655.946927
76.536000	0.211335	0.115716	0.242117	0.312401	6014.881389	28078.245543	3731.842774	12473.807795
77.036500	0.212294	0.117152	0.240220	0.316721	5989.318000	27910.441212	3716.742856	12376.923143
77.537000	0.218930	0.118962	0.248970	0.316240	6043.692100	28043.638122	3739.239497	12387.653084
78.037500	0.224301	0.121073	0.249209	0.318961	6064.163998	28008.109638	3733.142948	12327.049765
78.534500	0.228583	0.122614	0.256183	0.326038	6042.577495	27687.846168	3732.891472	12171.206121
79.035000	0.231693	0.125257	0.251942	0.326566	6062.512817	27809.696775	3721.278529	12159.677299
79.538000	0.233270	0.125909	0.259564	0.328565	6059.248104	27732.014125	3734.985492	12116.174035
80.036000	0.234968	0.127110	0.255820	0.330775	6055.292216	27673.995531	3720.476798	12068.299723
80.536000	0.235520	0.128066	0.256574	0.337511	6007.830556	27344.072977	3706.102353	11923.892074
81.036500	0.241040	0.130036	0.266370	0.336537	6057.688526	27511.557933	3732.127456	11944.635554
81.536000	0.244206	0.131877	0.264486	0.340198	6053.862286	27407.898436	3718.647990	11866.903875
82.037000	0.247245	0.133579	0.268813	0.343588	6051.153962	27312.183264	3720.915043	11795.519626
82.537000	0.246682	0.133184	0.271546	0.350816	5991.539305	26884.232350	3710.085430	11645.130474
83.037500	0.249361	0.135396	0.274985	0.349122	6024.871828	27102.570400	3722.460512	11680.162825
83.535000	0.255057	0.136532	0.277820	0.352576	6042.078568	26972.730807	3720.958697	11608.891620
84.035500	0.254573	0.137149	0.277523	0.354965	6020.035580	26874.034474	3714.478126	11559.949056
84.535500	0.253253	0.137762	0.277797	0.363091	5948.573715	26459.829534	3695.754571	11395.438763
85.035500	0.255728	0.139065	0.279158	0.365283	5950.688446	26411.265293	3693.792098	11351.579133
85.536500	0.259017	0.139585	0.281566	0.364539	5981.027657	26480.299334	3701.251788	11366.436917
86.036500	0.260938	0.142534	0.285347	0.368999	5961.891121	26397.751902	3699.640270	11277.734108
86.539500	0.258774	0.141183	0.283740	0.376426	5890.607077	25924.013178	3678.434111	11132.031941
87.036500	0.266759	0.144120	0.291426	0.375843	5954.216556	26112.862850	3697.830104	11143.395738
87.534500	0.268560	0.146155	0.295068	0.380531	5932.644133	25970.356443	3695.354265	11052.570232
88.034500	0.269826	0.146433	0.299260	0.382719	5925.790242	25868.395976	3700.100308	11010.526687
88.535000	0.268728	0.145003	0.295781	0.390322	5861.770970	25391.894518	3674.133887	10866.041432
89.035000	0.273342	0.149019	0.302241	0.391338	5888.089518	25549.058952	3686.806044	10846.927388
89.535500	0.276253	0.150060	0.304025	0.393156	5896.127187	25508.231432	3686.727395	10812.834938
90.036000	0.276784	0.149307	0.304064	0.394867	5887.446665	25379.351190	3682.817718	10780.873159
90.536000	0.278677	0.150687	0.304402	0.398431	5875.196976	25265.608497	3675.317075	10714.693971
91.036500	0.278213	0.151663	0.305867	0.406088	5816.346420	24921.487696	3661.081185	10574.372417
91.536500	0.282341	0.152392	0.307196	0.404895	5854.786245	25019.970252	3666.855200	10596.078987
92.037000	0.284288	0.154377	0.312412	0.408914	5839.756787	24915.767202	3669.607302	10523.198679
92.537500	0.282130	0.155036	0.311497	0.417649	5761.942428	24506.827240	3647.631550	10367.121492
93.035000	0.289201	0.155794	0.315459	0.415703	5826.218229	24642.954006	3661.028821	10401.628604
93.538000	0.288132	0.157025	0.327893	0.417436	5806.104443	24617.579214	3685.761565	10370.891526
94.035000	0.289888	0.157344	0.324500	0.419259	5805.621476	24541.907167	3673.629523	10338.693432
94.535500	0.289501	0.157131	0.318225	0.427734	5742.864688	24109.713816	3640.100336	10190.794506
95.036000	0.292844	0.159961	0.325108	0.430585	5746.310088	24108.714584	3649.154039	10141.682738
95.536000	0.294700	0.160455	0.327282	0.428325	5775.340123	24244.774992	3659.206554	10180.589683
96.037000	0.298014	0.162475	0.325450	0.431540	5776.038066	24185.567779	3647.771446	10125.293548
96.537000	0.300904	0.164466	0.331177	0.434725	5773.944581	24126.631583	3653.512548	10070.927837
97.037000	0.299837	0.163188	0.330326	0.439041	5736.061144	23852.687720	3641.876402	9997.891591
