sample name	sample
index	256
start time	 02-25-2021  10:45:35 AM


Wavelength (nm)	Absorbance
494.344910	0.053782
494.563924	0.053782
494.782919	0.053782
495.001897	0.012529
495.220856	0.009214
495.439797	0.007602
495.658719	0.012506
495.877624	-0.006057
496.096510	-0.021718
496.315378	-0.007828
496.534227	-0.011413
496.753059	-0.024559
496.971872	-0.029471
497.190667	0.047211
497.409444	0.063957
497.628203	0.069872
497.846943	0.072059
498.065665	0.073482
498.284369	0.075351
498.503055	0.076596
498.721723	0.076311
498.940372	0.077433
499.159003	0.078308
499.377616	0.077895
499.596210	0.077714
499.814787	0.077779
500.033345	0.077349
500.251885	0.076172
500.470406	0.074802
500.688910	0.074766
500.907395	0.074336
501.125862	0.073660
501.344311	0.073360
501.562742	0.073136
501.781154	0.072610
501.999548	0.073381
502.217924	0.073740
502.436282	0.074035
502.654621	0.074977
502.872942	0.074323
503.091245	0.074618
503.309530	0.075367
503.527797	0.075109
503.746045	0.075842
503.964275	0.075680
504.182487	0.074652
504.400681	0.074698
504.618856	0.074017
504.837013	0.074741
505.055152	0.075402
505.273273	0.075491
505.491376	0.075742
505.709460	0.075699
505.927526	0.075838
506.145574	0.076907
506.363604	0.076354
506.581615	0.076655
506.799608	0.076123
507.017583	0.075365
507.235540	0.076314
507.453478	0.076339
507.671399	0.076688
507.889301	0.077001
508.107185	0.077256
508.325050	0.078382
508.542898	0.078621
508.760727	0.078972
508.978538	0.078879
509.196330	0.077975
509.414105	0.078447
509.631861	0.078007
509.849599	0.077691
510.067319	0.078215
510.285021	0.078259
510.502704	0.078318
510.720369	0.078808
510.938016	0.079706
511.155645	0.080199
511.373255	0.079864
511.590848	0.080251
511.808422	0.080471
512.025977	0.079293
512.243515	0.079961
512.461034	0.079942
512.678536	0.079775
512.896018	0.080072
513.113483	0.080154
513.330930	0.079926
513.548358	0.080829
513.765768	0.080424
513.983160	0.080656
514.200533	0.079777
514.417889	0.080167
514.635226	0.079643
514.852545	0.079525
515.069845	0.079199
515.287128	0.079852
515.504392	0.078809
515.721638	0.079331
515.938866	0.079737
516.156075	0.079946
516.373267	0.079329
516.590440	0.079720
516.807594	0.080052
517.024731	0.080311
517.241850	0.079817
517.458950	0.079865
517.676032	0.079995
517.893095	0.080295
518.110141	0.081218
518.327168	0.081712
518.544177	0.081952
518.761168	0.081254
518.978141	0.081233
519.195095	0.081626
519.412031	0.081916
519.628949	0.081656
519.845849	0.081833
520.062731	0.081478
520.279594	0.081658
520.496439	0.081400
520.713266	0.082102
520.930074	0.082572
521.146865	0.083116
521.363637	0.083619
521.580391	0.084369
521.797127	0.083947
522.013844	0.083592
522.230543	0.083686
522.447224	0.084369
522.663887	0.084181
522.880532	0.083814
523.097158	0.083655
523.313766	0.083663
523.530356	0.083423
523.746928	0.084035
523.963481	0.084543
524.180017	0.084750
524.396534	0.084860
524.613032	0.085210
524.829513	0.085143
525.045975	0.085601
525.262420	0.085181
525.478845	0.086302
525.695253	0.086366
525.911643	0.086447
526.128014	0.086493
526.344367	0.086516
526.560702	0.086301
526.777018	0.086923
526.993316	0.086321
527.209597	0.086994
527.425858	0.086665
527.642102	0.086508
527.858328	0.086705
528.074535	0.087086
528.290724	0.087318
528.506894	0.087971
528.723047	0.088036
528.939181	0.088455
529.155297	0.088202
529.371395	0.088091
529.587475	0.088832
529.803536	0.089335
530.019579	0.089371
530.235604	0.089184
530.451611	0.088600
530.667600	0.088424
530.883570	0.088888
531.099522	0.089584
531.315456	0.090389
531.531372	0.090317
531.747269	0.090148
531.963148	0.090157
532.179009	0.091205
532.394852	0.091606
532.610676	0.092176
532.826482	0.092066
533.042271	0.092177
533.258040	0.091525
533.473792	0.091413
533.689525	0.091417
533.905240	0.091322
534.120937	0.091290
534.336616	0.091400
534.552277	0.091834
534.767919	0.091775
534.983543	0.091777
535.199149	0.092366
535.414736	0.092524
535.630306	0.092612
535.845857	0.093083
536.061390	0.092682
536.276904	0.093113
536.492401	0.092885
536.707879	0.093236
536.923339	0.093398
537.138781	0.093732
537.354204	0.094094
537.569610	0.094579
537.784997	0.094453
538.000366	0.095022
538.215716	0.095402
538.431049	0.095557
538.646363	0.095870
538.861659	0.096057
539.076937	0.095911
539.292196	0.095900
539.507438	0.095769
539.722661	0.096282
539.937866	0.096127
540.153052	0.095701
540.368221	0.095953
540.583371	0.096210
540.798503	0.096326
541.013617	0.096269
541.228712	0.096071
541.443789	0.096107
541.658848	0.095833
541.873889	0.095935
542.088912	0.095983
542.303916	0.096072
542.518902	0.096028
542.733870	0.095647
542.948820	0.095345
543.163752	0.096091
543.378665	0.096415
543.593560	0.096999
543.808437	0.097002
544.023295	0.097313
544.238136	0.097685
544.452958	0.098034
544.667762	0.098906
544.882548	0.099383
545.097315	0.099391
545.312064	0.099702
545.526795	0.099708
545.741508	0.099805
545.956203	0.100311
546.170879	0.100301
546.385537	0.100122
546.600177	0.100125
546.814799	0.100376
547.029402	0.100221
547.243988	0.100492
547.458555	0.100562
547.673103	0.100862
547.887634	0.100530
548.102146	0.100393
548.316640	0.100567
548.531116	0.100711
548.745574	0.101358
548.960013	0.101678
549.174435	0.101496
549.388838	0.101465
549.603222	0.101565
549.817589	0.101905
550.031937	0.101951
550.246267	0.101847
550.460579	0.102115
550.674873	0.101654
550.889148	0.101625
551.103405	0.101626
551.317644	0.102033
551.531865	0.102320
551.746068	0.102516
551.960252	0.102634
552.174418	0.102720
552.388566	0.102382
552.602696	0.102671
552.816807	0.102773
553.030900	0.102791
553.244975	0.102527
553.459032	0.102529
553.673070	0.102746
553.887091	0.103033
554.101093	0.103522
554.315077	0.103616
554.529042	0.103306
554.742990	0.103540
554.956919	0.103690
555.170830	0.104355
555.384722	0.104661
555.598597	0.104373
555.812453	0.104570
556.026291	0.104305
556.240111	0.104491
556.453913	0.104559
556.667696	0.104497
556.881461	0.104961
557.095208	0.104715
557.308937	0.104561
557.522647	0.104821
557.736339	0.104491
557.950013	0.104691
558.163669	0.104912
558.377307	0.105293
558.590926	0.105471
558.804527	0.105634
559.018110	0.106075
559.231675	0.106309
559.445221	0.106444
559.658749	0.106628
559.872259	0.106336
560.085751	0.106725
560.299225	0.106653
560.512680	0.106704
560.726117	0.106542
560.939536	0.106355
561.152937	0.106265
561.366319	0.106376
561.579683	0.106594
561.793029	0.107121
562.006357	0.106602
562.219667	0.106983
562.432958	0.107079
562.646231	0.107159
562.859486	0.107424
563.072723	0.107653
563.285941	0.107736
563.499141	0.107412
563.712323	0.107421
563.925487	0.107570
564.138632	0.107103
564.351760	0.107179
564.564869	0.107431
564.777960	0.107314
564.991032	0.107168
565.204087	0.106850
565.417123	0.107685
565.630141	0.107807
565.843140	0.108255
566.056122	0.108601
566.269085	0.108861
566.482030	0.109008
566.694957	0.109136
566.907866	0.109576
567.120756	0.110289
567.333628	0.110078
567.546482	0.110213
567.759318	0.110394
567.972135	0.110933
568.184935	0.111028
568.397716	0.110945
568.610478	0.111075
568.823223	0.110677
569.035949	0.110416
569.248657	0.110505
569.461347	0.110972
569.674019	0.110744
569.886672	0.110661
570.099308	0.110614
570.311925	0.110576
570.524523	0.110308
570.737104	0.110594
570.949666	0.110600
571.162210	0.110626
571.374736	0.110351
571.587244	0.110432
571.799733	0.110090
572.012205	0.110365
572.224658	0.110685
572.437092	0.110967
572.649509	0.110969
572.861907	0.111149
573.074287	0.111094
573.286649	0.110812
573.498993	0.110884
573.711318	0.111147
573.923625	0.110942
574.135914	0.110609
574.348185	0.110524
574.560438	0.110641
574.772672	0.110648
574.984888	0.111067
575.197086	0.111241
575.409266	0.111212
575.621427	0.111645
575.833570	0.111747
576.045695	0.111970
576.257802	0.111875
576.469890	0.112032
576.681961	0.111994
576.894013	0.111981
577.106046	0.112099
577.318062	0.112296
577.530059	0.111933
577.742039	0.111929
577.954000	0.112009
578.165942	0.112443
578.377867	0.112522
578.589773	0.112755
578.801661	0.112633
579.013531	0.112775
579.225382	0.112892
579.437216	0.113225
579.649031	0.113416
579.860828	0.113560
580.072606	0.113957
580.284367	0.114135
580.496109	0.114513
580.707833	0.114811
580.919539	0.115291
581.131227	0.115203
581.342896	0.115334
581.554547	0.115404
581.766180	0.115525
581.977795	0.115398
582.189391	0.115240
582.400969	0.115250
582.612529	0.115153
582.824071	0.114995
583.035595	0.115052
583.247100	0.115202
583.458587	0.115323
583.670056	0.114982
583.881506	0.114982
584.092939	0.115430
584.304353	0.115656
584.515749	0.115761
584.727127	0.115834
584.938486	0.116338
585.149828	0.116087
585.361151	0.116118
585.572456	0.116461
585.783742	0.116673
585.995011	0.116650
586.206261	0.116319
586.417493	0.116400
586.628706	0.116750
586.839902	0.116535
587.051079	0.116819
587.262238	0.116919
587.473379	0.117306
587.684502	0.117090
587.895606	0.117135
588.106692	0.117347
588.317760	0.117458
588.528810	0.117074
588.739841	0.117153
588.950855	0.117040
589.161850	0.116960
589.372827	0.116656
589.583785	0.116920
589.794726	0.116634
590.005648	0.116417
590.216552	0.116494
590.427437	0.116621
590.638305	0.116819
590.849154	0.117096
591.059985	0.117367
591.270798	0.117464
591.481592	0.117231
591.692369	0.117263
591.903127	0.117516
592.113867	0.117500
592.324588	0.117777
592.535292	0.117879
592.745977	0.117644
592.956644	0.117710
593.167293	0.117966
593.377923	0.118196
593.588536	0.118312
593.799130	0.118461
594.009706	0.118593
594.220263	0.118453
594.430803	0.118245
594.641324	0.118450
594.851827	0.118580
595.062312	0.118595
595.272778	0.118743
595.483227	0.119057
595.693657	0.119101
595.904069	0.119265
596.114462	0.119531
596.324838	0.119638
596.535195	0.119679
596.745534	0.119642
596.955855	0.119657
597.166157	0.119412
597.376441	0.119428
597.586707	0.119243
597.796955	0.119328
598.007185	0.119162
598.217396	0.119292
598.427589	0.119329
598.637764	0.119343
598.847921	0.119191
599.058060	0.119676
599.268180	0.119943
599.478282	0.120003
599.688366	0.120008
599.898431	0.120241
600.108479	0.120371
600.318508	0.120403
600.528519	0.120574
600.738511	0.120600
600.948486	0.120478
601.158442	0.120307
601.368380	0.120527
601.578300	0.120412
601.788202	0.120482
601.998085	0.120251
602.207950	0.120009
602.417797	0.120024
602.627626	0.120142
602.837436	0.120291
603.047228	0.120269
603.257002	0.120183
603.466758	0.120225
603.676496	0.120263
603.886215	0.120640
604.095916	0.120974
604.305599	0.120955
604.515264	0.121305
604.724910	0.121418
604.934538	0.121405
605.144148	0.121657
605.353740	0.121907
605.563314	0.121658
605.772869	0.121575
605.982406	0.121771
606.191925	0.121898
606.401425	0.121805
606.610908	0.121548
606.820372	0.121802
607.029818	0.121828
607.239246	0.121724
607.448655	0.122073
607.658047	0.122239
607.867420	0.122194
608.076775	0.121957
608.286111	0.122048
608.495430	0.122236
608.704730	0.122084
608.914012	0.122312
609.123275	0.122228
609.332521	0.122259
609.541748	0.122264
609.750957	0.122381
609.960148	0.122802
610.169321	0.122512
610.378475	0.122832
610.587611	0.123136
610.796729	0.122898
611.005829	0.123053
611.214910	0.123062
611.423974	0.123071
611.633019	0.123119
611.842045	0.123138
612.051054	0.123412
612.260044	0.123291
612.469017	0.123447
612.677970	0.123330
612.886906	0.123544
613.095824	0.123759
613.304723	0.124034
613.513604	0.123979
613.722467	0.124097
613.931311	0.124261
614.140138	0.124198
614.348946	0.123912
614.557736	0.124139
614.766507	0.124199
614.975261	0.123984
615.183996	0.123860
615.392713	0.124078
615.601412	0.123763
615.810092	0.123952
616.018754	0.124092
616.227399	0.124346
616.436024	0.124292
616.644632	0.124422
616.853222	0.124694
617.061793	0.124592
617.270346	0.124467
617.478880	0.124660
617.687397	0.124460
617.895895	0.124600
618.104375	0.124626
618.312837	0.124908
618.521281	0.124745
618.729706	0.124700
618.938113	0.125004
619.146502	0.125191
619.354873	0.125415
619.563226	0.125642
619.771560	0.125501
619.979876	0.125573
620.188174	0.125706
620.396453	0.126073
620.604715	0.126192
620.812958	0.126105
621.021183	0.126105
621.229390	0.126136
621.437578	0.125951
621.645748	0.126028
621.853900	0.126054
622.062034	0.126175
622.270150	0.126041
622.478247	0.126164
622.686326	0.125905
622.894387	0.126036
623.102430	0.126077
623.310454	0.126514
623.518461	0.126890
623.726449	0.127173
623.934418	0.127355
624.142370	0.127503
624.350303	0.127381
624.558218	0.128021
624.766115	0.128021
624.973994	0.128265
625.181855	0.128167
625.389697	0.128219
625.597521	0.128212
625.805327	0.128419
626.013114	0.128467
626.220883	0.128886
626.428634	0.128778
626.636367	0.128998
626.844082	0.129032
627.051778	0.129260
627.259457	0.129284
627.467117	0.129391
627.674758	0.128990
627.882382	0.129269
628.089987	0.129032
628.297574	0.129169
628.505143	0.129268
628.712694	0.129405
628.920226	0.129493
629.127740	0.129361
629.335236	0.129320
629.542714	0.129408
629.750174	0.129292
629.957615	0.129328
630.165038	0.129443
630.372443	0.129346
630.579829	0.129299
630.787198	0.128872
630.994548	0.129118
631.201880	0.129289
631.409194	0.129539
631.616489	0.129555
631.823766	0.129823
632.031025	0.129817
632.238266	0.130111
632.445489	0.130178
632.652693	0.130599
632.859879	0.130512
633.067047	0.130521
633.274197	0.130415
633.481329	0.130364
633.688442	0.130409
633.895537	0.130375
634.102614	0.130366
634.309672	0.130356
634.516713	0.130534
634.723735	0.130506
634.930739	0.130406
635.137724	0.130393
635.344692	0.130481
635.551641	0.130543
635.758572	0.130666
635.965485	0.130486
636.172379	0.130565
636.379256	0.130511
636.586114	0.130728
636.792954	0.130999
636.999775	0.130996
637.206579	0.131020
637.413364	0.130901
637.620131	0.130973
637.826880	0.131151
638.033610	0.131185
638.240323	0.131168
638.447017	0.131302
638.653692	0.131467
638.860350	0.131835
639.066990	0.131956
639.273611	0.132088
639.480214	0.132224
639.686798	0.132160
639.893365	0.132287
640.099913	0.132427
640.306443	0.132131
640.512955	0.131975
640.719449	0.131888
640.925924	0.131998
641.132381	0.132174
641.338820	0.132463
641.545241	0.132903
641.751644	0.133179
641.958028	0.133396
642.164394	0.133986
642.370742	0.134166
642.577071	0.134629
642.783383	0.134910
642.989676	0.134937
643.195951	0.134684
643.402207	0.134721
643.608446	0.134642
643.814666	0.134571
644.020868	0.134585
644.227052	0.134725
644.433218	0.134471
644.639365	0.134455
644.845494	0.134711
645.051605	0.134807
645.257698	0.134964
645.463772	0.135035
645.669828	0.135257
645.875866	0.135304
646.081886	0.135229
646.287888	0.135529
646.493871	0.135497
646.699836	0.135293
646.905783	0.135434
647.111712	0.135101
647.317622	0.135270
647.523514	0.135149
647.729388	0.135085
647.935244	0.135319
648.141082	0.135487
648.346901	0.135677
648.552702	0.136015
648.758485	0.136005
648.964250	0.136397
649.169996	0.136365
649.375724	0.136718
649.581434	0.136818
649.787126	0.137003
649.992800	0.136874
650.198455	0.137015
650.404092	0.137020
650.609711	0.137361
650.815311	0.137366
651.020894	0.137471
651.226458	0.137669
651.432004	0.137916
651.637532	0.137933
651.843041	0.138171
652.048532	0.138142
652.254006	0.138249
652.459460	0.138207
652.664897	0.138419
652.870315	0.138409
653.075716	0.138377
653.281097	0.138343
653.486461	0.138379
653.691807	0.138505
653.897134	0.138646
654.102443	0.138679
654.307734	0.138844
654.513006	0.138829
654.718261	0.138900
654.923497	0.138962
655.128715	0.139160
655.333915	0.139272
655.539096	0.139133
655.744259	0.139136
655.949404	0.139258
656.154531	0.139221
656.359640	0.139181
656.564730	0.139466
656.769802	0.139395
656.974856	0.139468
657.179892	0.139537
657.384909	0.139593
657.589908	0.139813
657.794889	0.139865
657.999852	0.139967
658.204797	0.140320
658.409723	0.140410
658.614631	0.140610
658.819521	0.140696
659.024393	0.140739
659.229246	0.140790
659.434081	0.140879
659.638898	0.140904
659.843697	0.141088
660.048478	0.141099
660.253240	0.141364
660.457984	0.141375
660.662710	0.141503
660.867417	0.141670
661.072107	0.141927
661.276778	0.142097
661.481431	0.142077
661.686066	0.142155
661.890682	0.142313
662.095281	0.142336
662.299861	0.142516
662.504422	0.142551
662.708966	0.142457
662.913491	0.142381
663.117999	0.142379
663.322488	0.142605
663.526958	0.142820
663.731411	0.142749
663.935845	0.142644
664.140261	0.142704
664.344659	0.142634
664.549038	0.142918
664.753400	0.143260
664.957743	0.143315
665.162068	0.143465
665.366375	0.143452
665.570663	0.143446
665.774933	0.143542
665.979185	0.143520
666.183419	0.143599
666.387635	0.143659
666.591832	0.143677
666.796011	0.143859
667.000172	0.143890
667.204315	0.143972
667.408439	0.144208
667.612545	0.144396
667.816634	0.144434
668.020703	0.144561
668.224755	0.144595
668.428788	0.144575
668.632803	0.144451
668.836800	0.144548
669.040779	0.144711
669.244739	0.144686
669.448681	0.144921
669.652605	0.145210
669.856511	0.145441
670.060399	0.145422
670.264268	0.145779
670.468119	0.146065
670.671952	0.146281
670.875767	0.146291
671.079563	0.146606
671.283341	0.146412
671.487101	0.146399
671.690843	0.146596
671.894567	0.146794
672.098272	0.146682
672.301959	0.146799
672.505628	0.146840
672.709278	0.146894
672.912911	0.146933
673.116525	0.147101
673.320121	0.147305
673.523699	0.147579
673.727258	0.147957
673.930799	0.148140
674.134322	0.148157
674.337827	0.148406
674.541314	0.148801
674.744782	0.149117
674.948232	0.149352
675.151664	0.149699
675.355078	0.149615
675.558474	0.149599
675.761851	0.149873
675.965210	0.150091
676.168551	0.150127
676.371873	0.149838
676.575178	0.149685
676.778464	0.149763
676.981732	0.149457
677.184981	0.149520
677.388213	0.149512
677.591426	0.149389
677.794621	0.149562
677.997798	0.149656
678.200956	0.149942
678.404097	0.150212
678.607219	0.150448
678.810323	0.150672
679.013408	0.150758
679.216476	0.150874
679.419525	0.150955
679.622556	0.150986
679.825569	0.151169
680.028563	0.151374
680.231540	0.151356
680.434498	0.151248
680.637438	0.151573
680.840359	0.151767
681.043263	0.151974
681.246148	0.152292
681.449015	0.152258
681.651864	0.152131
681.854694	0.152221
682.057506	0.152248
682.260301	0.152474
682.463076	0.152516
682.665834	0.152430
682.868573	0.152437
683.071295	0.152206
683.273998	0.152397
683.476682	0.152509
683.679349	0.152327
683.881997	0.152673
684.084627	0.152582
684.287239	0.152515
684.489833	0.152719
684.692408	0.152834
684.894965	0.152951
685.097504	0.152997
685.300025	0.153197
685.502527	0.153538
685.705012	0.153365
685.907478	0.153495
686.109925	0.153468
686.312355	0.153489
686.514766	0.153561
686.717159	0.153690
686.919534	0.153799
687.121891	0.153693
687.324230	0.153565
687.526550	0.153697
687.728852	0.153838
687.931136	0.153982
688.133401	0.153993
688.335649	0.154063
688.537878	0.154391
688.740089	0.154490
688.942281	0.154671
689.144456	0.154930
689.346612	0.154993
689.548750	0.155006
689.750870	0.155339
689.952971	0.155258
690.155055	0.155335
690.357120	0.155148
690.559167	0.155174
690.761195	0.155319
690.963206	0.155369
691.165198	0.155332
691.367172	0.155471
691.569128	0.155231
691.771065	0.155450
691.972984	0.155436
692.174885	0.155565
692.376768	0.155606
692.578633	0.155424
692.780479	0.155443
692.982308	0.155758
693.184118	0.155849
693.385909	0.156079
