sample name	sample
index	1422
start time	 05-10-2021  12:11:35 PM


Wavelength (nm)	Absorbance
494.344910	-0.029186
494.563924	-0.029186
494.782919	-0.029186
495.001897	-0.064660
495.220856	-0.018462
495.439797	-0.016753
495.658719	-0.009132
495.877624	-0.000729
496.096510	0.009089
496.315378	0.017338
496.534227	0.021407
496.753059	0.033880
496.971872	0.033332
497.190667	0.086938
497.409444	0.108036
497.628203	0.119484
497.846943	0.122444
498.065665	0.124202
498.284369	0.126140
498.503055	0.128853
498.721723	0.130035
498.940372	0.130488
499.159003	0.129422
499.377616	0.130180
499.596210	0.128932
499.814787	0.128397
500.033345	0.128686
500.251885	0.128456
500.470406	0.128043
500.688910	0.127350
500.907395	0.126656
501.125862	0.127508
501.344311	0.127529
501.562742	0.128493
501.781154	0.129529
501.999548	0.130354
502.217924	0.131738
502.436282	0.132667
502.654621	0.132637
502.872942	0.133450
503.091245	0.134490
503.309530	0.134599
503.527797	0.134045
503.746045	0.133211
503.964275	0.132740
504.182487	0.132999
504.400681	0.133030
504.618856	0.133291
504.837013	0.133057
505.055152	0.133173
505.273273	0.131987
505.491376	0.132220
505.709460	0.132431
505.927526	0.132784
506.145574	0.132486
506.363604	0.131448
506.581615	0.131917
506.799608	0.132207
507.017583	0.132206
507.235540	0.133120
507.453478	0.132718
507.671399	0.133184
507.889301	0.133050
508.107185	0.133307
508.325050	0.134250
508.542898	0.133859
508.760727	0.133960
508.978538	0.134057
509.196330	0.134294
509.414105	0.134780
509.631861	0.134522
509.849599	0.135155
510.067319	0.134816
510.285021	0.133634
510.502704	0.133727
510.720369	0.133392
510.938016	0.132625
511.155645	0.133302
511.373255	0.134087
511.590848	0.134655
511.808422	0.134786
512.025977	0.134695
512.243515	0.136658
512.461034	0.136725
512.678536	0.137808
512.896018	0.138727
513.113483	0.139400
513.330930	0.138818
513.548358	0.139687
513.765768	0.138871
513.983160	0.138655
514.200533	0.137998
514.417889	0.138567
514.635226	0.137616
514.852545	0.138307
515.069845	0.137875
515.287128	0.138703
515.504392	0.138152
515.721638	0.139080
515.938866	0.139659
516.156075	0.139081
516.373267	0.138997
516.590440	0.140288
516.807594	0.140007
517.024731	0.140024
517.241850	0.140288
517.458950	0.140654
517.676032	0.140814
517.893095	0.141036
518.110141	0.141294
518.327168	0.141649
518.544177	0.141026
518.761168	0.141373
518.978141	0.141730
519.195095	0.141104
519.412031	0.141021
519.628949	0.140739
519.845849	0.141566
520.062731	0.141616
520.279594	0.142287
520.496439	0.143012
520.713266	0.143144
520.930074	0.143193
521.146865	0.143946
521.363637	0.144726
521.580391	0.146061
521.797127	0.145393
522.013844	0.146225
522.230543	0.146496
522.447224	0.145770
522.663887	0.145361
522.880532	0.145743
523.097158	0.145602
523.313766	0.145116
523.530356	0.144468
523.746928	0.144616
523.963481	0.145029
524.180017	0.144445
524.396534	0.145769
524.613032	0.146246
524.829513	0.146418
525.045975	0.146207
525.262420	0.146484
525.478845	0.147100
525.695253	0.148006
525.911643	0.147127
526.128014	0.147791
526.344367	0.147216
526.560702	0.147631
526.777018	0.147759
526.993316	0.147848
527.209597	0.148361
527.425858	0.147895
527.642102	0.148003
527.858328	0.148966
528.074535	0.149392
528.290724	0.149864
528.506894	0.150022
528.723047	0.150986
528.939181	0.151472
529.155297	0.151398
529.371395	0.151626
529.587475	0.152085
529.803536	0.152564
530.019579	0.152865
530.235604	0.152974
530.451611	0.152769
530.667600	0.151760
530.883570	0.152185
531.099522	0.152810
531.315456	0.153560
531.531372	0.153694
531.747269	0.153854
531.963148	0.153574
532.179009	0.153607
532.394852	0.153811
532.610676	0.154852
532.826482	0.155175
533.042271	0.154802
533.258040	0.154893
533.473792	0.154615
533.689525	0.154650
533.905240	0.155241
534.120937	0.155853
534.336616	0.156503
534.552277	0.156645
534.767919	0.156465
534.983543	0.156912
535.199149	0.157166
535.414736	0.157643
535.630306	0.158391
535.845857	0.158453
536.061390	0.158354
536.276904	0.158473
536.492401	0.158835
536.707879	0.159887
536.923339	0.160361
537.138781	0.160314
537.354204	0.160501
537.569610	0.160454
537.784997	0.160535
538.000366	0.161068
538.215716	0.161021
538.431049	0.161042
538.646363	0.160690
538.861659	0.161108
539.076937	0.161783
539.292196	0.161797
539.507438	0.161704
539.722661	0.161741
539.937866	0.162248
540.153052	0.162402
540.368221	0.162403
540.583371	0.162282
540.798503	0.162255
541.013617	0.162680
541.228712	0.163180
541.443789	0.163155
541.658848	0.163410
541.873889	0.163391
542.088912	0.164187
542.303916	0.164422
542.518902	0.165027
542.733870	0.165070
542.948820	0.164922
543.163752	0.165243
543.378665	0.165854
543.593560	0.166509
543.808437	0.166768
544.023295	0.166318
544.238136	0.166760
544.452958	0.167127
544.667762	0.167617
544.882548	0.168036
545.097315	0.168207
545.312064	0.168325
545.526795	0.168312
545.741508	0.168841
545.956203	0.169667
546.170879	0.169704
546.385537	0.169803
546.600177	0.169816
546.814799	0.170065
547.029402	0.170451
547.243988	0.170622
547.458555	0.171090
547.673103	0.171086
547.887634	0.171137
548.102146	0.171510
548.316640	0.171577
548.531116	0.172091
548.745574	0.172226
548.960013	0.172340
549.174435	0.172641
549.388838	0.172681
549.603222	0.172473
549.817589	0.172727
550.031937	0.172304
550.246267	0.172374
550.460579	0.171964
550.674873	0.171745
550.889148	0.171538
551.103405	0.171917
551.317644	0.171951
551.531865	0.172438
551.746068	0.172580
551.960252	0.173211
552.174418	0.172994
552.388566	0.173504
552.602696	0.173856
552.816807	0.174343
553.030900	0.174491
553.244975	0.174516
553.459032	0.174593
553.673070	0.175002
553.887091	0.174908
554.101093	0.175464
554.315077	0.175621
554.529042	0.175564
554.742990	0.175654
554.956919	0.175129
555.170830	0.175529
555.384722	0.175415
555.598597	0.174882
555.812453	0.174930
556.026291	0.175092
556.240111	0.175002
556.453913	0.175006
556.667696	0.174840
556.881461	0.175505
557.095208	0.175680
557.308937	0.175896
557.522647	0.176267
557.736339	0.176514
557.950013	0.176554
558.163669	0.176862
558.377307	0.177398
558.590926	0.177376
558.804527	0.177580
559.018110	0.177085
559.231675	0.176863
559.445221	0.176587
559.658749	0.176607
559.872259	0.176804
560.085751	0.176762
560.299225	0.176476
560.512680	0.176829
560.726117	0.176738
560.939536	0.177394
561.152937	0.178256
561.366319	0.178896
561.579683	0.179271
561.793029	0.179815
562.006357	0.179867
562.219667	0.180309
562.432958	0.180384
562.646231	0.180317
562.859486	0.180412
563.072723	0.180278
563.285941	0.180067
563.499141	0.180001
563.712323	0.179867
563.925487	0.180133
564.138632	0.180306
564.351760	0.180211
564.564869	0.180562
564.777960	0.180521
564.991032	0.180681
565.204087	0.181376
565.417123	0.181671
565.630141	0.181925
565.843140	0.182477
566.056122	0.182803
566.269085	0.183038
566.482030	0.183028
566.694957	0.183242
566.907866	0.183115
567.120756	0.182833
567.333628	0.183019
567.546482	0.182884
567.759318	0.182446
567.972135	0.182257
568.184935	0.182491
568.397716	0.183039
568.610478	0.183169
568.823223	0.182951
569.035949	0.183247
569.248657	0.183530
569.461347	0.183750
569.674019	0.184122
569.886672	0.184300
570.099308	0.184521
570.311925	0.184549
570.524523	0.184724
570.737104	0.185211
570.949666	0.184834
571.162210	0.184731
571.374736	0.184893
571.587244	0.185053
571.799733	0.185424
572.012205	0.185224
572.224658	0.185303
572.437092	0.185437
572.649509	0.185572
572.861907	0.185991
573.074287	0.186168
573.286649	0.186203
573.498993	0.186325
573.711318	0.186308
573.923625	0.186536
574.135914	0.186797
574.348185	0.186979
574.560438	0.187249
574.772672	0.187620
574.984888	0.187887
575.197086	0.187979
575.409266	0.188180
575.621427	0.188360
575.833570	0.189051
576.045695	0.188979
576.257802	0.189240
576.469890	0.189155
576.681961	0.189200
576.894013	0.189334
577.106046	0.189911
577.318062	0.190192
577.530059	0.190171
577.742039	0.190207
577.954000	0.190472
578.165942	0.190578
578.377867	0.190654
578.589773	0.191179
578.801661	0.191066
579.013531	0.190850
579.225382	0.191029
579.437216	0.191107
579.649031	0.190843
579.860828	0.190850
580.072606	0.191109
580.284367	0.191488
580.496109	0.191362
580.707833	0.191271
580.919539	0.191622
581.131227	0.191813
581.342896	0.191846
581.554547	0.192261
581.766180	0.192694
581.977795	0.192566
582.189391	0.193041
582.400969	0.192560
582.612529	0.193203
582.824071	0.193326
583.035595	0.193204
583.247100	0.193743
583.458587	0.193806
583.670056	0.193603
583.881506	0.194014
584.092939	0.194113
584.304353	0.194767
584.515749	0.195004
584.727127	0.195194
584.938486	0.195313
585.149828	0.195368
585.361151	0.195771
585.572456	0.196112
585.783742	0.196254
585.995011	0.196553
586.206261	0.196696
586.417493	0.196813
586.628706	0.197063
586.839902	0.197564
587.051079	0.197859
587.262238	0.197580
587.473379	0.197344
587.684502	0.197304
587.895606	0.197089
588.106692	0.197102
588.317760	0.197100
588.528810	0.197247
588.739841	0.197146
588.950855	0.197221
589.161850	0.197370
589.372827	0.197918
589.583785	0.198159
589.794726	0.198463
590.005648	0.198695
590.216552	0.199088
590.427437	0.198696
590.638305	0.198686
590.849154	0.198817
591.059985	0.199273
591.270798	0.199249
591.481592	0.199159
591.692369	0.199493
591.903127	0.199674
592.113867	0.199723
592.324588	0.200078
592.535292	0.200549
592.745977	0.200619
592.956644	0.200712
593.167293	0.200893
593.377923	0.201383
593.588536	0.201115
593.799130	0.201562
594.009706	0.201516
594.220263	0.201455
594.430803	0.201699
594.641324	0.201953
594.851827	0.202375
595.062312	0.202808
595.272778	0.203109
595.483227	0.203471
595.693657	0.203248
595.904069	0.203734
596.114462	0.204588
596.324838	0.204386
596.535195	0.204121
596.745534	0.204050
596.955855	0.203878
597.166157	0.203691
597.376441	0.203774
597.586707	0.204221
597.796955	0.204069
598.007185	0.203605
598.217396	0.203749
598.427589	0.204207
598.637764	0.204275
598.847921	0.204626
599.058060	0.205102
599.268180	0.205435
599.478282	0.205409
599.688366	0.205575
599.898431	0.206174
600.108479	0.206434
600.318508	0.206506
600.528519	0.206424
600.738511	0.206580
600.948486	0.206232
601.158442	0.206169
601.368380	0.206090
601.578300	0.206156
601.788202	0.205744
601.998085	0.205764
602.207950	0.205643
602.417797	0.205761
602.627626	0.205743
602.837436	0.205937
603.047228	0.206275
603.257002	0.206526
603.466758	0.207022
603.676496	0.207343
603.886215	0.207328
604.095916	0.207639
604.305599	0.207771
604.515264	0.207749
604.724910	0.208173
604.934538	0.207821
605.144148	0.208126
605.353740	0.207921
605.563314	0.208126
605.772869	0.208426
605.982406	0.208660
606.191925	0.209003
606.401425	0.209242
606.610908	0.209050
606.820372	0.209213
607.029818	0.209407
607.239246	0.209497
607.448655	0.209625
607.658047	0.209613
607.867420	0.209675
608.076775	0.209719
608.286111	0.209951
608.495430	0.210459
608.704730	0.210736
608.914012	0.210770
609.123275	0.211170
609.332521	0.211205
609.541748	0.211462
609.750957	0.211855
609.960148	0.211984
610.169321	0.212189
610.378475	0.212242
610.587611	0.212503
610.796729	0.212441
611.005829	0.212543
611.214910	0.212829
611.423974	0.212992
611.633019	0.212924
611.842045	0.213247
612.051054	0.213362
612.260044	0.213273
612.469017	0.213390
612.677970	0.213868
612.886906	0.213885
613.095824	0.213968
613.304723	0.214128
613.513604	0.214191
613.722467	0.214264
613.931311	0.214210
614.140138	0.214704
614.348946	0.214877
614.557736	0.214741
614.766507	0.214925
614.975261	0.215207
615.183996	0.215422
615.392713	0.215947
615.601412	0.216287
615.810092	0.216519
616.018754	0.216346
616.227399	0.216409
616.436024	0.216653
616.644632	0.216710
616.853222	0.216673
617.061793	0.216921
617.270346	0.216703
617.478880	0.216619
617.687397	0.216879
617.895895	0.217195
618.104375	0.217504
618.312837	0.217719
618.521281	0.218251
618.729706	0.218376
618.938113	0.218231
619.146502	0.218689
619.354873	0.218834
619.563226	0.218757
619.771560	0.218715
619.979876	0.218899
620.188174	0.218829
620.396453	0.218853
620.604715	0.219073
620.812958	0.219375
621.021183	0.218927
621.229390	0.219213
621.437578	0.219249
621.645748	0.219625
621.853900	0.219448
622.062034	0.219653
622.270150	0.219579
622.478247	0.219632
622.686326	0.219509
622.894387	0.220093
623.102430	0.220166
623.310454	0.220207
623.518461	0.220073
623.726449	0.220052
623.934418	0.219917
624.142370	0.219871
624.350303	0.220138
624.558218	0.220373
624.766115	0.220125
624.973994	0.220219
625.181855	0.220724
625.389697	0.220882
625.597521	0.221272
625.805327	0.221582
626.013114	0.221547
626.220883	0.221433
626.428634	0.221337
626.636367	0.221619
626.844082	0.221563
627.051778	0.221382
627.259457	0.221289
627.467117	0.221035
627.674758	0.221188
627.882382	0.221644
628.089987	0.221929
628.297574	0.222226
628.505143	0.222189
628.712694	0.222471
628.920226	0.222888
629.127740	0.223018
629.335236	0.223520
629.542714	0.223701
629.750174	0.223601
629.957615	0.223491
630.165038	0.223752
630.372443	0.224085
630.579829	0.223968
630.787198	0.224053
630.994548	0.224112
631.201880	0.224147
631.409194	0.223941
631.616489	0.224210
631.823766	0.224393
632.031025	0.224103
632.238266	0.224247
632.445489	0.224331
632.652693	0.224224
632.859879	0.224599
633.067047	0.225034
633.274197	0.225427
633.481329	0.225498
633.688442	0.225771
633.895537	0.226375
634.102614	0.226308
634.309672	0.226445
634.516713	0.226694
634.723735	0.226913
634.930739	0.226829
635.137724	0.226897
635.344692	0.227186
635.551641	0.227368
635.758572	0.227382
635.965485	0.227856
636.172379	0.228219
636.379256	0.228321
636.586114	0.228546
636.792954	0.228514
636.999775	0.228884
637.206579	0.228689
637.413364	0.229025
637.620131	0.229370
637.826880	0.229413
638.033610	0.229605
638.240323	0.229907
638.447017	0.229852
638.653692	0.230364
638.860350	0.230448
639.066990	0.230897
639.273611	0.230924
639.480214	0.230866
639.686798	0.231113
639.893365	0.231196
640.099913	0.231320
640.306443	0.231519
640.512955	0.231703
640.719449	0.231916
640.925924	0.231747
641.132381	0.231804
641.338820	0.232098
641.545241	0.232339
641.751644	0.232429
641.958028	0.232705
642.164394	0.232878
642.370742	0.232878
642.577071	0.232802
642.783383	0.233074
642.989676	0.233258
643.195951	0.233481
643.402207	0.233265
643.608446	0.233329
643.814666	0.233244
644.020868	0.233183
644.227052	0.233381
644.433218	0.233602
644.639365	0.233697
644.845494	0.233761
645.051605	0.233604
645.257698	0.234001
645.463772	0.234212
645.669828	0.234458
645.875866	0.234833
646.081886	0.234723
646.287888	0.234803
646.493871	0.235223
646.699836	0.235307
646.905783	0.235486
647.111712	0.235509
647.317622	0.235608
647.523514	0.235645
647.729388	0.235660
647.935244	0.235863
648.141082	0.236469
648.346901	0.236514
648.552702	0.236800
648.758485	0.236963
648.964250	0.237237
649.169996	0.237274
649.375724	0.237447
649.581434	0.237585
649.787126	0.237729
649.992800	0.237371
650.198455	0.237338
650.404092	0.237344
650.609711	0.237467
650.815311	0.237288
651.020894	0.237377
651.226458	0.237601
651.432004	0.237719
651.637532	0.237919
651.843041	0.237985
652.048532	0.238207
652.254006	0.238287
652.459460	0.238543
652.664897	0.238795
652.870315	0.239135
653.075716	0.239161
653.281097	0.239365
653.486461	0.239755
653.691807	0.240124
653.897134	0.240416
654.102443	0.240649
654.307734	0.240631
654.513006	0.240614
654.718261	0.240771
654.923497	0.240766
655.128715	0.240958
655.333915	0.240846
655.539096	0.241002
655.744259	0.241121
655.949404	0.241341
656.154531	0.241758
656.359640	0.242277
656.564730	0.242524
656.769802	0.243057
656.974856	0.243205
657.179892	0.243395
657.384909	0.243373
657.589908	0.243482
657.794889	0.243623
657.999852	0.243616
658.204797	0.243671
658.409723	0.243737
658.614631	0.243429
658.819521	0.243647
659.024393	0.243824
659.229246	0.244183
659.434081	0.244128
659.638898	0.244389
659.843697	0.244461
660.048478	0.244563
660.253240	0.244561
660.457984	0.244788
660.662710	0.244800
660.867417	0.244781
661.072107	0.244837
661.276778	0.245167
661.481431	0.245270
661.686066	0.245689
661.890682	0.245972
662.095281	0.246290
662.299861	0.246855
662.504422	0.247118
662.708966	0.247371
662.913491	0.247595
663.117999	0.247833
663.322488	0.248174
663.526958	0.248265
663.731411	0.248243
663.935845	0.248361
664.140261	0.248265
664.344659	0.248428
664.549038	0.248592
664.753400	0.248594
664.957743	0.248782
665.162068	0.248802
665.366375	0.249167
665.570663	0.249567
665.774933	0.249842
665.979185	0.250047
666.183419	0.250181
666.387635	0.250499
666.591832	0.250914
666.796011	0.250996
667.000172	0.251048
667.204315	0.250952
667.408439	0.250953
667.612545	0.250916
667.816634	0.251322
668.020703	0.251386
668.224755	0.251228
668.428788	0.251080
668.632803	0.251133
668.836800	0.251228
669.040779	0.251195
669.244739	0.251344
669.448681	0.251543
669.652605	0.251264
669.856511	0.251589
670.060399	0.251929
670.264268	0.252397
670.468119	0.252855
670.671952	0.253208
670.875767	0.253418
671.079563	0.253710
671.283341	0.253929
671.487101	0.254531
671.690843	0.254957
671.894567	0.255222
672.098272	0.255297
672.301959	0.255352
672.505628	0.255252
672.709278	0.255590
672.912911	0.255610
673.116525	0.255812
673.320121	0.255714
673.523699	0.255466
673.727258	0.255611
673.930799	0.255832
674.134322	0.256145
674.337827	0.256389
674.541314	0.256437
674.744782	0.256493
674.948232	0.256629
675.151664	0.256806
675.355078	0.257277
675.558474	0.257299
675.761851	0.257332
675.965210	0.257177
676.168551	0.257194
676.371873	0.257545
676.575178	0.257763
676.778464	0.258054
676.981732	0.258191
677.184981	0.257693
677.388213	0.257868
677.591426	0.257988
677.794621	0.258114
677.997798	0.258261
678.200956	0.258071
678.404097	0.258188
678.607219	0.258293
678.810323	0.258457
679.013408	0.259175
679.216476	0.259352
679.419525	0.259434
679.622556	0.259738
679.825569	0.259943
680.028563	0.260450
680.231540	0.260754
680.434498	0.260904
680.637438	0.261021
680.840359	0.261221
681.043263	0.261197
681.246148	0.261511
681.449015	0.261636
681.651864	0.261934
681.854694	0.261869
682.057506	0.261853
682.260301	0.261962
682.463076	0.262261
682.665834	0.262145
682.868573	0.262607
683.071295	0.262874
683.273998	0.263238
683.476682	0.263657
683.679349	0.263933
683.881997	0.264574
684.084627	0.264821
684.287239	0.265041
684.489833	0.265543
684.692408	0.265617
684.894965	0.265805
685.097504	0.265572
685.300025	0.265753
685.502527	0.265956
685.705012	0.265857
685.907478	0.265928
686.109925	0.265985
686.312355	0.265766
686.514766	0.265778
686.717159	0.265610
686.919534	0.266010
687.121891	0.265819
687.324230	0.265979
687.526550	0.266103
687.728852	0.266274
687.931136	0.266345
688.133401	0.266346
688.335649	0.266514
688.537878	0.266796
688.740089	0.266843
688.942281	0.266832
689.144456	0.266815
689.346612	0.266802
689.548750	0.266685
689.750870	0.266655
689.952971	0.267113
690.155055	0.267243
690.357120	0.267246
690.559167	0.267282
690.761195	0.267804
690.963206	0.267697
691.165198	0.267862
691.367172	0.268140
691.569128	0.268408
691.771065	0.268616
691.972984	0.268754
692.174885	0.269118
692.376768	0.269418
692.578633	0.269412
692.780479	0.269917
692.982308	0.270154
693.184118	0.270436
693.385909	0.270655
