sample name	sample
index	1075
start time	 04-22-2021  10:49:23 AM


Wavelength (nm)	Absorbance
494.344910	0.032354
494.563924	0.032354
494.782919	0.032354
495.001897	-0.047271
495.220856	0.002764
495.439797	0.000588
495.658719	-0.013042
495.877624	-0.012229
496.096510	-0.003042
496.315378	0.006874
496.534227	-0.006275
496.753059	-0.002031
496.971872	-0.005290
497.190667	0.088167
497.409444	0.133946
497.628203	0.155485
497.846943	0.165887
498.065665	0.173079
498.284369	0.176527
498.503055	0.181010
498.721723	0.185118
498.940372	0.187163
499.159003	0.187622
499.377616	0.188821
499.596210	0.190221
499.814787	0.189811
500.033345	0.188427
500.251885	0.188373
500.470406	0.188915
500.688910	0.189282
500.907395	0.189850
501.125862	0.190245
501.344311	0.190246
501.562742	0.189565
501.781154	0.189834
501.999548	0.190360
502.217924	0.191560
502.436282	0.192276
502.654621	0.191468
502.872942	0.191915
503.091245	0.191790
503.309530	0.191360
503.527797	0.192156
503.746045	0.193300
503.964275	0.193745
504.182487	0.194708
504.400681	0.193713
504.618856	0.194379
504.837013	0.194680
505.055152	0.195362
505.273273	0.196336
505.491376	0.196596
505.709460	0.196548
505.927526	0.197889
506.145574	0.197028
506.363604	0.196909
506.581615	0.195609
506.799608	0.196120
507.017583	0.196075
507.235540	0.196556
507.453478	0.196307
507.671399	0.196054
507.889301	0.195715
508.107185	0.195442
508.325050	0.195935
508.542898	0.197814
508.760727	0.196761
508.978538	0.196605
509.196330	0.196573
509.414105	0.197233
509.631861	0.198038
509.849599	0.198528
510.067319	0.200120
510.285021	0.201367
510.502704	0.200854
510.720369	0.201644
510.938016	0.201868
511.155645	0.202558
511.373255	0.202920
511.590848	0.202807
511.808422	0.202327
512.025977	0.201414
512.243515	0.201717
512.461034	0.201122
512.678536	0.202502
512.896018	0.202675
513.113483	0.202916
513.330930	0.203079
513.548358	0.203946
513.765768	0.204212
513.983160	0.206116
514.200533	0.205298
514.417889	0.206736
514.635226	0.206141
514.852545	0.206506
515.069845	0.206230
515.287128	0.206001
515.504392	0.205648
515.721638	0.206590
515.938866	0.206161
516.156075	0.206969
516.373267	0.207205
516.590440	0.207485
516.807594	0.208300
517.024731	0.208902
517.241850	0.209318
517.458950	0.209855
517.676032	0.210152
517.893095	0.210183
518.110141	0.210688
518.327168	0.211831
518.544177	0.212165
518.761168	0.213070
518.978141	0.213509
519.195095	0.214705
519.412031	0.214656
519.628949	0.215999
519.845849	0.216361
520.062731	0.216398
520.279594	0.216302
520.496439	0.216729
520.713266	0.216086
520.930074	0.215642
521.146865	0.214996
521.363637	0.215999
521.580391	0.215272
521.797127	0.215948
522.013844	0.216339
522.230543	0.216185
522.447224	0.216183
522.663887	0.216661
522.880532	0.217796
523.097158	0.217276
523.313766	0.217596
523.530356	0.218070
523.746928	0.218984
523.963481	0.219142
524.180017	0.218959
524.396534	0.219460
524.613032	0.219604
524.829513	0.219876
525.045975	0.221297
525.262420	0.221005
525.478845	0.221337
525.695253	0.221225
525.911643	0.222281
526.128014	0.222897
526.344367	0.223432
526.560702	0.223845
526.777018	0.224494
526.993316	0.224989
527.209597	0.225016
527.425858	0.225341
527.642102	0.225263
527.858328	0.225250
528.074535	0.225638
528.290724	0.226542
528.506894	0.227503
528.723047	0.227660
528.939181	0.228117
529.155297	0.228907
529.371395	0.229508
529.587475	0.230505
529.803536	0.230706
530.019579	0.231791
530.235604	0.231825
530.451611	0.232363
530.667600	0.232809
530.883570	0.232315
531.099522	0.233100
531.315456	0.232305
531.531372	0.231929
531.747269	0.232242
531.963148	0.231949
532.179009	0.232301
532.394852	0.231809
532.610676	0.232265
532.826482	0.233043
533.042271	0.233274
533.258040	0.234728
533.473792	0.234765
533.689525	0.235503
533.905240	0.235907
534.120937	0.236103
534.336616	0.236418
534.552277	0.236302
534.767919	0.236223
534.983543	0.237205
535.199149	0.237175
535.414736	0.238000
535.630306	0.238790
535.845857	0.239160
536.061390	0.239856
536.276904	0.240809
536.492401	0.241297
536.707879	0.242346
536.923339	0.242363
537.138781	0.243297
537.354204	0.244005
537.569610	0.244255
537.784997	0.243899
538.000366	0.243546
538.215716	0.243915
538.431049	0.243996
538.646363	0.244283
538.861659	0.244278
539.076937	0.244991
539.292196	0.245475
539.507438	0.245376
539.722661	0.246528
539.937866	0.247431
540.153052	0.247799
540.368221	0.248352
540.583371	0.248223
540.798503	0.248658
541.013617	0.248200
541.228712	0.247853
541.443789	0.248036
541.658848	0.248663
541.873889	0.249259
542.088912	0.249425
542.303916	0.249108
542.518902	0.249645
542.733870	0.249919
542.948820	0.250182
543.163752	0.251155
543.378665	0.251180
543.593560	0.251145
543.808437	0.250723
544.023295	0.250878
544.238136	0.251953
544.452958	0.252456
544.667762	0.252697
544.882548	0.253165
545.097315	0.252972
545.312064	0.253183
545.526795	0.253431
545.741508	0.253656
545.956203	0.254007
546.170879	0.254077
546.385537	0.254285
546.600177	0.254667
546.814799	0.254475
547.029402	0.255184
547.243988	0.255684
547.458555	0.255385
547.673103	0.255686
547.887634	0.256408
548.102146	0.256701
548.316640	0.257030
548.531116	0.257376
548.745574	0.258198
548.960013	0.258561
549.174435	0.259151
549.388838	0.260009
549.603222	0.260846
549.817589	0.261068
550.031937	0.261598
550.246267	0.261811
550.460579	0.262298
550.674873	0.262738
550.889148	0.262689
551.103405	0.262801
551.317644	0.262943
551.531865	0.262863
551.746068	0.262317
551.960252	0.262463
552.174418	0.262664
552.388566	0.263231
552.602696	0.262829
552.816807	0.263086
553.030900	0.263344
553.244975	0.263138
553.459032	0.263314
553.673070	0.264083
553.887091	0.264141
554.101093	0.264247
554.315077	0.263940
554.529042	0.264693
554.742990	0.264963
554.956919	0.265147
555.170830	0.265642
555.384722	0.266039
555.598597	0.265929
555.812453	0.265692
556.026291	0.266127
556.240111	0.266550
556.453913	0.266012
556.667696	0.265926
556.881461	0.265403
557.095208	0.265417
557.308937	0.265321
557.522647	0.265583
557.736339	0.266102
557.950013	0.265856
558.163669	0.265360
558.377307	0.265904
558.590926	0.265897
558.804527	0.266835
559.018110	0.266842
559.231675	0.267669
559.445221	0.267611
559.658749	0.268273
559.872259	0.268685
560.085751	0.269042
560.299225	0.269070
560.512680	0.269156
560.726117	0.269170
560.939536	0.269691
561.152937	0.269170
561.366319	0.268988
561.579683	0.268289
561.793029	0.268718
562.006357	0.269080
562.219667	0.269272
562.432958	0.269352
562.646231	0.269713
562.859486	0.269987
563.072723	0.270184
563.285941	0.270641
563.499141	0.271116
563.712323	0.271239
563.925487	0.271133
564.138632	0.271220
564.351760	0.271797
564.564869	0.271601
564.777960	0.271622
564.991032	0.271705
565.204087	0.272088
565.417123	0.272405
565.630141	0.272710
565.843140	0.272741
566.056122	0.272853
566.269085	0.272897
566.482030	0.273112
566.694957	0.273355
566.907866	0.273410
567.120756	0.273752
567.333628	0.273519
567.546482	0.273626
567.759318	0.273845
567.972135	0.274480
568.184935	0.274677
568.397716	0.274892
568.610478	0.275203
568.823223	0.275695
569.035949	0.275382
569.248657	0.275778
569.461347	0.275804
569.674019	0.276151
569.886672	0.275913
570.099308	0.276074
570.311925	0.276283
570.524523	0.276393
570.737104	0.276703
570.949666	0.277187
571.162210	0.277612
571.374736	0.277446
571.587244	0.277305
571.799733	0.277276
572.012205	0.276996
572.224658	0.277199
572.437092	0.277251
572.649509	0.277126
572.861907	0.277582
573.074287	0.277615
573.286649	0.277888
573.498993	0.277801
573.711318	0.278080
573.923625	0.278352
574.135914	0.278506
574.348185	0.278310
574.560438	0.278397
574.772672	0.278035
574.984888	0.277860
575.197086	0.277772
575.409266	0.278274
575.621427	0.278206
575.833570	0.278635
576.045695	0.278710
576.257802	0.278722
576.469890	0.278881
576.681961	0.279183
576.894013	0.279689
577.106046	0.280107
577.318062	0.280389
577.530059	0.280618
577.742039	0.280241
577.954000	0.280053
578.165942	0.280187
578.377867	0.280149
578.589773	0.280005
578.801661	0.280283
579.013531	0.280192
579.225382	0.280192
579.437216	0.280665
579.649031	0.281551
579.860828	0.281218
580.072606	0.281668
580.284367	0.281895
580.496109	0.282226
580.707833	0.282156
580.919539	0.282389
581.131227	0.282497
581.342896	0.282351
581.554547	0.282267
581.766180	0.283025
581.977795	0.283416
582.189391	0.283673
582.400969	0.283930
582.612529	0.283947
582.824071	0.283920
583.035595	0.284289
583.247100	0.284782
583.458587	0.284551
583.670056	0.284917
583.881506	0.284981
584.092939	0.285043
584.304353	0.285217
584.515749	0.285237
584.727127	0.285607
584.938486	0.285749
585.149828	0.285870
585.361151	0.286417
585.572456	0.286586
585.783742	0.286809
585.995011	0.287332
586.206261	0.287553
586.417493	0.287642
586.628706	0.287889
586.839902	0.287916
587.051079	0.287967
587.262238	0.287703
587.473379	0.287482
587.684502	0.287254
587.895606	0.286824
588.106692	0.287265
588.317760	0.287701
588.528810	0.287919
588.739841	0.288174
588.950855	0.287759
589.161850	0.288021
589.372827	0.288847
589.583785	0.289099
589.794726	0.289212
590.005648	0.289063
590.216552	0.288855
590.427437	0.288304
590.638305	0.288379
590.849154	0.288852
591.059985	0.289281
591.270798	0.288477
591.481592	0.288831
591.692369	0.289374
591.903127	0.289683
592.113867	0.290217
592.324588	0.290925
592.535292	0.290858
592.745977	0.291029
592.956644	0.291492
593.167293	0.292029
593.377923	0.291988
593.588536	0.292370
593.799130	0.291882
594.009706	0.291838
594.220263	0.291987
594.430803	0.292450
594.641324	0.293054
594.851827	0.292453
595.062312	0.292828
595.272778	0.292856
595.483227	0.292444
595.693657	0.292897
595.904069	0.293421
596.114462	0.293580
596.324838	0.293302
596.535195	0.293027
596.745534	0.293509
596.955855	0.293609
597.166157	0.294156
597.376441	0.294565
597.586707	0.294589
597.796955	0.294590
598.007185	0.294692
598.217396	0.295212
598.427589	0.295365
598.637764	0.295623
598.847921	0.295620
599.058060	0.295206
599.268180	0.295458
599.478282	0.295674
599.688366	0.295680
599.898431	0.295889
600.108479	0.296084
600.318508	0.296326
600.528519	0.296521
600.738511	0.296688
600.948486	0.297105
601.158442	0.297225
601.368380	0.297528
601.578300	0.297791
601.788202	0.298127
601.998085	0.298194
602.207950	0.298421
602.417797	0.298536
602.627626	0.298633
602.837436	0.298954
603.047228	0.298957
603.257002	0.298949
603.466758	0.298918
603.676496	0.298647
603.886215	0.298673
604.095916	0.298542
604.305599	0.298750
604.515264	0.298968
604.724910	0.299423
604.934538	0.299727
605.144148	0.300133
605.353740	0.300670
605.563314	0.300974
605.772869	0.301163
605.982406	0.301378
606.191925	0.301428
606.401425	0.302282
606.610908	0.302069
606.820372	0.302149
607.029818	0.302094
607.239246	0.301725
607.448655	0.302018
607.658047	0.302015
607.867420	0.302634
608.076775	0.302819
608.286111	0.302230
608.495430	0.302328
608.704730	0.302669
608.914012	0.302502
609.123275	0.302742
609.332521	0.302757
609.541748	0.303024
609.750957	0.303262
609.960148	0.303508
610.169321	0.303754
610.378475	0.303667
610.587611	0.303467
610.796729	0.304076
611.005829	0.304479
611.214910	0.304720
611.423974	0.305149
611.633019	0.304762
611.842045	0.304997
612.051054	0.305020
612.260044	0.304984
612.469017	0.305158
612.677970	0.305464
612.886906	0.305410
613.095824	0.305511
613.304723	0.305454
613.513604	0.305469
613.722467	0.305335
613.931311	0.305566
614.140138	0.306201
614.348946	0.306334
614.557736	0.306206
614.766507	0.306483
614.975261	0.306413
615.183996	0.306444
615.392713	0.306663
615.601412	0.307108
615.810092	0.307067
616.018754	0.307136
616.227399	0.307628
616.436024	0.307568
616.644632	0.307544
616.853222	0.307776
617.061793	0.308033
617.270346	0.308512
617.478880	0.308458
617.687397	0.308925
617.895895	0.309240
618.104375	0.308941
618.312837	0.309016
618.521281	0.309122
618.729706	0.309129
618.938113	0.309304
619.146502	0.309263
619.354873	0.309229
619.563226	0.309333
619.771560	0.309240
619.979876	0.309846
620.188174	0.310313
620.396453	0.310293
620.604715	0.310391
620.812958	0.310551
621.021183	0.310658
621.229390	0.310724
621.437578	0.310544
621.645748	0.310413
621.853900	0.310453
622.062034	0.310383
622.270150	0.310714
622.478247	0.311166
622.686326	0.310933
622.894387	0.311192
623.102430	0.311268
623.310454	0.311293
623.518461	0.311894
623.726449	0.311834
623.934418	0.312123
624.142370	0.312290
624.350303	0.312312
624.558218	0.312741
624.766115	0.312991
624.973994	0.313117
625.181855	0.313653
625.389697	0.313596
625.597521	0.313619
625.805327	0.313738
626.013114	0.313880
626.220883	0.314305
626.428634	0.314489
626.636367	0.314373
626.844082	0.314642
627.051778	0.314727
627.259457	0.314871
627.467117	0.314912
627.674758	0.314951
627.882382	0.315273
628.089987	0.315212
628.297574	0.315421
628.505143	0.315753
628.712694	0.316371
628.920226	0.316496
629.127740	0.316721
629.335236	0.317032
629.542714	0.317488
629.750174	0.317544
629.957615	0.317793
630.165038	0.317938
630.372443	0.318060
630.579829	0.317862
630.787198	0.318011
630.994548	0.317903
631.201880	0.318252
631.409194	0.318065
631.616489	0.318139
631.823766	0.317831
632.031025	0.318057
632.238266	0.318091
632.445489	0.318110
632.652693	0.318125
632.859879	0.318612
633.067047	0.318716
633.274197	0.319016
633.481329	0.319094
633.688442	0.319509
633.895537	0.319573
634.102614	0.319779
634.309672	0.319951
634.516713	0.320135
634.723735	0.320262
634.930739	0.320531
635.137724	0.320624
635.344692	0.320759
635.551641	0.321157
635.758572	0.321280
635.965485	0.321106
636.172379	0.321213
636.379256	0.321602
636.586114	0.321585
636.792954	0.321736
636.999775	0.322048
637.206579	0.322305
637.413364	0.322535
637.620131	0.322876
637.826880	0.323385
638.033610	0.323862
638.240323	0.324217
638.447017	0.324398
638.653692	0.324643
638.860350	0.324561
639.066990	0.324633
639.273611	0.324713
639.480214	0.324682
639.686798	0.324995
639.893365	0.325046
640.099913	0.324955
640.306443	0.325131
640.512955	0.325029
640.719449	0.325521
640.925924	0.325734
641.132381	0.325679
641.338820	0.325936
641.545241	0.325855
641.751644	0.325883
641.958028	0.326114
642.164394	0.326282
642.370742	0.326377
642.577071	0.326131
642.783383	0.326260
642.989676	0.326680
643.195951	0.327027
643.402207	0.327048
643.608446	0.327033
643.814666	0.327032
644.020868	0.327245
644.227052	0.327359
644.433218	0.327796
644.639365	0.328011
644.845494	0.328213
645.051605	0.327970
645.257698	0.328121
645.463772	0.328562
645.669828	0.328673
645.875866	0.329169
646.081886	0.329813
646.287888	0.330119
646.493871	0.330538
646.699836	0.330720
646.905783	0.330944
647.111712	0.331648
647.317622	0.332119
647.523514	0.332523
647.729388	0.332333
647.935244	0.332251
648.141082	0.332417
648.346901	0.332621
648.552702	0.332770
648.758485	0.333199
648.964250	0.333036
649.169996	0.332629
649.375724	0.332728
649.581434	0.333221
649.787126	0.333284
649.992800	0.333422
650.198455	0.333569
650.404092	0.333619
650.609711	0.333740
650.815311	0.334288
651.020894	0.335076
651.226458	0.335439
651.432004	0.335520
651.637532	0.335930
651.843041	0.336258
652.048532	0.336460
652.254006	0.336670
652.459460	0.336765
652.664897	0.336673
652.870315	0.336954
653.075716	0.337182
653.281097	0.337423
653.486461	0.337539
653.691807	0.337545
653.897134	0.337684
654.102443	0.337922
654.307734	0.338155
654.513006	0.338384
654.718261	0.338315
654.923497	0.338443
655.128715	0.338749
655.333915	0.338895
655.539096	0.338903
655.744259	0.339053
655.949404	0.339380
656.154531	0.339692
656.359640	0.340066
656.564730	0.340249
656.769802	0.340216
656.974856	0.340037
657.179892	0.340245
657.384909	0.340538
657.589908	0.340781
657.794889	0.340703
657.999852	0.340877
658.204797	0.340976
658.409723	0.341090
658.614631	0.341355
658.819521	0.341727
659.024393	0.341910
659.229246	0.342329
659.434081	0.342515
659.638898	0.342630
659.843697	0.342840
660.048478	0.343162
660.253240	0.343511
660.457984	0.343918
660.662710	0.344259
660.867417	0.344787
661.072107	0.345137
661.276778	0.345584
661.481431	0.346515
661.686066	0.346868
661.890682	0.347060
662.095281	0.347379
662.299861	0.347663
662.504422	0.347774
662.708966	0.347947
662.913491	0.348093
663.117999	0.348103
663.322488	0.347997
663.526958	0.348110
663.731411	0.348367
663.935845	0.348435
664.140261	0.348570
664.344659	0.348639
664.549038	0.348519
664.753400	0.348459
664.957743	0.348666
665.162068	0.349004
665.366375	0.349069
665.570663	0.349079
665.774933	0.349228
665.979185	0.349541
666.183419	0.349683
666.387635	0.349985
666.591832	0.350514
666.796011	0.350890
667.000172	0.350698
667.204315	0.351208
667.408439	0.351526
667.612545	0.351752
667.816634	0.351685
668.020703	0.352142
668.224755	0.352664
668.428788	0.352746
668.632803	0.353013
668.836800	0.353519
669.040779	0.353641
669.244739	0.353689
669.448681	0.354028
669.652605	0.354411
669.856511	0.354563
670.060399	0.354733
670.264268	0.355000
670.468119	0.354887
670.671952	0.355283
670.875767	0.355617
671.079563	0.355903
671.283341	0.356146
671.487101	0.356471
671.690843	0.356991
671.894567	0.357229
672.098272	0.357486
672.301959	0.357944
672.505628	0.357676
672.709278	0.357620
672.912911	0.357929
673.116525	0.358240
673.320121	0.358485
673.523699	0.358527
673.727258	0.358576
673.930799	0.358740
674.134322	0.358968
674.337827	0.359437
674.541314	0.360053
674.744782	0.360315
674.948232	0.360431
675.151664	0.360731
675.355078	0.361024
675.558474	0.361474
675.761851	0.361579
675.965210	0.361845
676.168551	0.361999
676.371873	0.362022
676.575178	0.362105
676.778464	0.362345
676.981732	0.362509
677.184981	0.362575
677.388213	0.362391
677.591426	0.362641
677.794621	0.362920
677.997798	0.363441
678.200956	0.363592
678.404097	0.364045
678.607219	0.364431
678.810323	0.364376
679.013408	0.364452
679.216476	0.364838
679.419525	0.364997
679.622556	0.364991
679.825569	0.364887
680.028563	0.365092
680.231540	0.365196
680.434498	0.365229
680.637438	0.365693
680.840359	0.366041
681.043263	0.366129
681.246148	0.366617
681.449015	0.366854
681.651864	0.367147
681.854694	0.367084
682.057506	0.366913
682.260301	0.366944
682.463076	0.366945
682.665834	0.367031
682.868573	0.367279
683.071295	0.367312
683.273998	0.367627
683.476682	0.367858
683.679349	0.368481
683.881997	0.369322
684.084627	0.369943
684.287239	0.370295
684.489833	0.370749
684.692408	0.371038
684.894965	0.371348
685.097504	0.371506
685.300025	0.371856
685.502527	0.371819
685.705012	0.371646
685.907478	0.371103
686.109925	0.371303
686.312355	0.371516
686.514766	0.371718
686.717159	0.371647
686.919534	0.371872
687.121891	0.371698
687.324230	0.371900
687.526550	0.372367
687.728852	0.372931
687.931136	0.372972
688.133401	0.373098
688.335649	0.373178
688.537878	0.373483
688.740089	0.373555
688.942281	0.373577
689.144456	0.373808
689.346612	0.373812
689.548750	0.373998
689.750870	0.374035
689.952971	0.374189
690.155055	0.374456
690.357120	0.374774
690.559167	0.374852
690.761195	0.375208
690.963206	0.375222
691.165198	0.375299
691.367172	0.375551
691.569128	0.375984
691.771065	0.376155
691.972984	0.376320
692.174885	0.376413
692.376768	0.376703
692.578633	0.376782
692.780479	0.377022
692.982308	0.377301
693.184118	0.377514
693.385909	0.377581
