sample name	sample
index	972
start time	 04-14-2021  02:35:34 PM


Wavelength (nm)	Absorbance
494.344910	-0.083284
494.563924	-0.083284
494.782919	-0.083284
495.001897	0.009368
495.220856	-0.057546
495.439797	-0.045276
495.658719	-0.030482
495.877624	-0.032642
496.096510	-0.040446
496.315378	-0.025557
496.534227	-0.017897
496.753059	0.002671
496.971872	0.030414
497.190667	0.069386
497.409444	0.075856
497.628203	0.077198
497.846943	0.080707
498.065665	0.083664
498.284369	0.086297
498.503055	0.087211
498.721723	0.087317
498.940372	0.085552
499.159003	0.085107
499.377616	0.086572
499.596210	0.087450
499.814787	0.088024
500.033345	0.088731
500.251885	0.088133
500.470406	0.088472
500.688910	0.088515
500.907395	0.090343
501.125862	0.091309
501.344311	0.090102
501.562742	0.090049
501.781154	0.090856
501.999548	0.089754
502.217924	0.090307
502.436282	0.090245
502.654621	0.090305
502.872942	0.089732
503.091245	0.089422
503.309530	0.090764
503.527797	0.090239
503.746045	0.090341
503.964275	0.091071
504.182487	0.089262
504.400681	0.089238
504.618856	0.089908
504.837013	0.089958
505.055152	0.090313
505.273273	0.089864
505.491376	0.090331
505.709460	0.089434
505.927526	0.090570
506.145574	0.092684
506.363604	0.091453
506.581615	0.091679
506.799608	0.091718
507.017583	0.090964
507.235540	0.090732
507.453478	0.091559
507.671399	0.091896
507.889301	0.090413
508.107185	0.089909
508.325050	0.091221
508.542898	0.090666
508.760727	0.091616
508.978538	0.092303
509.196330	0.092548
509.414105	0.092549
509.631861	0.092574
509.849599	0.093356
510.067319	0.092749
510.285021	0.092939
510.502704	0.092160
510.720369	0.091716
510.938016	0.091575
511.155645	0.092082
511.373255	0.091680
511.590848	0.091347
511.808422	0.090531
512.025977	0.091536
512.243515	0.090859
512.461034	0.092250
512.678536	0.091790
512.896018	0.091774
513.113483	0.090468
513.330930	0.090773
513.548358	0.089955
513.765768	0.091078
513.983160	0.090735
514.200533	0.090848
514.417889	0.090160
514.635226	0.090630
514.852545	0.090624
515.069845	0.091205
515.287128	0.090685
515.504392	0.091880
515.721638	0.090811
515.938866	0.089656
516.156075	0.089982
516.373267	0.090245
516.590440	0.090097
516.807594	0.089833
517.024731	0.089795
517.241850	0.090337
517.458950	0.090807
517.676032	0.090993
517.893095	0.092600
518.110141	0.092646
518.327168	0.092743
518.544177	0.092928
518.761168	0.093426
518.978141	0.093964
519.195095	0.093833
519.412031	0.093246
519.628949	0.093354
519.845849	0.092302
520.062731	0.092830
520.279594	0.093157
520.496439	0.093218
520.713266	0.093496
520.930074	0.093043
521.146865	0.093606
521.363637	0.094162
521.580391	0.095279
521.797127	0.095920
522.013844	0.095942
522.230543	0.095835
522.447224	0.096121
522.663887	0.096074
522.880532	0.096595
523.097158	0.095884
523.313766	0.095745
523.530356	0.095256
523.746928	0.095675
523.963481	0.095032
524.180017	0.094981
524.396534	0.095242
524.613032	0.095528
524.829513	0.095026
525.045975	0.095235
525.262420	0.094818
525.478845	0.094597
525.695253	0.094573
525.911643	0.095603
526.128014	0.095990
526.344367	0.095704
526.560702	0.095868
526.777018	0.096393
526.993316	0.096858
527.209597	0.097492
527.425858	0.098445
527.642102	0.098368
527.858328	0.098131
528.074535	0.098349
528.290724	0.098286
528.506894	0.098642
528.723047	0.098818
528.939181	0.098795
529.155297	0.099199
529.371395	0.099013
529.587475	0.099658
529.803536	0.099282
530.019579	0.099537
530.235604	0.099681
530.451611	0.099711
530.667600	0.099791
530.883570	0.099893
531.099522	0.099835
531.315456	0.099678
531.531372	0.099245
531.747269	0.099885
531.963148	0.099449
532.179009	0.099804
532.394852	0.099432
532.610676	0.099755
532.826482	0.100325
533.042271	0.100592
533.258040	0.100773
533.473792	0.101124
533.689525	0.101310
533.905240	0.101740
534.120937	0.102215
534.336616	0.103073
534.552277	0.103099
534.767919	0.102983
534.983543	0.103349
535.199149	0.103992
535.414736	0.104525
535.630306	0.104808
535.845857	0.105221
536.061390	0.104915
536.276904	0.104725
536.492401	0.104970
536.707879	0.105447
536.923339	0.105530
537.138781	0.104878
537.354204	0.104554
537.569610	0.104475
537.784997	0.104253
538.000366	0.104834
538.215716	0.105089
538.431049	0.105447
538.646363	0.105830
538.861659	0.105844
539.076937	0.106207
539.292196	0.106541
539.507438	0.106565
539.722661	0.106881
539.937866	0.106872
540.153052	0.106716
540.368221	0.106902
540.583371	0.106733
540.798503	0.106961
541.013617	0.107223
541.228712	0.106989
541.443789	0.107426
541.658848	0.107675
541.873889	0.108095
542.088912	0.108158
542.303916	0.108392
542.518902	0.107969
542.733870	0.108121
542.948820	0.107951
543.163752	0.108499
543.378665	0.108805
543.593560	0.108988
543.808437	0.108651
544.023295	0.109245
544.238136	0.109366
544.452958	0.109664
544.667762	0.109306
544.882548	0.109617
545.097315	0.109534
545.312064	0.109180
545.526795	0.109240
545.741508	0.109349
545.956203	0.109033
546.170879	0.108756
546.385537	0.108692
546.600177	0.109102
546.814799	0.109545
547.029402	0.110041
547.243988	0.110012
547.458555	0.110096
547.673103	0.110242
547.887634	0.109954
548.102146	0.110785
548.316640	0.111373
548.531116	0.111474
548.745574	0.111042
548.960013	0.110833
549.174435	0.111528
549.388838	0.111377
549.603222	0.111745
549.817589	0.112149
550.031937	0.111357
550.246267	0.111705
550.460579	0.111843
550.674873	0.112137
550.889148	0.112169
551.103405	0.111651
551.317644	0.111794
551.531865	0.111890
551.746068	0.111974
551.960252	0.112052
552.174418	0.111511
552.388566	0.111352
552.602696	0.111623
552.816807	0.112046
553.030900	0.112440
553.244975	0.112389
553.459032	0.112051
553.673070	0.112549
553.887091	0.112692
554.101093	0.113142
554.315077	0.113546
554.529042	0.113931
554.742990	0.113948
554.956919	0.114237
555.170830	0.114425
555.384722	0.115183
555.598597	0.115224
555.812453	0.115731
556.026291	0.115559
556.240111	0.115437
556.453913	0.115334
556.667696	0.115267
556.881461	0.115109
557.095208	0.115196
557.308937	0.114907
557.522647	0.115053
557.736339	0.115167
557.950013	0.115556
558.163669	0.115957
558.377307	0.116029
558.590926	0.116560
558.804527	0.116761
559.018110	0.116800
559.231675	0.116978
559.445221	0.116943
559.658749	0.117092
559.872259	0.117015
560.085751	0.117047
560.299225	0.117339
560.512680	0.117380
560.726117	0.117418
560.939536	0.117874
561.152937	0.117908
561.366319	0.117727
561.579683	0.117912
561.793029	0.117925
562.006357	0.118062
562.219667	0.118223
562.432958	0.118115
562.646231	0.118132
562.859486	0.118081
563.072723	0.117670
563.285941	0.117568
563.499141	0.117252
563.712323	0.117493
563.925487	0.116927
564.138632	0.116195
564.351760	0.116415
564.564869	0.116779
564.777960	0.117053
564.991032	0.117542
565.204087	0.117687
565.417123	0.117819
565.630141	0.117849
565.843140	0.118337
566.056122	0.118661
566.269085	0.118590
566.482030	0.118587
566.694957	0.118756
566.907866	0.118808
567.120756	0.119353
567.333628	0.119563
567.546482	0.119562
567.759318	0.119905
567.972135	0.120310
568.184935	0.120495
568.397716	0.120540
568.610478	0.120524
568.823223	0.120543
569.035949	0.120206
569.248657	0.120313
569.461347	0.120823
569.674019	0.120540
569.886672	0.120336
570.099308	0.120503
570.311925	0.120686
570.524523	0.120446
570.737104	0.120802
570.949666	0.121205
571.162210	0.120875
571.374736	0.120760
571.587244	0.120555
571.799733	0.120531
572.012205	0.120272
572.224658	0.119751
572.437092	0.119789
572.649509	0.119808
572.861907	0.120103
573.074287	0.120703
573.286649	0.120623
573.498993	0.121380
573.711318	0.121809
573.923625	0.121818
574.135914	0.122156
574.348185	0.122664
574.560438	0.122738
574.772672	0.122524
574.984888	0.122750
575.197086	0.123124
575.409266	0.122983
575.621427	0.122909
575.833570	0.123120
576.045695	0.123287
576.257802	0.123258
576.469890	0.123442
576.681961	0.123455
576.894013	0.123045
577.106046	0.122790
577.318062	0.122864
577.530059	0.123000
577.742039	0.123262
577.954000	0.123719
578.165942	0.123545
578.377867	0.123655
578.589773	0.123709
578.801661	0.123941
579.013531	0.124067
579.225382	0.124306
579.437216	0.124470
579.649031	0.124001
579.860828	0.123814
580.072606	0.124011
580.284367	0.124043
580.496109	0.124403
580.707833	0.124606
580.919539	0.124989
581.131227	0.124899
581.342896	0.125035
581.554547	0.125745
581.766180	0.125513
581.977795	0.125960
582.189391	0.126158
582.400969	0.126104
582.612529	0.126201
582.824071	0.126008
583.035595	0.126314
583.247100	0.126268
583.458587	0.126529
583.670056	0.126811
583.881506	0.126465
584.092939	0.126454
584.304353	0.126627
584.515749	0.126814
584.727127	0.127162
584.938486	0.127190
585.149828	0.127469
585.361151	0.127126
585.572456	0.127626
585.783742	0.128066
585.995011	0.128208
586.206261	0.128411
586.417493	0.128248
586.628706	0.127975
586.839902	0.128273
587.051079	0.128101
587.262238	0.128386
587.473379	0.128373
587.684502	0.128489
587.895606	0.128560
588.106692	0.128501
588.317760	0.128727
588.528810	0.129117
588.739841	0.129101
588.950855	0.129220
589.161850	0.129366
589.372827	0.129473
589.583785	0.129486
589.794726	0.129756
590.005648	0.130044
590.216552	0.130105
590.427437	0.129921
590.638305	0.129743
590.849154	0.129920
591.059985	0.129432
591.270798	0.129395
591.481592	0.129545
591.692369	0.129490
591.903127	0.129572
592.113867	0.129716
592.324588	0.129912
592.535292	0.129982
592.745977	0.129751
592.956644	0.130293
593.167293	0.130650
593.377923	0.130654
593.588536	0.130818
593.799130	0.130807
594.009706	0.131053
594.220263	0.130961
594.430803	0.131205
594.641324	0.131774
594.851827	0.131846
595.062312	0.131807
595.272778	0.131833
595.483227	0.131901
595.693657	0.131446
595.904069	0.131458
596.114462	0.131918
596.324838	0.131892
596.535195	0.131584
596.745534	0.131766
596.955855	0.131518
597.166157	0.131591
597.376441	0.131487
597.586707	0.132046
597.796955	0.131914
598.007185	0.131542
598.217396	0.131985
598.427589	0.132157
598.637764	0.131981
598.847921	0.132211
599.058060	0.131971
599.268180	0.132399
599.478282	0.132127
599.688366	0.132172
599.898431	0.132052
600.108479	0.131457
600.318508	0.131594
600.528519	0.131467
600.738511	0.131638
600.948486	0.131626
601.158442	0.131156
601.368380	0.131475
601.578300	0.131686
601.788202	0.132039
601.998085	0.132377
602.207950	0.132564
602.417797	0.132836
602.627626	0.132675
602.837436	0.132921
603.047228	0.132766
603.257002	0.132710
603.466758	0.132412
603.676496	0.132904
603.886215	0.132775
604.095916	0.132410
604.305599	0.132370
604.515264	0.132438
604.724910	0.132588
604.934538	0.133060
605.144148	0.133232
605.353740	0.133445
605.563314	0.133306
605.772869	0.133346
605.982406	0.133633
606.191925	0.133949
606.401425	0.134297
606.610908	0.134414
606.820372	0.134414
607.029818	0.134545
607.239246	0.134514
607.448655	0.134421
607.658047	0.134971
607.867420	0.135634
608.076775	0.135764
608.286111	0.135645
608.495430	0.135953
608.704730	0.136048
608.914012	0.135726
609.123275	0.136025
609.332521	0.136091
609.541748	0.136018
609.750957	0.135820
609.960148	0.135425
610.169321	0.135610
610.378475	0.135566
610.587611	0.135654
610.796729	0.136035
611.005829	0.136061
611.214910	0.136423
611.423974	0.136586
611.633019	0.136424
611.842045	0.137044
612.051054	0.137217
612.260044	0.136943
612.469017	0.137060
612.677970	0.137213
612.886906	0.137391
613.095824	0.137236
613.304723	0.137388
613.513604	0.137568
613.722467	0.137417
613.931311	0.137318
614.140138	0.137483
614.348946	0.137161
614.557736	0.137142
614.766507	0.136910
614.975261	0.137020
615.183996	0.136582
615.392713	0.136439
615.601412	0.136416
615.810092	0.136395
616.018754	0.136379
616.227399	0.136806
616.436024	0.136917
616.644632	0.136893
616.853222	0.136809
617.061793	0.137108
617.270346	0.137401
617.478880	0.137466
617.687397	0.137579
617.895895	0.138004
618.104375	0.138081
618.312837	0.138317
618.521281	0.138496
618.729706	0.138663
618.938113	0.138825
619.146502	0.138882
619.354873	0.138864
619.563226	0.138975
619.771560	0.138944
619.979876	0.138659
620.188174	0.138517
620.396453	0.139153
620.604715	0.139109
620.812958	0.139050
621.021183	0.138779
621.229390	0.138961
621.437578	0.139023
621.645748	0.139188
621.853900	0.139403
622.062034	0.139238
622.270150	0.138892
622.478247	0.139139
622.686326	0.139227
622.894387	0.139581
623.102430	0.139770
623.310454	0.139905
623.518461	0.139918
623.726449	0.140074
623.934418	0.140488
624.142370	0.140558
624.350303	0.140701
624.558218	0.140935
624.766115	0.141004
624.973994	0.140762
625.181855	0.140799
625.389697	0.140715
625.597521	0.140678
625.805327	0.140670
626.013114	0.140660
626.220883	0.140656
626.428634	0.140524
626.636367	0.140801
626.844082	0.140864
627.051778	0.141124
627.259457	0.141301
627.467117	0.141598
627.674758	0.141762
627.882382	0.142082
628.089987	0.142045
628.297574	0.142243
628.505143	0.142055
628.712694	0.142447
628.920226	0.142209
629.127740	0.142119
629.335236	0.142163
629.542714	0.142107
629.750174	0.142106
629.957615	0.142102
630.165038	0.142348
630.372443	0.142485
630.579829	0.142443
630.787198	0.142506
630.994548	0.142825
631.201880	0.142950
631.409194	0.143004
631.616489	0.143123
631.823766	0.143509
632.031025	0.143336
632.238266	0.143467
632.445489	0.143655
632.652693	0.143695
632.859879	0.143818
633.067047	0.143790
633.274197	0.143721
633.481329	0.143517
633.688442	0.143237
633.895537	0.143119
634.102614	0.142898
634.309672	0.142914
634.516713	0.143316
634.723735	0.143190
634.930739	0.143270
635.137724	0.143557
635.344692	0.144016
635.551641	0.144417
635.758572	0.144836
635.965485	0.145125
636.172379	0.145343
636.379256	0.145123
636.586114	0.145062
636.792954	0.145052
636.999775	0.145206
637.206579	0.144832
637.413364	0.144649
637.620131	0.144528
637.826880	0.144800
638.033610	0.144508
638.240323	0.144750
638.447017	0.145013
638.653692	0.145236
638.860350	0.145312
639.066990	0.145513
639.273611	0.145720
639.480214	0.145906
639.686798	0.145760
639.893365	0.146099
640.099913	0.146223
640.306443	0.146390
640.512955	0.146415
640.719449	0.146714
640.925924	0.146859
641.132381	0.147067
641.338820	0.147273
641.545241	0.147385
641.751644	0.147338
641.958028	0.147150
642.164394	0.147119
642.370742	0.147196
642.577071	0.146991
642.783383	0.147110
642.989676	0.147052
643.195951	0.147169
643.402207	0.147205
643.608446	0.147375
643.814666	0.147583
644.020868	0.147648
644.227052	0.147770
644.433218	0.147827
644.639365	0.147879
644.845494	0.147939
645.051605	0.147670
645.257698	0.147589
645.463772	0.147717
645.669828	0.147779
645.875866	0.147941
646.081886	0.148063
646.287888	0.147966
646.493871	0.147859
646.699836	0.147879
646.905783	0.148054
647.111712	0.148207
647.317622	0.148272
647.523514	0.148324
647.729388	0.148290
647.935244	0.148320
648.141082	0.148728
648.346901	0.148871
648.552702	0.149049
648.758485	0.149079
648.964250	0.149241
649.169996	0.149292
649.375724	0.149398
649.581434	0.149479
649.787126	0.149415
649.992800	0.149377
650.198455	0.149625
650.404092	0.149722
650.609711	0.149847
650.815311	0.149758
651.020894	0.149591
651.226458	0.149625
651.432004	0.149854
651.637532	0.150090
651.843041	0.150200
652.048532	0.150376
652.254006	0.150697
652.459460	0.151082
652.664897	0.151498
652.870315	0.151869
653.075716	0.152247
653.281097	0.152261
653.486461	0.152381
653.691807	0.152561
653.897134	0.152649
654.102443	0.152664
654.307734	0.152579
654.513006	0.152712
654.718261	0.153031
654.923497	0.153105
655.128715	0.153096
655.333915	0.153180
655.539096	0.153251
655.744259	0.153373
655.949404	0.153507
656.154531	0.153851
656.359640	0.154032
656.564730	0.153911
656.769802	0.153906
656.974856	0.154182
657.179892	0.154260
657.384909	0.154556
657.589908	0.154710
657.794889	0.154746
657.999852	0.154621
658.204797	0.154565
658.409723	0.154765
658.614631	0.154895
658.819521	0.154976
659.024393	0.155054
659.229246	0.154881
659.434081	0.154863
659.638898	0.154968
659.843697	0.155275
660.048478	0.155403
660.253240	0.155452
660.457984	0.155563
660.662710	0.155647
660.867417	0.155658
661.072107	0.155717
661.276778	0.155780
661.481431	0.156103
661.686066	0.156098
661.890682	0.156226
662.095281	0.156414
662.299861	0.156556
662.504422	0.157022
662.708966	0.157453
662.913491	0.157845
663.117999	0.157911
663.322488	0.157865
663.526958	0.157877
663.731411	0.157911
663.935845	0.157677
664.140261	0.157780
664.344659	0.157581
664.549038	0.157328
664.753400	0.157567
664.957743	0.157837
665.162068	0.157752
665.366375	0.157797
665.570663	0.157724
665.774933	0.158114
665.979185	0.158435
666.183419	0.158707
666.387635	0.159083
666.591832	0.159005
666.796011	0.159209
667.000172	0.159419
667.204315	0.159758
667.408439	0.159996
667.612545	0.160009
667.816634	0.159663
668.020703	0.159646
668.224755	0.159827
668.428788	0.159862
668.632803	0.159924
668.836800	0.160033
669.040779	0.160055
669.244739	0.160350
669.448681	0.160472
669.652605	0.160711
669.856511	0.160754
670.060399	0.160742
670.264268	0.160855
670.468119	0.160841
670.671952	0.160906
670.875767	0.161082
671.079563	0.161266
671.283341	0.161313
671.487101	0.161513
671.690843	0.161616
671.894567	0.161594
672.098272	0.161706
672.301959	0.161798
672.505628	0.161869
672.709278	0.161917
672.912911	0.162065
673.116525	0.162368
673.320121	0.162494
673.523699	0.162614
673.727258	0.162942
673.930799	0.163069
674.134322	0.163376
674.337827	0.163675
674.541314	0.163804
674.744782	0.163802
674.948232	0.163997
675.151664	0.164024
675.355078	0.164176
675.558474	0.164235
675.761851	0.164312
675.965210	0.164174
676.168551	0.163984
676.371873	0.164022
676.575178	0.164163
676.778464	0.163934
676.981732	0.164137
677.184981	0.164322
677.388213	0.164190
677.591426	0.164462
677.794621	0.165023
677.997798	0.165230
678.200956	0.165613
678.404097	0.165560
678.607219	0.165953
678.810323	0.166029
679.013408	0.165920
679.216476	0.166482
679.419525	0.166651
679.622556	0.166596
679.825569	0.166744
680.028563	0.166669
680.231540	0.166854
680.434498	0.166989
680.637438	0.166995
680.840359	0.167031
681.043263	0.166955
681.246148	0.166697
681.449015	0.166642
681.651864	0.166889
681.854694	0.166976
682.057506	0.166999
682.260301	0.166970
682.463076	0.167298
682.665834	0.167557
682.868573	0.167784
683.071295	0.168115
683.273998	0.168218
683.476682	0.168456
683.679349	0.168588
683.881997	0.168788
684.084627	0.168823
684.287239	0.168727
684.489833	0.168822
684.692408	0.168774
684.894965	0.168776
685.097504	0.168689
685.300025	0.168615
685.502527	0.168612
685.705012	0.168727
685.907478	0.168874
686.109925	0.169004
686.312355	0.169125
686.514766	0.169364
686.717159	0.169318
686.919534	0.169730
687.121891	0.169715
687.324230	0.169826
687.526550	0.169886
687.728852	0.170039
687.931136	0.170260
688.133401	0.170264
688.335649	0.170177
688.537878	0.170389
688.740089	0.170056
688.942281	0.170253
689.144456	0.170079
689.346612	0.170161
689.548750	0.170034
689.750870	0.170047
689.952971	0.170223
690.155055	0.170343
690.357120	0.170562
690.559167	0.170880
690.761195	0.170915
690.963206	0.171402
691.165198	0.171595
691.367172	0.172090
691.569128	0.172202
691.771065	0.172501
691.972984	0.172791
692.174885	0.173019
692.376768	0.173021
692.578633	0.173144
692.780479	0.172934
692.982308	0.173060
693.184118	0.172907
693.385909	0.172985
