sample name	sample
index	579
start time	 03-16-2021  03:36:17 PM
880	0.429226
Peak Time (s)	181.534
Peak Height 	0.4292
calc peak height	180,183
Baseline Time (s)	11.035
Baseline Value 	-0.002808
subtract baseline	10,4
Abs	0.303881
Peak Time (s)	182.54
Peak Height 	0.3039
calc peak height	180,183
Baseline Time (s)	11.035
Baseline Value 	0.004439
subtract baseline	10,3
PK_550	0.163656
Peak Time (s)	180.537
Peak Height 	0.1637
calc peak height	180,183
Baseline Time (s)	10.037
Baseline Value 	4.1101E-4
subtract baseline	10,2
PK_880	0.287725
Peak Time (s)	182.037
Peak Height 	0.2877
calc peak height	180,183
Baseline Time (s)	11.535
Baseline Value 	-3.8351E-4
subtract baseline	10,1


Time (s)	A880-A510	A880-A775	A880-A975	A880	I510	I775	I975	I880	
0.034000	-0.000136	0.000127	-0.001833	0.000897	5584.147694	33963.726678	3634.442101	18411.696624
0.534500	-0.000356	-0.000876	-0.004958	0.006927	5544.802361	33464.013360	3617.211049	18196.756551
1.037500	0.000570	-0.000146	-0.001720	0.004227	5567.558708	33706.661215	3628.345466	18292.628805
1.536500	-0.000381	-0.000243	-0.005593	0.000004	5588.262282	34001.204115	3629.006337	18443.781163
2.035500	0.001306	0.000421	-0.001696	0.000372	5596.648922	34022.448988	3635.703199	18430.560246
2.535500	-0.001890	0.000201	-0.006966	0.004673	5549.306534	33699.622901	3617.668230	18276.748732
3.035500	0.002935	-0.000401	0.000001	-0.001484	5618.935692	34096.685605	3642.498042	18497.391459
3.536500	0.000079	-0.000763	-0.003783	0.000175	5590.091581	33951.661883	3632.109687	18437.624590
4.036500	0.001620	-0.000187	-0.001127	0.000938	5595.044383	33938.306788	3635.708759	18410.229741
4.536500	0.000874	-0.000097	-0.000553	0.000832	5590.973225	33952.286844	3637.004199	18414.023963
5.034000	0.000403	-0.000441	-0.005985	0.000329	5591.178418	33963.678961	3627.653129	18432.095410
5.537500	-0.001264	-0.000864	-0.004971	-0.000606	5586.521870	34000.332856	3631.336428	18465.714364
6.035000	0.000605	0.000021	-0.008962	0.000493	5591.419433	33985.070484	3621.749356	18426.203458
6.534500	0.003013	0.000435	-0.000485	0.000209	5608.579235	34035.094104	3638.321724	18436.392365
7.035000	0.002104	0.001201	-0.002790	0.001155	5596.739933	34022.139354	3632.132151	18402.418734
7.535500	-0.000499	-0.000339	-0.004886	-0.000139	5588.417029	34004.480224	3630.613122	18448.906992
8.036000	0.000654	0.000484	0.001524	0.000625	5590.889577	34008.738592	3641.373157	18421.448612
8.539500	0.001650	0.000448	-0.002935	0.000259	5599.561353	34032.437518	3633.559138	18434.611201
9.036500	0.001337	0.001197	-0.002708	0.000853	5593.783479	34043.605841	3632.861912	18413.275796
9.536500	-0.003005	-0.000109	0.004567	-0.000038	5571.910802	34013.763134	3648.511724	18445.285043
10.037000	-0.000008	0.000000	0.001808	-0.000504	5593.860260	34055.063620	3644.088147	18462.055083
10.534500	-0.000189	-0.000073	0.003761	0.000128	5588.685712	34004.439721	3646.632670	18439.301104
11.035000	0.000460	0.000264	0.000000	0.000000	5593.631795	34037.863118	3639.650592	18443.919022
11.535000	0.000000	-0.000042	-0.000601	-0.000809	5595.853792	34073.974394	3640.049022	18473.058337
12.036000	0.001486	0.000342	-0.000658	-0.000604	5604.021553	34086.859582	3639.547361	18465.659885
12.535500	0.000001	0.000450	-0.005306	-0.000299	5592.610226	34072.677284	3630.121910	18454.680728
13.036000	0.001757	0.000368	0.000209	-0.001064	5608.689120	34121.781543	3642.091126	18482.230461
13.540000	0.001638	0.000353	-0.001405	-0.000830	5606.438762	34103.935755	3638.550581	18473.815738
14.037000	0.000466	0.000290	0.002745	0.002830	5575.720984	33837.139081	3639.487853	18342.452821
14.537000	0.000305	0.000501	-0.005917	0.001947	5580.287758	33915.295905	3624.734224	18374.045153
15.034500	0.004850	0.000883	-0.001588	-0.000517	5625.028445	34119.501296	3637.603686	18462.520040
15.534500	0.001212	0.000475	-0.002873	-0.000192	5599.641543	34066.756581	3634.534299	18450.812390
16.035000	0.000527	-0.000284	-0.004627	-0.001987	5606.725430	34141.252954	3634.611227	18515.533148
16.535500	0.000246	0.001511	-0.000876	-0.000632	5596.289179	34173.081271	3639.183118	18466.673873
17.036000	0.004126	0.000547	-0.000721	-0.003339	5638.561717	34298.966379	3644.676738	18564.470146
17.535500	0.001998	0.000735	0.001112	0.001002	5597.045969	33999.770260	3639.861564	18407.938558
18.039000	0.002001	-0.000152	-0.001622	0.000263	5601.775988	33989.122344	3636.050247	18434.462573
18.536500	-0.000950	0.000227	-0.001166	0.001104	5577.680869	33956.016015	3635.317095	18404.266017
19.037000	-0.002909	-0.000042	-0.007218	0.000512	5569.041653	33979.114314	3624.983738	18425.497527
19.537000	0.000618	-0.000157	-0.000750	0.000707	5590.140446	33956.919501	3636.865353	18418.500800
20.037500	0.000236	0.001757	0.001163	0.002046	5579.226959	33998.143448	3637.961612	18370.507639
20.535000	-0.001908	0.000611	-0.001876	0.001024	5572.129928	33989.228748	3634.117002	18407.114259
21.035000	0.003011	-0.000046	-0.004338	0.000700	5605.433844	33965.370849	3630.063900	18418.759341
21.535000	0.000221	-0.000475	-0.000518	0.000970	5585.946508	33915.370264	3636.805845	18409.052445
22.036000	-0.000129	-0.000357	-0.000720	0.000444	5587.064275	33961.446505	3637.424559	18427.942929
22.536500	0.001077	0.000123	-0.000463	0.000561	5593.985016	33987.416393	3637.692560	18423.738443
23.036000	0.004201	0.000537	-0.007011	0.000760	5612.657162	34002.835504	3624.908152	18416.596608
23.537000	0.000368	0.000123	-0.006344	0.001210	5585.358004	33940.964748	3625.316273	18400.443520
24.037500	-0.000205	0.000371	-0.004145	0.000669	5585.155429	33997.504130	3630.485620	18419.858702
24.537500	-0.001227	-0.000562	-0.001927	0.000200	5581.651431	33964.277427	3635.589830	18436.735738
25.035000	-0.001399	0.000014	-0.003232	0.000615	5577.932408	33975.743794	3632.318404	18421.806542
25.535000	-0.000402	-0.000092	-0.001302	0.000999	5581.815270	33940.734692	3635.257673	18408.039481
26.035500	-0.000640	0.000489	-0.007830	0.001147	5579.365697	33971.704293	3622.643956	18402.709675
26.535500	0.000804	0.000877	-0.004419	0.001252	5587.855601	33991.930781	3628.866062	18398.938044
27.036000	0.000886	-0.000754	0.003930	-0.002398	5611.657579	34137.024597	3651.851970	18530.401128
27.538500	0.002516	0.000487	0.002219	-0.000876	5612.344011	34116.791609	3645.595453	18475.444632
28.036500	0.002669	0.000330	0.000754	-0.001115	5614.862903	34122.780391	3643.236892	18484.089835
28.536500	0.004718	0.001556	0.003228	0.000211	5619.499491	34115.581731	3645.446692	18436.340689
29.037000	0.002865	0.000513	-0.001747	-0.000370	5611.344873	34082.327506	3637.019674	18457.239205
29.534500	0.002170	0.000690	0.001213	-0.000699	5608.994810	34118.699416	3643.318037	18469.069523
30.035000	-0.000828	0.000142	-0.005872	0.004356	5557.951827	33718.032036	3620.303279	18288.040215
30.535500	-0.000802	-0.000193	-0.009195	0.002159	5571.952997	33850.618194	3618.199499	18366.462611
31.037500	-0.000656	-0.000473	-0.000317	0.000424	5583.847093	33954.557936	3638.233365	18428.674187
31.536500	0.003043	0.000715	-0.002779	-0.000055	5610.463921	34074.195294	3634.453445	18445.896283
32.039000	-0.000865	0.000258	0.000644	0.003956	5560.234350	33754.701916	3633.335772	18302.282612
32.537000	0.003120	0.000259	-0.000598	-0.000291	5612.471781	34058.354836	3639.063654	18454.393248
33.036500	0.000100	0.000476	-0.003083	-0.000577	5595.009747	34094.471514	3634.867729	18464.673271
33.537000	0.002588	0.000758	-0.004614	-0.001666	5617.873657	34193.262769	3634.027370	18503.950901
34.037000	0.000389	0.000793	-0.003528	0.003620	5570.243366	33816.692791	3626.080823	18314.251033
34.537000	0.000621	0.000061	-0.006271	0.001695	5583.890425	33901.894905	3624.542187	18383.085947
35.037500	0.001474	-0.000329	0.000339	0.001709	5589.213345	33873.018800	3637.033204	18382.582666
35.535500	0.000253	-0.001708	-0.004991	0.000340	5590.147412	33872.256655	3629.507843	18431.678373
36.038500	-0.000986	0.001389	-0.002991	0.003789	5560.520474	33847.145024	3626.773092	18308.213065
36.536000	0.002187	0.001111	-0.004747	0.002746	5587.153062	33901.769403	3625.430848	18345.458871
37.036000	-0.003761	-0.001412	-0.000625	0.000743	5562.228672	33864.684951	3637.037404	18417.233204
37.536500	0.001435	0.000738	-0.001858	0.002069	5586.678494	33923.483140	3632.167164	18369.668904
38.036500	-0.001770	-0.001010	-0.002736	0.002850	5561.498959	33743.157565	3629.026925	18341.759194
38.537000	0.001299	-0.000273	0.000214	0.001646	5588.502358	33881.516200	3636.914636	18384.826953
39.037500	-0.000946	-0.000103	0.003966	0.001996	5572.071478	33868.643665	3643.430512	18372.306461
39.535000	0.001992	0.000558	-0.005925	0.002166	5589.602585	33903.766824	3624.306944	18366.221300
40.035500	0.002720	0.000533	0.001434	0.002479	5592.236797	33879.600958	3637.652590	18355.016420
40.535500	-0.000851	0.000448	-0.004290	0.001871	5573.455952	33916.943316	3627.940581	18376.750906
41.035500	0.001714	0.001011	-0.002801	0.002003	5588.870599	33947.816603	3630.505002	18372.041061
41.539000	-0.000209	0.000791	-0.001582	0.002293	5574.848282	33911.317635	3632.266488	18361.656387
42.036000	-0.000147	0.000543	-0.000327	0.002256	5575.478586	33896.268217	3634.721447	18362.998311
42.536500	-0.000488	0.000579	-0.002391	0.002334	5572.825254	33893.221228	3630.655950	18360.199432
43.040000	0.002205	-0.000253	-0.003769	0.001905	5592.613487	33864.439167	3628.860881	18375.564194
43.537500	-0.001792	-0.000207	0.000046	-0.000378	5581.734190	34031.144454	3640.462704	18457.520400
44.037500	0.002994	0.000582	-0.000849	-0.000362	5612.111248	34086.650364	3638.718278	18456.928170
44.535000	-0.000145	0.000200	-0.000181	-0.001091	5596.725604	34111.617872	3641.393142	18483.202609
45.035500	0.003528	-0.000066	-0.000783	-0.000931	5619.194493	34081.070258	3639.933845	18477.457568
45.535000	0.001650	0.000756	-0.004466	0.002751	5583.720213	33876.078460	3625.951065	18345.297457
46.036000	-0.000139	-0.000307	-0.004336	0.005177	5557.121963	33627.878404	3621.640255	18258.816527
46.536000	0.002894	0.000027	0.004697	-0.000713	5613.730165	34072.054557	3650.071637	18469.594617
47.036500	-0.000477	0.000536	-0.003311	0.001639	5577.286293	33939.831408	3630.229341	18385.065041
47.539500	0.000672	0.000295	-0.000955	0.002494	5579.148992	33861.556316	3633.076568	18354.486399
48.037000	-0.001646	-0.000132	-0.002280	0.004435	5552.323809	33692.905464	3626.895637	18285.212306
48.537000	-0.001777	0.000569	0.000457	-0.000338	5581.576627	34084.001359	3641.174287	18456.079507
49.037500	0.003152	0.000456	0.002646	-0.000235	5612.319010	34068.485439	3645.183132	18452.379319
49.536000	0.002368	0.000649	-0.000870	0.001850	5593.998752	33932.782895	3634.460658	18377.514952
50.035500	-0.000756	-0.000218	-0.000066	0.003879	5561.406269	33726.304489	3632.133872	18305.033091
50.536000	0.002174	0.000844	0.001755	-0.000339	5606.723454	34103.864654	3643.669129	18456.124088
51.039000	0.021229	0.007671	0.003407	-0.011727	5808.317843	35442.337673	3669.129087	18871.467078
51.536000	0.000532	-0.010327	0.008935	0.122111	4916.708877	25828.127754	3448.946984	14615.266970
52.036500	-0.013964	-0.014403	-0.004649	-0.080538	6047.988363	39144.736744	3798.373048	21626.711298
52.537000	-0.007803	-0.064176	-0.006495	-0.358434	9018.915520	64217.165221	4677.704887	38479.385262
53.037500	0.001716	-0.062669	0.001597	-0.356577	9129.072207	64167.656589	4704.733311	38327.240272
53.534500	0.001221	-0.051639	-0.003425	-0.342249	8917.710557	63703.822953	4622.097543	37175.004354
54.035000	-0.003539	-0.024327	-0.009614	-0.278977	8035.068137	58868.476144	4354.019021	32517.800749
54.535000	-0.006067	-0.016934	-0.007360	-0.236754	7525.486113	54551.816105	4218.121095	29766.764780
55.035500	-0.004679	-0.013519	-0.017708	-0.241711	7594.572518	55558.025695	4200.726030	30076.030090
55.536000	0.001658	-0.009089	-0.011729	-0.242583	7674.315191	56205.428057	4222.865950	30130.810463
56.036000	0.002506	-0.003021	-0.006357	-0.201687	7247.622267	52094.172247	4111.770553	27676.745639
56.536500	0.005203	-0.007463	0.000081	-0.197897	7236.512876	51169.619987	4119.740924	27460.744385
57.036500	0.009727	-0.002961	0.000071	-0.180956	7112.321322	49805.495594	4069.541768	26518.196577
57.534000	0.013406	-0.001144	0.001980	-0.154118	6889.970640	47177.048244	3999.189349	25098.241953
58.037500	0.010740	-0.000738	0.006890	-0.109780	6473.544348	42912.983578	3895.842765	22936.396777
58.537500	0.015951	0.000880	0.015320	-0.079781	6271.423561	40378.960094	3843.151760	21593.946002
59.035000	0.019941	0.001805	0.019677	-0.054925	6110.009162	38367.323310	3795.444004	20549.801297
59.535500	0.020833	0.003708	0.018935	-0.034676	5967.050648	36898.508986	3748.869465	19742.295330
60.036000	0.025848	0.006714	0.025872	-0.020095	5898.715399	36003.164694	3732.461110	19183.676260
60.538500	0.036445	0.011081	0.030577	-0.016823	5950.906041	36086.866705	3735.515935	19060.889273
61.036000	0.040127	0.014638	0.038367	-0.009407	5924.190347	35792.854467	3736.313535	18785.955761
61.537000	0.045545	0.017995	0.038508	-0.010441	5970.500395	36127.567242	3738.828449	18824.025866
62.037000	0.048079	0.027991	0.046716	-0.005226	5951.175070	36495.874911	3745.263180	18633.039538
62.539500	0.055277	0.026114	0.051097	-0.008843	6029.864008	36630.957858	3762.676509	18765.250996
63.034500	0.056435	0.027858	0.047138	-0.000792	5979.475589	36143.936549	3736.646673	18472.426376
63.543000	0.059263	0.029534	0.058591	0.007246	5941.928673	35659.889535	3743.974729	18185.458477
64.043500	0.060798	0.031683	0.067904	0.016345	5888.207654	35139.131845	3744.436644	17866.954108
64.535500	0.063633	0.034134	0.063205	0.024411	5851.599697	34724.419186	3717.324526	17590.132351
65.039000	0.063988	0.034649	0.061951	0.030777	5810.067545	34297.995291	3701.516037	17375.259840
65.536000	0.068587	0.036523	0.065908	0.039048	5784.980008	33838.230928	3692.687576	17100.741411
66.036500	0.070704	0.037970	0.067798	0.044133	5764.860491	33579.767865	3686.204165	16934.539565
66.536500	0.076053	0.040286	0.066044	0.051281	5752.729778	33239.849310	3668.395419	16704.187262
67.037000	0.077426	0.040810	0.078079	0.056733	5725.408534	32897.019906	3681.531074	16531.017178
67.537500	0.078626	0.042086	0.076070	0.063044	5691.540572	32550.777209	3664.961186	16333.266229
68.035000	0.079687	0.044334	0.079900	0.072877	5634.326177	32036.647545	3653.201271	16030.798054
68.535000	0.081887	0.045547	0.086912	0.073428	5644.993462	32081.183821	3665.865700	16014.061855
69.035000	0.082810	0.046537	0.088078	0.078082	5620.920775	31835.641670	3659.006323	15873.457243
69.535500	0.085600	0.048014	0.083283	0.083881	5601.656815	31548.710629	3638.507908	15700.373158
70.036000	0.085753	0.048707	0.088019	0.092252	5549.708422	31045.862064	3631.587818	15454.534235
70.536000	0.090654	0.049624	0.092591	0.092446	5579.336695	31092.818737	3639.927303	15448.878354
71.036500	0.092399	0.051058	0.094263	0.097453	5558.762818	30861.439713	3633.565903	15304.151101
71.537000	0.091041	0.052099	0.098507	0.102824	5516.821366	30583.705906	3631.429210	15150.771633
72.037000	0.093007	0.052901	0.095533	0.108829	5491.954734	30253.493896	3614.586965	14981.491394
72.537500	0.097087	0.053675	0.105378	0.111301	5501.826494	30146.553876	3628.391152	14912.473321
73.034500	0.100828	0.053566	0.099479	0.114854	5502.981812	29917.395937	3610.735522	14813.961340
73.535500	0.101812	0.054655	0.106258	0.119831	5478.526061	29676.231522	3614.072463	14677.347972
74.035000	0.098999	0.056273	0.107462	0.127008	5418.306002	29335.139307	3603.066512	14483.057978
74.539000	0.106376	0.057606	0.112376	0.128698	5452.414731	29313.373935	3608.988685	14437.768043
75.036500	0.106853	0.058734	0.110366	0.132734	5431.018154	29136.826164	3597.921368	14330.343564
75.536500	0.110456	0.060337	0.122029	0.138151	5420.172554	28906.988899	3609.357439	14187.689615
76.036500	0.107711	0.060495	0.110960	0.144004	5369.405814	28567.613694	3578.745952	14035.552057
76.537000	0.114827	0.061912	0.115492	0.145370	5403.246899	28570.668611	3584.383444	14000.346621
77.037500	0.115795	0.062686	0.122191	0.149845	5382.555726	28352.413180	3588.368328	13885.763314
77.537500	0.115654	0.063553	0.122389	0.153815	5358.512437	28170.966258	3581.623302	13785.112422
78.035000	0.118378	0.063471	0.123431	0.156262	5360.124684	28023.935887	3579.125291	13723.518548
78.535000	0.120726	0.065649	0.120642	0.161660	5342.417979	27838.017938	3564.731016	13588.860902
79.036000	0.125056	0.067806	0.125828	0.165890	5342.999220	27719.073437	3566.397757	13484.522905
79.536000	0.120129	0.067988	0.132861	0.168045	5302.359731	27606.431160	3574.962192	13431.765122
80.036500	0.124735	0.068954	0.127771	0.174337	5292.782002	27304.685206	3555.131551	13279.165196
80.536500	0.126616	0.069330	0.136121	0.174474	5302.688149	27318.158478	3569.388029	13275.874676
81.037000	0.128352	0.070626	0.134579	0.178286	5290.900478	27176.860667	3560.063176	13184.519447
81.537500	0.129220	0.069942	0.137320	0.179158	5290.877404	27089.928268	3563.305751	13163.748295
82.037500	0.132296	0.073126	0.141264	0.185652	5271.589333	26905.897930	3558.885031	13010.270913
82.535000	0.137298	0.073171	0.136269	0.187006	5292.182183	26833.554417	3547.993586	12978.565812
83.035000	0.138340	0.074923	0.140983	0.190012	5281.073186	26764.383760	3550.907000	12908.509563
83.535500	0.139048	0.074762	0.145119	0.192396	5271.632516	26624.725725	3553.909821	12853.306439
84.038500	0.143457	0.077079	0.147431	0.196312	5274.404627	26537.344641	3551.160800	12763.263447
84.536000	0.141867	0.076665	0.152188	0.197348	5259.673052	26458.396485	3557.552995	12739.583107
85.036500	0.143309	0.078108	0.152551	0.200159	5252.024920	26384.165946	3553.341439	12675.601098
85.536500	0.145338	0.079441	0.155343	0.203360	5245.499052	26283.173546	3552.639324	12603.251956
86.037000	0.147101	0.080712	0.155932	0.207870	5230.268600	26109.085760	3545.949227	12502.206764
86.537500	0.150782	0.079748	0.157782	0.206439	5258.693579	26134.140536	3551.544718	12534.170560
87.037500	0.149767	0.081842	0.159610	0.209831	5234.174980	26064.657902	3548.872711	12458.612474
87.535000	0.148709	0.081212	0.167147	0.211229	5220.614781	25956.549295	3559.413735	12427.641548
88.038000	0.153831	0.084449	0.165432	0.216327	5220.750111	25857.798176	3547.724535	12315.561101
88.541500	0.154377	0.083531	0.159199	0.215991	5225.608592	25827.008239	3537.753769	12322.915606
89.036000	0.158085	0.085194	0.162758	0.219035	5229.277911	25754.068714	3538.618468	12256.567726
89.536000	0.159994	0.086139	0.163248	0.222682	5219.692128	25612.005260	3533.328453	12177.670300
90.036500	0.160447	0.087751	0.166585	0.226327	5202.192543	25505.726054	3532.815001	12099.479798
90.534000	0.165640	0.088394	0.171547	0.226454	5230.024226	25532.676608	3540.925406	12096.770737
91.037000	0.164305	0.088672	0.167890	0.228334	5212.325920	25449.184639	3531.643982	12056.711251
91.537000	0.167416	0.090048	0.175144	0.231684	5211.016695	25346.742545	3538.177813	11985.779355
92.035000	0.169242	0.092211	0.181555	0.235545	5199.887392	25258.965584	3542.473440	11904.670705
92.540500	0.169522	0.091657	0.175321	0.234910	5204.885650	25263.168636	3533.071348	11917.963484
93.035000	0.173721	0.092795	0.178606	0.237550	5213.418638	25185.781630	3534.147329	11862.833513
93.541500	0.177155	0.094211	0.181078	0.241061	5212.999407	25078.302067	3532.412663	11790.053495
94.036000	0.176359	0.094210	0.181902	0.243166	5197.139047	24970.823731	3530.280859	11746.707313
94.539000	0.176467	0.094613	0.187905	0.244081	5192.742436	24944.753043	3538.786836	11727.912093
95.037000	0.180825	0.097111	0.190366	0.247170	5199.660113	24914.762477	3537.734076	11664.817944
95.536500	0.181382	0.097971	0.189506	0.249919	5187.733852	24819.041483	3531.696725	11609.026654
96.037500	0.182086	0.098026	0.185080	0.252501	5177.558527	24691.602860	3520.118417	11556.942227
96.537000	0.183526	0.099322	0.192531	0.253575	5179.540201	24702.741374	3530.646599	11535.371859
97.035000	0.182352	0.098918	0.199858	0.254799	5166.602104	24620.966470	3540.868015	11510.842251
