sample name	sample
index	801
start time	 03-31-2021  02:49:44 PM


Wavelength (nm)	Absorbance
494.344910	0.222631
494.563924	0.222631
494.782919	0.222631
495.001897	NaN
495.220856	0.283258
495.439797	0.060236
495.658719	-0.038186
495.877624	-0.167997
496.096510	-0.238713
496.315378	0.090783
496.534227	-0.089106
496.753059	0.114676
496.971872	-0.197183
497.190667	0.101700
497.409444	0.118363
497.628203	0.123156
497.846943	0.124289
498.065665	0.123955
498.284369	0.123122
498.503055	0.124203
498.721723	0.123684
498.940372	0.123350
499.159003	0.123212
499.377616	0.124518
499.596210	0.124413
499.814787	0.125039
500.033345	0.125629
500.251885	0.126240
500.470406	0.126673
500.688910	0.128010
500.907395	0.128746
501.125862	0.128353
501.344311	0.127652
501.562742	0.127527
501.781154	0.127832
501.999548	0.127846
502.217924	0.127683
502.436282	0.126393
502.654621	0.126195
502.872942	0.127218
503.091245	0.127499
503.309530	0.127112
503.527797	0.126299
503.746045	0.126118
503.964275	0.125893
504.182487	0.126443
504.400681	0.127652
504.618856	0.127047
504.837013	0.126101
505.055152	0.127052
505.273273	0.127114
505.491376	0.128348
505.709460	0.127563
505.927526	0.128025
506.145574	0.128582
506.363604	0.128642
506.581615	0.128229
506.799608	0.129414
507.017583	0.128196
507.235540	0.128204
507.453478	0.127385
507.671399	0.128347
507.889301	0.128610
508.107185	0.128565
508.325050	0.128724
508.542898	0.129897
508.760727	0.129577
508.978538	0.130663
509.196330	0.131882
509.414105	0.132385
509.631861	0.131983
509.849599	0.131684
510.067319	0.131864
510.285021	0.131599
510.502704	0.131216
510.720369	0.130821
510.938016	0.130699
511.155645	0.130276
511.373255	0.130381
511.590848	0.129885
511.808422	0.130931
512.025977	0.130708
512.243515	0.131686
512.461034	0.131635
512.678536	0.131997
512.896018	0.133076
513.113483	0.133075
513.330930	0.133570
513.548358	0.135212
513.765768	0.134382
513.983160	0.134646
514.200533	0.133957
514.417889	0.135132
514.635226	0.136070
514.852545	0.136044
515.069845	0.135580
515.287128	0.135432
515.504392	0.134674
515.721638	0.135393
515.938866	0.135717
516.156075	0.136182
516.373267	0.135841
516.590440	0.135754
516.807594	0.135329
517.024731	0.136225
517.241850	0.137064
517.458950	0.137419
517.676032	0.137627
517.893095	0.136805
518.110141	0.137335
518.327168	0.137678
518.544177	0.137685
518.761168	0.138195
518.978141	0.137896
519.195095	0.138100
519.412031	0.138286
519.628949	0.137960
519.845849	0.138729
520.062731	0.138351
520.279594	0.137913
520.496439	0.138316
520.713266	0.138031
520.930074	0.139225
521.146865	0.139320
521.363637	0.139855
521.580391	0.140421
521.797127	0.140220
522.013844	0.141023
522.230543	0.141246
522.447224	0.140980
522.663887	0.141033
522.880532	0.140008
523.097158	0.140061
523.313766	0.140031
523.530356	0.140323
523.746928	0.141890
523.963481	0.141702
524.180017	0.141732
524.396534	0.142657
524.613032	0.143672
524.829513	0.144638
525.045975	0.144761
525.262420	0.145565
525.478845	0.145857
525.695253	0.145419
525.911643	0.145270
526.128014	0.146232
526.344367	0.145968
526.560702	0.145629
526.777018	0.145352
526.993316	0.145432
527.209597	0.144943
527.425858	0.145236
527.642102	0.145596
527.858328	0.146059
528.074535	0.146587
528.290724	0.146915
528.506894	0.147142
528.723047	0.148250
528.939181	0.148298
529.155297	0.148488
529.371395	0.149527
529.587475	0.149375
529.803536	0.150599
530.019579	0.150623
530.235604	0.150820
530.451611	0.151647
530.667600	0.151290
530.883570	0.152093
531.099522	0.153027
531.315456	0.152842
531.531372	0.153057
531.747269	0.152472
531.963148	0.153015
532.179009	0.153541
532.394852	0.153278
532.610676	0.153845
532.826482	0.153925
533.042271	0.154177
533.258040	0.154445
533.473792	0.155119
533.689525	0.156502
533.905240	0.156850
534.120937	0.157236
534.336616	0.158084
534.552277	0.158140
534.767919	0.158907
534.983543	0.158696
535.199149	0.158756
535.414736	0.159207
535.630306	0.159121
535.845857	0.158337
536.061390	0.157990
536.276904	0.158410
536.492401	0.158993
536.707879	0.159049
536.923339	0.159700
537.138781	0.160317
537.354204	0.159990
537.569610	0.160269
537.784997	0.160450
538.000366	0.161582
538.215716	0.161418
538.431049	0.161477
538.646363	0.161970
538.861659	0.162183
539.076937	0.161749
539.292196	0.162719
539.507438	0.163592
539.722661	0.164210
539.937866	0.164353
540.153052	0.164852
540.368221	0.165746
540.583371	0.166006
540.798503	0.166396
541.013617	0.166993
541.228712	0.166728
541.443789	0.166173
541.658848	0.166385
541.873889	0.166184
542.088912	0.166286
542.303916	0.165660
542.518902	0.165614
542.733870	0.165861
542.948820	0.166703
543.163752	0.166973
543.378665	0.167469
543.593560	0.168532
543.808437	0.169327
544.023295	0.169537
544.238136	0.170435
544.452958	0.171268
544.667762	0.171379
544.882548	0.171182
545.097315	0.171945
545.312064	0.171507
545.526795	0.171261
545.741508	0.171586
545.956203	0.171756
546.170879	0.171548
546.385537	0.171473
546.600177	0.172450
546.814799	0.172636
547.029402	0.172420
547.243988	0.172978
547.458555	0.173500
547.673103	0.173307
547.887634	0.173183
548.102146	0.173684
548.316640	0.173619
548.531116	0.173445
548.745574	0.173985
548.960013	0.174416
549.174435	0.174552
549.388838	0.174596
549.603222	0.174364
549.817589	0.175185
550.031937	0.175355
550.246267	0.175363
550.460579	0.175281
550.674873	0.175119
550.889148	0.175545
551.103405	0.175897
551.317644	0.176191
551.531865	0.177325
551.746068	0.177096
551.960252	0.177894
552.174418	0.178702
552.388566	0.179227
552.602696	0.179446
552.816807	0.179397
553.030900	0.179888
553.244975	0.180232
553.459032	0.179955
553.673070	0.180460
553.887091	0.179766
554.101093	0.179444
554.315077	0.179304
554.529042	0.179452
554.742990	0.179705
554.956919	0.179795
555.170830	0.180085
555.384722	0.180464
555.598597	0.180620
555.812453	0.181446
556.026291	0.181867
556.240111	0.182801
556.453913	0.182820
556.667696	0.183000
556.881461	0.182720
557.095208	0.182755
557.308937	0.182545
557.522647	0.182850
557.736339	0.183145
557.950013	0.183257
558.163669	0.182670
558.377307	0.183417
558.590926	0.183563
558.804527	0.184043
559.018110	0.184089
559.231675	0.184473
559.445221	0.184779
559.658749	0.184410
559.872259	0.184538
560.085751	0.184582
560.299225	0.184450
560.512680	0.184347
560.726117	0.184316
560.939536	0.184305
561.152937	0.184273
561.366319	0.184356
561.579683	0.184486
561.793029	0.184927
562.006357	0.185716
562.219667	0.185723
562.432958	0.185720
562.646231	0.186349
562.859486	0.186742
563.072723	0.187012
563.285941	0.186960
563.499141	0.187575
563.712323	0.187503
563.925487	0.187221
564.138632	0.187589
564.351760	0.188370
564.564869	0.188172
564.777960	0.188342
564.991032	0.188520
565.204087	0.188839
565.417123	0.188947
565.630141	0.189225
565.843140	0.189505
566.056122	0.189610
566.269085	0.189351
566.482030	0.189340
566.694957	0.189593
566.907866	0.189334
567.120756	0.189576
567.333628	0.189791
567.546482	0.190252
567.759318	0.190598
567.972135	0.191066
568.184935	0.191532
568.397716	0.191673
568.610478	0.191671
568.823223	0.192089
569.035949	0.192087
569.248657	0.191677
569.461347	0.191679
569.674019	0.191817
569.886672	0.191262
570.099308	0.191094
570.311925	0.191369
570.524523	0.191299
570.737104	0.191716
570.949666	0.191710
571.162210	0.192151
571.374736	0.192172
571.587244	0.192247
571.799733	0.192723
572.012205	0.192701
572.224658	0.192801
572.437092	0.193184
572.649509	0.193279
572.861907	0.193641
573.074287	0.193892
573.286649	0.194150
573.498993	0.194675
573.711318	0.195328
573.923625	0.196263
574.135914	0.196842
574.348185	0.197108
574.560438	0.197771
574.772672	0.197921
574.984888	0.198121
575.197086	0.197892
575.409266	0.197526
575.621427	0.197272
575.833570	0.197090
576.045695	0.196994
576.257802	0.197144
576.469890	0.196844
576.681961	0.196811
576.894013	0.197231
577.106046	0.197351
577.318062	0.197729
577.530059	0.197799
577.742039	0.197870
577.954000	0.198344
578.165942	0.198419
578.377867	0.198477
578.589773	0.198782
578.801661	0.198493
579.013531	0.198839
579.225382	0.198801
579.437216	0.199290
579.649031	0.199219
579.860828	0.199058
580.072606	0.198890
580.284367	0.199127
580.496109	0.199478
580.707833	0.199703
580.919539	0.199891
581.131227	0.199982
581.342896	0.199977
581.554547	0.200631
581.766180	0.200834
581.977795	0.201191
582.189391	0.201595
582.400969	0.201204
582.612529	0.201310
582.824071	0.201068
583.035595	0.201254
583.247100	0.201226
583.458587	0.200951
583.670056	0.200907
583.881506	0.201006
584.092939	0.200798
584.304353	0.201273
584.515749	0.201168
584.727127	0.201479
584.938486	0.201793
585.149828	0.202260
585.361151	0.202678
585.572456	0.202843
585.783742	0.203333
585.995011	0.203437
586.206261	0.203695
586.417493	0.204272
586.628706	0.204416
586.839902	0.204445
587.051079	0.204347
587.262238	0.204195
587.473379	0.204408
587.684502	0.204346
587.895606	0.204417
588.106692	0.204423
588.317760	0.204622
588.528810	0.204953
588.739841	0.205391
588.950855	0.205555
589.161850	0.205887
589.372827	0.205865
589.583785	0.205915
589.794726	0.206330
590.005648	0.206339
590.216552	0.205959
590.427437	0.206550
590.638305	0.206067
590.849154	0.206137
591.059985	0.205997
591.270798	0.206117
591.481592	0.205960
591.692369	0.206083
591.903127	0.206126
592.113867	0.206516
592.324588	0.206201
592.535292	0.206313
592.745977	0.206589
592.956644	0.207121
593.167293	0.207184
593.377923	0.207647
593.588536	0.207775
593.799130	0.207972
594.009706	0.207933
594.220263	0.208046
594.430803	0.208545
594.641324	0.208556
594.851827	0.208174
595.062312	0.208108
595.272778	0.207988
595.483227	0.207850
595.693657	0.207909
595.904069	0.208371
596.114462	0.208229
596.324838	0.208373
596.535195	0.208659
596.745534	0.209375
596.955855	0.210293
597.166157	0.210789
597.376441	0.211030
597.586707	0.211709
597.796955	0.211775
598.007185	0.211966
598.217396	0.212061
598.427589	0.212049
598.637764	0.211916
598.847921	0.211808
599.058060	0.211758
599.268180	0.212038
599.478282	0.211878
599.688366	0.212058
599.898431	0.212616
600.108479	0.212881
600.318508	0.212997
600.528519	0.212961
600.738511	0.213040
600.948486	0.213406
601.158442	0.213393
601.368380	0.213531
601.578300	0.213312
601.788202	0.213258
601.998085	0.212994
602.207950	0.212842
602.417797	0.213436
602.627626	0.213563
602.837436	0.213289
603.047228	0.213288
603.257002	0.212939
603.466758	0.213196
603.676496	0.213313
603.886215	0.213577
604.095916	0.213832
604.305599	0.213706
604.515264	0.213865
604.724910	0.213907
604.934538	0.214273
605.144148	0.214954
605.353740	0.215048
605.563314	0.215216
605.772869	0.215115
605.982406	0.214928
606.191925	0.214798
606.401425	0.214792
606.610908	0.214968
606.820372	0.214610
607.029818	0.214749
607.239246	0.214926
607.448655	0.214868
607.658047	0.215232
607.867420	0.215837
608.076775	0.215867
608.286111	0.216136
608.495430	0.216326
608.704730	0.217208
608.914012	0.216982
609.123275	0.217217
609.332521	0.217496
609.541748	0.217632
609.750957	0.217763
609.960148	0.218146
610.169321	0.218327
610.378475	0.218640
610.587611	0.218664
610.796729	0.219226
611.005829	0.219035
611.214910	0.219123
611.423974	0.219223
611.633019	0.219452
611.842045	0.219674
612.051054	0.219622
612.260044	0.219789
612.469017	0.219784
612.677970	0.219626
612.886906	0.220050
613.095824	0.220159
613.304723	0.220089
613.513604	0.220048
613.722467	0.220302
613.931311	0.220549
614.140138	0.220826
614.348946	0.220783
614.557736	0.220986
614.766507	0.221093
614.975261	0.221502
615.183996	0.221733
615.392713	0.221827
615.601412	0.222105
615.810092	0.221742
616.018754	0.221719
616.227399	0.222113
616.436024	0.222268
616.644632	0.222398
616.853222	0.222271
617.061793	0.222338
617.270346	0.222620
617.478880	0.222702
617.687397	0.223449
617.895895	0.223444
618.104375	0.223253
618.312837	0.223469
618.521281	0.223401
618.729706	0.223562
618.938113	0.223781
619.146502	0.223941
619.354873	0.223841
619.563226	0.223811
619.771560	0.224125
619.979876	0.224519
620.188174	0.224518
620.396453	0.224667
620.604715	0.224899
620.812958	0.224849
621.021183	0.224820
621.229390	0.225020
621.437578	0.224929
621.645748	0.224980
621.853900	0.225114
622.062034	0.225205
622.270150	0.225684
622.478247	0.225507
622.686326	0.225902
622.894387	0.226026
623.102430	0.226255
623.310454	0.226372
623.518461	0.226866
623.726449	0.226820
623.934418	0.227194
624.142370	0.227283
624.350303	0.227486
624.558218	0.227592
624.766115	0.227802
624.973994	0.227796
625.181855	0.227911
625.389697	0.227652
625.597521	0.227800
625.805327	0.227412
626.013114	0.227242
626.220883	0.227315
626.428634	0.227290
626.636367	0.227418
626.844082	0.227347
627.051778	0.227522
627.259457	0.227453
627.467117	0.227821
627.674758	0.228345
627.882382	0.228625
628.089987	0.228849
628.297574	0.229128
628.505143	0.229085
628.712694	0.229316
628.920226	0.229408
629.127740	0.229934
629.335236	0.229800
629.542714	0.230242
629.750174	0.230405
629.957615	0.230603
630.165038	0.230830
630.372443	0.230861
630.579829	0.231181
630.787198	0.231345
630.994548	0.231451
631.201880	0.231527
631.409194	0.231382
631.616489	0.231752
631.823766	0.232048
632.031025	0.232259
632.238266	0.232738
632.445489	0.232955
632.652693	0.233250
632.859879	0.233158
633.067047	0.233453
633.274197	0.233793
633.481329	0.233734
633.688442	0.233929
633.895537	0.234079
634.102614	0.234115
634.309672	0.234004
634.516713	0.233828
634.723735	0.234261
634.930739	0.234365
635.137724	0.234078
635.344692	0.233958
635.551641	0.233999
635.758572	0.234059
635.965485	0.234268
636.172379	0.234761
636.379256	0.235278
636.586114	0.234894
636.792954	0.234899
636.999775	0.235145
637.206579	0.235451
637.413364	0.235639
637.620131	0.235648
637.826880	0.235863
638.033610	0.235837
638.240323	0.235737
638.447017	0.236325
638.653692	0.236800
638.860350	0.237097
639.066990	0.237123
639.273611	0.237273
639.480214	0.237382
639.686798	0.237595
639.893365	0.237792
640.099913	0.237975
640.306443	0.238012
640.512955	0.237960
640.719449	0.238005
640.925924	0.238215
641.132381	0.238118
641.338820	0.238210
641.545241	0.238085
641.751644	0.238163
641.958028	0.238659
642.164394	0.238946
642.370742	0.239265
642.577071	0.239567
642.783383	0.239965
642.989676	0.240132
643.195951	0.240245
643.402207	0.240502
643.608446	0.240603
643.814666	0.240514
644.020868	0.240557
644.227052	0.240716
644.433218	0.240795
644.639365	0.240655
644.845494	0.240875
645.051605	0.241231
645.257698	0.241333
645.463772	0.241580
645.669828	0.241750
645.875866	0.241843
646.081886	0.241735
646.287888	0.241812
646.493871	0.242136
646.699836	0.242423
646.905783	0.242513
647.111712	0.242658
647.317622	0.242655
647.523514	0.242908
647.729388	0.243091
647.935244	0.243326
648.141082	0.243569
648.346901	0.243689
648.552702	0.243637
648.758485	0.243931
648.964250	0.244125
649.169996	0.244462
649.375724	0.244576
649.581434	0.244915
649.787126	0.244899
649.992800	0.244979
650.198455	0.245269
650.404092	0.245518
650.609711	0.245662
650.815311	0.245865
651.020894	0.245850
651.226458	0.245960
651.432004	0.246101
651.637532	0.246559
651.843041	0.246579
652.048532	0.246617
652.254006	0.246866
652.459460	0.246637
652.664897	0.246843
652.870315	0.247186
653.075716	0.247335
653.281097	0.247430
653.486461	0.247411
653.691807	0.247875
653.897134	0.248077
654.102443	0.248052
654.307734	0.248608
654.513006	0.248651
654.718261	0.248971
654.923497	0.249201
655.128715	0.249473
655.333915	0.249827
655.539096	0.249748
655.744259	0.250061
655.949404	0.250650
656.154531	0.250804
656.359640	0.251095
656.564730	0.251147
656.769802	0.251379
656.974856	0.251222
657.179892	0.251473
657.384909	0.251713
657.589908	0.251634
657.794889	0.251565
657.999852	0.251799
658.204797	0.251922
658.409723	0.252039
658.614631	0.252078
658.819521	0.252490
659.024393	0.252614
659.229246	0.253034
659.434081	0.253431
659.638898	0.253560
659.843697	0.253587
660.048478	0.253798
660.253240	0.253958
660.457984	0.254132
660.662710	0.254399
660.867417	0.254444
661.072107	0.254424
661.276778	0.254397
661.481431	0.254355
661.686066	0.254613
661.890682	0.254656
662.095281	0.254805
662.299861	0.254948
662.504422	0.254818
662.708966	0.255004
662.913491	0.255084
663.117999	0.255458
663.322488	0.256110
663.526958	0.256276
663.731411	0.256821
663.935845	0.257195
664.140261	0.257557
664.344659	0.257937
664.549038	0.258215
664.753400	0.258512
664.957743	0.258621
665.162068	0.258701
665.366375	0.258752
665.570663	0.258562
665.774933	0.258507
665.979185	0.258702
666.183419	0.258965
666.387635	0.259242
666.591832	0.259321
666.796011	0.259564
667.000172	0.259984
667.204315	0.260005
667.408439	0.260421
667.612545	0.260727
667.816634	0.260865
668.020703	0.260960
668.224755	0.261112
668.428788	0.261623
668.632803	0.261698
668.836800	0.261592
669.040779	0.262256
669.244739	0.262175
669.448681	0.262280
669.652605	0.262336
669.856511	0.262472
670.060399	0.262530
670.264268	0.262405
670.468119	0.262812
670.671952	0.262929
670.875767	0.263084
671.079563	0.263372
671.283341	0.263591
671.487101	0.263799
671.690843	0.264144
671.894567	0.264476
672.098272	0.264522
672.301959	0.264611
672.505628	0.264898
672.709278	0.265125
672.912911	0.265417
673.116525	0.265516
673.320121	0.265909
673.523699	0.266041
673.727258	0.266220
673.930799	0.266673
674.134322	0.266878
674.337827	0.266854
674.541314	0.266898
674.744782	0.267081
674.948232	0.267443
675.151664	0.267747
675.355078	0.267698
675.558474	0.268048
675.761851	0.268089
675.965210	0.268153
676.168551	0.268348
676.371873	0.268372
676.575178	0.268580
676.778464	0.268470
676.981732	0.268272
677.184981	0.268958
677.388213	0.268521
677.591426	0.268899
677.794621	0.269066
677.997798	0.269461
678.200956	0.269651
678.404097	0.269908
678.607219	0.270510
678.810323	0.270921
679.013408	0.270901
679.216476	0.271485
679.419525	0.271755
679.622556	0.272123
679.825569	0.272448
680.028563	0.272881
680.231540	0.272727
680.434498	0.272683
680.637438	0.272734
680.840359	0.272801
681.043263	0.272999
681.246148	0.273182
681.449015	0.273491
681.651864	0.273681
681.854694	0.274017
682.057506	0.274605
682.260301	0.274828
682.463076	0.275074
682.665834	0.275242
682.868573	0.275491
683.071295	0.275234
683.273998	0.275214
683.476682	0.275363
683.679349	0.275450
683.881997	0.275623
684.084627	0.275845
684.287239	0.276029
684.489833	0.276396
684.692408	0.276766
684.894965	0.277235
685.097504	0.277413
685.300025	0.277399
685.502527	0.277650
685.705012	0.277756
685.907478	0.277953
686.109925	0.278139
686.312355	0.278001
686.514766	0.277891
686.717159	0.277868
686.919534	0.277933
687.121891	0.278055
687.324230	0.278030
687.526550	0.278050
687.728852	0.277931
687.931136	0.278133
688.133401	0.278715
688.335649	0.278910
688.537878	0.279061
688.740089	0.279132
688.942281	0.279684
689.144456	0.279794
689.346612	0.280074
689.548750	0.280659
689.750870	0.280749
689.952971	0.280638
690.155055	0.280823
690.357120	0.281592
690.559167	0.282220
690.761195	0.282084
690.963206	0.282329
691.165198	0.282371
691.367172	0.282524
691.569128	0.282864
691.771065	0.283396
691.972984	0.283586
692.174885	0.283440
692.376768	0.283213
692.578633	0.283292
692.780479	0.283382
692.982308	0.283487
693.184118	0.283358
693.385909	0.283228
