sample name	sample
index	1408
start time	 05-10-2021  11:31:39 AM


Wavelength (nm)	Absorbance
494.344910	0.121777
494.563924	0.121777
494.782919	0.121777
495.001897	0.007945
495.220856	0.050621
495.439797	0.028637
495.658719	0.014658
495.877624	-0.004633
496.096510	-0.001938
496.315378	-0.010193
496.534227	-0.012788
496.753059	-0.025304
496.971872	-0.025112
497.190667	0.065970
497.409444	0.107649
497.628203	0.120058
497.846943	0.126287
498.065665	0.130233
498.284369	0.133183
498.503055	0.133856
498.721723	0.136377
498.940372	0.136879
499.159003	0.136378
499.377616	0.135657
499.596210	0.135472
499.814787	0.135196
500.033345	0.135996
500.251885	0.136668
500.470406	0.138709
500.688910	0.138513
500.907395	0.139260
501.125862	0.139276
501.344311	0.139962
501.562742	0.140777
501.781154	0.141863
501.999548	0.140277
502.217924	0.139907
502.436282	0.137748
502.654621	0.138593
502.872942	0.138733
503.091245	0.140738
503.309530	0.139679
503.527797	0.139548
503.746045	0.140216
503.964275	0.140935
504.182487	0.140610
504.400681	0.141512
504.618856	0.141987
504.837013	0.142777
505.055152	0.140608
505.273273	0.141541
505.491376	0.141231
505.709460	0.140367
505.927526	0.141009
506.145574	0.141958
506.363604	0.142553
506.581615	0.141996
506.799608	0.141689
507.017583	0.142634
507.235540	0.141406
507.453478	0.142224
507.671399	0.141706
507.889301	0.142369
508.107185	0.141948
508.325050	0.142078
508.542898	0.141444
508.760727	0.141800
508.978538	0.142253
509.196330	0.143288
509.414105	0.143405
509.631861	0.144512
509.849599	0.143679
510.067319	0.143737
510.285021	0.143994
510.502704	0.144237
510.720369	0.143685
510.938016	0.144006
511.155645	0.144479
511.373255	0.144194
511.590848	0.144565
511.808422	0.144467
512.025977	0.144168
512.243515	0.144813
512.461034	0.145775
512.678536	0.146858
512.896018	0.146947
513.113483	0.146777
513.330930	0.146177
513.548358	0.145830
513.765768	0.146819
513.983160	0.147685
514.200533	0.147051
514.417889	0.147544
514.635226	0.147316
514.852545	0.147958
515.069845	0.148686
515.287128	0.149157
515.504392	0.150317
515.721638	0.149662
515.938866	0.149196
516.156075	0.149532
516.373267	0.148676
516.590440	0.149477
516.807594	0.148934
517.024731	0.148718
517.241850	0.149966
517.458950	0.149340
517.676032	0.149944
517.893095	0.149934
518.110141	0.150120
518.327168	0.150799
518.544177	0.150501
518.761168	0.150619
518.978141	0.150738
519.195095	0.150393
519.412031	0.150199
519.628949	0.150752
519.845849	0.151470
520.062731	0.151127
520.279594	0.150969
520.496439	0.151022
520.713266	0.151042
520.930074	0.151275
521.146865	0.151455
521.363637	0.152419
521.580391	0.151767
521.797127	0.152024
522.013844	0.152220
522.230543	0.152944
522.447224	0.152913
522.663887	0.153420
522.880532	0.153855
523.097158	0.153866
523.313766	0.153249
523.530356	0.153950
523.746928	0.154157
523.963481	0.154899
524.180017	0.154190
524.396534	0.154429
524.613032	0.154151
524.829513	0.153996
525.045975	0.154265
525.262420	0.155049
525.478845	0.154902
525.695253	0.155154
525.911643	0.155256
526.128014	0.155751
526.344367	0.155929
526.560702	0.156799
526.777018	0.156869
526.993316	0.156547
527.209597	0.156208
527.425858	0.156758
527.642102	0.155640
527.858328	0.155322
528.074535	0.155322
528.290724	0.155807
528.506894	0.156137
528.723047	0.156793
528.939181	0.157481
529.155297	0.157565
529.371395	0.157295
529.587475	0.158337
529.803536	0.159004
530.019579	0.159610
530.235604	0.158989
530.451611	0.159424
530.667600	0.159371
530.883570	0.159920
531.099522	0.160528
531.315456	0.160737
531.531372	0.161293
531.747269	0.161027
531.963148	0.161275
532.179009	0.162162
532.394852	0.161280
532.610676	0.161855
532.826482	0.162145
533.042271	0.163084
533.258040	0.164194
533.473792	0.164219
533.689525	0.165210
533.905240	0.165478
534.120937	0.166097
534.336616	0.166721
534.552277	0.166890
534.767919	0.166400
534.983543	0.166286
535.199149	0.166023
535.414736	0.166580
535.630306	0.166170
535.845857	0.166555
536.061390	0.166791
536.276904	0.167017
536.492401	0.167100
536.707879	0.167375
536.923339	0.166858
537.138781	0.166502
537.354204	0.166613
537.569610	0.166738
537.784997	0.166543
538.000366	0.166173
538.215716	0.166386
538.431049	0.166355
538.646363	0.166551
538.861659	0.166922
539.076937	0.167860
539.292196	0.168076
539.507438	0.169006
539.722661	0.169811
539.937866	0.170159
540.153052	0.170515
540.368221	0.170670
540.583371	0.171230
540.798503	0.171779
541.013617	0.171601
541.228712	0.171796
541.443789	0.171914
541.658848	0.171236
541.873889	0.171622
542.088912	0.171527
542.303916	0.172121
542.518902	0.172113
542.733870	0.172162
542.948820	0.172232
543.163752	0.171946
543.378665	0.171757
543.593560	0.172239
543.808437	0.172560
544.023295	0.172554
544.238136	0.172430
544.452958	0.172696
544.667762	0.172691
544.882548	0.172988
545.097315	0.172978
545.312064	0.173392
545.526795	0.173562
545.741508	0.173250
545.956203	0.173686
546.170879	0.173970
546.385537	0.174508
546.600177	0.174957
546.814799	0.175391
547.029402	0.175833
547.243988	0.175890
547.458555	0.176062
547.673103	0.176429
547.887634	0.176892
548.102146	0.177073
548.316640	0.176837
548.531116	0.177091
548.745574	0.177177
548.960013	0.177846
549.174435	0.177603
549.388838	0.177792
549.603222	0.178000
549.817589	0.178319
550.031937	0.178838
550.246267	0.179276
550.460579	0.179195
550.674873	0.179133
550.889148	0.179066
551.103405	0.179479
551.317644	0.179645
551.531865	0.179561
551.746068	0.179057
551.960252	0.178208
552.174418	0.178035
552.388566	0.177858
552.602696	0.177714
552.816807	0.177637
553.030900	0.178225
553.244975	0.178027
553.459032	0.178120
553.673070	0.178180
553.887091	0.178625
554.101093	0.178705
554.315077	0.178987
554.529042	0.180094
554.742990	0.180417
554.956919	0.180134
555.170830	0.180080
555.384722	0.179924
555.598597	0.179867
555.812453	0.180493
556.026291	0.180673
556.240111	0.181174
556.453913	0.180479
556.667696	0.180777
556.881461	0.181266
557.095208	0.181908
557.308937	0.182271
557.522647	0.182575
557.736339	0.182099
557.950013	0.182228
558.163669	0.182226
558.377307	0.182758
558.590926	0.182843
558.804527	0.182964
559.018110	0.183163
559.231675	0.183568
559.445221	0.183726
559.658749	0.184249
559.872259	0.184519
560.085751	0.184370
560.299225	0.184491
560.512680	0.184523
560.726117	0.184529
560.939536	0.184641
561.152937	0.184870
561.366319	0.185256
561.579683	0.185129
561.793029	0.185047
562.006357	0.185081
562.219667	0.184876
562.432958	0.184511
562.646231	0.184561
562.859486	0.184495
563.072723	0.184315
563.285941	0.184405
563.499141	0.184748
563.712323	0.185001
563.925487	0.185467
564.138632	0.185662
564.351760	0.185774
564.564869	0.185655
564.777960	0.185457
564.991032	0.185763
565.204087	0.185729
565.417123	0.185560
565.630141	0.185645
565.843140	0.185506
566.056122	0.185238
566.269085	0.185620
566.482030	0.185472
566.694957	0.185552
566.907866	0.185265
567.120756	0.185486
567.333628	0.185542
567.546482	0.185330
567.759318	0.185313
567.972135	0.185641
568.184935	0.185649
568.397716	0.186032
568.610478	0.186469
568.823223	0.186765
569.035949	0.186907
569.248657	0.187103
569.461347	0.187730
569.674019	0.188030
569.886672	0.188235
570.099308	0.188573
570.311925	0.188911
570.524523	0.189528
570.737104	0.189947
570.949666	0.190101
571.162210	0.190330
571.374736	0.190219
571.587244	0.190301
571.799733	0.190550
572.012205	0.190770
572.224658	0.190734
572.437092	0.190427
572.649509	0.190473
572.861907	0.190702
573.074287	0.190651
573.286649	0.190678
573.498993	0.190953
573.711318	0.190972
573.923625	0.190920
574.135914	0.191166
574.348185	0.191083
574.560438	0.191044
574.772672	0.190813
574.984888	0.190939
575.197086	0.191125
575.409266	0.191230
575.621427	0.191521
575.833570	0.191576
576.045695	0.191571
576.257802	0.192013
576.469890	0.192119
576.681961	0.192580
576.894013	0.192871
577.106046	0.192739
577.318062	0.192769
577.530059	0.192652
577.742039	0.193279
577.954000	0.193048
578.165942	0.193359
578.377867	0.193728
578.589773	0.193679
578.801661	0.193725
579.013531	0.194206
579.225382	0.194428
579.437216	0.194895
579.649031	0.194505
579.860828	0.195122
580.072606	0.194815
580.284367	0.194705
580.496109	0.194623
580.707833	0.195003
580.919539	0.195289
581.131227	0.195359
581.342896	0.195231
581.554547	0.195491
581.766180	0.195287
581.977795	0.195752
582.189391	0.195627
582.400969	0.195808
582.612529	0.196138
582.824071	0.195789
583.035595	0.196097
583.247100	0.196449
583.458587	0.196673
583.670056	0.197108
583.881506	0.197252
584.092939	0.197910
584.304353	0.198254
584.515749	0.198372
584.727127	0.198637
584.938486	0.198903
585.149828	0.198820
585.361151	0.198758
585.572456	0.198718
585.783742	0.198752
585.995011	0.198892
586.206261	0.198891
586.417493	0.198586
586.628706	0.198571
586.839902	0.198319
587.051079	0.198266
587.262238	0.198214
587.473379	0.198410
587.684502	0.197992
587.895606	0.197567
588.106692	0.197770
588.317760	0.197912
588.528810	0.198356
588.739841	0.198683
588.950855	0.199170
589.161850	0.199473
589.372827	0.199719
589.583785	0.200281
589.794726	0.200976
590.005648	0.201345
590.216552	0.201900
590.427437	0.202081
590.638305	0.201992
590.849154	0.201880
591.059985	0.202268
591.270798	0.202467
591.481592	0.202492
591.692369	0.202222
591.903127	0.201739
592.113867	0.201340
592.324588	0.201382
592.535292	0.201518
592.745977	0.201628
592.956644	0.201786
593.167293	0.201698
593.377923	0.201830
593.588536	0.202081
593.799130	0.202706
594.009706	0.203221
594.220263	0.203305
594.430803	0.203583
594.641324	0.203962
594.851827	0.203774
595.062312	0.204135
595.272778	0.204228
595.483227	0.204194
595.693657	0.204187
595.904069	0.204165
596.114462	0.204264
596.324838	0.204661
596.535195	0.204557
596.745534	0.204752
596.955855	0.204676
597.166157	0.205280
597.376441	0.205697
597.586707	0.206046
597.796955	0.206148
598.007185	0.205926
598.217396	0.205664
598.427589	0.205723
598.637764	0.205866
598.847921	0.206115
599.058060	0.205713
599.268180	0.205467
599.478282	0.205292
599.688366	0.205368
599.898431	0.205839
600.108479	0.206129
600.318508	0.206416
600.528519	0.206374
600.738511	0.206193
600.948486	0.206438
601.158442	0.206660
601.368380	0.206716
601.578300	0.206783
601.788202	0.206686
601.998085	0.206496
602.207950	0.206505
602.417797	0.206486
602.627626	0.206668
602.837436	0.206948
603.047228	0.207260
603.257002	0.207684
603.466758	0.207947
603.676496	0.207939
603.886215	0.207777
604.095916	0.207594
604.305599	0.207824
604.515264	0.208192
604.724910	0.208319
604.934538	0.208422
605.144148	0.208444
605.353740	0.208769
605.563314	0.209115
605.772869	0.209865
605.982406	0.209937
606.191925	0.210347
606.401425	0.210152
606.610908	0.210139
606.820372	0.209971
607.029818	0.210218
607.239246	0.209989
607.448655	0.210462
607.658047	0.210671
607.867420	0.210869
608.076775	0.210605
608.286111	0.210644
608.495430	0.210471
608.704730	0.210492
608.914012	0.210619
609.123275	0.210862
609.332521	0.210579
609.541748	0.210544
609.750957	0.211084
609.960148	0.211245
610.169321	0.211798
610.378475	0.212223
610.587611	0.212609
610.796729	0.212357
611.005829	0.212451
611.214910	0.212546
611.423974	0.212436
611.633019	0.212649
611.842045	0.212810
612.051054	0.212803
612.260044	0.212925
612.469017	0.213024
612.677970	0.213152
612.886906	0.213092
613.095824	0.213467
613.304723	0.213702
613.513604	0.213346
613.722467	0.213572
613.931311	0.213315
614.140138	0.213276
614.348946	0.213034
614.557736	0.213237
614.766507	0.213574
614.975261	0.213460
615.183996	0.213473
615.392713	0.213786
615.601412	0.213841
615.810092	0.214248
616.018754	0.214576
616.227399	0.215122
616.436024	0.215325
616.644632	0.215222
616.853222	0.215294
617.061793	0.215364
617.270346	0.215478
617.478880	0.215537
617.687397	0.215551
617.895895	0.215356
618.104375	0.215492
618.312837	0.215457
618.521281	0.215741
618.729706	0.215912
618.938113	0.216027
619.146502	0.216202
619.354873	0.216610
619.563226	0.216825
619.771560	0.216879
619.979876	0.216970
620.188174	0.217170
620.396453	0.217114
620.604715	0.217452
620.812958	0.217563
621.021183	0.217487
621.229390	0.217378
621.437578	0.217323
621.645748	0.217683
621.853900	0.217582
622.062034	0.217808
622.270150	0.218104
622.478247	0.217954
622.686326	0.218198
622.894387	0.218306
623.102430	0.218332
623.310454	0.218201
623.518461	0.218226
623.726449	0.218508
623.934418	0.218690
624.142370	0.218851
624.350303	0.218865
624.558218	0.218882
624.766115	0.218921
624.973994	0.219127
625.181855	0.219321
625.389697	0.219434
625.597521	0.219437
625.805327	0.219443
626.013114	0.219623
626.220883	0.220020
626.428634	0.220197
626.636367	0.220511
626.844082	0.220395
627.051778	0.220892
627.259457	0.220912
627.467117	0.221079
627.674758	0.220623
627.882382	0.220380
628.089987	0.220090
628.297574	0.220074
628.505143	0.220031
628.712694	0.219974
628.920226	0.219775
629.127740	0.219485
629.335236	0.219242
629.542714	0.219622
629.750174	0.219411
629.957615	0.219377
630.165038	0.219479
630.372443	0.219547
630.579829	0.219827
630.787198	0.219971
630.994548	0.220235
631.201880	0.220187
631.409194	0.220361
631.616489	0.220678
631.823766	0.220928
632.031025	0.220660
632.238266	0.221015
632.445489	0.221167
632.652693	0.221339
632.859879	0.221377
633.067047	0.221854
633.274197	0.221700
633.481329	0.221581
633.688442	0.221755
633.895537	0.222417
634.102614	0.222432
634.309672	0.222727
634.516713	0.222748
634.723735	0.223311
634.930739	0.223259
635.137724	0.223639
635.344692	0.224131
635.551641	0.224295
635.758572	0.224263
635.965485	0.224234
636.172379	0.224063
636.379256	0.224199
636.586114	0.224089
636.792954	0.224426
636.999775	0.224556
637.206579	0.224814
637.413364	0.225074
637.620131	0.225085
637.826880	0.225221
638.033610	0.225579
638.240323	0.225849
638.447017	0.226298
638.653692	0.226238
638.860350	0.226602
639.066990	0.226638
639.273611	0.226799
639.480214	0.227022
639.686798	0.227224
639.893365	0.227466
640.099913	0.227518
640.306443	0.227716
640.512955	0.228067
640.719449	0.228073
640.925924	0.228001
641.132381	0.227989
641.338820	0.228121
641.545241	0.228341
641.751644	0.228366
641.958028	0.228472
642.164394	0.228263
642.370742	0.228340
642.577071	0.228408
642.783383	0.228652
642.989676	0.228543
643.195951	0.228411
643.402207	0.228314
643.608446	0.228443
643.814666	0.228429
644.020868	0.228465
644.227052	0.228539
644.433218	0.228597
644.639365	0.228889
644.845494	0.229556
645.051605	0.230043
645.257698	0.230242
645.463772	0.230485
645.669828	0.230940
645.875866	0.231103
646.081886	0.231471
646.287888	0.231602
646.493871	0.231231
646.699836	0.230723
646.905783	0.230576
647.111712	0.230895
647.317622	0.230827
647.523514	0.230490
647.729388	0.230599
647.935244	0.230407
648.141082	0.230478
648.346901	0.230937
648.552702	0.231116
648.758485	0.231174
648.964250	0.230955
649.169996	0.230865
649.375724	0.231287
649.581434	0.231215
649.787126	0.231271
649.992800	0.231541
650.198455	0.231439
650.404092	0.231561
650.609711	0.231700
650.815311	0.231885
651.020894	0.232090
651.226458	0.231963
651.432004	0.232154
651.637532	0.232221
651.843041	0.232037
652.048532	0.232402
652.254006	0.232721
652.459460	0.232744
652.664897	0.232761
652.870315	0.233017
653.075716	0.233313
653.281097	0.233462
653.486461	0.233739
653.691807	0.234029
653.897134	0.233998
654.102443	0.234112
654.307734	0.234417
654.513006	0.234752
654.718261	0.234738
654.923497	0.234661
655.128715	0.234722
655.333915	0.234710
655.539096	0.234699
655.744259	0.234806
655.949404	0.234875
656.154531	0.235036
656.359640	0.235304
656.564730	0.235495
656.769802	0.235858
656.974856	0.236095
657.179892	0.236286
657.384909	0.236695
657.589908	0.236854
657.794889	0.237071
657.999852	0.237275
658.204797	0.237104
658.409723	0.237155
658.614631	0.237189
658.819521	0.237483
659.024393	0.237639
659.229246	0.237638
659.434081	0.237597
659.638898	0.237772
659.843697	0.237958
660.048478	0.238179
660.253240	0.238425
660.457984	0.238508
660.662710	0.238722
660.867417	0.238861
661.072107	0.239010
661.276778	0.239404
661.481431	0.239619
661.686066	0.239573
661.890682	0.239805
662.095281	0.239700
662.299861	0.239813
662.504422	0.239617
662.708966	0.239661
662.913491	0.239683
663.117999	0.239791
663.322488	0.239880
663.526958	0.239770
663.731411	0.239988
663.935845	0.240167
664.140261	0.240354
664.344659	0.240484
664.549038	0.240677
664.753400	0.240827
664.957743	0.240920
665.162068	0.241189
665.366375	0.241499
665.570663	0.241500
665.774933	0.241512
665.979185	0.241597
666.183419	0.241720
666.387635	0.241928
666.591832	0.242246
666.796011	0.242365
667.000172	0.242368
667.204315	0.242784
667.408439	0.242793
667.612545	0.243237
667.816634	0.243408
668.020703	0.243653
668.224755	0.243803
668.428788	0.243797
668.632803	0.244239
668.836800	0.244442
669.040779	0.244413
669.244739	0.244624
669.448681	0.244972
669.652605	0.245085
669.856511	0.245341
670.060399	0.245686
670.264268	0.245749
670.468119	0.245671
670.671952	0.245467
670.875767	0.245516
671.079563	0.245737
671.283341	0.245355
671.487101	0.245833
671.690843	0.246246
671.894567	0.246420
672.098272	0.246779
672.301959	0.246921
672.505628	0.247116
672.709278	0.247557
672.912911	0.247596
673.116525	0.247907
673.320121	0.247860
673.523699	0.247761
673.727258	0.247531
673.930799	0.247604
674.134322	0.247688
674.337827	0.247960
674.541314	0.247806
674.744782	0.247945
674.948232	0.248151
675.151664	0.248393
675.355078	0.248413
675.558474	0.248670
675.761851	0.248790
675.965210	0.248831
676.168551	0.248920
676.371873	0.249278
676.575178	0.249364
676.778464	0.249696
676.981732	0.249576
677.184981	0.249844
677.388213	0.250138
677.591426	0.250465
677.794621	0.250908
677.997798	0.251329
678.200956	0.251496
678.404097	0.251620
678.607219	0.251667
678.810323	0.251874
679.013408	0.251831
679.216476	0.251736
679.419525	0.251630
679.622556	0.251620
679.825569	0.251582
680.028563	0.251561
680.231540	0.251820
680.434498	0.251780
680.637438	0.251932
680.840359	0.252119
681.043263	0.252499
681.246148	0.252687
681.449015	0.252692
681.651864	0.252762
681.854694	0.253060
682.057506	0.253120
682.260301	0.253551
682.463076	0.253563
682.665834	0.253578
682.868573	0.253555
683.071295	0.253512
683.273998	0.253813
683.476682	0.254122
683.679349	0.254202
683.881997	0.254375
684.084627	0.254368
684.287239	0.254552
684.489833	0.254875
684.692408	0.254792
684.894965	0.254935
685.097504	0.255039
685.300025	0.255108
685.502527	0.255114
685.705012	0.255294
685.907478	0.255152
686.109925	0.255335
686.312355	0.255253
686.514766	0.255504
686.717159	0.255562
686.919534	0.255508
687.121891	0.255338
687.324230	0.255171
687.526550	0.255036
687.728852	0.255223
687.931136	0.255224
688.133401	0.255377
688.335649	0.255370
688.537878	0.255558
688.740089	0.255697
688.942281	0.255756
689.144456	0.255995
689.346612	0.256159
689.548750	0.256247
689.750870	0.256422
689.952971	0.256390
690.155055	0.256532
690.357120	0.256459
690.559167	0.256563
690.761195	0.256855
690.963206	0.257118
691.165198	0.257236
691.367172	0.257575
691.569128	0.257461
691.771065	0.257626
691.972984	0.257743
692.174885	0.258186
692.376768	0.258494
692.578633	0.258558
692.780479	0.258651
692.982308	0.258731
693.184118	0.258756
693.385909	0.258852
