sample name	sample
index	1418
start time	 05-10-2021  11:57:29 AM
880	0.497334
Peak Time (s)	92.535
Peak Height 	0.4973
calc peak height	90,93
Baseline Time (s)	8.536
Baseline Value 	-0.00447
subtract baseline	10,4
Abs	0.338508
Peak Time (s)	92.035
Peak Height 	0.3385
calc peak height	90,93
Baseline Time (s)	10.037
Baseline Value 	0.001214
subtract baseline	10,3
PK_550	0.174551
Peak Time (s)	90.537
Peak Height 	0.1746
calc peak height	90,93
Baseline Time (s)	11.035
Baseline Value 	5.4099E-4
subtract baseline	10,2
PK_880	0.309603
Peak Time (s)	90.537
Peak Height 	0.3096
calc peak height	90,93
Baseline Time (s)	10.537
Baseline Value 	0.001874
subtract baseline	10,1


Time (s)	A880-A510	A880-A775	A880-A975	A880	I510	I775	I975	I880	
0.036500	-0.000226	-0.001056	-0.000149	0.002417	6509.098720	44187.651317	3932.155986	22615.725039
0.537000	-0.003211	-0.000364	0.000416	0.004806	6464.109458	44026.729934	3927.472981	22507.335996
1.037000	-0.002537	-0.000762	0.000529	0.004209	6474.700160	44045.631242	3929.294937	22534.401702
1.537500	-0.001379	0.000362	-0.002868	0.004836	6479.137138	44092.731855	3919.019660	22506.005858
2.037500	-0.001874	-0.000176	-0.007136	0.002268	6496.499811	44285.566992	3914.708247	22622.532949
2.538000	0.000225	0.000358	-0.004440	0.001702	6518.938116	44390.347469	3922.995679	22648.281782
3.036000	0.000034	0.000166	-0.001451	-0.001003	6540.232171	44630.826205	3937.616177	22771.923030
3.536000	-0.000979	-0.001599	-0.004842	0.002502	6502.052877	44128.042094	3919.936207	22611.890902
4.036500	-0.000383	-0.000183	-0.004501	0.000547	6523.566898	44449.030502	3925.792039	22701.013575
4.536500	0.002020	0.000372	0.000377	0.001025	6539.887745	44456.386597	3937.100694	22679.182198
5.036500	-0.001234	-0.000589	-0.001348	-0.000319	6523.687504	44492.979682	3936.114810	22740.590118
5.537000	-0.002397	-0.000746	-0.001605	0.003581	6481.118318	44106.652108	3925.438158	22562.855296
6.037000	-0.001504	0.000131	0.002764	0.000204	6516.988706	44511.837740	3945.415839	22716.674936
6.535000	-0.000148	0.000440	0.000839	0.000493	6526.007922	44513.771018	3939.669401	22703.460786
7.035000	-0.000376	0.000670	0.003404	0.000798	6521.503107	44506.606233	3945.536800	22689.555080
7.535500	-0.000465	0.000627	0.000855	0.001059	6518.543392	44477.492071	3938.247664	22677.632896
8.035500	-0.000110	-0.000174	-0.001291	0.000261	6528.300870	44477.290599	3934.768124	22714.091369
8.536000	0.000774	-0.000069	-0.001395	0.000000	6538.001824	44512.203606	3935.171736	22726.005763
9.036500	-0.000562	-0.000183	0.002570	-0.000041	6527.017881	44505.184006	3945.548971	22727.863815
9.536500	-0.002015	0.000237	-0.004158	0.001895	6498.451297	44360.429798	3923.223486	22639.510603
10.037000	0.000374	-0.000050	0.000000	0.000292	6532.127851	44486.118415	3938.018894	22712.639860
10.537500	0.000000	0.000232	0.004381	-0.000208	6533.200459	44560.969227	3950.708247	22735.516837
11.035000	-0.000351	0.000000	0.000342	-0.000176	6529.953286	44535.649001	3940.114480	22734.043461
11.535000	0.000341	0.001187	-0.003148	0.002416	6513.889264	44401.323494	3924.471209	22615.774340
12.035500	0.002425	0.000574	0.005142	0.000204	6550.313867	44554.246846	3951.623968	22716.688829
12.535500	-0.000910	0.000559	0.000110	0.000246	6521.656767	44548.832451	3938.423555	22714.754706
13.036000	0.000734	0.000886	0.002741	0.000509	6533.344830	44554.847656	3944.562708	22702.711840
13.536500	-0.002423	-0.000022	-0.000428	0.002261	6491.949837	44300.785198	3931.838410	22622.822537
14.036500	-0.001738	-0.000393	0.000779	0.002426	6496.311614	44249.797649	3934.521245	22615.317296
14.536500	-0.000636	-0.000651	-0.002597	0.001841	6510.498906	44280.886270	3927.351262	22641.941271
15.037000	-0.001301	-0.000388	0.001141	0.000004	6520.396851	44481.331619	3941.718941	22725.820740
15.535000	-0.002725	-0.000230	-0.000397	0.001453	6496.195505	44357.962215	3933.997636	22659.625009
16.035000	0.000572	-0.000583	-0.001750	-0.000201	6537.997525	44482.271707	3934.774890	22735.210980
16.535000	0.000062	0.000153	-0.000138	-0.000152	6533.252585	44548.075470	3938.812809	22732.980081
17.035500	0.003186	0.000158	0.002874	-0.002778	6582.339487	44800.829941	3953.490560	22853.496247
17.535500	0.000762	0.000234	-0.001990	0.001931	6521.539669	44356.641245	3928.676154	22637.859447
18.036000	-0.001463	-0.000002	0.002155	0.001492	6506.479825	44376.051755	3940.490154	22657.868240
18.536500	-0.002186	0.000017	0.003981	0.001344	6501.643923	44392.034945	3945.617275	22664.623267
19.036500	-0.000481	-0.000179	0.000312	0.000924	6519.544358	44413.340701	3937.191755	22683.764173
19.537000	-0.001246	0.000177	-0.000717	0.002250	6501.921450	44320.809573	3931.125398	22623.321901
20.040000	-0.000721	-0.000560	-0.000645	0.001412	6513.401109	44330.456316	3933.465180	22661.499574
20.535000	-0.003608	-0.000334	0.003251	0.001115	6491.619541	44380.296445	3944.312213	22675.040730
21.035000	-0.001551	-0.000277	0.003022	0.001249	6507.784455	44373.017547	3943.372083	22668.972234
21.535500	-0.002673	0.000375	-0.000077	0.002481	6488.010352	44317.692437	3932.176127	22612.814345
22.035500	-0.001869	-0.000242	0.000049	0.001456	6503.363683	44356.583567	3935.142662	22659.526462
22.535500	-0.001633	-0.000576	0.000670	0.000997	6509.212408	44368.522294	3937.929554	22680.461379
23.036500	-0.001126	-0.000382	-0.001982	0.000860	6514.649364	44400.106621	3931.447348	22686.722931
23.536500	-0.000409	0.000175	-0.002561	0.001989	6511.168884	44345.505057	3927.066512	22635.229168
24.037000	0.000504	-0.000104	0.004556	0.001467	6523.285171	44368.703405	3946.793922	22659.001557
24.540000	-0.000922	0.000401	0.002509	0.002274	6504.442467	44339.864947	3939.381191	22622.227932
25.037500	-0.000586	0.000122	0.002813	0.001763	6511.582235	44361.971228	3941.493166	22645.512652
25.534500	-0.001034	0.000788	0.003063	0.004542	6484.472312	44160.954201	3934.953327	22519.285133
26.034500	0.000279	-0.000489	0.003069	0.001767	6518.849922	44303.377094	3942.147564	22645.342034
26.535500	-0.000864	0.000051	-0.002519	0.001814	6508.811162	44350.376284	3927.622568	22643.198189
27.035500	0.000297	-0.000134	0.000081	-0.001234	6544.438016	44624.218119	3942.181527	22782.519053
27.536000	-0.002348	-0.000312	0.003160	0.005478	6465.702930	43968.226749	3932.794773	22476.998627
28.036000	0.000959	0.000175	0.005494	0.000974	6531.316021	44442.378763	3950.528088	22681.504786
28.536500	-0.002567	0.000614	0.001241	0.000994	6501.377463	44482.523571	3939.413570	22680.597435
29.039500	-0.000553	-0.000096	0.000325	0.000795	6520.031822	44433.638198	3937.561850	22689.689693
29.537000	-0.003944	0.000137	0.000851	0.006364	6445.099013	43926.980060	3924.603738	22437.009109
30.037500	0.001090	0.000398	0.003723	0.000918	6532.898919	44469.104608	3946.054315	22684.066662
30.535000	-0.002033	-0.000618	0.002876	0.002406	6494.003746	44230.363666	3939.990593	22616.249255
31.035500	0.000581	0.000251	0.001652	0.002891	6511.908282	44266.800414	3935.573023	22594.179882
31.535500	-0.002650	-0.000003	-0.002757	0.005428	6463.599365	44002.094546	3917.799203	22479.224562
32.037000	-0.001559	0.000058	0.003471	0.000221	6516.379599	44503.178254	3947.212561	22715.887481
32.535500	-0.001525	-0.000319	-0.001906	0.000280	6516.175739	44461.561121	3933.134297	22713.221649
33.036500	-0.000488	-0.000570	-0.001968	-0.000273	6529.616024	44490.354902	3934.398029	22738.488082
33.536500	-0.002671	-0.000165	-0.002796	0.004628	6470.087337	44062.486258	3919.732224	22515.403199
34.037000	-0.001030	-0.000121	-0.000582	0.001467	6510.340502	44367.080932	3933.486439	22659.029717
34.537000	-0.001942	-0.000382	0.001728	0.001749	6500.291762	44315.313001	3938.722283	22646.171749
35.035000	-0.000357	-0.000413	0.000286	0.001298	6517.435506	44355.281513	3936.158532	22666.708577
35.535500	-0.002178	0.000047	0.001708	0.004033	6479.165992	44138.893038	3932.774632	22542.340670
36.035500	-0.001541	0.000341	0.001187	0.001938	6502.066118	44366.190173	3936.832692	22637.546097
36.536000	-0.000007	0.000179	-0.000458	0.002215	6512.652175	44324.422362	3931.881530	22624.945356
37.038500	-0.002754	0.000630	0.002943	0.001968	6491.633326	44390.864471	3941.299097	22636.167084
37.536000	-0.000475	0.000767	-0.000036	0.002930	6502.693507	44312.298532	3931.128927	22592.439893
38.036500	-0.000762	0.000975	0.001376	0.002323	6505.386662	44390.025055	3936.327571	22620.024522
38.537000	0.000093	0.000220	0.000658	0.001906	6516.111014	44357.785406	3935.551386	22639.023476
39.037000	-0.000771	-0.000396	-0.003144	0.001463	6512.550690	44341.166140	3926.919024	22659.178521
39.535000	-0.003406	-0.000166	0.003116	0.002281	6483.544520	44285.166794	3940.937333	22621.919181
40.035000	-0.001493	-0.000434	0.001343	0.001168	6508.954447	44365.671798	3939.226491	22672.633317
40.535000	-0.002008	0.000539	0.001662	0.002404	6494.230975	44340.654210	3936.856585	22616.334896
41.035500	-0.002717	0.000096	-0.000440	0.002189	6490.089213	44318.947469	3931.995055	22626.115610
41.536000	-0.002812	0.000663	-0.000482	0.002973	6482.727749	44298.267993	3929.870910	22590.453910
42.036500	-0.001018	0.000521	-0.003025	0.002540	6501.396881	44325.930979	3924.468954	22610.128419
42.536000	-0.000767	-0.000234	0.000583	0.001575	6511.634608	44346.008015	3936.209399	22654.068999
43.037000	-0.001178	-0.000135	-0.002282	0.001951	6505.010170	44319.548425	3927.878313	22636.951828
43.537000	-0.002054	0.000266	0.002623	0.002356	6494.253110	44319.259373	3939.466468	22618.534962
44.037000	0.001168	-0.000387	0.005566	-0.003188	6568.544745	44787.797480	3961.649285	22872.368897
44.535000	-0.001250	-0.000235	-0.000716	0.000150	6519.592531	44482.043721	3936.537270	22719.152797
45.035000	-0.000785	-0.000364	0.000344	0.000094	6523.998678	44475.001324	3939.422143	22721.725862
45.535000	-0.000734	-0.000232	0.003646	0.002822	6501.425537	44227.486125	3940.910290	22597.345925
46.035500	0.000740	0.000857	-0.000231	0.001271	6526.942137	44479.268189	3934.896901	22667.954031
46.539000	-0.002066	-0.000168	0.000809	0.000317	6511.298087	44472.454565	3940.047691	22711.514662
47.041000	-0.000061	0.000993	0.000744	0.000951	6522.872017	44522.861483	3938.237594	22682.538898
47.536500	-0.001633	-0.000053	0.000714	0.004502	6479.799557	44085.031958	3929.016574	22521.109702
48.037000	-0.000255	0.000540	-0.002640	0.001888	6513.314644	44389.951409	3927.120976	22639.800879
48.537000	-0.000436	0.000982	0.005135	0.000794	6521.031157	44536.840019	3950.060838	22689.730332
49.035000	0.000153	0.000500	0.003066	0.000503	6528.469945	44518.493800	3945.423655	22703.007951
49.535000	-0.002958	0.000799	0.001300	0.006020	6456.121445	44021.949071	3926.630143	22452.520788
50.035000	0.001093	0.000709	0.000033	-0.000805	6547.560828	44664.067008	3940.944477	22762.875530
50.535500	0.002888	0.000734	0.003482	0.008750	6482.091566	43758.486479	3925.229509	22329.733771
51.038500	0.039464	-0.035724	0.149137	0.662908	3726.437281	11262.283349	3159.461539	7175.905558
51.536500	-0.015449	-0.028102	-0.016371	-0.004611	6440.708924	42329.592583	3908.761062	22938.064172
52.036500	-0.008486	-0.066899	-0.023826	-0.202152	8599.998992	59710.810857	4509.224600	34502.904161
52.536500	-0.009428	-0.088621	-0.023051	-0.262142	9437.363111	64940.256604	4763.618020	39190.336659
53.037000	-0.001368	-0.077486	-0.008924	-0.247234	9334.305924	64403.825468	4760.116016	37964.280256
53.537500	0.003575	-0.051517	-0.006431	-0.209388	8861.212980	62745.694787	4608.069698	35034.518131
54.034500	0.009094	-0.029791	0.003413	-0.164370	8338.658272	59622.783204	4468.596282	31866.258345
54.534500	0.009825	-0.023546	0.008222	-0.143577	8090.903493	57755.552853	4408.852503	30510.188723
55.035500	0.017250	-0.017442	0.015495	-0.132848	8051.177072	57174.773474	4396.221366	29835.401942
55.538500	0.026859	-0.009327	0.032424	-0.097848	7755.845510	53919.242664	4331.787748	27746.639420
56.036000	0.042297	0.000418	0.048924	-0.039661	7295.980098	48538.551226	4192.987150	24625.801781
56.536500	0.062813	0.012261	0.076402	0.029180	6827.832940	42930.147734	4067.826639	21434.963567
57.036500	0.090832	0.028323	0.101988	0.089317	6544.305255	39070.899410	3972.038087	19032.820708
57.536500	0.109546	0.042943	0.124799	0.137362	6303.063893	36394.416247	3906.740665	17338.895035
58.037000	0.132117	0.054885	0.142070	0.182503	6128.216078	33932.367261	3838.896258	15909.342527
58.537000	0.152885	0.069052	0.166551	0.219203	6010.146627	32365.301902	3810.497411	14851.773860
59.035000	0.167960	0.076603	0.189363	0.288701	5637.991000	28453.808323	3709.063931	13078.232617
59.535000	0.179934	0.081198	0.206517	0.307463	5594.757863	27634.925286	3705.758095	12646.112338
60.035500	0.201220	0.098554	0.212666	0.277589	5937.855589	30471.990132	3782.770865	13343.080995
60.536000	0.212065	0.106123	0.232278	0.285905	5955.883942	30424.677499	3808.265525	13144.222926
61.036000	0.229248	0.117552	0.250521	0.349165	5643.288722	27332.679633	3710.491899	11749.987271
61.536000	0.237236	0.124085	0.255637	0.376490	5521.655983	26192.381018	3665.861345	11207.764853
62.036500	0.247077	0.129821	0.274350	0.424564	5296.548803	24032.582006	3610.257754	10332.850872
62.536500	0.251721	0.136272	0.271538	0.427412	5306.684206	24208.309807	3599.963609	10284.004053
63.037500	0.253837	0.138989	0.274940	0.429388	5307.475729	24244.600399	3602.544487	10250.288994
63.546000	0.259890	0.142269	0.276622	0.429074	5343.767917	24421.675591	3606.172117	10255.641271
64.035000	0.260209	0.144005	0.284885	0.430733	5336.083470	24425.458925	3618.289647	10227.426758
64.538000	0.263765	0.146943	0.286369	0.432807	5344.581724	24468.286100	3617.200308	10192.331717
65.035500	0.270895	0.151190	0.295682	0.436106	5366.679061	24515.318177	3628.383113	10136.828869
65.536000	0.269949	0.154539	0.294738	0.441390	5330.840443	24419.391188	3616.805407	10048.808498
66.036000	0.273905	0.156410	0.296667	0.439079	5366.894482	24627.238463	3624.668174	10087.168459
66.536500	0.278616	0.158718	0.302584	0.441210	5381.885945	24636.035572	3631.753862	10051.779201
67.036500	0.280858	0.160703	0.300833	0.443525	5381.458957	24619.578978	3624.145186	10013.537219
67.537000	0.280423	0.161642	0.302612	0.450414	5339.135677	24324.563516	3614.683965	9900.933998
68.037500	0.286997	0.165588	0.306202	0.449373	5383.160732	24571.575447	3623.256060	9917.843341
68.535500	0.286994	0.165713	0.308443	0.451025	5373.527517	24495.648534	3624.351648	9891.039668
69.035000	0.286501	0.166491	0.302784	0.452334	5363.078025	24469.317468	3611.474595	9869.878547
69.535500	0.288172	0.168666	0.308237	0.459816	5329.683396	24207.834022	3607.762893	9750.113068
70.035500	0.291094	0.169586	0.308821	0.457284	5361.011714	24377.525890	3613.469292	9790.409680
70.536000	0.291868	0.170901	0.312236	0.460722	5345.661447	24273.024340	3613.428651	9735.758353
71.036000	0.293234	0.170281	0.315811	0.462749	5341.863221	24143.345405	3616.277151	9703.722213
71.536000	0.290575	0.170172	0.310566	0.468760	5292.619250	23846.670209	3595.784141	9609.639846
72.037000	0.294606	0.171599	0.314112	0.467418	5323.019925	23980.393130	3604.617696	9630.521216
72.537500	0.296036	0.174001	0.319363	0.469705	5318.149190	23985.980395	3610.022889	9594.961853
73.037500	0.300502	0.175809	0.312933	0.471411	5333.880742	23990.947515	3595.273683	9568.554190
73.538000	0.298043	0.176786	0.319461	0.473338	5308.926361	23944.902109	3603.580343	9538.836424
74.035000	0.299086	0.177645	0.317726	0.472314	5320.659041	24036.194721	3602.290842	9554.616512
74.535000	0.298416	0.176158	0.319560	0.472456	5316.041920	23957.232685	3605.363242	9552.425650
75.036000	0.303097	0.179078	0.316162	0.474083	5333.440908	24019.872125	3596.274526	9527.394113
75.536000	0.303011	0.179017	0.322596	0.476318	5320.207101	23908.719074	3603.862993	9493.161849
76.036500	0.301567	0.177940	0.316996	0.474648	5321.489794	23937.345860	3596.757631	9518.712577
76.538000	0.303550	0.178820	0.322031	0.475967	5325.270134	23916.129643	3603.472757	9498.519029
77.037000	0.302802	0.180452	0.320185	0.478149	5308.634308	23889.639530	3596.197220	9465.248771
77.540000	0.303623	0.181758	0.326233	0.480951	5297.441465	23817.562309	3602.054704	9422.749206
78.034500	0.305732	0.180974	0.324367	0.480207	5313.573720	23815.678507	3600.025596	9434.014461
78.535000	0.300982	0.181221	0.322999	0.481527	5279.381639	23764.132995	3595.182244	9414.052654
79.035500	0.303426	0.181206	0.321093	0.482117	5289.775794	23735.141753	3590.714117	9405.152881
79.536000	0.305906	0.182340	0.321921	0.484358	5291.118567	23682.214792	3588.195295	9371.456832
80.036000	0.305729	0.180175	0.320684	0.483655	5294.074724	23612.479964	3587.245474	9382.007342
80.536500	0.304257	0.181570	0.321853	0.485853	5273.515176	23574.295352	3585.418697	9349.075821
81.036500	0.305200	0.181980	0.328152	0.487184	5271.349751	23530.582306	3594.278332	9329.213464
81.537000	0.304695	0.178847	0.329124	0.490824	5248.354069	23211.940008	3589.506812	9275.203666
82.039500	0.307632	0.180843	0.322828	0.489070	5274.396573	23387.789959	3581.452077	9301.174197
82.537500	0.307757	0.180460	0.325636	0.490270	5268.403229	23313.380727	3584.293743	9283.397417
83.037500	0.307278	0.179143	0.330779	0.490555	5264.152027	23238.328479	3592.943972	9279.179122
83.535000	0.309574	0.180235	0.327461	0.492537	5265.896590	23196.792023	3583.512427	9249.943909
84.035500	0.309388	0.178425	0.324577	0.491954	5268.107766	23139.650457	3579.453540	9258.532289
84.536000	0.309845	0.178911	0.327225	0.493447	5262.348223	23092.873174	3581.488811	9236.574425
85.036500	0.311363	0.179297	0.332105	0.494667	5264.002220	23054.205599	3587.971929	9218.677804
85.536000	0.307760	0.177855	0.327018	0.493905	5248.266073	23022.775356	3580.316140	9229.850651
86.036500	0.309013	0.177482	0.325657	0.494335	5252.813331	22985.615280	3577.166364	9223.537629
86.540000	0.305922	0.176143	0.330307	0.494015	5237.534952	22938.671443	3585.937262	9228.234781
87.037000	0.305360	0.175257	0.326283	0.493653	5236.435763	22914.575488	3579.465350	9233.545547
87.535000	0.309129	0.176590	0.330418	0.495295	5248.149667	22900.379786	3583.864431	9209.490008
88.034500	0.310110	0.175988	0.333248	0.495830	5250.609664	22848.143120	3587.937140	9201.664261
88.535500	0.306511	0.174878	0.336272	0.494594	5237.585201	22853.935904	3595.553028	9219.739229
89.035500	0.307248	0.175277	0.327898	0.495628	5235.958082	22824.859298	3578.831521	9204.621368
89.536000	0.304326	0.173881	0.324611	0.495367	5221.381304	22772.918934	3573.529422	9208.428071
90.036500	0.305247	0.174078	0.331469	0.495275	5226.922709	22786.140892	3585.762955	9209.778993
90.536500	0.309603	0.174551	0.333628	0.496430	5244.506633	22755.036634	3587.546078	9192.914681
91.037500	0.309261	0.172128	0.332704	0.494626	5252.578196	22726.791809	3589.112290	9219.283178
91.537000	0.306786	0.172277	0.326373	0.495944	5231.688203	22673.591121	3575.601805	9200.007330
92.034500	0.306757	0.172772	0.338508	0.496873	5226.442212	22653.889106	3595.475945	9186.453962
92.535000	0.307292	0.172241	0.330469	0.497334	5226.846027	22608.933241	3580.354389	9179.741561
93.035500	0.308424	0.171703	0.328980	0.497560	5231.806487	22574.335196	3577.338863	9176.447671
93.579500	0.309151	0.171716	0.340223	0.497193	5237.810059	22591.493400	3597.986574	9181.785811
94.035500	0.308317	0.171728	0.327387	0.497744	5230.212373	22567.136407	3574.226269	9173.768993
94.536000	0.307825	0.172194	0.336018	0.498516	5223.293114	22553.326567	3588.086281	9162.554452
95.036500	0.307678	0.170913	0.332193	0.498237	5224.016800	22508.110379	3581.802945	9166.609019
95.537000	0.305845	0.171633	0.334294	0.503854	5183.650144	22288.749404	3575.621032	9085.549036
96.037000	0.308658	0.170699	0.334787	0.499333	5223.384323	22449.185536	3584.449114	9150.702955
