sample name	sample
index	234
start time	 02-22-2021  11:11:26 AM


Wavelength (nm)	Absorbance
494.344910	0.164523
494.563924	0.164523
494.782919	0.164523
495.001897	-0.162280
495.220856	0.071544
495.439797	0.039056
495.658719	0.000120
495.877624	-0.006688
496.096510	0.013453
496.315378	0.068785
496.534227	0.105168
496.753059	0.122223
496.971872	0.052083
497.190667	0.072870
497.409444	0.074692
497.628203	0.072876
497.846943	0.071800
498.065665	0.072706
498.284369	0.072108
498.503055	0.072274
498.721723	0.071751
498.940372	0.071483
499.159003	0.071329
499.377616	0.069986
499.596210	0.070312
499.814787	0.070921
500.033345	0.069863
500.251885	0.069072
500.470406	0.067896
500.688910	0.067984
500.907395	0.067803
501.125862	0.067775
501.344311	0.068952
501.562742	0.068996
501.781154	0.067365
501.999548	0.067538
502.217924	0.067712
502.436282	0.068612
502.654621	0.069222
502.872942	0.069016
503.091245	0.069028
503.309530	0.068351
503.527797	0.069638
503.746045	0.070957
503.964275	0.071252
504.182487	0.071898
504.400681	0.071656
504.618856	0.071401
504.837013	0.072287
505.055152	0.072836
505.273273	0.073817
505.491376	0.072363
505.709460	0.072284
505.927526	0.072427
506.145574	0.072274
506.363604	0.071688
506.581615	0.071583
506.799608	0.071023
507.017583	0.071181
507.235540	0.070664
507.453478	0.071507
507.671399	0.071431
507.889301	0.071645
508.107185	0.071869
508.325050	0.072571
508.542898	0.072910
508.760727	0.073554
508.978538	0.073243
509.196330	0.073059
509.414105	0.072400
509.631861	0.072712
509.849599	0.073585
510.067319	0.073224
510.285021	0.072842
510.502704	0.072299
510.720369	0.072399
510.938016	0.071464
511.155645	0.072623
511.373255	0.073054
511.590848	0.073450
511.808422	0.072882
512.025977	0.073512
512.243515	0.074727
512.461034	0.075209
512.678536	0.074492
512.896018	0.075271
513.113483	0.074901
513.330930	0.074954
513.548358	0.073908
513.765768	0.074177
513.983160	0.074427
514.200533	0.074122
514.417889	0.073530
514.635226	0.074713
514.852545	0.074808
515.069845	0.075149
515.287128	0.074670
515.504392	0.075308
515.721638	0.075508
515.938866	0.074802
516.156075	0.074871
516.373267	0.075606
516.590440	0.075536
516.807594	0.075849
517.024731	0.075438
517.241850	0.076654
517.458950	0.076863
517.676032	0.076249
517.893095	0.077266
518.110141	0.076460
518.327168	0.076687
518.544177	0.076895
518.761168	0.077123
518.978141	0.077681
519.195095	0.077086
519.412031	0.077325
519.628949	0.078163
519.845849	0.077886
520.062731	0.078911
520.279594	0.078665
520.496439	0.078924
520.713266	0.078642
520.930074	0.078411
521.146865	0.078905
521.363637	0.079501
521.580391	0.078788
521.797127	0.078476
522.013844	0.078320
522.230543	0.078817
522.447224	0.077967
522.663887	0.077885
522.880532	0.078238
523.097158	0.078380
523.313766	0.077633
523.530356	0.078208
523.746928	0.078547
523.963481	0.078858
524.180017	0.078722
524.396534	0.079465
524.613032	0.079933
524.829513	0.080300
525.045975	0.079892
525.262420	0.080457
525.478845	0.081282
525.695253	0.081378
525.911643	0.081922
526.128014	0.081870
526.344367	0.082058
526.560702	0.082337
526.777018	0.081822
526.993316	0.082242
527.209597	0.082005
527.425858	0.081838
527.642102	0.082749
527.858328	0.083265
528.074535	0.083925
528.290724	0.084135
528.506894	0.084324
528.723047	0.084818
528.939181	0.085203
529.155297	0.085935
529.371395	0.085989
529.587475	0.085380
529.803536	0.085049
530.019579	0.084473
530.235604	0.084551
530.451611	0.084802
530.667600	0.084776
530.883570	0.084799
531.099522	0.084862
531.315456	0.084546
531.531372	0.084983
531.747269	0.085391
531.963148	0.086208
532.179009	0.086339
532.394852	0.086145
532.610676	0.086397
532.826482	0.086476
533.042271	0.086574
533.258040	0.087063
533.473792	0.086752
533.689525	0.085978
533.905240	0.085982
534.120937	0.086095
534.336616	0.086146
534.552277	0.086236
534.767919	0.086392
534.983543	0.086193
535.199149	0.085994
535.414736	0.085889
535.630306	0.086546
535.845857	0.086315
536.061390	0.086108
536.276904	0.086501
536.492401	0.086969
536.707879	0.086669
536.923339	0.086730
537.138781	0.086934
537.354204	0.087500
537.569610	0.087571
537.784997	0.087736
538.000366	0.088577
538.215716	0.089042
538.431049	0.089148
538.646363	0.089529
538.861659	0.089775
539.076937	0.090101
539.292196	0.090676
539.507438	0.090748
539.722661	0.090770
539.937866	0.090516
540.153052	0.090197
540.368221	0.090342
540.583371	0.090428
540.798503	0.090703
541.013617	0.090744
541.228712	0.090236
541.443789	0.090232
541.658848	0.090877
541.873889	0.090985
542.088912	0.091150
542.303916	0.091176
542.518902	0.091618
542.733870	0.091691
542.948820	0.091914
543.163752	0.092435
543.378665	0.092638
543.593560	0.092543
543.808437	0.092748
544.023295	0.092396
544.238136	0.092367
544.452958	0.092441
544.667762	0.092495
544.882548	0.092627
545.097315	0.092898
545.312064	0.093329
545.526795	0.093947
545.741508	0.094116
545.956203	0.094735
546.170879	0.094514
546.385537	0.094837
546.600177	0.094528
546.814799	0.094800
547.029402	0.094443
547.243988	0.094208
547.458555	0.093973
547.673103	0.094085
547.887634	0.094177
548.102146	0.094653
548.316640	0.094912
548.531116	0.095455
548.745574	0.095453
548.960013	0.095845
549.174435	0.096424
549.388838	0.096418
549.603222	0.096385
549.817589	0.096710
550.031937	0.096810
550.246267	0.096664
550.460579	0.097010
550.674873	0.096918
550.889148	0.097026
551.103405	0.096554
551.317644	0.096834
551.531865	0.096990
551.746068	0.096761
551.960252	0.096383
552.174418	0.096329
552.388566	0.096713
552.602696	0.097045
552.816807	0.097312
553.030900	0.097814
553.244975	0.097775
553.459032	0.097847
553.673070	0.097550
553.887091	0.097926
554.101093	0.098229
554.315077	0.097905
554.529042	0.097900
554.742990	0.097757
554.956919	0.097602
555.170830	0.097537
555.384722	0.097542
555.598597	0.098421
555.812453	0.098501
556.026291	0.098545
556.240111	0.098775
556.453913	0.099015
556.667696	0.099194
556.881461	0.099467
557.095208	0.099625
557.308937	0.099975
557.522647	0.099733
557.736339	0.099603
557.950013	0.099786
558.163669	0.100371
558.377307	0.100491
558.590926	0.100679
558.804527	0.100722
559.018110	0.100929
559.231675	0.100953
559.445221	0.101145
559.658749	0.101803
559.872259	0.101799
560.085751	0.101456
560.299225	0.101640
560.512680	0.101719
560.726117	0.101702
560.939536	0.101806
561.152937	0.101590
561.366319	0.101810
561.579683	0.101735
561.793029	0.101708
562.006357	0.101866
562.219667	0.101841
562.432958	0.101815
562.646231	0.102374
562.859486	0.102686
563.072723	0.102815
563.285941	0.103092
563.499141	0.103132
563.712323	0.103453
563.925487	0.103130
564.138632	0.103280
564.351760	0.103506
564.564869	0.103099
564.777960	0.102906
564.991032	0.103000
565.204087	0.102911
565.417123	0.103373
565.630141	0.103314
565.843140	0.103991
566.056122	0.104044
566.269085	0.104335
566.482030	0.104626
566.694957	0.104838
566.907866	0.105125
567.120756	0.104826
567.333628	0.104795
567.546482	0.105060
567.759318	0.104766
567.972135	0.104582
568.184935	0.104377
568.397716	0.104178
568.610478	0.104284
568.823223	0.104491
569.035949	0.104653
569.248657	0.104697
569.461347	0.104223
569.674019	0.103881
569.886672	0.104031
570.099308	0.103889
570.311925	0.103815
570.524523	0.103811
570.737104	0.103787
570.949666	0.103971
571.162210	0.104056
571.374736	0.104539
571.587244	0.105094
571.799733	0.104939
572.012205	0.105346
572.224658	0.105779
572.437092	0.105921
572.649509	0.105830
572.861907	0.106239
573.074287	0.106171
573.286649	0.106301
573.498993	0.106539
573.711318	0.107012
573.923625	0.107069
574.135914	0.107234
574.348185	0.107278
574.560438	0.107537
574.772672	0.107479
574.984888	0.107628
575.197086	0.107564
575.409266	0.107608
575.621427	0.107693
575.833570	0.107690
576.045695	0.107780
576.257802	0.108036
576.469890	0.108289
576.681961	0.108089
576.894013	0.107964
577.106046	0.108031
577.318062	0.108043
577.530059	0.108144
577.742039	0.108336
577.954000	0.108087
578.165942	0.107955
578.377867	0.107979
578.589773	0.108073
578.801661	0.108671
579.013531	0.108804
579.225382	0.109004
579.437216	0.109154
579.649031	0.109495
579.860828	0.109905
580.072606	0.110008
580.284367	0.110115
580.496109	0.110487
580.707833	0.110038
580.919539	0.110141
581.131227	0.110209
581.342896	0.109851
581.554547	0.109608
581.766180	0.109783
581.977795	0.109905
582.189391	0.109976
582.400969	0.109638
582.612529	0.110302
582.824071	0.110327
583.035595	0.110659
583.247100	0.110888
583.458587	0.111080
583.670056	0.111059
583.881506	0.111138
584.092939	0.111285
584.304353	0.112018
584.515749	0.111662
584.727127	0.112192
584.938486	0.112064
585.149828	0.112421
585.361151	0.112816
585.572456	0.112956
585.783742	0.112861
585.995011	0.112842
586.206261	0.112352
586.417493	0.112484
586.628706	0.112194
586.839902	0.112108
587.051079	0.112176
587.262238	0.112200
587.473379	0.112285
587.684502	0.112711
587.895606	0.112747
588.106692	0.113430
588.317760	0.113625
588.528810	0.113732
588.739841	0.113744
588.950855	0.113849
589.161850	0.113822
589.372827	0.113804
589.583785	0.113660
589.794726	0.113678
590.005648	0.113557
590.216552	0.113546
590.427437	0.113663
590.638305	0.113577
590.849154	0.113580
591.059985	0.113322
591.270798	0.113431
591.481592	0.113531
591.692369	0.113929
591.903127	0.114051
592.113867	0.114362
592.324588	0.114478
592.535292	0.114889
592.745977	0.115181
592.956644	0.115073
593.167293	0.115349
593.377923	0.115827
593.588536	0.116080
593.799130	0.115893
594.009706	0.115672
594.220263	0.115752
594.430803	0.115822
594.641324	0.115780
594.851827	0.116428
595.062312	0.116454
595.272778	0.116136
595.483227	0.116117
595.693657	0.116374
595.904069	0.116540
596.114462	0.116854
596.324838	0.117110
596.535195	0.117318
596.745534	0.117403
596.955855	0.117246
597.166157	0.117509
597.376441	0.117522
597.586707	0.117827
597.796955	0.117720
598.007185	0.117771
598.217396	0.117597
598.427589	0.117764
598.637764	0.117664
598.847921	0.118014
599.058060	0.118118
599.268180	0.117975
599.478282	0.117960
599.688366	0.118164
599.898431	0.118546
600.108479	0.118732
600.318508	0.118678
600.528519	0.118607
600.738511	0.118415
600.948486	0.118619
601.158442	0.118846
601.368380	0.118987
601.578300	0.118988
601.788202	0.118604
601.998085	0.118711
602.207950	0.118476
602.417797	0.118754
602.627626	0.118964
602.837436	0.118938
603.047228	0.119082
603.257002	0.119186
603.466758	0.119389
603.676496	0.119517
603.886215	0.119536
604.095916	0.119873
604.305599	0.119886
604.515264	0.119915
604.724910	0.119982
604.934538	0.119705
605.144148	0.119526
605.353740	0.119767
605.563314	0.119899
605.772869	0.119961
605.982406	0.120013
606.191925	0.120456
606.401425	0.120602
606.610908	0.120406
606.820372	0.120531
607.029818	0.120790
607.239246	0.120884
607.448655	0.121048
607.658047	0.121070
607.867420	0.121177
608.076775	0.120809
608.286111	0.120874
608.495430	0.121260
608.704730	0.121471
608.914012	0.121455
609.123275	0.121580
609.332521	0.121567
609.541748	0.121746
609.750957	0.121760
609.960148	0.122138
610.169321	0.122037
610.378475	0.122011
610.587611	0.122208
610.796729	0.122371
611.005829	0.122419
611.214910	0.122415
611.423974	0.122164
611.633019	0.122272
611.842045	0.122015
612.051054	0.122289
612.260044	0.122094
612.469017	0.122030
612.677970	0.121896
612.886906	0.121912
613.095824	0.121894
613.304723	0.122286
613.513604	0.122252
613.722467	0.122456
613.931311	0.122543
614.140138	0.122849
614.348946	0.122662
614.557736	0.122854
614.766507	0.122700
614.975261	0.122906
615.183996	0.122650
615.392713	0.122708
615.601412	0.122793
615.810092	0.122870
616.018754	0.123008
616.227399	0.123232
616.436024	0.123180
616.644632	0.123409
616.853222	0.123336
617.061793	0.123615
617.270346	0.123728
617.478880	0.124013
617.687397	0.124071
617.895895	0.124120
618.104375	0.124320
618.312837	0.124340
618.521281	0.124280
618.729706	0.124526
618.938113	0.124611
619.146502	0.124517
619.354873	0.124337
619.563226	0.124386
619.771560	0.124607
619.979876	0.124620
620.188174	0.124721
620.396453	0.124884
620.604715	0.124841
620.812958	0.124830
621.021183	0.125283
621.229390	0.125380
621.437578	0.125334
621.645748	0.125148
621.853900	0.125328
622.062034	0.125631
622.270150	0.125607
622.478247	0.125878
622.686326	0.126089
622.894387	0.126002
623.102430	0.126139
623.310454	0.126330
623.518461	0.126389
623.726449	0.126461
623.934418	0.126264
624.142370	0.126414
624.350303	0.126291
624.558218	0.126203
624.766115	0.126162
624.973994	0.126047
625.181855	0.126062
625.389697	0.126375
625.597521	0.126195
625.805327	0.126333
626.013114	0.126421
626.220883	0.126620
626.428634	0.126738
626.636367	0.127007
626.844082	0.127123
627.051778	0.127386
627.259457	0.127244
627.467117	0.127607
627.674758	0.127841
627.882382	0.127847
628.089987	0.127617
628.297574	0.127488
628.505143	0.127512
628.712694	0.127390
628.920226	0.127412
629.127740	0.127440
629.335236	0.127262
629.542714	0.127236
629.750174	0.127186
629.957615	0.127722
630.165038	0.128060
630.372443	0.128027
630.579829	0.128313
630.787198	0.128115
630.994548	0.128426
631.201880	0.128702
631.409194	0.128874
631.616489	0.129163
631.823766	0.128930
632.031025	0.129173
632.238266	0.129498
632.445489	0.129663
632.652693	0.129911
632.859879	0.129836
633.067047	0.130023
633.274197	0.130112
633.481329	0.130159
633.688442	0.130233
633.895537	0.130018
634.102614	0.129792
634.309672	0.129602
634.516713	0.129647
634.723735	0.129616
634.930739	0.129707
635.137724	0.129718
635.344692	0.129720
635.551641	0.129835
635.758572	0.129971
635.965485	0.130254
636.172379	0.130479
636.379256	0.130651
636.586114	0.130695
636.792954	0.130551
636.999775	0.130537
637.206579	0.130695
637.413364	0.130789
637.620131	0.130995
637.826880	0.131185
638.033610	0.131533
638.240323	0.131575
638.447017	0.131756
638.653692	0.132119
638.860350	0.132205
639.066990	0.132417
639.273611	0.132284
639.480214	0.132349
639.686798	0.132043
639.893365	0.132010
640.099913	0.132098
640.306443	0.132104
640.512955	0.131867
640.719449	0.132058
640.925924	0.131959
641.132381	0.132219
641.338820	0.132025
641.545241	0.132029
641.751644	0.132013
641.958028	0.132227
642.164394	0.132235
642.370742	0.132383
642.577071	0.132465
642.783383	0.132472
642.989676	0.132358
643.195951	0.132741
643.402207	0.132945
643.608446	0.132937
643.814666	0.132819
644.020868	0.132891
644.227052	0.132735
644.433218	0.132658
644.639365	0.132970
644.845494	0.132989
645.051605	0.132988
645.257698	0.133380
645.463772	0.133453
645.669828	0.133627
645.875866	0.133678
646.081886	0.133906
646.287888	0.134007
646.493871	0.133911
646.699836	0.134176
646.905783	0.134098
647.111712	0.133958
647.317622	0.134028
647.523514	0.133805
647.729388	0.133995
647.935244	0.134183
648.141082	0.134352
648.346901	0.134485
648.552702	0.134694
648.758485	0.134960
648.964250	0.135176
649.169996	0.135362
649.375724	0.135600
649.581434	0.135728
649.787126	0.135855
649.992800	0.135969
650.198455	0.136054
650.404092	0.136038
650.609711	0.135951
650.815311	0.135694
651.020894	0.135747
651.226458	0.135878
651.432004	0.135993
651.637532	0.135975
651.843041	0.135750
652.048532	0.135742
652.254006	0.135649
652.459460	0.135826
652.664897	0.135939
652.870315	0.135968
653.075716	0.135807
653.281097	0.135909
653.486461	0.135916
653.691807	0.135986
653.897134	0.135934
654.102443	0.136234
654.307734	0.136250
654.513006	0.136355
654.718261	0.136310
654.923497	0.136738
655.128715	0.136751
655.333915	0.137029
655.539096	0.137357
655.744259	0.137854
655.949404	0.137978
656.154531	0.138216
656.359640	0.138382
656.564730	0.138650
656.769802	0.138386
656.974856	0.138599
657.179892	0.138503
657.384909	0.138572
657.589908	0.138464
657.794889	0.138638
657.999852	0.138682
658.204797	0.138934
658.409723	0.139071
658.614631	0.139490
658.819521	0.139631
659.024393	0.139688
659.229246	0.140164
659.434081	0.140431
659.638898	0.140375
659.843697	0.140267
660.048478	0.140328
660.253240	0.140371
660.457984	0.140539
660.662710	0.140568
660.867417	0.140825
661.072107	0.140543
661.276778	0.140518
661.481431	0.140493
661.686066	0.140728
661.890682	0.140778
662.095281	0.140854
662.299861	0.140863
662.504422	0.140860
662.708966	0.140944
662.913491	0.141217
663.117999	0.141216
663.322488	0.141295
663.526958	0.141481
663.731411	0.141465
663.935845	0.141352
664.140261	0.141388
664.344659	0.141496
664.549038	0.141597
664.753400	0.141419
664.957743	0.141579
665.162068	0.141901
665.366375	0.141748
665.570663	0.141983
665.774933	0.142382
665.979185	0.142473
666.183419	0.142484
666.387635	0.142417
666.591832	0.142557
666.796011	0.142475
667.000172	0.142496
667.204315	0.142627
667.408439	0.142522
667.612545	0.142462
667.816634	0.142374
668.020703	0.142481
668.224755	0.142775
668.428788	0.142914
668.632803	0.143109
668.836800	0.143253
669.040779	0.143438
669.244739	0.143645
669.448681	0.143708
669.652605	0.143952
669.856511	0.144140
670.060399	0.144158
670.264268	0.144164
670.468119	0.144270
670.671952	0.144196
670.875767	0.144328
671.079563	0.144428
671.283341	0.144514
671.487101	0.144847
671.690843	0.145042
671.894567	0.145210
672.098272	0.145497
672.301959	0.145714
672.505628	0.145873
672.709278	0.146157
672.912911	0.146276
673.116525	0.146644
673.320121	0.146376
673.523699	0.146423
673.727258	0.146382
673.930799	0.146382
674.134322	0.146435
674.337827	0.146521
674.541314	0.146405
674.744782	0.146362
674.948232	0.146022
675.151664	0.146217
675.355078	0.146196
675.558474	0.146300
675.761851	0.146450
675.965210	0.146511
676.168551	0.146736
676.371873	0.146844
676.575178	0.146990
676.778464	0.147389
676.981732	0.147425
677.184981	0.147345
677.388213	0.147364
677.591426	0.147547
677.794621	0.147594
677.997798	0.147664
678.200956	0.147758
678.404097	0.147989
678.607219	0.148108
678.810323	0.148521
679.013408	0.148727
679.216476	0.149028
679.419525	0.148977
679.622556	0.148964
679.825569	0.148951
680.028563	0.148937
680.231540	0.148924
680.434498	0.148911
680.637438	0.148983
680.840359	0.149039
681.043263	0.149192
681.246148	0.149208
681.449015	0.149303
681.651864	0.149401
681.854694	0.149686
682.057506	0.149946
682.260301	0.150206
682.463076	0.150039
682.665834	0.150428
682.868573	0.150545
683.071295	0.150660
683.273998	0.150873
683.476682	0.151142
683.679349	0.151112
683.881997	0.151204
684.084627	0.151093
684.287239	0.151278
684.489833	0.151270
684.692408	0.151075
684.894965	0.150996
685.097504	0.151014
685.300025	0.150932
685.502527	0.151126
685.705012	0.150971
685.907478	0.151208
686.109925	0.151256
686.312355	0.151463
686.514766	0.151779
686.717159	0.151988
686.919534	0.151970
687.121891	0.151851
687.324230	0.151872
687.526550	0.152045
687.728852	0.152019
687.931136	0.152049
688.133401	0.151919
688.335649	0.151785
688.537878	0.151843
688.740089	0.151943
688.942281	0.152416
689.144456	0.152412
689.346612	0.152503
689.548750	0.152372
689.750870	0.152540
689.952971	0.152545
690.155055	0.152669
690.357120	0.152819
690.559167	0.153049
690.761195	0.153000
690.963206	0.153030
691.165198	0.153109
691.367172	0.153448
691.569128	0.153243
691.771065	0.153500
691.972984	0.153513
692.174885	0.153672
692.376768	0.153822
692.578633	0.153886
692.780479	0.154072
692.982308	0.154274
693.184118	0.154445
693.385909	0.154775
