sample name	sample
index	880
start time	 04-08-2021  02:05:26 PM
880	0.526475
Peak Time (s)	122.536
Peak Height 	0.5265
calc peak height	120,123
Baseline Time (s)	10.037
Baseline Value 	-0.002499
subtract baseline	10,4
Abs	0.399332
Peak Time (s)	122.035
Peak Height 	0.3993
calc peak height	120,123
Baseline Time (s)	11.535
Baseline Value 	4.2395E-5
subtract baseline	10,3
PK_550	0.198776
Peak Time (s)	122.536
Peak Height 	0.1988
calc peak height	120,123
Baseline Time (s)	10.534
Baseline Value 	3.0492E-4
subtract baseline	10,2
PK_880	0.359172
Peak Time (s)	122.035
Peak Height 	0.3592
calc peak height	120,123
Baseline Time (s)	11.036
Baseline Value 	0.001002
subtract baseline	10,1


Time (s)	A880-A510	A880-A775	A880-A975	A880	I510	I775	I975	I880	
0.034000	-0.002249	-0.000648	0.000916	0.003133	6852.126680	42340.873353	3926.001651	22708.458142
0.540000	-0.002520	-0.000892	-0.000924	0.003877	6842.427851	42250.849690	3918.548209	22674.172301
1.038000	-0.003558	-0.000408	-0.000344	0.003539	6835.753856	42325.725734	3921.191745	22689.740170
1.544500	0.000077	-0.000379	0.003896	0.002294	6882.513916	42442.109157	3937.099489	22747.175551
2.035500	-0.001028	-0.000299	0.001433	0.001653	6878.038548	42508.058892	3931.790022	22776.779579
2.535500	0.000912	0.000312	0.003064	0.001764	6895.677859	42553.891509	3936.217128	22771.646441
3.036000	0.000841	-0.000228	0.003590	-0.001191	6923.642203	42776.048104	3946.411346	22908.811308
3.536000	-0.001180	-0.000225	-0.001812	0.001417	6878.841583	42536.437038	3923.075775	22787.700469
4.037000	-0.001884	-0.000214	-0.003697	0.000057	6885.171350	42662.388028	3921.562530	22850.777654
4.537000	0.001610	-0.000211	-0.000246	-0.000062	6920.144233	42673.595207	3931.897763	22856.299403
5.037000	-0.001382	0.000148	0.003577	0.001279	6878.227782	42583.382450	3939.131746	22794.102805
5.545000	-0.000778	-0.000201	-0.000055	-0.000169	6898.029702	42684.436813	3932.762841	22861.273205
6.035000	0.001545	0.000769	0.002508	0.000208	6916.894689	42739.036400	3939.138064	22843.776115
6.535500	-0.003729	-0.000082	0.002964	-0.000387	6871.682447	42715.414929	3942.213166	22871.412147
7.035500	-0.001003	0.000009	0.000956	-0.000130	6895.471777	42700.059521	3935.592630	22859.440364
7.536000	-0.001551	-0.000526	0.001461	-0.000593	6894.659502	42693.491389	3938.419871	22880.977371
8.039000	0.001093	0.000640	0.004892	0.000285	6911.749885	42719.982784	3945.898341	22840.174505
8.538500	0.001050	0.000314	-0.001955	0.000176	6912.396246	42700.034344	3926.249890	22845.244832
9.037000	0.001525	0.000290	-0.001051	0.000230	6916.483511	42692.853408	3928.711683	22842.755568
9.537000	0.000320	-0.000235	0.001889	0.000032	6906.709186	42662.731409	3937.843227	22851.936841
10.037500	-0.000359	-0.000441	0.001262	0.000000	6900.448542	42646.765192	3936.105634	22853.417167
10.534500	-0.000854	0.000000	0.002917	-0.000208	6897.675937	42706.502224	3941.552674	22863.093413
11.035500	0.000000	-0.000102	-0.001492	-0.000088	6904.771386	42686.036745	3928.354068	22857.493814
11.535000	-0.000825	0.000118	0.000000	-0.000224	6898.104259	42718.779662	3933.081778	22863.803346
12.035500	-0.000488	-0.000362	0.002683	-0.000459	6903.647640	42696.333243	3941.601130	22874.761118
12.536000	-0.001193	0.000143	0.000926	0.000076	6891.647266	42693.506715	3934.904337	22849.888558
13.036500	-0.001357	-0.000298	0.001466	-0.002138	6911.491133	42857.048649	3942.955991	22952.957035
13.536500	-0.000318	-0.000108	0.001790	0.000308	6897.863047	42649.016033	3936.748620	22839.102762
14.037000	-0.001265	-0.000579	0.002040	-0.000007	6891.760016	42634.678936	3938.397854	22853.740896
14.537500	-0.001591	-0.001025	0.002442	0.001649	6872.663304	42441.943427	3934.740100	22776.973506
15.037500	-0.000191	0.000134	0.002321	0.001582	6886.785968	42554.268874	3934.580219	22780.069588
15.546500	-0.002608	0.000291	-0.002511	0.004827	6832.536723	42272.045984	3911.271019	22630.484190
16.035500	-0.001398	-0.000482	0.000079	-0.000578	6895.987305	42696.093428	3934.342273	22880.254202
16.535500	-0.002006	0.000058	0.004472	0.000081	6883.762369	42685.256747	3945.266097	22849.677545
17.036000	-0.001245	0.000431	0.000098	0.003114	6861.921511	42441.148048	3923.691408	22709.322027
17.536500	-0.001042	-0.000452	0.000208	0.001783	6876.653283	42482.149301	3927.860359	22770.791851
18.037000	-0.001618	0.000059	0.000291	0.000337	6885.035625	42661.809099	3932.299119	22837.779574
18.537000	-0.000514	-0.000796	-0.001817	0.000354	6895.522667	42581.600106	3926.132837	22836.979821
19.036500	-0.001345	0.000119	0.000658	0.001935	6872.276534	42520.550364	3928.723337	22763.742064
19.540000	0.000952	0.000393	0.001907	0.001508	6898.541079	42584.882625	3933.591770	22783.510631
20.035000	-0.000871	0.000473	0.000356	0.002062	6875.610172	42541.344428	3927.479814	22757.886086
20.538000	-0.001879	-0.001853	0.002630	0.000719	6878.832591	42451.254627	3937.998374	22820.033024
21.035500	-0.002074	-0.000189	0.000788	0.001454	6869.890699	42536.373610	3930.496390	22786.000163
21.535500	-0.000547	-0.000383	0.000830	0.001037	6888.612945	42556.827114	3931.828719	22805.316017
22.036000	-0.001922	0.000115	0.003270	0.001374	6872.126332	42571.605882	3937.955702	22789.702124
22.539000	-0.001254	-0.000150	0.002409	0.001558	6876.777447	42530.430788	3934.909294	22781.183865
23.036500	-0.001393	0.000132	-0.000807	0.001610	6874.942515	42551.491290	3925.422080	22778.772603
23.536500	-0.000750	-0.000373	0.000111	0.001046	6886.557553	42556.877816	3929.714179	22804.878014
24.040000	-0.000705	0.000272	0.003629	0.001527	6882.365394	42571.978504	3938.558717	22782.623009
24.535000	-0.001197	-0.000405	0.001081	0.000805	6884.580770	42576.171796	3933.235497	22816.075768
25.035000	-0.000586	-0.000103	0.004107	0.001394	6884.797970	42549.807056	3940.347469	22788.807260
25.538000	-0.001156	0.000056	-0.001375	0.001298	6880.224921	42573.124716	3924.681423	22793.208866
26.036000	0.000343	-0.000941	0.001837	0.000745	6900.031880	42532.520915	3935.612838	22818.867399
26.536000	-0.000503	-0.000156	-0.001026	0.001272	6886.771689	42556.117978	3925.767165	22794.446743
27.036000	-0.000195	0.000182	0.002833	0.001714	6885.481190	42546.641817	3935.690903	22773.985992
27.536000	-0.003268	-0.001252	0.001423	0.004319	6831.085795	42177.965810	3924.037164	22653.844055
28.037000	0.001766	0.000396	0.001988	-0.001325	6933.966099	42846.088976	3942.102878	22915.056676
28.537000	-0.000985	-0.000168	0.004599	-0.000080	6895.165691	42679.267892	3946.110811	22857.137992
29.037000	-0.001488	-0.000135	0.002151	-0.000257	6892.017830	42698.519831	3939.451888	22865.354664
29.538000	-0.003447	-0.000449	-0.002059	0.004666	6826.092626	42219.367829	3913.027305	22637.898314
30.035000	0.001423	0.000294	-0.000064	0.000485	6913.012469	42669.696497	3930.835535	22830.891048
30.538000	0.000957	0.000750	0.006575	0.000159	6911.658677	42741.799957	3951.228172	22846.037098
31.040000	-0.000300	0.000272	-0.000359	0.000241	6898.680757	42690.152565	3930.686327	22842.214601
31.536000	-0.003060	-0.000165	0.000655	0.004528	6831.072652	42257.757357	3921.217961	22644.216117
32.036500	-0.001194	0.000743	0.000365	0.001571	6877.234475	42611.226418	3928.929868	22780.590405
32.555500	0.002672	0.000576	0.005151	0.000562	6924.407046	42688.607858	3945.848301	22827.346049
33.037000	-0.000969	-0.000141	-0.004267	-0.000283	6897.278990	42700.351027	3920.897080	22866.550793
33.540500	-0.003389	0.000761	-0.000121	0.005840	6815.492734	42222.586755	3915.216002	22584.013804
34.037500	-0.000369	0.000854	0.005289	0.000945	6891.211335	42678.938941	3945.124548	22809.562319
34.536500	-0.001138	0.000620	0.002652	0.000140	6891.562037	42731.551727	3939.756778	22846.920383
35.035500	-0.000484	0.000127	0.000599	0.002694	6873.260899	42451.861076	3926.353724	22728.711065
35.536000	-0.003055	-0.000143	-0.003672	0.003514	6840.786156	42352.188839	3911.706407	22690.899417
36.036000	-0.000510	0.000305	-0.001470	0.001923	6880.420233	42538.643090	3922.603033	22764.299245
36.535500	-0.001017	0.000283	0.004282	0.002256	6872.344915	42506.179502	3938.337675	22748.936049
37.036500	0.000056	-0.000916	-0.002945	0.001574	6889.245867	42458.842792	3919.358960	22780.448934
37.537000	-0.001138	0.000111	-0.000104	0.004001	6854.444233	42330.928787	3920.549361	22668.444077
38.039500	-0.001299	-0.000718	-0.001811	0.001350	6878.355849	42497.479129	3923.273217	22790.843293
38.534500	-0.000720	-0.000396	0.000972	0.001941	6878.231933	42472.770663	3929.615458	22763.462673
39.035000	-0.002155	0.000576	0.000283	0.002504	6859.051967	42510.285214	3925.989412	22737.473223
39.535500	0.000291	0.000238	-0.000563	0.002284	6884.662146	42499.461754	3924.179625	22747.607414
40.035500	-0.000356	0.000768	0.001931	0.002643	6874.977645	42515.163215	3930.361072	22731.035547
40.536500	0.000201	0.000072	-0.003591	0.001828	6888.196777	42526.030347	3916.770646	22768.703294
41.036000	0.000723	0.001144	0.003556	0.002797	6883.891918	42535.587825	3934.641380	22723.965185
41.536500	0.000958	0.000575	-0.000347	0.002737	6886.725295	42488.886074	3923.496290	22726.712236
42.036500	-0.000703	0.000237	0.002773	0.002348	6874.478076	42493.498076	3933.666461	22744.671218
42.540000	0.002240	0.001104	0.002167	0.003192	6894.708515	42495.614241	3929.453390	22705.718516
43.037000	-0.001849	-0.000127	0.001224	0.002478	6862.228387	42448.286081	3928.788095	22738.651481
43.535000	0.000761	0.000522	0.004028	0.002698	6885.204651	42487.522679	3936.304591	22728.493614
44.035000	-0.000658	0.000234	0.005654	0.002620	6872.297335	42468.349128	3941.284449	22732.089931
44.535000	-0.000372	0.001236	-0.000698	0.002590	6875.333287	42562.919003	3922.907476	22733.496713
45.035000	-0.004566	-0.000204	-0.003060	0.004967	6812.608911	42214.301887	3909.303141	22624.063118
45.535500	-0.000254	0.000976	-0.000305	0.001155	6890.307062	42670.904068	3928.193050	22799.867453
46.060500	0.000622	0.001264	0.005950	0.001430	6896.105984	42672.114661	3945.645144	22787.126294
46.536000	-0.000318	-0.000089	0.000470	0.000627	6894.780849	42621.509219	3931.973796	22824.309014
47.039000	-0.003602	-0.000718	-0.000178	0.005957	6812.358608	42077.682107	3914.714410	22578.644832
47.537000	-0.003017	0.000178	0.001786	0.005768	6819.711574	42176.240908	3920.906013	22587.346103
48.061500	0.001838	0.000740	-0.000553	0.001249	6909.626607	42640.446837	3927.201674	22795.475562
48.534500	-0.001437	0.000268	0.001645	0.002725	6863.812076	42461.911057	3929.295850	22727.279017
49.035000	-0.004103	0.000582	0.000966	0.005403	6812.867762	42246.184147	3919.593894	22604.071143
49.536500	-0.003449	0.000242	0.001773	0.006268	6810.863063	42136.551139	3919.427557	22564.408149
50.036000	-0.000044	0.000310	0.004952	0.001291	6891.008958	42597.079332	3943.119780	22793.532686
50.536000	0.000566	0.001622	0.004055	0.001277	6897.041829	42719.040187	3940.535529	22794.184803
51.040000	-0.002275	-0.000526	0.002520	0.003844	6845.080788	42287.136822	3928.585833	22675.674981
51.537500	-0.000679	0.000075	0.002603	0.006585	6834.167054	42092.663006	3920.904895	22549.919484
52.037000	-0.000541	-0.001170	0.011461	0.008226	6819.872991	41831.925007	3941.874915	22474.997789
52.537000	-0.033256	-0.018180	0.076293	0.315175	4583.694379	21270.802247	3398.124379	12446.032333
53.037000	-0.050024	-0.015749	0.016068	0.071677	5876.125855	35400.016184	3780.648442	19784.957478
53.535000	-0.048500	-0.023433	-0.023036	-0.144061	7939.020577	55483.085490	4338.295052	30786.735937
54.035500	-0.021335	-0.016085	-0.004045	-0.126437	8055.419874	54249.325785	4343.557335	29669.168301
54.536000	-0.012876	-0.012966	-0.011787	-0.125063	8143.538959	54456.818841	4308.784849	29583.944556
55.036000	-0.004068	-0.008039	-0.007982	-0.110073	8066.568101	53271.805530	4267.103032	28671.329955
55.535500	0.002769	-0.004540	-0.002775	-0.087158	7871.477000	51061.691887	4203.274529	27335.765902
56.035500	0.008502	-0.001100	-0.000897	-0.068860	7723.940151	49435.794757	4146.365806	26318.704592
56.537000	0.012257	-0.000167	0.002844	-0.047058	7519.386392	47244.059780	4086.209327	25161.561794
57.037500	0.008582	-0.001883	0.003160	-0.044312	7448.627214	46789.026548	4078.304334	25019.898766
57.537500	0.004892	-0.001920	0.005889	-0.018766	7139.374525	44268.021078	4006.200501	23744.005111
58.035000	0.014524	0.001762	0.018042	0.009921	6948.736904	41943.560397	3956.269637	22397.925742
58.535000	0.018815	0.003769	0.025595	0.031381	6783.983383	40225.421192	3915.719539	21447.512394
59.035500	0.024085	0.005570	0.030095	0.042631	6728.107464	39418.218042	3896.497095	20967.696601
59.535500	0.023601	0.006750	0.034594	0.056965	6592.937896	38323.460556	3869.026225	20374.156390
60.036000	0.032161	0.009827	0.042276	0.061459	6629.562257	38207.406085	3877.861209	20192.031273
60.536000	0.038306	0.011348	0.049295	0.071795	6591.812075	37494.435014	3868.669263	19780.300997
61.038500	0.042580	0.014741	0.054390	0.082155	6537.632199	36941.053921	3854.219474	19377.320362
61.536500	0.050063	0.017480	0.064275	0.091931	6517.414854	36391.025000	3854.517065	19005.769889
62.034000	0.055721	0.022188	0.070149	0.102035	6478.514147	35975.321934	3843.031625	18630.459011
62.537500	0.066417	0.024684	0.077664	0.112231	6482.870836	35390.890728	3835.808005	18260.459137
63.034500	0.072072	0.027952	0.081629	0.110094	6551.382720	35800.000155	3852.310054	18337.283588
63.535000	0.079371	0.034001	0.091942	0.115038	6572.339364	35884.296530	3867.023713	18160.111277
64.036000	0.090754	0.040321	0.105641	0.140628	6447.658568	34445.005923	3834.682138	17274.614418
64.536000	0.100591	0.045870	0.120114	0.170170	6281.344778	32739.897275	3794.948127	16315.189214
65.035500	0.110287	0.051129	0.129585	0.182076	6263.154463	32283.929211	3788.653740	15946.581834
65.539000	0.119220	0.055697	0.142584	0.195084	6229.859639	31714.950184	3788.631499	15555.266016
66.037000	0.131898	0.063040	0.150676	0.203706	6262.998530	31629.692186	3787.266878	15302.273015
66.537000	0.141697	0.070157	0.168039	0.220707	6204.376291	30979.233992	3788.198143	14817.900938
67.034000	0.152164	0.074637	0.171320	0.231794	6199.365187	30552.532068	3768.268694	14512.064246
67.534500	0.159665	0.081414	0.180866	0.241726	6179.822069	30351.078533	3767.292881	14244.654175
68.035000	0.167952	0.085738	0.189993	0.239468	6265.394099	30773.038339	3796.453110	14304.913251
68.535500	0.176628	0.090656	0.201122	0.252708	6228.108801	30240.644030	3790.989769	13956.023869
69.035500	0.179180	0.095117	0.201929	0.246408	6300.785027	30930.975613	3809.490045	14120.700839
69.535500	0.185979	0.098166	0.202136	0.265137	6203.179569	29930.696412	3761.895727	13638.031266
70.036500	0.193273	0.102533	0.207835	0.270581	6218.131258	29863.231779	3762.536010	13501.571101
70.536500	0.196134	0.104535	0.219125	0.279023	6173.189775	29463.767978	3769.727699	13293.347760
71.088500	0.202597	0.108243	0.224946	0.285017	6176.947831	29323.331996	3769.288852	13147.939360
71.537000	0.204973	0.111031	0.229667	0.291173	6146.805118	29117.843904	3765.660774	13000.677329
72.037500	0.211613	0.113017	0.235224	0.298441	6141.827315	28798.801977	3761.352822	12829.494732
72.535000	0.214733	0.113856	0.238214	0.303327	6127.846700	28556.907551	3756.596107	12715.994387
73.035000	0.218011	0.116671	0.240835	0.309548	6104.685154	28355.044150	3747.622637	12573.319954
73.536000	0.218667	0.117784	0.239911	0.315813	6060.968160	28052.765867	3729.922613	12431.697833
74.035500	0.222609	0.119798	0.246368	0.316540	6085.958906	28127.924317	3744.006885	12415.402373
74.536500	0.229656	0.122936	0.248571	0.321730	6100.476443	28008.154408	3736.642163	12299.811846
75.036500	0.228356	0.122585	0.254864	0.324693	6067.239625	27815.916967	3744.853561	12234.428835
75.536500	0.230990	0.125075	0.254337	0.329361	6051.507183	27690.462343	3732.070650	12132.350463
76.037000	0.235767	0.127957	0.258227	0.331238	6073.969352	27748.296657	3737.007164	12091.610555
76.537000	0.238922	0.129135	0.264236	0.333696	6079.390794	27674.618974	3745.769041	12038.506756
77.035000	0.241171	0.129296	0.264092	0.336296	6076.663052	27534.901283	3738.991412	11982.686977
77.535000	0.243693	0.131526	0.264308	0.340212	6065.835980	27438.749402	3729.919979	11899.228846
78.035500	0.247640	0.133081	0.270385	0.341740	6084.641331	27440.269829	3741.085209	11866.868741
78.535500	0.249024	0.135430	0.273545	0.345505	6066.126008	27359.759204	3739.592241	11787.601563
79.035500	0.248734	0.135654	0.271255	0.348326	6042.089142	27212.915254	3727.074113	11728.673313
79.539000	0.252930	0.138340	0.276635	0.352785	6040.066952	27113.096074	3729.317790	11636.290953
80.036500	0.258186	0.139435	0.277706	0.355016	6063.423266	27049.367808	3726.490927	11590.424071
80.537000	0.259280	0.141041	0.283884	0.358430	6045.498720	26948.332231	3733.241290	11520.703794
81.037000	0.262293	0.144511	0.289977	0.363129	6032.524209	26879.897132	3736.658998	11425.611228
81.537500	0.264464	0.143940	0.283884	0.366133	6026.139056	26681.842060	3714.540113	11365.366648
82.035000	0.267395	0.145866	0.291030	0.369936	6019.461849	26578.476138	3722.614455	11289.683848
82.535000	0.271636	0.147119	0.295025	0.372820	6029.849976	26489.027613	3725.310596	11232.725970
83.035500	0.270494	0.146973	0.291740	0.375608	5999.845360	26329.043883	3710.650507	11178.038876
83.535500	0.272645	0.147902	0.295816	0.379398	5987.406238	26173.960439	3711.334892	11104.225317
84.039000	0.275897	0.149269	0.299946	0.382794	5986.319351	26064.704118	3713.098769	11038.661822
84.536500	0.279621	0.151767	0.302320	0.387197	5981.184874	25962.523007	3708.234537	10954.400838
85.036500	0.279684	0.152891	0.304335	0.390591	5956.092150	25841.318529	3704.940200	10890.011178
85.537000	0.283662	0.153160	0.303914	0.393851	5961.490517	25682.661371	3696.203110	10828.661227
86.037000	0.283912	0.155667	0.309419	0.397360	5937.090647	25629.787822	3700.931578	10763.127633
86.534500	0.286769	0.155425	0.306783	0.399148	5945.074065	25522.912677	3690.478155	10729.935706
87.035000	0.287675	0.157026	0.314447	0.402890	5923.943849	25410.813166	3699.740798	10660.923194
87.535500	0.287865	0.157616	0.318724	0.406326	5899.917951	25262.582053	3701.737527	10598.053751
88.035000	0.291469	0.158652	0.314164	0.408831	5908.035365	25186.492871	3685.082895	10552.555537
88.538500	0.294171	0.158320	0.319395	0.410395	5916.455355	25088.586168	3693.691724	10524.265549
89.038000	0.295730	0.162505	0.323422	0.416819	5880.605225	24973.597708	3688.055885	10409.164854
89.536000	0.295320	0.162494	0.324098	0.418532	5865.086178	24885.408939	3685.624974	10378.748405
90.036500	0.298528	0.163200	0.326399	0.419799	5879.274655	24856.795721	3688.048517	10356.342640
90.537000	0.299038	0.164222	0.328494	0.422424	5863.825472	24775.267371	3686.807404	10310.121470
91.034500	0.301093	0.164400	0.327982	0.424250	5865.486782	24691.724864	3681.344890	10278.117577
91.537000	0.300644	0.165722	0.330539	0.427787	5836.557491	24579.991658	3679.064616	10216.541117
92.035500	0.304514	0.166457	0.337823	0.429681	5850.862029	24521.689908	3691.671637	10183.753564
92.535500	0.304907	0.167126	0.334086	0.432178	5835.626092	24430.131298	3677.103056	10140.768437
93.035500	0.307284	0.167657	0.333960	0.435191	5831.037480	24306.400624	3669.847193	10089.212977
93.536000	0.308863	0.170514	0.339652	0.438735	5816.894261	24272.299292	3674.807978	10029.045285
94.036000	0.310417	0.169862	0.338156	0.439142	5825.140483	24219.804060	3670.411599	10022.167048
94.536500	0.311253	0.171725	0.340964	0.443415	5800.496831	24100.857985	3667.041297	9950.335684
95.037000	0.313882	0.172400	0.344568	0.444253	5813.314619	24092.793047	3673.413663	9936.317177
95.537000	0.314325	0.172125	0.348123	0.446315	5801.725521	23978.127550	3676.872701	9901.976833
96.037500	0.315951	0.173412	0.345085	0.448333	5798.924061	23942.363792	3665.213557	9868.520286
96.535000	0.315067	0.173640	0.347644	0.449787	5782.282603	23882.570967	3667.748680	9844.515223
97.035000	0.319896	0.177270	0.348984	0.454527	5782.912808	23828.538700	3659.964270	9766.796567
97.535500	0.319005	0.175311	0.347924	0.455194	5771.863546	23701.302392	3656.034004	9755.929186
