sample name	sample
index	905
start time	 04-08-2021  04:06:51 PM
880	0.509989
Peak Time (s)	102.037
Peak Height 	0.51
calc peak height	100,103
Baseline Time (s)	8.536
Baseline Value 	-0.002387
subtract baseline	10,4
Abs	0.361549
Peak Time (s)	102.537
Peak Height 	0.3615
calc peak height	100,103
Baseline Time (s)	9.036
Baseline Value 	0.00174
subtract baseline	10,3
PK_550	0.209212
Peak Time (s)	101.536
Peak Height 	0.2092
calc peak height	100,103
Baseline Time (s)	10.539
Baseline Value 	0.001037
subtract baseline	10,2
PK_880	0.353702
Peak Time (s)	101.536
Peak Height 	0.3537
calc peak height	100,103
Baseline Time (s)	8.536
Baseline Value 	8.653E-4
subtract baseline	10,1


Time (s)	A880-A510	A880-A775	A880-A975	A880	I510	I775	I975	I880	
0.038500	-0.001036	-0.000158	0.002190	0.002263	6885.076535	42447.014697	3956.608938	22750.007700
0.536500	-0.004083	-0.000785	-0.003559	0.006592	6818.817034	41999.378852	3932.796338	22553.609476
1.036500	-0.002281	-0.001203	-0.000259	0.003341	6864.078585	42254.691105	3948.212647	22700.916897
1.536500	0.001069	-0.000787	0.001647	0.001128	6914.537214	42493.087807	3958.024289	22801.835151
2.037000	0.000189	-0.000588	-0.004270	0.000818	6909.340186	42539.414318	3944.690210	22816.008840
2.537000	-0.001316	-0.001666	-0.001496	0.002799	6877.689033	42261.832068	3946.565736	22725.600249
3.037500	0.000646	-0.000994	0.000264	-0.002151	6940.695827	42773.470986	3962.572064	22952.314122
3.535500	0.000958	-0.000710	0.000114	-0.000348	6927.013441	42634.563011	3957.887026	22869.438352
4.035500	-0.000547	-0.000948	-0.003273	-0.000146	6911.421566	42594.440250	3949.333848	22860.179564
4.535500	0.000911	-0.000074	-0.001218	0.000627	6917.674008	42603.660043	3952.382734	22824.772198
5.036000	0.000285	-0.000547	-0.001790	0.000093	6916.839549	42609.256171	3952.291450	22849.242789
5.536500	-0.000911	-0.000771	-0.000218	-0.000566	6911.929732	42648.927189	3957.617441	22879.463531
6.036500	-0.000868	0.000049	-0.002035	0.000061	6906.613481	42666.616092	3951.784229	22850.704525
6.536500	0.000188	-0.000307	0.002290	0.000085	6916.020208	42631.878556	3962.066942	22849.578249
7.037000	0.000512	-0.001245	0.001445	-0.000661	6925.804614	42614.303051	3961.828928	22883.804799
7.537500	0.000197	-0.000716	-0.000736	-0.000298	6919.602025	42629.533892	3955.736958	22867.152134
8.035000	-0.000359	-0.000477	0.003012	-0.000501	6916.371848	42669.834596	3965.214170	22876.450027
8.535500	0.000000	0.000265	0.000655	0.000000	6915.079471	42691.893013	3958.350438	22853.491740
9.035500	-0.000959	-0.000812	0.000000	-0.000287	6908.951341	42619.799679	3957.470866	22866.669459
9.536000	-0.000634	0.000193	-0.004940	0.000056	6908.785378	42680.134024	3944.907792	22850.913528
10.035500	0.001091	-0.000238	-0.002369	-0.000001	6925.064574	42645.987007	3951.137111	22853.538903
10.539000	0.001418	0.000000	0.001940	0.000031	6927.763856	42664.837686	3961.357167	22852.072233
11.036500	0.000120	-0.000943	0.000138	-0.001156	6926.745103	42687.141996	3959.880587	22906.549965
11.537000	-0.000600	0.000567	-0.003039	0.000294	6906.918085	42692.586182	3948.845494	22839.997779
12.037000	-0.001148	-0.001020	-0.002856	-0.001125	6914.870622	42677.336042	3952.653438	22905.145771
12.534500	-0.002354	-0.000879	0.001015	-0.001313	6905.584946	42707.377475	3962.364018	22913.777227
13.035500	0.000181	-0.001053	0.001493	-0.001162	6927.357422	42677.655545	3963.150360	22906.823790
13.535000	-0.000716	0.000523	-0.000743	0.000422	6904.706859	42676.931889	3954.001999	22834.169417
14.035500	0.000140	-0.001194	-0.001948	0.001367	6903.892904	42434.368702	3948.888390	22790.910855
14.535000	0.001122	-0.000744	-0.003757	0.001742	6909.423982	42441.196516	3943.718373	22773.781923
15.036000	-0.000191	-0.000842	0.001040	-0.000640	6919.184721	42649.208203	3960.809373	22882.866554
15.536500	-0.001205	0.000308	0.000616	0.003602	6871.436245	42367.867449	3949.670894	22689.071296
16.036500	-0.001033	-0.000897	0.001003	-0.000601	6911.141568	42640.615917	3960.626357	22881.057657
16.537000	0.000706	0.000799	0.002560	0.000666	6915.445983	42679.799634	3961.322154	22822.983754
17.037500	0.002785	0.000786	0.004721	-0.002609	6964.627107	42979.083974	3974.456536	22973.442905
17.535000	-0.002197	-0.001322	0.003360	0.001012	6885.892763	42455.034830	3962.412629	22807.162728
18.035000	-0.001278	0.000065	-0.000173	0.001110	6893.345731	42572.360483	3953.722120	22802.695393
18.535500	-0.002016	-0.000781	0.002038	0.000735	6890.047964	42529.412604	3959.904549	22819.850676
19.035500	-0.000312	-0.000180	-0.000782	0.000949	6903.586670	42564.638467	3952.654419	22810.038617
19.536000	-0.001584	0.000086	0.001975	0.002611	6876.967274	42437.648877	3955.262184	22734.149464
20.036500	-0.000481	-0.000459	-0.000397	0.000427	6906.796688	42586.758866	3954.815453	22833.907806
20.536500	0.000116	-0.000875	-0.001229	0.000601	6910.651782	42533.039986	3952.416094	22825.943146
21.037000	-0.001762	-0.000945	0.000275	0.000830	6891.486145	42505.845626	3955.456252	22815.477283
21.537000	-0.002360	-0.000554	-0.002098	0.001827	6877.034420	42450.703036	3947.442468	22769.914882
22.034500	-0.001886	-0.000138	-0.003267	0.000811	6890.536564	42581.057488	3947.081909	22816.366976
22.535000	0.000922	0.000175	0.001550	0.001145	6913.036086	42579.120694	3957.752156	22801.053532
23.035000	-0.000163	-0.000969	-0.000001	0.000136	6912.354200	42566.908625	3956.457853	22847.269950
23.535500	0.000048	-0.000582	-0.002104	0.001770	6899.391250	42453.378226	3947.561622	22772.509485
24.036000	0.000247	-0.000469	-0.001702	0.000791	6910.112143	42552.748593	3950.840794	22817.266269
24.536500	-0.001672	-0.000539	0.001903	0.000459	6895.667879	42576.550790	3960.241973	22832.449828
25.036500	-0.000412	-0.000376	-0.001101	0.000501	6906.757112	42587.619705	3952.961478	22830.555412
25.536500	-0.004118	-0.000845	-0.003871	0.001667	6862.620245	42438.842623	3943.628138	22777.220049
26.037000	-0.001886	-0.001443	0.000765	0.000390	6894.358703	42500.586542	3957.680254	22835.639608
26.537000	-0.000212	0.000230	0.002525	0.001346	6900.881706	42565.837432	3959.606578	22791.879483
27.034500	-0.000694	-0.000734	0.003188	-0.001551	6922.915899	42742.352683	3968.175077	22924.720679
27.535000	-0.000039	-0.000467	0.004425	-0.001856	6931.700722	42794.693758	3971.907659	22938.727484
28.035500	-0.002315	-0.000789	0.003156	0.001754	6878.109498	42436.034461	3960.140463	22773.255484
28.535500	0.000951	-0.000965	-0.001107	-0.000944	6932.418528	42665.742233	3956.394437	22896.815483
29.038500	0.001602	0.000472	-0.002148	-0.000057	6930.251671	42715.965916	3951.796777	22856.092690
29.536000	0.000640	-0.000155	-0.001790	-0.000470	6925.230487	42696.539403	3953.632936	22875.069235
30.036500	-0.002555	-0.000961	-0.001862	0.001513	6878.110536	42442.244802	3948.746015	22784.250734
30.537000	-0.003321	-0.000159	-0.005723	0.001879	6867.890003	42481.877753	3938.765782	22767.527802
31.037000	-0.002370	-0.000401	-0.001902	0.001369	6881.093225	42506.280907	3948.994634	22790.845370
31.537500	0.000243	-0.000541	0.005195	-0.000335	6920.364694	42648.921366	3970.090728	22868.875634
32.035000	-0.001497	-0.001063	-0.006023	0.002515	6878.623050	42342.175462	3936.572214	22738.544546
32.535000	-0.000447	0.000446	0.002875	0.000104	6910.052656	42698.969614	3963.429395	22848.742967
33.035500	0.001238	-0.000447	-0.003753	-0.000384	6929.915298	42661.867218	3948.759390	22871.085836
33.542500	-0.000440	0.000168	0.001821	-0.001676	6926.384372	42836.543949	3965.177281	22930.482653
34.036000	-0.000632	-0.000593	-0.000122	0.002268	6888.692690	42407.117212	3951.085797	22749.807304
34.536500	-0.000213	-0.000260	0.001180	0.001649	6898.116809	42493.567986	3955.661819	22778.027354
35.036500	-0.002102	-0.000976	0.001010	0.000993	6886.931624	42488.216800	3956.825470	22808.043759
35.537000	-0.003270	-0.000438	0.002607	0.001460	6872.131422	42494.657599	3959.528669	22786.670931
36.037000	-0.001204	-0.000742	0.001571	0.002159	6884.501519	42403.504955	3955.378722	22754.783512
36.534500	-0.001526	-0.000604	-0.004884	0.000793	6893.965362	42540.202757	3943.299889	22817.174763
37.035000	-0.000574	-0.000288	0.000489	0.001109	6899.738888	42540.185618	3955.302689	22802.708867
37.535500	-0.002358	-0.000951	0.001694	0.000889	6885.546656	42499.977566	3958.709724	22812.799507
38.038500	-0.000502	-0.000958	0.001173	0.002726	6885.713954	42332.462178	3953.077034	22728.907734
38.536000	-0.001871	0.000170	-0.000477	0.001649	6883.072281	42532.841663	3951.714582	22778.057614
39.036000	0.001226	-0.000385	0.002264	0.001203	6915.289853	42522.777363	3959.322207	22798.405358
39.536500	-0.002277	-0.000753	0.002326	0.002162	6874.764497	42402.234944	3957.176115	22754.638824
40.037000	0.001105	-0.000166	-0.000229	0.001232	6913.924401	42540.160258	3953.296492	22797.108129
40.537000	0.000130	-0.000295	-0.003019	0.001869	6899.236404	42470.502336	3945.163313	22768.018505
41.040000	-0.001938	-0.000134	-0.000259	0.001582	6883.075937	42511.184873	3952.390325	22781.096720
41.535000	-0.002563	-0.000656	-0.000233	0.002675	6867.548541	42364.480065	3949.854065	22731.247133
42.035000	0.000511	0.000319	-0.001231	0.001879	6902.611496	42525.424447	3949.375024	22767.564561
42.535500	-0.000986	-0.000117	-0.001354	0.001561	6891.897322	42514.666026	3949.837919	22782.083066
43.035500	-0.000396	0.000082	-0.001753	0.001840	6894.720324	42507.350525	3948.229482	22769.325449
43.536500	-0.001013	0.000013	0.000028	0.003193	6876.865344	42378.211957	3949.244440	22707.664073
44.036500	0.001660	0.000079	0.000927	0.000192	6928.504588	42657.299747	3958.541649	22844.683588
44.537000	0.002004	0.000523	0.008700	0.000153	6932.011402	42701.435989	3977.418182	22846.470107
45.036000	0.000796	0.000035	0.000566	0.000053	6921.871108	42666.000469	3958.011293	22851.065494
45.537500	-0.000809	0.000207	0.001728	0.003690	6874.218879	42350.775731	3952.104370	22685.077433
46.037500	-0.002993	-0.000616	0.002543	0.005733	6836.212959	42091.862500	3949.185466	22592.444169
46.534500	0.001001	-0.000139	0.005670	0.000214	6922.268105	42635.457689	3969.908383	22843.678987
47.038000	0.000263	-0.001139	-0.004348	0.000108	6916.492108	42553.943676	3946.186328	22848.543716
47.538500	-0.003262	-0.000613	0.005031	0.003765	6851.447215	42269.719485	3959.814848	22681.647999
48.035500	-0.003009	-0.000644	-0.000964	0.005480	6838.333323	42112.096825	3941.491066	22603.878927
48.536000	0.002084	0.000207	0.000802	0.000211	6932.219165	42667.301534	3958.197322	22843.821628
49.036500	0.002010	0.000529	0.004463	-0.000225	6935.533632	42736.647772	3968.051103	22863.809967
49.536500	-0.001115	0.000634	0.004540	0.003194	6875.936663	42434.521724	3960.006506	22707.633721
50.037000	-0.002105	-0.000568	0.003031	0.004286	6857.160414	42226.645518	3953.785828	22657.980803
50.537000	0.002574	-0.000188	-0.001052	0.001411	6925.711133	42521.873384	3950.912833	22788.940453
51.037500	-0.002751	0.001481	-0.001066	-0.001402	6902.786056	42931.983269	3957.588144	22917.873908
51.535000	-0.075698	-0.023137	-0.010167	0.187795	5111.677149	27403.034790	3576.704519	15864.829904
52.038500	-0.077380	-0.024944	-0.021858	-0.082763	6964.526561	48317.689581	4113.092743	27032.798783
52.535500	-0.051718	-0.081466	-0.004825	-0.275702	9590.793746	65045.146780	4855.758130	40505.262784
53.036000	-0.023448	-0.108092	0.009636	-0.305742	10545.012461	65535.000000	5064.789428	43195.247738
53.535500	-0.004486	-0.087611	0.014572	-0.285262	10518.500379	65535.000000	4989.328152	41341.221273
54.036000	-0.002322	-0.036457	0.018731	-0.213124	9392.275280	62584.940581	4689.287103	35465.178721
54.536500	0.010931	-0.015275	0.031789	-0.166049	8909.629903	59135.779437	4555.882299	32124.647814
55.037000	0.022645	-0.004670	0.041440	-0.141319	8733.669063	57339.047652	4500.007556	30509.530711
55.537500	0.046595	0.007815	0.054425	-0.114232	8692.054696	55542.121480	4449.480374	28842.943880
56.035000	0.061583	0.021423	0.063399	-0.061562	8214.864012	51021.830016	4302.938864	25885.186673
56.538000	0.081019	0.036250	0.083466	-0.000752	7736.482585	46196.340741	4178.970115	22888.000411
57.035000	0.071141	0.037512	0.086453	0.128594	6423.797349	35161.152285	3860.771551	17751.502585
57.535500	0.103974	0.050558	0.108163	0.078447	7155.111463	40199.854303	4030.312499	19563.682814
58.036000	0.118499	0.062222	0.116616	0.088030	7203.228773	40378.609189	4027.421842	19201.003183
58.536500	0.140166	0.072184	0.135757	0.153052	6799.163290	35926.732919	3916.249603	16940.748418
59.036500	0.149883	0.077562	0.149825	0.202565	6462.170522	32744.175034	3838.054694	15432.861804
59.537000	0.164154	0.086088	0.167450	0.248162	6217.775863	30309.774660	3780.696830	14188.329129
60.037000	0.171909	0.092958	0.181339	0.291864	5958.212958	28088.483702	3723.496592	13112.109303
60.537500	0.185819	0.100634	0.199255	0.315771	5889.765750	27167.774396	3712.468332	12567.604424
61.035500	0.203625	0.111372	0.216856	0.339253	5851.603106	26468.668611	3701.791612	12061.204515
61.534500	0.213883	0.118649	0.225469	0.358865	5789.783300	25811.236208	3682.204029	11658.739611
62.035500	0.230337	0.126913	0.247421	0.358390	5902.648855	26275.065615	3722.674118	11668.261936
62.536000	0.237664	0.134574	0.253254	0.375753	5835.205034	25760.668450	3701.606943	11326.436752
63.036000	0.243039	0.137915	0.262156	0.390400	5774.274432	25175.607539	3691.315811	11048.519454
63.536500	0.251671	0.144335	0.279096	0.381233	5892.410979	25986.222975	3739.195998	11221.356454
64.037000	0.256009	0.147433	0.282673	0.395564	5825.486589	25399.086659	3719.124416	10952.747848
64.536500	0.263612	0.153983	0.289364	0.425653	5680.415172	24216.893578	3677.132956	10416.808611
65.037500	0.262168	0.156047	0.295439	0.416046	5732.210151	24795.033052	3705.025030	10583.898347
65.534500	0.267040	0.156823	0.300433	0.423198	5717.646812	24477.268404	3701.126317	10459.151788
66.038000	0.267924	0.162389	0.303457	0.446289	5579.699254	23627.505433	3665.789443	10070.127665
66.535500	0.285825	0.170137	0.305520	0.431592	5784.654307	24722.052584	3695.190700	10315.339676
67.036000	0.293942	0.173542	0.300848	0.433903	5822.796348	24776.836138	3682.801485	10276.216631
67.537000	0.297442	0.172990	0.301152	0.432370	5856.279567	24826.138153	3686.041357	10302.143818
68.039500	0.301937	0.178009	0.308501	0.441484	5825.537381	24621.189933	3682.927937	10149.375017
68.536500	0.304561	0.178646	0.311882	0.434868	5887.364647	24985.489486	3700.730074	10259.958473
69.037000	0.305087	0.179893	0.309731	0.436940	5876.924740	24943.734255	3693.158287	10225.135874
69.540500	0.310615	0.182418	0.314246	0.441037	5886.586711	24864.390698	3693.904883	10156.791876
70.037500	0.312538	0.183715	0.319377	0.445056	5872.450706	24727.761890	3695.892815	10090.378182
70.538000	0.314998	0.185113	0.320732	0.446995	5875.962461	24700.709566	3694.849454	10058.558562
71.035000	0.315806	0.186281	0.330373	0.448666	5870.153262	24675.578251	3709.226807	10031.242044
71.535500	0.313069	0.186085	0.323699	0.454475	5813.261801	24377.796980	3686.824687	9937.104900
72.036000	0.321666	0.187799	0.328175	0.451133	5893.048645	24628.193511	3700.777635	9991.097551
72.536500	0.321534	0.190298	0.327454	0.453424	5876.676018	24638.579273	3695.371771	9954.036171
73.036500	0.323174	0.189843	0.325226	0.453097	5889.969856	24632.235374	3691.980211	9959.324558
73.536500	0.321169	0.191066	0.333200	0.459296	5834.951618	24385.682034	3695.146064	9859.917135
74.037000	0.323317	0.191574	0.329623	0.454271	5882.991110	24659.971639	3697.740851	9940.382544
74.537500	0.326994	0.191810	0.333531	0.454594	5905.731251	24655.654988	3704.200593	9935.189817
75.037500	0.327542	0.192937	0.338503	0.454451	5910.435034	24719.130017	3713.509369	9937.491494
75.535000	0.327113	0.193368	0.327094	0.459834	5871.090343	24472.753576	3683.357696	9851.366958
76.035500	0.330489	0.193951	0.337120	0.454226	5932.133893	24781.193457	3711.391009	9941.113686
76.536000	0.331260	0.195084	0.333574	0.453448	5942.788084	24877.269733	3706.353072	9953.643710
77.036000	0.332149	0.195875	0.341292	0.452745	5953.777809	24952.697057	3721.779140	9965.007178
77.536000	0.333890	0.196744	0.338549	0.457927	5930.073758	24735.655056	3707.253455	9881.749267
78.036500	0.330665	0.196643	0.337866	0.454267	5933.057880	24914.571570	3712.679304	9940.443339
78.537000	0.332497	0.197347	0.342587	0.449845	5976.321946	25174.884743	3729.573690	10012.022478
79.037000	0.337337	0.198086	0.334812	0.448728	6018.117346	25269.879884	3717.235875	10030.220625
79.537500	0.330405	0.197990	0.344617	0.452237	5945.244079	25085.734775	3728.899151	9973.220092
80.035000	0.332399	0.197036	0.344205	0.449389	5978.819988	25182.322120	3733.458424	10019.458560
80.535000	0.335501	0.199774	0.342002	0.446030	6024.209853	25496.005850	3735.629528	10074.367017
81.038000	0.337652	0.200214	0.336388	0.445913	6040.310931	25524.934414	3725.353648	10076.296718
81.536000	0.338453	0.201656	0.342558	0.446858	6039.280716	25550.732109	3735.118555	10060.792921
82.036000	0.337696	0.201115	0.344352	0.449935	6012.136601	25363.608969	3732.709797	10010.572351
82.536000	0.337554	0.201235	0.335310	0.445733	6040.891975	25587.293993	3723.685031	10079.245462
83.036500	0.335880	0.199778	0.341648	0.445485	6030.762204	25524.498547	3735.988814	10083.323523
83.534000	0.339567	0.202340	0.340134	0.447347	6043.733455	25560.873643	3729.660327	10052.792257
84.036500	0.340915	0.201294	0.344604	0.446660	6058.257712	25542.233501	3739.348443	10064.039915
84.534500	0.339827	0.201044	0.340778	0.446822	6049.327529	25520.787576	3731.845030	10061.379315
85.035000	0.340935	0.201910	0.341349	0.447762	6050.530279	25516.980292	3731.156134	10046.004923
85.535500	0.338164	0.200528	0.341964	0.447296	6034.111109	25469.503578	3733.179011	10053.617007
86.035500	0.343649	0.203458	0.347978	0.453907	6026.132880	25279.802734	3732.061562	9946.253561
86.536000	0.343576	0.203550	0.345177	0.451790	6040.639547	25393.468724	3730.780479	9980.457764
87.036000	0.341791	0.202959	0.342062	0.452540	6022.653635	25324.413827	3723.583522	9968.317343
87.536500	0.345350	0.204909	0.354258	0.455951	6023.702527	25249.408893	3740.035152	9913.386654
88.036500	0.340345	0.203125	0.341789	0.459840	5961.407808	24960.545508	3709.669270	9851.275513
88.534000	0.342870	0.203566	0.346818	0.457932	5992.289968	25079.647444	3722.404930	9881.667927
89.037500	0.344555	0.203626	0.342352	0.460202	5988.199096	24967.549544	3710.033066	9845.514141
89.534500	0.348371	0.204779	0.354263	0.463389	5992.603514	24864.898801	3726.094150	9795.072807
90.035000	0.344121	0.203396	0.345659	0.468329	5928.904704	24548.744924	3701.299729	9717.613959
90.535000	0.346727	0.206222	0.346434	0.468115	5948.306465	24700.144736	3703.083075	9720.942080
91.036000	0.346569	0.204912	0.346678	0.469346	5938.730316	24573.486221	3701.302363	9701.766942
91.536500	0.347952	0.206123	0.344001	0.472880	5923.969887	24458.355029	3690.186863	9647.018455
92.036500	0.343210	0.205094	0.342820	0.477582	5859.997997	24176.921165	3679.803018	9574.852922
92.536500	0.347135	0.205430	0.350553	0.477221	5888.856288	24210.954290	3694.125615	9580.368781
93.037000	0.346296	0.205604	0.354917	0.479556	5867.467567	24105.654613	3697.758873	9544.806195
93.537500	0.346212	0.205971	0.352204	0.486874	5818.165590	23770.410481	3679.966807	9434.545956
94.035000	0.347631	0.205676	0.348493	0.482812	5854.592218	23951.412233	3680.581322	9495.516500
94.535000	0.349952	0.207861	0.353732	0.486566	5845.019874	23875.828609	3683.190223	9439.141252
95.035500	0.345582	0.205461	0.350986	0.485816	5820.992692	23796.664351	3679.685896	9450.369449
95.535500	0.345720	0.207517	0.348246	0.495161	5760.777130	23450.342643	3658.796556	9311.902572
96.036000	0.346600	0.206710	0.348810	0.490931	5794.043149	23612.250111	3667.013807	9374.214323
96.536000	0.347755	0.207366	0.354958	0.492675	5790.189339	23560.651131	3674.641865	9348.451047
97.036500	0.347062	0.206446	0.354015	0.493355	5781.219333	23484.977840	3671.821389	9338.427701
97.536500	0.347793	0.206444	0.353246	0.500211	5741.575968	23163.942227	3658.711434	9238.309054
