sample name	sample
index	1501
start time	 05-18-2021  02:31:24 PM


Wavelength (nm)	Absorbance
494.344910	-0.039051
494.563924	-0.039051
494.782919	-0.039051
495.001897	-0.247569
495.220856	-0.037407
495.439797	-0.056393
495.658719	-0.027344
495.877624	-0.027360
496.096510	0.014798
496.315378	0.004085
496.534227	0.024460
496.753059	-0.011594
496.971872	0.004395
497.190667	0.066679
497.409444	0.078058
497.628203	0.075190
497.846943	0.077214
498.065665	0.078928
498.284369	0.079204
498.503055	0.080131
498.721723	0.081909
498.940372	0.081609
499.159003	0.081793
499.377616	0.081828
499.596210	0.083671
499.814787	0.083053
500.033345	0.084181
500.251885	0.085274
500.470406	0.084089
500.688910	0.083325
500.907395	0.084009
501.125862	0.084845
501.344311	0.084215
501.562742	0.083920
501.781154	0.084147
501.999548	0.083012
502.217924	0.082677
502.436282	0.083087
502.654621	0.083267
502.872942	0.083100
503.091245	0.082888
503.309530	0.083974
503.527797	0.084303
503.746045	0.084686
503.964275	0.084411
504.182487	0.083307
504.400681	0.083375
504.618856	0.083076
504.837013	0.082950
505.055152	0.081732
505.273273	0.081029
505.491376	0.081066
505.709460	0.081539
505.927526	0.081788
506.145574	0.081986
506.363604	0.082499
506.581615	0.082468
506.799608	0.081719
507.017583	0.081562
507.235540	0.082307
507.453478	0.081550
507.671399	0.080766
507.889301	0.080660
508.107185	0.080889
508.325050	0.081054
508.542898	0.081440
508.760727	0.082408
508.978538	0.083721
509.196330	0.083315
509.414105	0.083848
509.631861	0.084483
509.849599	0.084510
510.067319	0.084568
510.285021	0.083543
510.502704	0.083375
510.720369	0.083351
510.938016	0.083935
511.155645	0.084215
511.373255	0.084695
511.590848	0.085234
511.808422	0.085485
512.025977	0.086404
512.243515	0.087441
512.461034	0.087778
512.678536	0.088203
512.896018	0.088048
513.113483	0.088196
513.330930	0.087447
513.548358	0.087082
513.765768	0.087338
513.983160	0.086797
514.200533	0.086202
514.417889	0.085685
514.635226	0.085097
514.852545	0.084789
515.069845	0.083741
515.287128	0.084175
515.504392	0.083764
515.721638	0.084070
515.938866	0.084506
516.156075	0.085240
516.373267	0.086191
516.590440	0.086844
516.807594	0.086929
517.024731	0.088131
517.241850	0.087529
517.458950	0.088079
517.676032	0.087786
517.893095	0.087191
518.110141	0.086832
518.327168	0.086292
518.544177	0.085655
518.761168	0.085306
518.978141	0.085477
519.195095	0.085746
519.412031	0.086106
519.628949	0.086465
519.845849	0.086819
520.062731	0.087468
520.279594	0.088113
520.496439	0.088958
520.713266	0.089273
520.930074	0.088836
521.146865	0.089272
521.363637	0.088703
521.580391	0.088793
521.797127	0.088639
522.013844	0.088875
522.230543	0.088895
522.447224	0.089059
522.663887	0.089220
522.880532	0.089585
523.097158	0.089576
523.313766	0.090170
523.530356	0.090046
523.746928	0.090169
523.963481	0.089696
524.180017	0.089943
524.396534	0.089812
524.613032	0.090120
524.829513	0.090945
525.045975	0.091449
525.262420	0.091491
525.478845	0.092116
525.695253	0.092236
525.911643	0.092743
526.128014	0.093281
526.344367	0.093392
526.560702	0.093268
526.777018	0.092941
526.993316	0.092917
527.209597	0.093426
527.425858	0.092987
527.642102	0.093613
527.858328	0.093690
528.074535	0.093330
528.290724	0.093888
528.506894	0.094080
528.723047	0.095020
528.939181	0.095154
529.155297	0.095149
529.371395	0.095355
529.587475	0.095026
529.803536	0.095179
530.019579	0.094771
530.235604	0.094510
530.451611	0.094257
530.667600	0.093687
530.883570	0.093511
531.099522	0.093446
531.315456	0.093645
531.531372	0.094373
531.747269	0.094363
531.963148	0.094929
532.179009	0.095457
532.394852	0.096566
532.610676	0.096855
532.826482	0.097576
533.042271	0.098269
533.258040	0.098810
533.473792	0.099020
533.689525	0.099638
533.905240	0.099967
534.120937	0.100229
534.336616	0.100240
534.552277	0.100402
534.767919	0.100699
534.983543	0.100414
535.199149	0.100465
535.414736	0.100557
535.630306	0.101255
535.845857	0.101417
536.061390	0.101474
536.276904	0.101765
536.492401	0.101553
536.707879	0.101924
536.923339	0.102241
537.138781	0.102643
537.354204	0.102457
537.569610	0.102237
537.784997	0.102296
538.000366	0.102188
538.215716	0.101861
538.431049	0.102550
538.646363	0.102242
538.861659	0.102515
539.076937	0.102685
539.292196	0.102992
539.507438	0.103095
539.722661	0.104167
539.937866	0.104040
540.153052	0.104662
540.368221	0.104574
540.583371	0.104391
540.798503	0.104502
541.013617	0.104584
541.228712	0.104683
541.443789	0.104680
541.658848	0.103826
541.873889	0.104497
542.088912	0.104364
542.303916	0.104231
542.518902	0.104981
542.733870	0.105204
542.948820	0.105230
543.163752	0.105437
543.378665	0.105118
543.593560	0.105867
543.808437	0.106203
544.023295	0.106892
544.238136	0.107227
544.452958	0.107305
544.667762	0.106936
544.882548	0.107044
545.097315	0.107435
545.312064	0.108010
545.526795	0.108172
545.741508	0.107730
545.956203	0.107251
546.170879	0.107748
546.385537	0.108108
546.600177	0.108515
546.814799	0.109184
547.029402	0.108962
547.243988	0.109339
547.458555	0.109131
547.673103	0.109807
547.887634	0.110024
548.102146	0.110206
548.316640	0.109414
548.531116	0.109747
548.745574	0.109461
548.960013	0.109901
549.174435	0.110058
549.388838	0.110543
549.603222	0.111076
549.817589	0.111373
550.031937	0.110974
550.246267	0.111661
550.460579	0.111902
550.674873	0.111844
550.889148	0.112068
551.103405	0.111655
551.317644	0.111965
551.531865	0.111681
551.746068	0.111838
551.960252	0.112246
552.174418	0.112268
552.388566	0.112403
552.602696	0.112648
552.816807	0.112619
553.030900	0.113032
553.244975	0.112789
553.459032	0.112724
553.673070	0.112816
553.887091	0.113083
554.101093	0.113447
554.315077	0.113261
554.529042	0.112918
554.742990	0.113034
554.956919	0.113081
555.170830	0.112915
555.384722	0.112654
555.598597	0.112506
555.812453	0.112158
556.026291	0.112117
556.240111	0.112574
556.453913	0.112851
556.667696	0.112573
556.881461	0.112632
557.095208	0.112882
557.308937	0.113258
557.522647	0.113471
557.736339	0.113592
557.950013	0.113837
558.163669	0.113366
558.377307	0.113782
558.590926	0.114125
558.804527	0.114319
559.018110	0.114328
559.231675	0.114385
559.445221	0.114803
559.658749	0.115196
559.872259	0.115171
560.085751	0.115381
560.299225	0.115070
560.512680	0.115490
560.726117	0.115783
560.939536	0.116131
561.152937	0.116526
561.366319	0.116072
561.579683	0.116074
561.793029	0.115882
562.006357	0.115694
562.219667	0.116159
562.432958	0.115628
562.646231	0.115540
562.859486	0.115212
563.072723	0.114670
563.285941	0.114842
563.499141	0.114898
563.712323	0.115155
563.925487	0.115753
564.138632	0.115593
564.351760	0.115939
564.564869	0.115598
564.777960	0.116026
564.991032	0.116326
565.204087	0.116333
565.417123	0.116526
565.630141	0.116399
565.843140	0.116411
566.056122	0.116342
566.269085	0.116304
566.482030	0.116566
566.694957	0.116272
566.907866	0.116488
567.120756	0.116697
567.333628	0.116611
567.546482	0.116632
567.759318	0.116259
567.972135	0.116290
568.184935	0.116290
568.397716	0.116347
568.610478	0.116909
568.823223	0.116993
569.035949	0.117235
569.248657	0.117223
569.461347	0.117512
569.674019	0.117850
569.886672	0.118477
570.099308	0.118610
570.311925	0.118511
570.524523	0.117985
570.737104	0.118072
570.949666	0.117692
571.162210	0.117578
571.374736	0.117568
571.587244	0.117694
571.799733	0.117481
572.012205	0.117833
572.224658	0.118099
572.437092	0.118238
572.649509	0.118129
572.861907	0.118170
573.074287	0.118412
573.286649	0.118386
573.498993	0.118536
573.711318	0.118494
573.923625	0.118400
574.135914	0.118440
574.348185	0.118391
574.560438	0.118514
574.772672	0.118919
574.984888	0.118704
575.197086	0.118959
575.409266	0.118972
575.621427	0.119034
575.833570	0.119050
576.045695	0.119111
576.257802	0.119361
576.469890	0.119414
576.681961	0.119219
576.894013	0.119556
577.106046	0.119865
577.318062	0.119765
577.530059	0.120185
577.742039	0.120489
577.954000	0.120783
578.165942	0.121027
578.377867	0.120922
578.589773	0.121281
578.801661	0.121811
579.013531	0.121814
579.225382	0.121927
579.437216	0.121879
579.649031	0.121849
579.860828	0.121727
580.072606	0.121857
580.284367	0.122152
580.496109	0.122272
580.707833	0.121888
580.919539	0.121565
581.131227	0.121601
581.342896	0.121372
581.554547	0.121568
581.766180	0.121593
581.977795	0.121680
582.189391	0.122071
582.400969	0.121771
582.612529	0.121575
582.824071	0.121966
583.035595	0.121979
583.247100	0.122568
583.458587	0.122349
583.670056	0.122545
583.881506	0.122393
584.092939	0.121924
584.304353	0.122430
584.515749	0.122991
584.727127	0.122682
584.938486	0.123054
585.149828	0.122814
585.361151	0.123387
585.572456	0.123410
585.783742	0.123392
585.995011	0.123865
586.206261	0.124135
586.417493	0.123975
586.628706	0.124506
586.839902	0.124527
587.051079	0.124651
587.262238	0.124535
587.473379	0.124558
587.684502	0.124572
587.895606	0.124258
588.106692	0.123936
588.317760	0.124226
588.528810	0.124153
588.739841	0.123939
588.950855	0.124156
589.161850	0.124089
589.372827	0.124091
589.583785	0.124442
589.794726	0.124749
590.005648	0.124902
590.216552	0.124814
590.427437	0.125154
590.638305	0.125477
590.849154	0.125487
591.059985	0.125354
591.270798	0.125794
591.481592	0.125829
591.692369	0.126104
591.903127	0.126286
592.113867	0.126464
592.324588	0.126397
592.535292	0.126748
592.745977	0.126623
592.956644	0.126763
593.167293	0.126619
593.377923	0.126640
593.588536	0.126612
593.799130	0.126543
594.009706	0.126700
594.220263	0.126712
594.430803	0.126650
594.641324	0.126980
594.851827	0.127211
595.062312	0.127088
595.272778	0.127237
595.483227	0.127183
595.693657	0.127542
595.904069	0.127562
596.114462	0.127757
596.324838	0.127862
596.535195	0.127821
596.745534	0.127770
596.955855	0.128228
597.166157	0.128673
597.376441	0.128710
597.586707	0.128827
597.796955	0.128854
598.007185	0.129245
598.217396	0.129256
598.427589	0.129416
598.637764	0.129767
598.847921	0.129670
599.058060	0.129691
599.268180	0.129670
599.478282	0.129473
599.688366	0.129348
599.898431	0.128798
600.108479	0.128864
600.318508	0.128562
600.528519	0.128434
600.738511	0.128642
600.948486	0.128496
601.158442	0.128710
601.368380	0.128986
601.578300	0.129412
601.788202	0.129540
601.998085	0.129474
602.207950	0.130039
602.417797	0.130262
602.627626	0.130561
602.837436	0.130547
603.047228	0.131050
603.257002	0.131255
603.466758	0.131353
603.676496	0.131707
603.886215	0.132314
604.095916	0.132343
604.305599	0.132460
604.515264	0.132545
604.724910	0.132874
604.934538	0.132923
605.144148	0.133167
605.353740	0.133271
605.563314	0.133339
605.772869	0.133180
605.982406	0.133303
606.191925	0.133526
606.401425	0.133657
606.610908	0.133735
606.820372	0.133596
607.029818	0.133381
607.239246	0.133196
607.448655	0.133498
607.658047	0.133882
607.867420	0.133960
608.076775	0.134046
608.286111	0.134189
608.495430	0.134492
608.704730	0.134480
608.914012	0.134504
609.123275	0.134779
609.332521	0.134584
609.541748	0.134270
609.750957	0.134378
609.960148	0.134636
610.169321	0.134870
610.378475	0.135063
610.587611	0.135221
610.796729	0.135643
611.005829	0.135896
611.214910	0.136007
611.423974	0.136199
611.633019	0.136324
611.842045	0.136108
612.051054	0.135752
612.260044	0.135651
612.469017	0.135712
612.677970	0.135430
612.886906	0.135683
613.095824	0.135723
613.304723	0.135688
613.513604	0.135778
613.722467	0.136028
613.931311	0.135944
614.140138	0.135696
614.348946	0.136284
614.557736	0.136674
614.766507	0.136517
614.975261	0.137112
615.183996	0.137554
615.392713	0.137754
615.601412	0.138040
615.810092	0.138662
616.018754	0.138905
616.227399	0.138677
616.436024	0.138577
616.644632	0.138809
616.853222	0.138704
617.061793	0.138683
617.270346	0.138810
617.478880	0.138690
617.687397	0.138552
617.895895	0.138857
618.104375	0.139301
618.312837	0.139281
618.521281	0.139488
618.729706	0.139321
618.938113	0.139340
619.146502	0.139427
619.354873	0.139923
619.563226	0.140135
619.771560	0.140385
619.979876	0.140248
620.188174	0.140630
620.396453	0.140759
620.604715	0.141192
620.812958	0.141507
621.021183	0.141516
621.229390	0.141355
621.437578	0.141665
621.645748	0.141601
621.853900	0.141575
622.062034	0.141683
622.270150	0.141689
622.478247	0.141736
622.686326	0.141788
622.894387	0.142169
623.102430	0.142239
623.310454	0.142281
623.518461	0.142493
623.726449	0.142785
623.934418	0.142716
624.142370	0.142903
624.350303	0.142979
624.558218	0.143251
624.766115	0.143145
624.973994	0.143157
625.181855	0.143060
625.389697	0.143045
625.597521	0.143165
625.805327	0.143255
626.013114	0.143430
626.220883	0.143276
626.428634	0.143054
626.636367	0.143294
626.844082	0.143365
627.051778	0.143352
627.259457	0.143321
627.467117	0.143394
627.674758	0.143583
627.882382	0.143504
628.089987	0.143947
628.297574	0.144116
628.505143	0.144266
628.712694	0.144539
628.920226	0.144773
629.127740	0.145136
629.335236	0.145394
629.542714	0.145465
629.750174	0.145589
629.957615	0.145503
630.165038	0.145543
630.372443	0.145476
630.579829	0.145605
630.787198	0.145557
630.994548	0.145517
631.201880	0.145600
631.409194	0.145771
631.616489	0.145995
631.823766	0.146391
632.031025	0.146590
632.238266	0.146509
632.445489	0.146623
632.652693	0.146764
632.859879	0.146940
633.067047	0.146881
633.274197	0.146924
633.481329	0.146967
633.688442	0.146994
633.895537	0.147017
634.102614	0.147404
634.309672	0.147422
634.516713	0.147697
634.723735	0.147856
634.930739	0.148123
635.137724	0.148478
635.344692	0.148597
635.551641	0.148297
635.758572	0.148649
635.965485	0.148506
636.172379	0.148612
636.379256	0.148655
636.586114	0.148470
636.792954	0.148208
636.999775	0.148140
637.206579	0.148140
637.413364	0.148413
637.620131	0.148309
637.826880	0.148346
638.033610	0.148293
638.240323	0.148267
638.447017	0.148543
638.653692	0.148672
638.860350	0.148635
639.066990	0.148658
639.273611	0.148817
639.480214	0.149190
639.686798	0.149589
639.893365	0.149794
640.099913	0.150414
640.306443	0.150395
640.512955	0.150800
640.719449	0.151001
640.925924	0.151068
641.132381	0.151398
641.338820	0.151506
641.545241	0.151647
641.751644	0.151820
641.958028	0.151737
642.164394	0.152009
642.370742	0.151926
642.577071	0.152164
642.783383	0.152585
642.989676	0.152672
643.195951	0.152565
643.402207	0.152482
643.608446	0.152608
643.814666	0.152579
644.020868	0.152594
644.227052	0.152925
644.433218	0.152984
644.639365	0.153053
644.845494	0.153082
645.051605	0.153342
645.257698	0.153589
645.463772	0.153769
645.669828	0.154009
645.875866	0.154133
646.081886	0.154256
646.287888	0.154462
646.493871	0.154555
646.699836	0.154557
646.905783	0.154385
647.111712	0.154638
647.317622	0.154428
647.523514	0.154425
647.729388	0.154620
647.935244	0.154747
648.141082	0.154732
648.346901	0.154683
648.552702	0.154740
648.758485	0.155061
648.964250	0.154796
649.169996	0.155132
649.375724	0.155292
649.581434	0.155323
649.787126	0.155151
649.992800	0.155420
650.198455	0.155906
650.404092	0.156081
650.609711	0.156207
650.815311	0.156327
651.020894	0.156469
651.226458	0.156461
651.432004	0.156758
651.637532	0.156974
651.843041	0.157047
652.048532	0.156542
652.254006	0.156470
652.459460	0.156508
652.664897	0.156657
652.870315	0.156707
653.075716	0.156800
653.281097	0.156841
653.486461	0.156981
653.691807	0.156974
653.897134	0.157197
654.102443	0.157489
654.307734	0.157952
654.513006	0.158466
654.718261	0.158574
654.923497	0.158977
655.128715	0.159185
655.333915	0.159304
655.539096	0.159554
655.744259	0.159852
655.949404	0.160222
656.154531	0.159970
656.359640	0.159925
656.564730	0.160308
656.769802	0.160434
656.974856	0.160495
657.179892	0.160676
657.384909	0.160820
657.589908	0.161014
657.794889	0.161190
657.999852	0.161382
658.204797	0.161516
658.409723	0.161420
658.614631	0.161228
658.819521	0.161270
659.024393	0.161149
659.229246	0.161090
659.434081	0.161290
659.638898	0.161219
659.843697	0.161290
660.048478	0.161143
660.253240	0.161201
660.457984	0.161518
660.662710	0.161727
660.867417	0.162155
661.072107	0.162450
661.276778	0.162679
661.481431	0.162861
661.686066	0.163151
661.890682	0.163548
662.095281	0.163807
662.299861	0.163813
662.504422	0.164120
662.708966	0.164263
662.913491	0.164447
663.117999	0.164472
663.322488	0.164527
663.526958	0.164666
663.731411	0.164667
663.935845	0.164815
664.140261	0.165212
664.344659	0.165035
664.549038	0.165085
664.753400	0.165260
664.957743	0.165549
665.162068	0.165650
665.366375	0.165641
665.570663	0.165678
665.774933	0.165754
665.979185	0.165781
666.183419	0.165918
666.387635	0.166144
666.591832	0.166254
666.796011	0.166264
667.000172	0.166588
667.204315	0.166690
667.408439	0.167059
667.612545	0.167640
667.816634	0.167880
668.020703	0.168187
668.224755	0.168233
668.428788	0.168192
668.632803	0.168206
668.836800	0.168242
669.040779	0.168307
669.244739	0.168335
669.448681	0.168021
669.652605	0.167942
669.856511	0.168094
670.060399	0.168393
670.264268	0.168687
670.468119	0.168770
670.671952	0.168823
670.875767	0.169348
671.079563	0.169543
671.283341	0.169929
671.487101	0.170269
671.690843	0.170304
671.894567	0.170404
672.098272	0.170504
672.301959	0.170859
672.505628	0.171296
672.709278	0.171412
672.912911	0.171618
673.116525	0.171520
673.320121	0.171647
673.523699	0.171995
673.727258	0.172003
673.930799	0.172170
674.134322	0.172093
674.337827	0.172012
674.541314	0.171992
674.744782	0.171932
674.948232	0.172148
675.151664	0.172348
675.355078	0.172279
675.558474	0.172394
675.761851	0.172453
675.965210	0.172623
676.168551	0.172632
676.371873	0.172849
676.575178	0.173065
676.778464	0.173282
676.981732	0.173257
677.184981	0.173547
677.388213	0.173801
677.591426	0.173995
677.794621	0.174325
677.997798	0.174686
678.200956	0.174744
678.404097	0.174985
678.607219	0.175360
678.810323	0.175588
679.013408	0.175682
679.216476	0.175940
679.419525	0.176082
679.622556	0.176084
679.825569	0.176187
680.028563	0.176111
680.231540	0.176212
680.434498	0.175963
680.637438	0.175898
680.840359	0.175857
681.043263	0.175700
681.246148	0.175594
681.449015	0.175565
681.651864	0.175414
681.854694	0.175695
682.057506	0.175937
682.260301	0.176135
682.463076	0.176338
682.665834	0.176504
682.868573	0.176698
683.071295	0.177149
683.273998	0.177426
683.476682	0.177736
683.679349	0.177835
683.881997	0.177754
684.084627	0.177727
684.287239	0.177871
684.489833	0.177979
684.692408	0.177906
684.894965	0.177782
685.097504	0.177871
685.300025	0.178030
685.502527	0.178084
685.705012	0.178183
685.907478	0.178479
686.109925	0.178427
686.312355	0.178355
686.514766	0.178677
686.717159	0.178852
686.919534	0.178775
687.121891	0.178684
687.324230	0.178714
687.526550	0.178724
687.728852	0.178461
687.931136	0.178639
688.133401	0.178920
688.335649	0.178734
688.537878	0.178876
688.740089	0.178999
688.942281	0.179088
689.144456	0.179282
689.346612	0.179530
689.548750	0.179748
689.750870	0.179720
689.952971	0.179891
690.155055	0.180289
690.357120	0.180168
690.559167	0.180339
690.761195	0.180574
690.963206	0.180589
691.165198	0.180486
691.367172	0.180612
691.569128	0.180627
691.771065	0.180801
691.972984	0.180756
692.174885	0.180950
692.376768	0.181025
692.578633	0.181021
692.780479	0.181123
692.982308	0.181387
693.184118	0.181412
693.385909	0.181762
