sample name	sample
index	675
start time	 03-22-2021  11:31:19 AM


Wavelength (nm)	Absorbance
494.344910	-0.024962
494.563924	-0.024962
494.782919	-0.024962
495.001897	0.238913
495.220856	-0.054320
495.439797	-0.066693
495.658719	-0.055073
495.877624	-0.056514
496.096510	-0.047466
496.315378	-0.035669
496.534227	0.008058
496.753059	0.024813
496.971872	0.011550
497.190667	0.115740
497.409444	0.134229
497.628203	0.136709
497.846943	0.140052
498.065665	0.139005
498.284369	0.140051
498.503055	0.140631
498.721723	0.140316
498.940372	0.140699
499.159003	0.142030
499.377616	0.142209
499.596210	0.141389
499.814787	0.141025
500.033345	0.141174
500.251885	0.141553
500.470406	0.141046
500.688910	0.140304
500.907395	0.141221
501.125862	0.140402
501.344311	0.140356
501.562742	0.141693
501.781154	0.141328
501.999548	0.140401
502.217924	0.140329
502.436282	0.140400
502.654621	0.141302
502.872942	0.140713
503.091245	0.141496
503.309530	0.141334
503.527797	0.140539
503.746045	0.140919
503.964275	0.142100
504.182487	0.141714
504.400681	0.141910
504.618856	0.142356
504.837013	0.142220
505.055152	0.142001
505.273273	0.142021
505.491376	0.143173
505.709460	0.142577
505.927526	0.142531
506.145574	0.143029
506.363604	0.142997
506.581615	0.143090
506.799608	0.143250
507.017583	0.142940
507.235540	0.143262
507.453478	0.143015
507.671399	0.143369
507.889301	0.143356
508.107185	0.143420
508.325050	0.144014
508.542898	0.144225
508.760727	0.144204
508.978538	0.145059
509.196330	0.145417
509.414105	0.145161
509.631861	0.145914
509.849599	0.146783
510.067319	0.146991
510.285021	0.146825
510.502704	0.147107
510.720369	0.147390
510.938016	0.146739
511.155645	0.146851
511.373255	0.148043
511.590848	0.147367
511.808422	0.146676
512.025977	0.146560
512.243515	0.146665
512.461034	0.146870
512.678536	0.146588
512.896018	0.147487
513.113483	0.147829
513.330930	0.147242
513.548358	0.147250
513.765768	0.147742
513.983160	0.147706
514.200533	0.147420
514.417889	0.147289
514.635226	0.148046
514.852545	0.147620
515.069845	0.147404
515.287128	0.147195
515.504392	0.147692
515.721638	0.147750
515.938866	0.148225
516.156075	0.148672
516.373267	0.148639
516.590440	0.148978
516.807594	0.148716
517.024731	0.148673
517.241850	0.148853
517.458950	0.149459
517.676032	0.149188
517.893095	0.149039
518.110141	0.149090
518.327168	0.149262
518.544177	0.149273
518.761168	0.149377
518.978141	0.149558
519.195095	0.149835
519.412031	0.149819
519.628949	0.150727
519.845849	0.150653
520.062731	0.151174
520.279594	0.150834
520.496439	0.150524
520.713266	0.150686
520.930074	0.150386
521.146865	0.150304
521.363637	0.149979
521.580391	0.149725
521.797127	0.149403
522.013844	0.149488
522.230543	0.149915
522.447224	0.150147
522.663887	0.150687
522.880532	0.151471
523.097158	0.151744
523.313766	0.152066
523.530356	0.151879
523.746928	0.152271
523.963481	0.152230
524.180017	0.152511
524.396534	0.152818
524.613032	0.152953
524.829513	0.152998
525.045975	0.152950
525.262420	0.153101
525.478845	0.153573
525.695253	0.154212
525.911643	0.153957
526.128014	0.154595
526.344367	0.155268
526.560702	0.155100
526.777018	0.154988
526.993316	0.155745
527.209597	0.155885
527.425858	0.155774
527.642102	0.155683
527.858328	0.156775
528.074535	0.156718
528.290724	0.156452
528.506894	0.157612
528.723047	0.158027
528.939181	0.158469
529.155297	0.158791
529.371395	0.159240
529.587475	0.159044
529.803536	0.159102
530.019579	0.159321
530.235604	0.159276
530.451611	0.159039
530.667600	0.159362
530.883570	0.159197
531.099522	0.159428
531.315456	0.159267
531.531372	0.160443
531.747269	0.160624
531.963148	0.160773
532.179009	0.161503
532.394852	0.160488
532.610676	0.160635
532.826482	0.160623
533.042271	0.160896
533.258040	0.161401
533.473792	0.160980
533.689525	0.160962
533.905240	0.160957
534.120937	0.160994
534.336616	0.161997
534.552277	0.162145
534.767919	0.162343
534.983543	0.162465
535.199149	0.162901
535.414736	0.163541
535.630306	0.163927
535.845857	0.164199
536.061390	0.164433
536.276904	0.164537
536.492401	0.164436
536.707879	0.164991
536.923339	0.165076
537.138781	0.164851
537.354204	0.165065
537.569610	0.165488
537.784997	0.165482
538.000366	0.165289
538.215716	0.166016
538.431049	0.166374
538.646363	0.166349
538.861659	0.166648
539.076937	0.166927
539.292196	0.166412
539.507438	0.165876
539.722661	0.166422
539.937866	0.167585
540.153052	0.167467
540.368221	0.168107
540.583371	0.168323
540.798503	0.168572
541.013617	0.169150
541.228712	0.169693
541.443789	0.170373
541.658848	0.169950
541.873889	0.169496
542.088912	0.170010
542.303916	0.169748
542.518902	0.169796
542.733870	0.169687
542.948820	0.169292
543.163752	0.169242
543.378665	0.169168
543.593560	0.170077
543.808437	0.170281
544.023295	0.170456
544.238136	0.171071
544.452958	0.171413
544.667762	0.172183
544.882548	0.172588
545.097315	0.173072
545.312064	0.172930
545.526795	0.172789
545.741508	0.173116
545.956203	0.173455
546.170879	0.173154
546.385537	0.173165
546.600177	0.173101
546.814799	0.173756
547.029402	0.173898
547.243988	0.174603
547.458555	0.174625
547.673103	0.174651
547.887634	0.174418
548.102146	0.174556
548.316640	0.174366
548.531116	0.174194
548.745574	0.174039
548.960013	0.173594
549.174435	0.174068
549.388838	0.174001
549.603222	0.173586
549.817589	0.173383
550.031937	0.173392
550.246267	0.174008
550.460579	0.174286
550.674873	0.174240
550.889148	0.174967
551.103405	0.174537
551.317644	0.174713
551.531865	0.175210
551.746068	0.175745
551.960252	0.175909
552.174418	0.175547
552.388566	0.175734
552.602696	0.175827
552.816807	0.176304
553.030900	0.176634
553.244975	0.176950
553.459032	0.176482
553.673070	0.176179
553.887091	0.176244
554.101093	0.176810
554.315077	0.176839
554.529042	0.176866
554.742990	0.176576
554.956919	0.176669
555.170830	0.177160
555.384722	0.177660
555.598597	0.177801
555.812453	0.177849
556.026291	0.177378
556.240111	0.177415
556.453913	0.177305
556.667696	0.177094
556.881461	0.176857
557.095208	0.176593
557.308937	0.176836
557.522647	0.177280
557.736339	0.177495
557.950013	0.178056
558.163669	0.178180
558.377307	0.178780
558.590926	0.179773
558.804527	0.179887
559.018110	0.179951
559.231675	0.180147
559.445221	0.180650
559.658749	0.181116
559.872259	0.181455
560.085751	0.181716
560.299225	0.181649
560.512680	0.181171
560.726117	0.181406
560.939536	0.181542
561.152937	0.181779
561.366319	0.181243
561.579683	0.181068
561.793029	0.181318
562.006357	0.181259
562.219667	0.181459
562.432958	0.181497
562.646231	0.181731
562.859486	0.181754
563.072723	0.181870
563.285941	0.182293
563.499141	0.182513
563.712323	0.182389
563.925487	0.182588
564.138632	0.182714
564.351760	0.183121
564.564869	0.182990
564.777960	0.183248
564.991032	0.183548
565.204087	0.182848
565.417123	0.182997
565.630141	0.183011
565.843140	0.183064
566.056122	0.183025
566.269085	0.182922
566.482030	0.183223
566.694957	0.183350
566.907866	0.183025
567.120756	0.183861
567.333628	0.183897
567.546482	0.183982
567.759318	0.184575
567.972135	0.184612
568.184935	0.185032
568.397716	0.184995
568.610478	0.185098
568.823223	0.185276
569.035949	0.185265
569.248657	0.185618
569.461347	0.185568
569.674019	0.185165
569.886672	0.185676
570.099308	0.185237
570.311925	0.185491
570.524523	0.185487
570.737104	0.185700
570.949666	0.186135
571.162210	0.186059
571.374736	0.186201
571.587244	0.186388
571.799733	0.186117
572.012205	0.186438
572.224658	0.186501
572.437092	0.186850
572.649509	0.186424
572.861907	0.186101
573.074287	0.186106
573.286649	0.186369
573.498993	0.186512
573.711318	0.186710
573.923625	0.186680
574.135914	0.186739
574.348185	0.186696
574.560438	0.187308
574.772672	0.187348
574.984888	0.187430
575.197086	0.187594
575.409266	0.187865
575.621427	0.187873
575.833570	0.187911
576.045695	0.188050
576.257802	0.188088
576.469890	0.187945
576.681961	0.188037
576.894013	0.187896
577.106046	0.187796
577.318062	0.187536
577.530059	0.187845
577.742039	0.187836
577.954000	0.187872
578.165942	0.187916
578.377867	0.188224
578.589773	0.188496
578.801661	0.189100
579.013531	0.189593
579.225382	0.189863
579.437216	0.189772
579.649031	0.190008
579.860828	0.189851
580.072606	0.190082
580.284367	0.190158
580.496109	0.190223
580.707833	0.189809
580.919539	0.189743
581.131227	0.189866
581.342896	0.190014
581.554547	0.190184
581.766180	0.190462
581.977795	0.190679
582.189391	0.190481
582.400969	0.190966
582.612529	0.191146
582.824071	0.191249
583.035595	0.191315
583.247100	0.191399
583.458587	0.191468
583.670056	0.191853
583.881506	0.192095
584.092939	0.192454
584.304353	0.192496
584.515749	0.192502
584.727127	0.192573
584.938486	0.192837
585.149828	0.192834
585.361151	0.193062
585.572456	0.193216
585.783742	0.192850
585.995011	0.193047
586.206261	0.193255
586.417493	0.193673
586.628706	0.193400
586.839902	0.193498
587.051079	0.193728
587.262238	0.193824
587.473379	0.193726
587.684502	0.194273
587.895606	0.193933
588.106692	0.193558
588.317760	0.193832
588.528810	0.194227
588.739841	0.194025
588.950855	0.194424
589.161850	0.194404
589.372827	0.194411
589.583785	0.193972
589.794726	0.194701
590.005648	0.195318
590.216552	0.195425
590.427437	0.195251
590.638305	0.195485
590.849154	0.195290
591.059985	0.195329
591.270798	0.195428
591.481592	0.195795
591.692369	0.195716
591.903127	0.195315
592.113867	0.195183
592.324588	0.195854
592.535292	0.196231
592.745977	0.196309
592.956644	0.196330
593.167293	0.196457
593.377923	0.196410
593.588536	0.196421
593.799130	0.196728
594.009706	0.197040
594.220263	0.196713
594.430803	0.196425
594.641324	0.196579
594.851827	0.197395
595.062312	0.197735
595.272778	0.198277
595.483227	0.198591
595.693657	0.198784
595.904069	0.198673
596.114462	0.198742
596.324838	0.199132
596.535195	0.199283
596.745534	0.199092
596.955855	0.199246
597.166157	0.199086
597.376441	0.198822
597.586707	0.198983
597.796955	0.199028
598.007185	0.199146
598.217396	0.199300
598.427589	0.199123
598.637764	0.198879
598.847921	0.198407
599.058060	0.198240
599.268180	0.198484
599.478282	0.198472
599.688366	0.198361
599.898431	0.198561
600.108479	0.198662
600.318508	0.199196
600.528519	0.199620
600.738511	0.200398
600.948486	0.200841
601.158442	0.200923
601.368380	0.200763
601.578300	0.200931
601.788202	0.201073
601.998085	0.200852
602.207950	0.200869
602.417797	0.200696
602.627626	0.200342
602.837436	0.200320
603.047228	0.200360
603.257002	0.200525
603.466758	0.200789
603.676496	0.200817
603.886215	0.201083
604.095916	0.201276
604.305599	0.201671
604.515264	0.201981
604.724910	0.202038
604.934538	0.202277
605.144148	0.202132
605.353740	0.202132
605.563314	0.202314
605.772869	0.202256
605.982406	0.202124
606.191925	0.202115
606.401425	0.202261
606.610908	0.202403
606.820372	0.202733
607.029818	0.203284
607.239246	0.203504
607.448655	0.203330
607.658047	0.203527
607.867420	0.203574
608.076775	0.203261
608.286111	0.203537
608.495430	0.203385
608.704730	0.203106
608.914012	0.203028
609.123275	0.203233
609.332521	0.203432
609.541748	0.203485
609.750957	0.203560
609.960148	0.203996
610.169321	0.203808
610.378475	0.204180
610.587611	0.204412
610.796729	0.204441
611.005829	0.204361
611.214910	0.204509
611.423974	0.204702
611.633019	0.204872
611.842045	0.204970
612.051054	0.204964
612.260044	0.204831
612.469017	0.204545
612.677970	0.204656
612.886906	0.204777
613.095824	0.204854
613.304723	0.204727
613.513604	0.205057
613.722467	0.204899
613.931311	0.205039
614.140138	0.205335
614.348946	0.205463
614.557736	0.205430
614.766507	0.205555
614.975261	0.205557
615.183996	0.205652
615.392713	0.205391
615.601412	0.205538
615.810092	0.205560
616.018754	0.205527
616.227399	0.205798
616.436024	0.205906
616.644632	0.206022
616.853222	0.206174
617.061793	0.206370
617.270346	0.206213
617.478880	0.206242
617.687397	0.206320
617.895895	0.206592
618.104375	0.206546
618.312837	0.206364
618.521281	0.206297
618.729706	0.206353
618.938113	0.206169
619.146502	0.206402
619.354873	0.206731
619.563226	0.206807
619.771560	0.206771
619.979876	0.206836
620.188174	0.207090
620.396453	0.207219
620.604715	0.207165
620.812958	0.207353
621.021183	0.207610
621.229390	0.207784
621.437578	0.207770
621.645748	0.207778
621.853900	0.208249
622.062034	0.208519
622.270150	0.208574
622.478247	0.208492
622.686326	0.208530
622.894387	0.208484
623.102430	0.207960
623.310454	0.208183
623.518461	0.208551
623.726449	0.208464
623.934418	0.208351
624.142370	0.208132
624.350303	0.208360
624.558218	0.208827
624.766115	0.208826
624.973994	0.209435
625.181855	0.209430
625.389697	0.209394
625.597521	0.209333
625.805327	0.209670
626.013114	0.210000
626.220883	0.210162
626.428634	0.209932
626.636367	0.210293
626.844082	0.210079
627.051778	0.210332
627.259457	0.210231
627.467117	0.210285
627.674758	0.210303
627.882382	0.210555
628.089987	0.210639
628.297574	0.210666
628.505143	0.210568
628.712694	0.210582
628.920226	0.210580
629.127740	0.210591
629.335236	0.210729
629.542714	0.210777
629.750174	0.210713
629.957615	0.210751
630.165038	0.210969
630.372443	0.211099
630.579829	0.211207
630.787198	0.211226
630.994548	0.211317
631.201880	0.211419
631.409194	0.211286
631.616489	0.211309
631.823766	0.211538
632.031025	0.211719
632.238266	0.211656
632.445489	0.211865
632.652693	0.212103
632.859879	0.212292
633.067047	0.212370
633.274197	0.212860
633.481329	0.213105
633.688442	0.212903
633.895537	0.212749
634.102614	0.212949
634.309672	0.213042
634.516713	0.212909
634.723735	0.213170
634.930739	0.213302
635.137724	0.213162
635.344692	0.213021
635.551641	0.213262
635.758572	0.213377
635.965485	0.213252
636.172379	0.213318
636.379256	0.213542
636.586114	0.213379
636.792954	0.213298
636.999775	0.213283
637.206579	0.213412
637.413364	0.213438
637.620131	0.213462
637.826880	0.213808
638.033610	0.213940
638.240323	0.213918
638.447017	0.214028
638.653692	0.214230
638.860350	0.214216
639.066990	0.214224
639.273611	0.214290
639.480214	0.214554
639.686798	0.214390
639.893365	0.214323
640.099913	0.214470
640.306443	0.214425
640.512955	0.214441
640.719449	0.214546
640.925924	0.214718
641.132381	0.214829
641.338820	0.214910
641.545241	0.215184
641.751644	0.215423
641.958028	0.215471
642.164394	0.215674
642.370742	0.215929
642.577071	0.216084
642.783383	0.216172
642.989676	0.216341
643.195951	0.216592
643.402207	0.216898
643.608446	0.216911
643.814666	0.216938
644.020868	0.217068
644.227052	0.217106
644.433218	0.217409
644.639365	0.217562
644.845494	0.217845
645.051605	0.217923
645.257698	0.217917
645.463772	0.218166
645.669828	0.218491
645.875866	0.218708
646.081886	0.218708
646.287888	0.218795
646.493871	0.218818
646.699836	0.218715
646.905783	0.218602
647.111712	0.218579
647.317622	0.218903
647.523514	0.219018
647.729388	0.219083
647.935244	0.219291
648.141082	0.219290
648.346901	0.219521
648.552702	0.219912
648.758485	0.220043
648.964250	0.220138
649.169996	0.219963
649.375724	0.219841
649.581434	0.219969
649.787126	0.220190
649.992800	0.220315
650.198455	0.220357
650.404092	0.220236
650.609711	0.220276
650.815311	0.220068
651.020894	0.219911
651.226458	0.220051
651.432004	0.220013
651.637532	0.219779
651.843041	0.219639
652.048532	0.219722
652.254006	0.219796
652.459460	0.220012
652.664897	0.220408
652.870315	0.220565
653.075716	0.220580
653.281097	0.220649
653.486461	0.220887
653.691807	0.221089
653.897134	0.221090
654.102443	0.221093
654.307734	0.221133
654.513006	0.221246
654.718261	0.221483
654.923497	0.221718
655.128715	0.221842
655.333915	0.221933
655.539096	0.222014
655.744259	0.222258
655.949404	0.222351
656.154531	0.222507
656.359640	0.222465
656.564730	0.222604
656.769802	0.222744
656.974856	0.222860
657.179892	0.223037
657.384909	0.223359
657.589908	0.223531
657.794889	0.223703
657.999852	0.223954
658.204797	0.224172
658.409723	0.224405
658.614631	0.224595
658.819521	0.224866
659.024393	0.225104
659.229246	0.225048
659.434081	0.225071
659.638898	0.225072
659.843697	0.225037
660.048478	0.225232
660.253240	0.225182
660.457984	0.225250
660.662710	0.225245
660.867417	0.225321
661.072107	0.225650
661.276778	0.225742
661.481431	0.226086
661.686066	0.226042
661.890682	0.226080
662.095281	0.226183
662.299861	0.226017
662.504422	0.225963
662.708966	0.225960
662.913491	0.225898
663.117999	0.225926
663.322488	0.225890
663.526958	0.226127
663.731411	0.226100
663.935845	0.226106
664.140261	0.226283
664.344659	0.226299
664.549038	0.226392
664.753400	0.226207
664.957743	0.226495
665.162068	0.226583
665.366375	0.226608
665.570663	0.226785
665.774933	0.226973
665.979185	0.227127
666.183419	0.227332
666.387635	0.227274
666.591832	0.227595
666.796011	0.227562
667.000172	0.227524
667.204315	0.227692
667.408439	0.227793
667.612545	0.227925
667.816634	0.227950
668.020703	0.228159
668.224755	0.228300
668.428788	0.228504
668.632803	0.228766
668.836800	0.228953
669.040779	0.229052
669.244739	0.229088
669.448681	0.229186
669.652605	0.229315
669.856511	0.229368
670.060399	0.229597
670.264268	0.229596
670.468119	0.229492
670.671952	0.230055
670.875767	0.230176
671.079563	0.230709
671.283341	0.230765
671.487101	0.231324
671.690843	0.231631
671.894567	0.231900
672.098272	0.232302
672.301959	0.232622
672.505628	0.232357
672.709278	0.232649
672.912911	0.232504
673.116525	0.232592
673.320121	0.232360
673.523699	0.232411
673.727258	0.232520
673.930799	0.232605
674.134322	0.232679
674.337827	0.232934
674.541314	0.232872
674.744782	0.233120
674.948232	0.233363
675.151664	0.233479
675.355078	0.233431
675.558474	0.233304
675.761851	0.233205
675.965210	0.233094
676.168551	0.233005
676.371873	0.233048
676.575178	0.232866
676.778464	0.233086
676.981732	0.233183
677.184981	0.233437
677.388213	0.233610
677.591426	0.233872
677.794621	0.234353
677.997798	0.234565
678.200956	0.234667
678.404097	0.235115
678.607219	0.235037
678.810323	0.235202
679.013408	0.235173
679.216476	0.235214
679.419525	0.235176
679.622556	0.235071
679.825569	0.235158
680.028563	0.235311
680.231540	0.235218
680.434498	0.235378
680.637438	0.235501
680.840359	0.235649
681.043263	0.235884
681.246148	0.236200
681.449015	0.236420
681.651864	0.236655
681.854694	0.236944
682.057506	0.237155
682.260301	0.237403
682.463076	0.237507
682.665834	0.237734
682.868573	0.237709
683.071295	0.237720
683.273998	0.237774
683.476682	0.237672
683.679349	0.237579
683.881997	0.237825
684.084627	0.237567
684.287239	0.237521
684.489833	0.237561
684.692408	0.237560
684.894965	0.237604
685.097504	0.237692
685.300025	0.237871
685.502527	0.237799
685.705012	0.237596
685.907478	0.237919
686.109925	0.238131
686.312355	0.238160
686.514766	0.238403
686.717159	0.238565
686.919534	0.238727
687.121891	0.238844
687.324230	0.239247
687.526550	0.239395
687.728852	0.239318
687.931136	0.239402
688.133401	0.239572
688.335649	0.239798
688.537878	0.239688
688.740089	0.239763
688.942281	0.239790
689.144456	0.239711
689.346612	0.240012
689.548750	0.240107
689.750870	0.240161
689.952971	0.240025
690.155055	0.240188
690.357120	0.240124
690.559167	0.240100
690.761195	0.240248
690.963206	0.240306
691.165198	0.240122
691.367172	0.240347
691.569128	0.240549
691.771065	0.240882
691.972984	0.240910
692.174885	0.241273
692.376768	0.241316
692.578633	0.241636
692.780479	0.241724
692.982308	0.242152
693.184118	0.242437
693.385909	0.242408
