sample name	sample
index	881
start time	 04-08-2021  02:13:06 PM


Wavelength (nm)	Absorbance
494.344910	-0.000332
494.563924	-0.000332
494.782919	-0.000332
495.001897	-0.021540
495.220856	-0.002315
495.439797	0.005573
495.658719	0.006896
495.877624	0.007409
496.096510	0.009082
496.315378	0.005448
496.534227	0.002875
496.753059	0.001830
496.971872	0.007313
497.190667	0.070375
497.409444	0.115493
497.628203	0.133519
497.846943	0.143861
498.065665	0.151690
498.284369	0.157755
498.503055	0.161319
498.721723	0.163192
498.940372	0.164909
499.159003	0.166412
499.377616	0.165814
499.596210	0.166858
499.814787	0.167628
500.033345	0.168228
500.251885	0.168606
500.470406	0.167841
500.688910	0.168332
500.907395	0.168941
501.125862	0.168880
501.344311	0.169028
501.562742	0.169075
501.781154	0.168747
501.999548	0.167584
502.217924	0.167292
502.436282	0.169056
502.654621	0.170426
502.872942	0.170590
503.091245	0.172162
503.309530	0.172506
503.527797	0.172026
503.746045	0.171758
503.964275	0.173111
504.182487	0.173200
504.400681	0.173421
504.618856	0.173809
504.837013	0.174427
505.055152	0.173497
505.273273	0.174292
505.491376	0.174756
505.709460	0.176491
505.927526	0.176944
506.145574	0.177630
506.363604	0.178640
506.581615	0.178425
506.799608	0.179251
507.017583	0.180431
507.235540	0.180103
507.453478	0.180965
507.671399	0.180775
507.889301	0.180903
508.107185	0.181439
508.325050	0.180468
508.542898	0.181005
508.760727	0.180749
508.978538	0.181058
509.196330	0.181461
509.414105	0.181712
509.631861	0.182428
509.849599	0.182145
510.067319	0.182558
510.285021	0.184201
510.502704	0.184472
510.720369	0.184849
510.938016	0.184931
511.155645	0.185211
511.373255	0.185434
511.590848	0.184886
511.808422	0.185908
512.025977	0.186076
512.243515	0.185480
512.461034	0.186054
512.678536	0.186435
512.896018	0.185940
513.113483	0.186234
513.330930	0.186192
513.548358	0.186494
513.765768	0.186841
513.983160	0.187238
514.200533	0.187630
514.417889	0.187593
514.635226	0.187547
514.852545	0.188337
515.069845	0.188851
515.287128	0.189002
515.504392	0.189234
515.721638	0.189181
515.938866	0.189427
516.156075	0.190182
516.373267	0.190119
516.590440	0.190934
516.807594	0.190989
517.024731	0.191449
517.241850	0.191912
517.458950	0.192908
517.676032	0.193978
517.893095	0.194082
518.110141	0.194668
518.327168	0.195392
518.544177	0.195296
518.761168	0.195592
518.978141	0.196161
519.195095	0.197737
519.412031	0.197420
519.628949	0.197221
519.845849	0.197788
520.062731	0.197109
520.279594	0.196408
520.496439	0.196386
520.713266	0.197554
520.930074	0.197591
521.146865	0.197511
521.363637	0.198282
521.580391	0.198978
521.797127	0.198810
522.013844	0.199163
522.230543	0.200625
522.447224	0.201773
522.663887	0.201841
522.880532	0.201648
523.097158	0.201353
523.313766	0.202085
523.530356	0.202512
523.746928	0.203563
523.963481	0.204178
524.180017	0.204331
524.396534	0.204400
524.613032	0.205178
524.829513	0.205283
525.045975	0.205452
525.262420	0.205095
525.478845	0.204943
525.695253	0.204839
525.911643	0.205815
526.128014	0.206140
526.344367	0.206217
526.560702	0.206020
526.777018	0.207527
526.993316	0.208295
527.209597	0.209029
527.425858	0.209727
527.642102	0.210083
527.858328	0.210246
528.074535	0.210593
528.290724	0.210985
528.506894	0.211810
528.723047	0.211009
528.939181	0.210709
529.155297	0.210914
529.371395	0.211285
529.587475	0.211857
529.803536	0.212087
530.019579	0.212186
530.235604	0.212604
530.451611	0.212543
530.667600	0.213681
530.883570	0.214061
531.099522	0.214733
531.315456	0.215352
531.531372	0.215480
531.747269	0.216332
531.963148	0.217579
532.179009	0.217995
532.394852	0.218446
532.610676	0.219092
532.826482	0.219552
533.042271	0.219768
533.258040	0.220147
533.473792	0.221141
533.689525	0.220679
533.905240	0.220507
534.120937	0.220917
534.336616	0.221485
534.552277	0.221465
534.767919	0.222462
534.983543	0.222773
535.199149	0.223097
535.414736	0.223588
535.630306	0.224213
535.845857	0.225035
536.061390	0.226018
536.276904	0.226336
536.492401	0.227612
536.707879	0.228048
536.923339	0.228623
537.138781	0.228891
537.354204	0.228741
537.569610	0.229115
537.784997	0.229136
538.000366	0.228523
538.215716	0.229412
538.431049	0.229109
538.646363	0.229907
538.861659	0.230537
539.076937	0.230985
539.292196	0.231118
539.507438	0.231841
539.722661	0.232137
539.937866	0.233204
540.153052	0.232754
540.368221	0.232946
540.583371	0.233053
540.798503	0.233139
541.013617	0.233772
541.228712	0.235005
541.443789	0.235372
541.658848	0.235737
541.873889	0.236390
542.088912	0.236681
542.303916	0.236698
542.518902	0.236235
542.733870	0.236303
542.948820	0.235892
543.163752	0.235710
543.378665	0.235680
543.593560	0.236241
543.808437	0.236391
544.023295	0.237745
544.238136	0.238131
544.452958	0.239342
544.667762	0.239802
544.882548	0.240559
545.097315	0.241015
545.312064	0.241755
545.526795	0.242156
545.741508	0.242331
545.956203	0.242024
546.170879	0.242943
546.385537	0.242723
546.600177	0.243592
546.814799	0.243682
547.029402	0.243734
547.243988	0.243785
547.458555	0.244351
547.673103	0.244640
547.887634	0.244920
548.102146	0.244952
548.316640	0.245929
548.531116	0.245634
548.745574	0.246089
548.960013	0.246733
549.174435	0.247421
549.388838	0.247626
549.603222	0.248462
549.817589	0.248763
550.031937	0.249389
550.246267	0.249380
550.460579	0.250271
550.674873	0.250899
550.889148	0.251251
551.103405	0.251352
551.317644	0.251270
551.531865	0.251152
551.746068	0.251380
551.960252	0.251669
552.174418	0.251849
552.388566	0.252045
552.602696	0.252277
552.816807	0.252732
553.030900	0.253206
553.244975	0.253465
553.459032	0.253315
553.673070	0.253683
553.887091	0.254143
554.101093	0.254155
554.315077	0.254576
554.529042	0.254817
554.742990	0.254609
554.956919	0.254534
555.170830	0.254944
555.384722	0.255543
555.598597	0.255456
555.812453	0.254940
556.026291	0.255347
556.240111	0.254727
556.453913	0.254518
556.667696	0.254756
556.881461	0.255113
557.095208	0.255344
557.308937	0.255623
557.522647	0.256068
557.736339	0.256575
557.950013	0.256807
558.163669	0.257474
558.377307	0.257886
558.590926	0.258386
558.804527	0.258464
559.018110	0.258499
559.231675	0.258434
559.445221	0.258726
559.658749	0.259211
559.872259	0.259508
560.085751	0.259998
560.299225	0.260383
560.512680	0.260850
560.726117	0.261132
560.939536	0.261381
561.152937	0.261864
561.366319	0.261941
561.579683	0.262114
561.793029	0.262551
562.006357	0.262799
562.219667	0.262509
562.432958	0.262188
562.646231	0.262322
562.859486	0.262585
563.072723	0.262824
563.285941	0.262849
563.499141	0.263006
563.712323	0.263080
563.925487	0.263098
564.138632	0.263511
564.351760	0.263546
564.564869	0.264030
564.777960	0.264300
564.991032	0.264409
565.204087	0.265259
565.417123	0.265450
565.630141	0.265593
565.843140	0.265755
566.056122	0.265686
566.269085	0.266320
566.482030	0.266606
566.694957	0.266925
566.907866	0.267357
567.120756	0.267378
567.333628	0.267479
567.546482	0.267617
567.759318	0.267284
567.972135	0.268308
568.184935	0.268785
568.397716	0.269101
568.610478	0.269739
568.823223	0.270006
569.035949	0.270481
569.248657	0.270600
569.461347	0.271255
569.674019	0.272151
569.886672	0.271934
570.099308	0.271718
570.311925	0.271577
570.524523	0.271319
570.737104	0.271711
570.949666	0.271558
571.162210	0.271702
571.374736	0.271216
571.587244	0.270970
571.799733	0.271055
572.012205	0.271381
572.224658	0.271686
572.437092	0.271649
572.649509	0.271346
572.861907	0.271008
573.074287	0.271286
573.286649	0.271945
573.498993	0.272453
573.711318	0.272143
573.923625	0.272205
574.135914	0.272332
574.348185	0.272453
574.560438	0.272644
574.772672	0.273115
574.984888	0.273475
575.197086	0.273521
575.409266	0.273518
575.621427	0.274180
575.833570	0.274724
576.045695	0.274570
576.257802	0.275016
576.469890	0.275045
576.681961	0.275477
576.894013	0.275554
577.106046	0.275648
577.318062	0.275689
577.530059	0.276041
577.742039	0.275859
577.954000	0.276544
578.165942	0.276653
578.377867	0.277183
578.589773	0.277448
578.801661	0.277637
579.013531	0.277760
579.225382	0.278292
579.437216	0.278257
579.649031	0.278874
579.860828	0.278592
580.072606	0.278801
580.284367	0.278981
580.496109	0.279072
580.707833	0.279270
580.919539	0.279773
581.131227	0.280118
581.342896	0.280154
581.554547	0.279586
581.766180	0.279808
581.977795	0.279858
582.189391	0.279813
582.400969	0.280106
582.612529	0.280464
582.824071	0.280247
583.035595	0.279973
583.247100	0.280673
583.458587	0.281140
583.670056	0.281543
583.881506	0.282409
584.092939	0.282687
584.304353	0.282889
584.515749	0.283227
584.727127	0.283498
584.938486	0.283714
585.149828	0.283642
585.361151	0.283696
585.572456	0.283875
585.783742	0.283391
585.995011	0.283462
586.206261	0.283520
586.417493	0.283632
586.628706	0.283793
586.839902	0.284130
587.051079	0.283991
587.262238	0.283904
587.473379	0.284213
587.684502	0.284493
587.895606	0.284672
588.106692	0.284805
588.317760	0.284604
588.528810	0.284563
588.739841	0.284901
588.950855	0.285584
589.161850	0.286411
589.372827	0.286438
589.583785	0.286975
589.794726	0.287670
590.005648	0.288174
590.216552	0.288329
590.427437	0.289023
590.638305	0.288801
590.849154	0.288957
591.059985	0.289133
591.270798	0.289368
591.481592	0.289556
591.692369	0.289593
591.903127	0.289657
592.113867	0.290131
592.324588	0.290116
592.535292	0.290419
592.745977	0.290368
592.956644	0.290647
593.167293	0.290884
593.377923	0.290906
593.588536	0.290964
593.799130	0.291059
594.009706	0.290838
594.220263	0.291163
594.430803	0.291573
594.641324	0.292139
594.851827	0.292167
595.062312	0.292808
595.272778	0.292753
595.483227	0.292900
595.693657	0.293233
595.904069	0.293586
596.114462	0.293752
596.324838	0.293954
596.535195	0.294019
596.745534	0.293931
596.955855	0.293462
597.166157	0.293964
597.376441	0.293795
597.586707	0.294386
597.796955	0.295008
598.007185	0.295079
598.217396	0.294880
598.427589	0.295052
598.637764	0.295715
598.847921	0.296308
599.058060	0.296180
599.268180	0.296866
599.478282	0.296556
599.688366	0.296838
599.898431	0.297284
600.108479	0.298024
600.318508	0.298391
600.528519	0.298389
600.738511	0.298341
600.948486	0.298780
601.158442	0.298672
601.368380	0.298671
601.578300	0.298577
601.788202	0.298632
601.998085	0.298856
602.207950	0.298939
602.417797	0.298900
602.627626	0.299021
602.837436	0.298753
603.047228	0.299218
603.257002	0.299387
603.466758	0.299235
603.676496	0.299585
603.886215	0.299383
604.095916	0.299294
604.305599	0.299460
604.515264	0.299781
604.724910	0.300177
604.934538	0.300122
605.144148	0.300140
605.353740	0.300226
605.563314	0.300228
605.772869	0.300740
605.982406	0.300899
606.191925	0.301452
606.401425	0.301414
606.610908	0.301603
606.820372	0.301408
607.029818	0.301953
607.239246	0.302049
607.448655	0.302163
607.658047	0.302057
607.867420	0.302652
608.076775	0.302621
608.286111	0.302821
608.495430	0.303209
608.704730	0.303841
608.914012	0.304011
609.123275	0.304383
609.332521	0.304412
609.541748	0.304776
609.750957	0.304604
609.960148	0.304690
610.169321	0.304939
610.378475	0.304987
610.587611	0.305336
610.796729	0.305305
611.005829	0.305730
611.214910	0.305923
611.423974	0.306090
611.633019	0.306475
611.842045	0.306817
612.051054	0.306616
612.260044	0.306708
612.469017	0.306963
612.677970	0.306972
612.886906	0.307114
613.095824	0.307043
613.304723	0.306975
613.513604	0.306969
613.722467	0.306903
613.931311	0.307652
614.140138	0.307722
614.348946	0.307640
614.557736	0.308255
614.766507	0.308094
614.975261	0.308739
615.183996	0.308888
615.392713	0.309146
615.601412	0.309239
615.810092	0.309459
616.018754	0.309861
616.227399	0.309983
616.436024	0.309830
616.644632	0.309963
616.853222	0.309697
617.061793	0.309891
617.270346	0.310317
617.478880	0.310556
617.687397	0.310117
617.895895	0.310212
618.104375	0.310354
618.312837	0.310304
618.521281	0.310627
618.729706	0.310988
618.938113	0.311365
619.146502	0.310971
619.354873	0.311550
619.563226	0.311589
619.771560	0.311769
619.979876	0.312029
620.188174	0.312474
620.396453	0.312448
620.604715	0.312612
620.812958	0.312548
621.021183	0.313182
621.229390	0.312892
621.437578	0.313483
621.645748	0.313528
621.853900	0.313306
622.062034	0.313455
622.270150	0.314014
622.478247	0.314460
622.686326	0.314626
622.894387	0.314617
623.102430	0.314845
623.310454	0.314763
623.518461	0.314963
623.726449	0.315184
623.934418	0.315348
624.142370	0.315291
624.350303	0.315127
624.558218	0.315379
624.766115	0.315689
624.973994	0.315968
625.181855	0.316534
625.389697	0.316665
625.597521	0.317035
625.805327	0.317029
626.013114	0.317401
626.220883	0.317780
626.428634	0.317905
626.636367	0.318023
626.844082	0.317818
627.051778	0.318005
627.259457	0.318324
627.467117	0.318406
627.674758	0.318759
627.882382	0.318768
628.089987	0.318799
628.297574	0.318768
628.505143	0.318930
628.712694	0.319380
628.920226	0.319079
629.127740	0.319469
629.335236	0.319723
629.542714	0.319893
629.750174	0.320145
629.957615	0.320483
630.165038	0.320741
630.372443	0.320892
630.579829	0.321136
630.787198	0.321359
630.994548	0.321206
631.201880	0.321502
631.409194	0.321705
631.616489	0.321605
631.823766	0.321816
632.031025	0.321764
632.238266	0.321678
632.445489	0.321936
632.652693	0.322254
632.859879	0.322263
633.067047	0.322228
633.274197	0.322464
633.481329	0.322923
633.688442	0.323096
633.895537	0.323838
634.102614	0.324096
634.309672	0.324142
634.516713	0.324296
634.723735	0.324581
634.930739	0.324780
635.137724	0.324890
635.344692	0.325198
635.551641	0.325109
635.758572	0.325289
635.965485	0.325365
636.172379	0.325654
636.379256	0.325711
636.586114	0.326152
636.792954	0.325989
636.999775	0.326212
637.206579	0.326315
637.413364	0.326611
637.620131	0.326625
637.826880	0.326989
638.033610	0.327146
638.240323	0.327620
638.447017	0.327678
638.653692	0.328248
638.860350	0.328374
639.066990	0.328308
639.273611	0.328388
639.480214	0.328288
639.686798	0.328197
639.893365	0.328344
640.099913	0.328306
640.306443	0.328538
640.512955	0.328592
640.719449	0.328750
640.925924	0.329130
641.132381	0.329468
641.338820	0.329804
641.545241	0.330021
641.751644	0.330461
641.958028	0.330891
642.164394	0.331049
642.370742	0.331477
642.577071	0.331748
642.783383	0.331974
642.989676	0.331852
643.195951	0.332219
643.402207	0.332545
643.608446	0.332252
643.814666	0.332322
644.020868	0.332544
644.227052	0.332544
644.433218	0.332840
644.639365	0.332726
644.845494	0.333150
645.051605	0.333407
645.257698	0.333989
645.463772	0.334389
645.669828	0.334605
645.875866	0.334603
646.081886	0.334655
646.287888	0.334669
646.493871	0.335012
646.699836	0.334996
646.905783	0.335061
647.111712	0.334896
647.317622	0.335125
647.523514	0.335318
647.729388	0.335763
647.935244	0.336401
648.141082	0.336377
648.346901	0.336541
648.552702	0.337096
648.758485	0.337575
648.964250	0.337860
649.169996	0.338002
649.375724	0.337949
649.581434	0.337942
649.787126	0.337859
649.992800	0.338413
650.198455	0.338619
650.404092	0.338480
650.609711	0.338241
650.815311	0.338436
651.020894	0.338267
651.226458	0.338581
651.432004	0.338881
651.637532	0.339006
651.843041	0.339204
652.048532	0.339263
652.254006	0.339432
652.459460	0.339806
652.664897	0.339970
652.870315	0.340203
653.075716	0.340417
653.281097	0.340484
653.486461	0.340859
653.691807	0.341125
653.897134	0.341661
654.102443	0.342006
654.307734	0.342374
654.513006	0.342426
654.718261	0.342965
654.923497	0.343432
655.128715	0.343853
655.333915	0.344118
655.539096	0.344469
655.744259	0.344502
655.949404	0.344729
656.154531	0.344907
656.359640	0.345311
656.564730	0.345392
656.769802	0.345282
656.974856	0.345287
657.179892	0.345356
657.384909	0.345105
657.589908	0.345566
657.794889	0.345660
657.999852	0.345744
658.204797	0.345906
658.409723	0.346262
658.614631	0.346527
658.819521	0.346855
659.024393	0.347052
659.229246	0.347493
659.434081	0.347555
659.638898	0.348038
659.843697	0.348088
660.048478	0.348564
660.253240	0.348784
660.457984	0.349087
660.662710	0.349091
660.867417	0.349385
661.072107	0.349499
661.276778	0.349760
661.481431	0.349984
661.686066	0.350456
661.890682	0.350469
662.095281	0.350728
662.299861	0.350942
662.504422	0.351609
662.708966	0.351901
662.913491	0.352200
663.117999	0.352288
663.322488	0.352295
663.526958	0.352356
663.731411	0.352463
663.935845	0.352651
664.140261	0.353035
664.344659	0.352914
664.549038	0.352923
664.753400	0.352906
664.957743	0.353251
665.162068	0.353854
665.366375	0.354223
665.570663	0.354586
665.774933	0.354911
665.979185	0.355123
666.183419	0.355461
666.387635	0.355921
666.591832	0.356485
666.796011	0.356420
667.000172	0.356406
667.204315	0.356546
667.408439	0.356596
667.612545	0.356654
667.816634	0.357119
668.020703	0.357242
668.224755	0.357662
668.428788	0.357966
668.632803	0.358446
668.836800	0.358593
669.040779	0.359067
669.244739	0.359536
669.448681	0.360074
669.652605	0.360233
669.856511	0.360569
670.060399	0.360535
670.264268	0.360709
670.468119	0.360814
670.671952	0.361162
670.875767	0.361131
671.079563	0.361549
671.283341	0.361461
671.487101	0.361716
671.690843	0.362183
671.894567	0.362275
672.098272	0.362618
672.301959	0.363026
672.505628	0.363410
672.709278	0.363782
672.912911	0.363756
673.116525	0.364038
673.320121	0.364035
673.523699	0.364218
673.727258	0.364647
673.930799	0.364762
674.134322	0.364836
674.337827	0.365151
674.541314	0.365379
674.744782	0.365707
674.948232	0.366181
675.151664	0.366377
675.355078	0.366302
675.558474	0.366690
675.761851	0.366765
675.965210	0.367288
676.168551	0.367381
676.371873	0.367866
676.575178	0.367991
676.778464	0.368240
676.981732	0.368509
677.184981	0.368968
677.388213	0.369137
677.591426	0.369393
677.794621	0.369581
677.997798	0.369883
678.200956	0.369892
678.404097	0.370426
678.607219	0.370639
678.810323	0.371114
679.013408	0.371134
679.216476	0.371176
679.419525	0.371634
679.622556	0.371794
679.825569	0.371938
680.028563	0.372076
680.231540	0.372013
680.434498	0.372259
680.637438	0.372375
680.840359	0.372924
681.043263	0.373452
681.246148	0.373585
681.449015	0.373877
681.651864	0.374276
681.854694	0.374732
682.057506	0.375279
682.260301	0.375463
682.463076	0.375442
682.665834	0.375456
682.868573	0.375476
683.071295	0.375573
683.273998	0.375798
683.476682	0.375691
683.679349	0.375392
683.881997	0.375490
684.084627	0.375843
684.287239	0.376331
684.489833	0.376649
684.692408	0.376924
684.894965	0.377315
685.097504	0.377688
685.300025	0.378259
685.502527	0.378633
685.705012	0.378744
685.907478	0.378624
686.109925	0.378870
686.312355	0.379295
686.514766	0.379448
686.717159	0.379586
686.919534	0.379839
687.121891	0.379694
687.324230	0.380246
687.526550	0.380524
687.728852	0.380966
687.931136	0.381184
688.133401	0.381133
688.335649	0.381314
688.537878	0.381507
688.740089	0.381555
688.942281	0.382095
689.144456	0.382273
689.346612	0.382438
689.548750	0.382525
689.750870	0.382784
689.952971	0.383014
690.155055	0.383365
690.357120	0.383672
690.559167	0.383759
690.761195	0.383980
690.963206	0.384051
691.165198	0.384261
691.367172	0.384297
691.569128	0.384292
691.771065	0.384516
691.972984	0.384468
692.174885	0.384640
692.376768	0.384912
692.578633	0.385041
692.780479	0.385299
692.982308	0.385572
693.184118	0.385933
693.385909	0.386035
