sample name	sample
index	676
start time	 03-22-2021  11:35:13 AM


Wavelength (nm)	Absorbance
494.344910	-0.066832
494.563924	-0.066832
494.782919	-0.066832
495.001897	-0.125384
495.220856	-0.029026
495.439797	-0.022753
495.658719	-0.023272
495.877624	-0.016940
496.096510	-0.009372
496.315378	0.021309
496.534227	-0.004041
496.753059	-0.017675
496.971872	-0.060104
497.190667	0.096677
497.409444	0.120660
497.628203	0.128327
497.846943	0.131740
498.065665	0.132786
498.284369	0.133752
498.503055	0.135065
498.721723	0.134339
498.940372	0.134463
499.159003	0.134782
499.377616	0.134805
499.596210	0.134492
499.814787	0.134586
500.033345	0.135561
500.251885	0.135803
500.470406	0.134916
500.688910	0.136349
500.907395	0.138428
501.125862	0.139297
501.344311	0.139159
501.562742	0.139764
501.781154	0.139172
501.999548	0.138723
502.217924	0.138211
502.436282	0.138907
502.654621	0.138587
502.872942	0.137519
503.091245	0.137835
503.309530	0.138006
503.527797	0.138409
503.746045	0.139225
503.964275	0.139239
504.182487	0.139143
504.400681	0.139170
504.618856	0.139405
504.837013	0.139642
505.055152	0.138783
505.273273	0.139379
505.491376	0.139226
505.709460	0.139559
505.927526	0.138484
506.145574	0.139026
506.363604	0.139004
506.581615	0.138574
506.799608	0.137686
507.017583	0.138379
507.235540	0.138853
507.453478	0.139220
507.671399	0.138304
507.889301	0.139027
508.107185	0.139374
508.325050	0.140158
508.542898	0.140952
508.760727	0.142483
508.978538	0.142908
509.196330	0.142747
509.414105	0.142261
509.631861	0.143368
509.849599	0.143629
510.067319	0.143909
510.285021	0.144082
510.502704	0.144034
510.720369	0.143494
510.938016	0.142981
511.155645	0.143225
511.373255	0.143311
511.590848	0.142975
511.808422	0.143055
512.025977	0.142690
512.243515	0.142399
512.461034	0.142407
512.678536	0.142097
512.896018	0.142371
513.113483	0.142354
513.330930	0.142456
513.548358	0.142246
513.765768	0.142476
513.983160	0.142814
514.200533	0.142916
514.417889	0.142986
514.635226	0.143552
514.852545	0.143179
515.069845	0.142294
515.287128	0.142315
515.504392	0.143572
515.721638	0.143851
515.938866	0.143441
516.156075	0.143317
516.373267	0.143202
516.590440	0.143451
516.807594	0.143961
517.024731	0.144579
517.241850	0.144662
517.458950	0.143922
517.676032	0.143939
517.893095	0.144328
518.110141	0.144572
518.327168	0.144805
518.544177	0.144745
518.761168	0.144515
518.978141	0.145490
519.195095	0.145485
519.412031	0.145825
519.628949	0.146535
519.845849	0.147157
520.062731	0.147515
520.279594	0.147946
520.496439	0.148436
520.713266	0.148502
520.930074	0.148786
521.146865	0.149444
521.363637	0.149696
521.580391	0.149166
521.797127	0.149213
522.013844	0.149084
522.230543	0.149263
522.447224	0.149529
522.663887	0.150058
522.880532	0.149646
523.097158	0.149780
523.313766	0.149943
523.530356	0.150116
523.746928	0.149885
523.963481	0.150766
524.180017	0.150332
524.396534	0.149859
524.613032	0.150100
524.829513	0.150110
525.045975	0.150294
525.262420	0.150608
525.478845	0.150664
525.695253	0.151318
525.911643	0.151364
526.128014	0.151696
526.344367	0.151688
526.560702	0.151915
526.777018	0.151743
526.993316	0.151980
527.209597	0.152113
527.425858	0.153391
527.642102	0.153504
527.858328	0.153099
528.074535	0.153238
528.290724	0.154356
528.506894	0.154822
528.723047	0.155100
528.939181	0.155385
529.155297	0.155376
529.371395	0.154634
529.587475	0.155087
529.803536	0.155807
530.019579	0.156695
530.235604	0.156696
530.451611	0.156212
530.667600	0.157031
530.883570	0.156990
531.099522	0.157027
531.315456	0.157564
531.531372	0.156995
531.747269	0.156944
531.963148	0.156748
532.179009	0.156836
532.394852	0.157041
532.610676	0.157133
532.826482	0.157284
533.042271	0.157397
533.258040	0.157829
533.473792	0.158137
533.689525	0.158127
533.905240	0.158405
534.120937	0.158655
534.336616	0.158975
534.552277	0.158979
534.767919	0.159103
534.983543	0.159482
535.199149	0.159541
535.414736	0.159959
535.630306	0.160568
535.845857	0.160707
536.061390	0.160429
536.276904	0.160484
536.492401	0.160971
536.707879	0.161186
536.923339	0.161042
537.138781	0.161203
537.354204	0.161572
537.569610	0.161626
537.784997	0.161703
538.000366	0.162138
538.215716	0.162448
538.431049	0.162676
538.646363	0.162846
538.861659	0.163090
539.076937	0.162897
539.292196	0.162815
539.507438	0.163209
539.722661	0.163269
539.937866	0.163529
540.153052	0.164322
540.368221	0.163996
540.583371	0.164345
540.798503	0.164829
541.013617	0.165665
541.228712	0.166258
541.443789	0.166017
541.658848	0.166487
541.873889	0.166206
542.088912	0.165589
542.303916	0.165233
542.518902	0.165471
542.733870	0.165564
542.948820	0.165686
543.163752	0.165714
543.378665	0.166272
543.593560	0.165643
543.808437	0.166585
544.023295	0.167251
544.238136	0.168146
544.452958	0.168094
544.667762	0.168344
544.882548	0.168272
545.097315	0.168090
545.312064	0.168298
545.526795	0.169441
545.741508	0.169127
545.956203	0.169305
546.170879	0.169688
546.385537	0.170187
546.600177	0.170116
546.814799	0.170076
547.029402	0.170186
547.243988	0.169665
547.458555	0.169372
547.673103	0.169940
547.887634	0.169836
548.102146	0.169648
548.316640	0.168934
548.531116	0.169047
548.745574	0.169276
548.960013	0.169335
549.174435	0.169906
549.388838	0.169870
549.603222	0.169806
549.817589	0.170048
550.031937	0.170104
550.246267	0.171063
550.460579	0.171588
550.674873	0.171339
550.889148	0.172036
551.103405	0.172140
551.317644	0.172463
551.531865	0.172425
551.746068	0.172543
551.960252	0.172812
552.174418	0.172453
552.388566	0.172002
552.602696	0.172354
552.816807	0.172048
553.030900	0.172148
553.244975	0.172064
553.459032	0.172399
553.673070	0.172478
553.887091	0.172472
554.101093	0.172960
554.315077	0.173276
554.529042	0.173423
554.742990	0.173646
554.956919	0.174135
555.170830	0.174289
555.384722	0.174343
555.598597	0.174377
555.812453	0.174765
556.026291	0.174576
556.240111	0.174795
556.453913	0.175216
556.667696	0.175098
556.881461	0.174902
557.095208	0.175032
557.308937	0.175288
557.522647	0.175549
557.736339	0.175149
557.950013	0.175620
558.163669	0.175790
558.377307	0.175973
558.590926	0.176145
558.804527	0.176174
559.018110	0.176419
559.231675	0.176299
559.445221	0.176409
559.658749	0.177090
559.872259	0.176845
560.085751	0.176638
560.299225	0.176458
560.512680	0.176831
560.726117	0.177453
560.939536	0.177827
561.152937	0.177802
561.366319	0.177881
561.579683	0.177938
561.793029	0.178527
562.006357	0.178647
562.219667	0.178926
562.432958	0.178979
562.646231	0.178530
562.859486	0.178429
563.072723	0.178676
563.285941	0.178754
563.499141	0.178498
563.712323	0.178267
563.925487	0.178740
564.138632	0.178673
564.351760	0.178901
564.564869	0.179488
564.777960	0.179657
564.991032	0.179733
565.204087	0.180228
565.417123	0.180339
565.630141	0.180558
565.843140	0.180565
566.056122	0.180923
566.269085	0.180664
566.482030	0.180006
566.694957	0.180357
566.907866	0.180833
567.120756	0.180632
567.333628	0.180982
567.546482	0.181212
567.759318	0.181014
567.972135	0.180723
568.184935	0.180882
568.397716	0.181380
568.610478	0.181119
568.823223	0.180615
569.035949	0.180740
569.248657	0.180618
569.461347	0.180477
569.674019	0.180959
569.886672	0.181093
570.099308	0.181702
570.311925	0.181675
570.524523	0.181707
570.737104	0.181950
570.949666	0.181801
571.162210	0.182151
571.374736	0.182114
571.587244	0.182095
571.799733	0.182473
572.012205	0.182352
572.224658	0.182647
572.437092	0.183173
572.649509	0.183149
572.861907	0.183798
573.074287	0.183992
573.286649	0.184433
573.498993	0.184754
573.711318	0.184693
573.923625	0.184624
574.135914	0.184541
574.348185	0.184183
574.560438	0.184875
574.772672	0.184591
574.984888	0.184619
575.197086	0.184739
575.409266	0.184252
575.621427	0.184279
575.833570	0.184813
576.045695	0.184703
576.257802	0.184842
576.469890	0.184607
576.681961	0.184944
576.894013	0.184821
577.106046	0.184513
577.318062	0.184903
577.530059	0.185002
577.742039	0.184673
577.954000	0.184697
578.165942	0.184487
578.377867	0.184656
578.589773	0.184735
578.801661	0.185130
579.013531	0.185416
579.225382	0.185676
579.437216	0.185604
579.649031	0.185697
579.860828	0.186107
580.072606	0.186597
580.284367	0.186535
580.496109	0.186121
580.707833	0.185867
580.919539	0.185833
581.131227	0.185702
581.342896	0.186218
581.554547	0.186379
581.766180	0.186585
581.977795	0.186775
582.189391	0.187006
582.400969	0.187715
582.612529	0.188263
582.824071	0.188607
583.035595	0.188881
583.247100	0.188602
583.458587	0.189048
583.670056	0.189179
583.881506	0.189293
584.092939	0.189795
584.304353	0.189531
584.515749	0.189414
584.727127	0.189720
584.938486	0.189946
585.149828	0.190267
585.361151	0.189953
585.572456	0.190179
585.783742	0.190348
585.995011	0.190325
586.206261	0.190605
586.417493	0.190882
586.628706	0.190644
586.839902	0.190787
587.051079	0.190872
587.262238	0.190849
587.473379	0.190882
587.684502	0.190712
587.895606	0.190356
588.106692	0.190545
588.317760	0.190494
588.528810	0.190362
588.739841	0.190534
588.950855	0.190524
589.161850	0.190821
589.372827	0.190476
589.583785	0.190670
589.794726	0.191002
590.005648	0.190715
590.216552	0.190528
590.427437	0.190817
590.638305	0.190717
590.849154	0.190824
591.059985	0.191068
591.270798	0.191409
591.481592	0.191419
591.692369	0.191485
591.903127	0.191673
592.113867	0.192383
592.324588	0.192526
592.535292	0.192794
592.745977	0.192898
592.956644	0.193249
593.167293	0.193887
593.377923	0.194240
593.588536	0.194484
593.799130	0.194498
594.009706	0.194382
594.220263	0.194560
594.430803	0.194325
594.641324	0.194515
594.851827	0.194716
595.062312	0.194393
595.272778	0.194546
595.483227	0.194450
595.693657	0.194843
595.904069	0.194753
596.114462	0.194805
596.324838	0.195091
596.535195	0.195115
596.745534	0.195028
596.955855	0.195211
597.166157	0.194762
597.376441	0.194875
597.586707	0.194995
597.796955	0.194787
598.007185	0.194592
598.217396	0.194476
598.427589	0.194789
598.637764	0.194735
598.847921	0.194837
599.058060	0.195389
599.268180	0.195459
599.478282	0.195457
599.688366	0.195903
599.898431	0.196396
600.108479	0.196856
600.318508	0.196804
600.528519	0.196982
600.738511	0.197154
600.948486	0.197059
601.158442	0.197225
601.368380	0.197287
601.578300	0.197369
601.788202	0.197110
601.998085	0.196881
602.207950	0.196981
602.417797	0.196917
602.627626	0.196703
602.837436	0.196845
603.047228	0.196575
603.257002	0.196818
603.466758	0.196807
603.676496	0.196845
603.886215	0.196975
604.095916	0.197278
604.305599	0.197691
604.515264	0.197951
604.724910	0.198336
604.934538	0.198837
605.144148	0.198492
605.353740	0.198538
605.563314	0.199171
605.772869	0.199614
605.982406	0.199638
606.191925	0.199534
606.401425	0.199761
606.610908	0.199494
606.820372	0.199195
607.029818	0.199802
607.239246	0.199893
607.448655	0.199738
607.658047	0.199552
607.867420	0.199201
608.076775	0.198934
608.286111	0.198755
608.495430	0.198948
608.704730	0.199373
608.914012	0.198946
609.123275	0.198874
609.332521	0.198857
609.541748	0.198811
609.750957	0.198982
609.960148	0.199258
610.169321	0.199300
610.378475	0.199235
610.587611	0.199274
610.796729	0.199396
611.005829	0.199595
611.214910	0.199734
611.423974	0.200092
611.633019	0.200244
611.842045	0.200339
612.051054	0.200365
612.260044	0.200484
612.469017	0.200498
612.677970	0.200614
612.886906	0.200887
613.095824	0.201119
613.304723	0.200966
613.513604	0.200885
613.722467	0.200932
613.931311	0.200973
614.140138	0.200971
614.348946	0.201358
614.557736	0.201455
614.766507	0.201251
614.975261	0.201290
615.183996	0.201411
615.392713	0.201575
615.601412	0.201509
615.810092	0.201834
616.018754	0.202087
616.227399	0.201958
616.436024	0.202131
616.644632	0.202460
616.853222	0.202202
617.061793	0.202370
617.270346	0.202573
617.478880	0.202717
617.687397	0.202692
617.895895	0.202807
618.104375	0.202997
618.312837	0.203167
618.521281	0.203418
618.729706	0.203685
618.938113	0.203542
619.146502	0.203735
619.354873	0.203832
619.563226	0.203766
619.771560	0.203739
619.979876	0.203587
620.188174	0.203354
620.396453	0.203179
620.604715	0.203341
620.812958	0.203628
621.021183	0.203355
621.229390	0.203542
621.437578	0.203833
621.645748	0.203989
621.853900	0.204043
622.062034	0.204542
622.270150	0.204979
622.478247	0.205122
622.686326	0.205091
622.894387	0.205246
623.102430	0.205169
623.310454	0.205425
623.518461	0.205466
623.726449	0.205569
623.934418	0.205595
624.142370	0.205554
624.350303	0.205649
624.558218	0.205824
624.766115	0.206188
624.973994	0.206368
625.181855	0.206305
625.389697	0.206316
625.597521	0.206310
625.805327	0.206020
626.013114	0.205682
626.220883	0.205607
626.428634	0.205773
626.636367	0.205885
626.844082	0.206075
627.051778	0.205996
627.259457	0.205948
627.467117	0.206144
627.674758	0.206454
627.882382	0.207005
628.089987	0.207158
628.297574	0.206952
628.505143	0.206929
628.712694	0.206821
628.920226	0.207216
629.127740	0.207476
629.335236	0.207433
629.542714	0.207378
629.750174	0.206982
629.957615	0.207105
630.165038	0.207280
630.372443	0.207171
630.579829	0.207213
630.787198	0.207239
630.994548	0.207093
631.201880	0.207343
631.409194	0.207427
631.616489	0.207717
631.823766	0.207667
632.031025	0.207787
632.238266	0.208133
632.445489	0.208337
632.652693	0.208245
632.859879	0.208513
633.067047	0.208656
633.274197	0.208875
633.481329	0.208858
633.688442	0.209036
633.895537	0.209148
634.102614	0.209250
634.309672	0.209486
634.516713	0.209539
634.723735	0.209724
634.930739	0.209645
635.137724	0.209922
635.344692	0.210067
635.551641	0.209979
635.758572	0.210095
635.965485	0.210265
636.172379	0.210143
636.379256	0.210254
636.586114	0.210423
636.792954	0.210627
636.999775	0.210512
637.206579	0.210697
637.413364	0.211117
637.620131	0.211344
637.826880	0.211153
638.033610	0.211183
638.240323	0.211409
638.447017	0.211275
638.653692	0.211104
638.860350	0.211194
639.066990	0.211108
639.273611	0.211101
639.480214	0.211017
639.686798	0.211221
639.893365	0.211410
640.099913	0.211527
640.306443	0.211661
640.512955	0.212043
640.719449	0.212026
640.925924	0.212082
641.132381	0.211938
641.338820	0.212018
641.545241	0.212062
641.751644	0.212153
641.958028	0.212173
642.164394	0.212317
642.370742	0.212545
642.577071	0.212645
642.783383	0.212940
642.989676	0.213371
643.195951	0.213638
643.402207	0.213785
643.608446	0.214008
643.814666	0.214096
644.020868	0.214218
644.227052	0.214175
644.433218	0.214554
644.639365	0.214613
644.845494	0.214711
645.051605	0.214496
645.257698	0.214317
645.463772	0.214256
645.669828	0.214429
645.875866	0.214456
646.081886	0.214548
646.287888	0.214453
646.493871	0.214449
646.699836	0.214339
646.905783	0.214584
647.111712	0.214821
647.317622	0.215117
647.523514	0.215162
647.729388	0.215286
647.935244	0.215263
648.141082	0.215372
648.346901	0.215345
648.552702	0.215531
648.758485	0.215790
648.964250	0.215842
649.169996	0.215899
649.375724	0.215748
649.581434	0.215577
649.787126	0.215645
649.992800	0.215496
650.198455	0.215619
650.404092	0.215686
650.609711	0.215561
650.815311	0.215701
651.020894	0.215485
651.226458	0.215578
651.432004	0.216013
651.637532	0.216044
651.843041	0.216224
652.048532	0.216287
652.254006	0.216221
652.459460	0.216550
652.664897	0.216467
652.870315	0.216686
653.075716	0.216843
653.281097	0.216732
653.486461	0.216794
653.691807	0.216845
653.897134	0.217150
654.102443	0.217053
654.307734	0.217024
654.513006	0.217349
654.718261	0.217587
654.923497	0.217727
655.128715	0.217818
655.333915	0.218184
655.539096	0.218519
655.744259	0.218613
655.949404	0.219264
656.154531	0.219297
656.359640	0.219343
656.564730	0.219230
656.769802	0.219469
656.974856	0.219897
657.179892	0.219819
657.384909	0.219825
657.589908	0.219785
657.794889	0.219556
657.999852	0.219930
658.204797	0.220517
658.409723	0.220733
658.614631	0.220800
658.819521	0.220700
659.024393	0.221088
659.229246	0.221270
659.434081	0.221643
659.638898	0.221932
659.843697	0.221842
660.048478	0.221496
660.253240	0.221727
660.457984	0.222008
660.662710	0.222356
660.867417	0.222210
661.072107	0.222534
661.276778	0.222606
661.481431	0.222537
661.686066	0.222680
661.890682	0.222797
662.095281	0.222819
662.299861	0.222870
662.504422	0.222497
662.708966	0.222455
662.913491	0.222214
663.117999	0.222169
663.322488	0.222190
663.526958	0.222191
663.731411	0.222060
663.935845	0.222026
664.140261	0.222101
664.344659	0.222499
664.549038	0.222763
664.753400	0.222822
664.957743	0.222740
665.162068	0.222955
665.366375	0.223110
665.570663	0.223327
665.774933	0.223560
665.979185	0.223617
666.183419	0.223823
666.387635	0.223907
666.591832	0.224192
666.796011	0.224662
667.000172	0.224740
667.204315	0.224753
667.408439	0.224975
667.612545	0.225061
667.816634	0.225245
668.020703	0.225287
668.224755	0.225382
668.428788	0.225278
668.632803	0.225194
668.836800	0.225559
669.040779	0.225861
669.244739	0.225969
669.448681	0.226288
669.652605	0.226404
669.856511	0.226419
670.060399	0.226826
670.264268	0.227422
670.468119	0.227697
670.671952	0.227655
670.875767	0.227758
671.079563	0.228012
671.283341	0.227960
671.487101	0.228177
671.690843	0.228550
671.894567	0.228424
672.098272	0.228553
672.301959	0.228651
672.505628	0.228678
672.709278	0.228758
672.912911	0.228877
673.116525	0.229043
673.320121	0.229024
673.523699	0.228914
673.727258	0.229079
673.930799	0.229185
674.134322	0.229215
674.337827	0.229361
674.541314	0.229484
674.744782	0.229567
674.948232	0.229507
675.151664	0.229410
675.355078	0.229478
675.558474	0.229574
675.761851	0.229360
675.965210	0.229412
676.168551	0.229467
676.371873	0.229393
676.575178	0.229305
676.778464	0.229446
676.981732	0.229616
677.184981	0.229864
677.388213	0.229979
677.591426	0.229946
677.794621	0.230424
677.997798	0.230914
678.200956	0.231069
678.404097	0.231335
678.607219	0.231605
678.810323	0.231717
679.013408	0.231681
679.216476	0.231908
679.419525	0.232058
679.622556	0.231937
679.825569	0.231741
680.028563	0.231977
680.231540	0.232156
680.434498	0.232240
680.637438	0.232314
680.840359	0.232597
681.043263	0.232745
681.246148	0.232960
681.449015	0.233089
681.651864	0.233333
681.854694	0.233397
682.057506	0.233552
682.260301	0.233472
682.463076	0.233893
682.665834	0.233940
682.868573	0.233910
683.071295	0.234192
683.273998	0.234342
683.476682	0.234319
683.679349	0.234195
683.881997	0.234054
684.084627	0.234100
684.287239	0.233940
684.489833	0.233962
684.692408	0.234031
684.894965	0.234170
685.097504	0.234049
685.300025	0.234273
685.502527	0.234488
685.705012	0.234654
685.907478	0.235069
686.109925	0.235165
686.312355	0.235457
686.514766	0.235794
686.717159	0.235595
686.919534	0.235855
687.121891	0.235883
687.324230	0.236333
687.526550	0.236608
687.728852	0.236450
687.931136	0.236605
688.133401	0.236691
688.335649	0.236852
688.537878	0.237121
688.740089	0.237108
688.942281	0.237177
689.144456	0.236884
689.346612	0.236776
689.548750	0.236941
689.750870	0.237250
689.952971	0.237121
690.155055	0.237013
690.357120	0.237148
690.559167	0.237343
690.761195	0.237400
690.963206	0.237609
691.165198	0.237722
691.367172	0.237753
691.569128	0.237512
691.771065	0.237721
691.972984	0.237557
692.174885	0.237580
692.376768	0.237619
692.578633	0.237793
692.780479	0.238057
692.982308	0.238064
693.184118	0.238316
693.385909	0.238639
