sample name	sample
index	352
start time	 03-01-2021  12:08:46 PM


Wavelength (nm)	Absorbance
494.344910	-0.103915
494.563924	-0.103915
494.782919	-0.103915
495.001897	NaN
495.220856	-0.305531
495.439797	-0.274380
495.658719	-0.215013
495.877624	-0.230273
496.096510	-0.102304
496.315378	-0.021466
496.534227	0.128218
496.753059	0.054027
496.971872	0.098411
497.190667	0.066020
497.409444	0.072619
497.628203	0.071728
497.846943	0.070748
498.065665	0.072063
498.284369	0.070832
498.503055	0.069899
498.721723	0.070920
498.940372	0.070839
499.159003	0.070953
499.377616	0.070267
499.596210	0.071035
499.814787	0.071401
500.033345	0.070547
500.251885	0.071031
500.470406	0.071919
500.688910	0.072253
500.907395	0.072189
501.125862	0.073031
501.344311	0.073468
501.562742	0.072570
501.781154	0.073119
501.999548	0.073485
502.217924	0.074111
502.436282	0.072931
502.654621	0.072503
502.872942	0.072666
503.091245	0.072729
503.309530	0.072524
503.527797	0.072824
503.746045	0.072307
503.964275	0.072059
504.182487	0.071433
504.400681	0.072311
504.618856	0.072023
504.837013	0.071205
505.055152	0.071008
505.273273	0.071168
505.491376	0.070381
505.709460	0.070354
505.927526	0.071110
506.145574	0.071642
506.363604	0.071399
506.581615	0.071756
506.799608	0.072356
507.017583	0.072147
507.235540	0.071872
507.453478	0.072448
507.671399	0.072219
507.889301	0.071244
508.107185	0.070620
508.325050	0.071253
508.542898	0.071425
508.760727	0.072098
508.978538	0.071435
509.196330	0.071968
509.414105	0.072207
509.631861	0.073107
509.849599	0.074221
510.067319	0.075148
510.285021	0.074663
510.502704	0.075077
510.720369	0.075412
510.938016	0.076143
511.155645	0.075758
511.373255	0.075579
511.590848	0.075263
511.808422	0.074869
512.025977	0.074809
512.243515	0.074891
512.461034	0.073416
512.678536	0.073262
512.896018	0.074136
513.113483	0.074421
513.330930	0.075396
513.548358	0.075556
513.765768	0.075473
513.983160	0.075414
514.200533	0.075733
514.417889	0.077319
514.635226	0.077044
514.852545	0.076602
515.069845	0.077014
515.287128	0.076460
515.504392	0.076477
515.721638	0.076827
515.938866	0.077119
516.156075	0.077393
516.373267	0.076459
516.590440	0.076731
516.807594	0.078077
517.024731	0.078154
517.241850	0.078276
517.458950	0.078671
517.676032	0.078896
517.893095	0.079525
518.110141	0.079942
518.327168	0.081101
518.544177	0.081566
518.761168	0.080903
518.978141	0.080452
519.195095	0.080675
519.412031	0.080347
519.628949	0.080830
519.845849	0.080378
520.062731	0.079974
520.279594	0.079382
520.496439	0.079291
520.713266	0.079285
520.930074	0.080227
521.146865	0.080082
521.363637	0.080793
521.580391	0.080717
521.797127	0.081214
522.013844	0.081978
522.230543	0.082483
522.447224	0.082288
522.663887	0.082087
522.880532	0.082209
523.097158	0.083010
523.313766	0.082750
523.530356	0.083365
523.746928	0.083422
523.963481	0.083703
524.180017	0.083565
524.396534	0.084144
524.613032	0.084777
524.829513	0.084841
525.045975	0.084741
525.262420	0.085121
525.478845	0.084527
525.695253	0.084920
525.911643	0.085118
526.128014	0.085285
526.344367	0.085055
526.560702	0.085392
526.777018	0.085446
526.993316	0.085501
527.209597	0.085820
527.425858	0.086033
527.642102	0.085734
527.858328	0.085995
528.074535	0.087107
528.290724	0.087706
528.506894	0.087904
528.723047	0.088448
528.939181	0.089493
529.155297	0.089790
529.371395	0.090342
529.587475	0.090877
529.803536	0.090936
530.019579	0.090781
530.235604	0.091096
530.451611	0.091019
530.667600	0.091153
530.883570	0.091159
531.099522	0.091585
531.315456	0.091688
531.531372	0.091797
531.747269	0.091582
531.963148	0.091325
532.179009	0.091122
532.394852	0.091568
532.610676	0.091474
532.826482	0.090728
533.042271	0.090221
533.258040	0.090404
533.473792	0.090198
533.689525	0.090536
533.905240	0.090814
534.120937	0.090838
534.336616	0.090971
534.552277	0.090837
534.767919	0.091444
534.983543	0.091790
535.199149	0.091991
535.414736	0.092468
535.630306	0.092801
535.845857	0.092702
536.061390	0.093280
536.276904	0.092981
536.492401	0.093553
536.707879	0.093556
536.923339	0.094040
537.138781	0.093818
537.354204	0.094374
537.569610	0.094292
537.784997	0.095074
538.000366	0.095587
538.215716	0.095751
538.431049	0.095873
538.646363	0.095859
538.861659	0.095918
539.076937	0.096499
539.292196	0.095896
539.507438	0.096338
539.722661	0.096202
539.937866	0.096168
540.153052	0.096559
540.368221	0.096572
540.583371	0.096897
540.798503	0.096779
541.013617	0.096900
541.228712	0.097412
541.443789	0.097377
541.658848	0.097809
541.873889	0.097650
542.088912	0.098128
542.303916	0.098435
542.518902	0.098321
542.733870	0.098568
542.948820	0.098511
543.163752	0.098770
543.378665	0.099515
543.593560	0.099712
543.808437	0.100228
544.023295	0.100278
544.238136	0.100636
544.452958	0.100905
544.667762	0.101102
544.882548	0.101231
545.097315	0.101334
545.312064	0.101127
545.526795	0.101132
545.741508	0.101124
545.956203	0.101181
546.170879	0.101101
546.385537	0.101765
546.600177	0.101641
546.814799	0.101979
547.029402	0.102191
547.243988	0.102409
547.458555	0.102870
547.673103	0.103193
547.887634	0.103542
548.102146	0.104004
548.316640	0.104176
548.531116	0.104828
548.745574	0.105074
548.960013	0.105196
549.174435	0.105088
549.388838	0.104993
549.603222	0.104845
549.817589	0.104714
550.031937	0.104888
550.246267	0.104686
550.460579	0.105188
550.674873	0.105331
550.889148	0.105724
551.103405	0.106146
551.317644	0.106210
551.531865	0.106452
551.746068	0.106911
551.960252	0.106706
552.174418	0.107344
552.388566	0.107105
552.602696	0.107232
552.816807	0.107144
553.030900	0.107123
553.244975	0.107350
553.459032	0.107613
553.673070	0.107450
553.887091	0.108057
554.101093	0.107540
554.315077	0.107473
554.529042	0.107606
554.742990	0.108161
554.956919	0.108033
555.170830	0.108590
555.384722	0.108724
555.598597	0.108934
555.812453	0.108879
556.026291	0.109320
556.240111	0.109752
556.453913	0.109753
556.667696	0.109675
556.881461	0.109928
557.095208	0.109505
557.308937	0.109610
557.522647	0.109565
557.736339	0.109490
557.950013	0.109540
558.163669	0.109307
558.377307	0.109913
558.590926	0.109713
558.804527	0.109581
559.018110	0.109590
559.231675	0.109746
559.445221	0.110332
559.658749	0.110331
559.872259	0.110409
560.085751	0.110692
560.299225	0.110706
560.512680	0.110912
560.726117	0.111243
560.939536	0.111258
561.152937	0.111296
561.366319	0.110949
561.579683	0.111048
561.793029	0.111193
562.006357	0.111043
562.219667	0.110725
562.432958	0.111005
562.646231	0.111128
562.859486	0.111518
563.072723	0.111610
563.285941	0.111609
563.499141	0.112112
563.712323	0.112354
563.925487	0.113010
564.138632	0.112866
564.351760	0.112894
564.564869	0.113081
564.777960	0.112992
564.991032	0.112989
565.204087	0.113295
565.417123	0.112968
565.630141	0.112890
565.843140	0.112640
566.056122	0.112825
566.269085	0.112630
566.482030	0.112560
566.694957	0.112848
566.907866	0.113159
567.120756	0.113120
567.333628	0.113356
567.546482	0.113451
567.759318	0.113470
567.972135	0.113621
568.184935	0.113771
568.397716	0.114003
568.610478	0.114152
568.823223	0.114254
569.035949	0.114382
569.248657	0.114215
569.461347	0.114102
569.674019	0.114271
569.886672	0.114436
570.099308	0.114620
570.311925	0.114835
570.524523	0.114852
570.737104	0.114716
570.949666	0.114865
571.162210	0.115283
571.374736	0.115760
571.587244	0.115993
571.799733	0.116031
572.012205	0.116132
572.224658	0.115761
572.437092	0.115724
572.649509	0.115543
572.861907	0.115536
573.074287	0.115443
573.286649	0.115388
573.498993	0.115125
573.711318	0.115778
573.923625	0.115663
574.135914	0.116272
574.348185	0.116344
574.560438	0.116560
574.772672	0.116550
574.984888	0.116915
575.197086	0.117138
575.409266	0.117505
575.621427	0.117153
575.833570	0.117536
576.045695	0.117156
576.257802	0.117429
576.469890	0.117506
576.681961	0.117653
576.894013	0.117558
577.106046	0.117452
577.318062	0.117424
577.530059	0.117619
577.742039	0.117679
577.954000	0.117897
578.165942	0.117795
578.377867	0.118060
578.589773	0.118524
578.801661	0.118577
579.013531	0.118720
579.225382	0.119110
579.437216	0.119302
579.649031	0.119385
579.860828	0.119264
580.072606	0.119623
580.284367	0.119454
580.496109	0.119339
580.707833	0.119213
580.919539	0.119282
581.131227	0.119176
581.342896	0.119138
581.554547	0.119175
581.766180	0.119390
581.977795	0.119576
582.189391	0.120072
582.400969	0.120058
582.612529	0.120014
582.824071	0.120327
583.035595	0.120464
583.247100	0.120312
583.458587	0.120391
583.670056	0.120466
583.881506	0.120187
584.092939	0.120126
584.304353	0.120398
584.515749	0.121139
584.727127	0.121173
584.938486	0.121108
585.149828	0.121349
585.361151	0.121676
585.572456	0.122040
585.783742	0.122014
585.995011	0.122310
586.206261	0.122416
586.417493	0.122549
586.628706	0.122483
586.839902	0.122699
587.051079	0.123109
587.262238	0.123145
587.473379	0.123481
587.684502	0.123712
587.895606	0.123729
588.106692	0.123930
588.317760	0.123693
588.528810	0.123743
588.739841	0.123835
588.950855	0.123748
589.161850	0.123801
589.372827	0.123851
589.583785	0.124173
589.794726	0.124317
590.005648	0.124357
590.216552	0.124658
590.427437	0.124804
590.638305	0.124842
590.849154	0.124785
591.059985	0.124549
591.270798	0.123999
591.481592	0.123793
591.692369	0.123915
591.903127	0.123977
592.113867	0.124077
592.324588	0.124082
592.535292	0.124290
592.745977	0.124617
592.956644	0.125029
593.167293	0.125437
593.377923	0.125483
593.588536	0.125460
593.799130	0.125443
594.009706	0.125585
594.220263	0.125881
594.430803	0.126091
594.641324	0.126189
594.851827	0.126450
595.062312	0.126515
595.272778	0.126865
595.483227	0.126908
595.693657	0.127087
595.904069	0.126958
596.114462	0.127057
596.324838	0.127212
596.535195	0.127376
596.745534	0.127147
596.955855	0.127513
597.166157	0.127857
597.376441	0.128193
597.586707	0.128344
597.796955	0.128443
598.007185	0.128387
598.217396	0.128425
598.427589	0.128374
598.637764	0.128471
598.847921	0.128589
599.058060	0.128504
599.268180	0.128402
599.478282	0.128366
599.688366	0.128393
599.898431	0.128509
600.108479	0.128627
600.318508	0.128693
600.528519	0.128843
600.738511	0.128825
600.948486	0.128747
601.158442	0.128996
601.368380	0.129009
601.578300	0.129231
601.788202	0.129447
601.998085	0.129241
602.207950	0.129164
602.417797	0.129291
602.627626	0.129452
602.837436	0.129725
603.047228	0.129674
603.257002	0.129934
603.466758	0.129836
603.676496	0.130111
603.886215	0.130316
604.095916	0.130365
604.305599	0.130605
604.515264	0.130637
604.724910	0.130877
604.934538	0.131004
605.144148	0.131185
605.353740	0.131532
605.563314	0.131432
605.772869	0.131375
605.982406	0.131675
606.191925	0.131563
606.401425	0.131527
606.610908	0.131364
606.820372	0.131212
607.029818	0.131093
607.239246	0.130964
607.448655	0.130855
607.658047	0.131151
607.867420	0.131502
608.076775	0.131634
608.286111	0.131741
608.495430	0.131846
608.704730	0.132188
608.914012	0.132106
609.123275	0.132128
609.332521	0.132355
609.541748	0.132323
609.750957	0.132149
609.960148	0.132092
610.169321	0.132373
610.378475	0.132461
610.587611	0.132528
610.796729	0.132910
611.005829	0.133125
611.214910	0.133149
611.423974	0.133373
611.633019	0.133541
611.842045	0.133727
612.051054	0.133966
612.260044	0.134097
612.469017	0.134061
612.677970	0.133950
612.886906	0.134222
613.095824	0.134296
613.304723	0.134306
613.513604	0.134251
613.722467	0.134216
613.931311	0.134022
614.140138	0.133941
614.348946	0.133945
614.557736	0.133782
614.766507	0.133670
614.975261	0.133734
615.183996	0.133642
615.392713	0.133602
615.601412	0.133745
615.810092	0.133530
616.018754	0.133532
616.227399	0.133490
616.436024	0.133744
616.644632	0.133697
616.853222	0.133871
617.061793	0.134212
617.270346	0.134798
617.478880	0.134991
617.687397	0.135312
617.895895	0.135545
618.104375	0.135830
618.312837	0.136026
618.521281	0.136017
618.729706	0.136246
618.938113	0.136108
619.146502	0.135808
619.354873	0.135992
619.563226	0.136053
619.771560	0.136212
619.979876	0.136321
620.188174	0.136336
620.396453	0.136550
620.604715	0.136571
620.812958	0.136657
621.021183	0.136896
621.229390	0.136942
621.437578	0.136793
621.645748	0.136859
621.853900	0.136840
622.062034	0.136997
622.270150	0.136971
622.478247	0.136911
622.686326	0.137082
622.894387	0.137119
623.102430	0.137201
623.310454	0.137571
623.518461	0.137584
623.726449	0.137738
623.934418	0.137611
624.142370	0.137684
624.350303	0.137573
624.558218	0.137569
624.766115	0.137529
624.973994	0.137479
625.181855	0.137641
625.389697	0.137591
625.597521	0.137755
625.805327	0.138110
626.013114	0.138343
626.220883	0.138526
626.428634	0.138556
626.636367	0.138585
626.844082	0.138691
627.051778	0.138620
627.259457	0.138775
627.467117	0.138833
627.674758	0.138841
627.882382	0.139132
628.089987	0.139377
628.297574	0.139415
628.505143	0.139606
628.712694	0.139751
628.920226	0.139865
629.127740	0.140034
629.335236	0.140213
629.542714	0.140362
629.750174	0.139894
629.957615	0.140009
630.165038	0.140359
630.372443	0.140489
630.579829	0.140422
630.787198	0.140434
630.994548	0.140385
631.201880	0.140302
631.409194	0.140289
631.616489	0.140746
631.823766	0.140539
632.031025	0.140496
632.238266	0.140344
632.445489	0.140489
632.652693	0.140589
632.859879	0.140642
633.067047	0.140798
633.274197	0.140685
633.481329	0.140780
633.688442	0.141077
633.895537	0.141259
634.102614	0.141467
634.309672	0.141341
634.516713	0.141334
634.723735	0.141536
634.930739	0.141825
635.137724	0.141901
635.344692	0.142091
635.551641	0.142161
635.758572	0.142131
635.965485	0.142240
636.172379	0.142505
636.379256	0.142640
636.586114	0.142773
636.792954	0.142586
636.999775	0.142842
637.206579	0.142708
637.413364	0.142798
637.620131	0.142929
637.826880	0.143021
638.033610	0.142941
638.240323	0.143265
638.447017	0.143397
638.653692	0.143545
638.860350	0.143659
639.066990	0.143800
639.273611	0.143689
639.480214	0.143817
639.686798	0.143883
639.893365	0.144144
640.099913	0.144190
640.306443	0.144012
640.512955	0.144082
640.719449	0.144237
640.925924	0.144411
641.132381	0.144793
641.338820	0.144855
641.545241	0.144916
641.751644	0.145124
641.958028	0.145050
642.164394	0.145299
642.370742	0.145397
642.577071	0.145620
642.783383	0.145604
642.989676	0.145596
643.195951	0.145731
643.402207	0.146035
643.608446	0.146136
643.814666	0.146426
644.020868	0.146534
644.227052	0.146772
644.433218	0.146679
644.639365	0.146832
644.845494	0.147100
645.051605	0.147253
645.257698	0.147231
645.463772	0.147307
645.669828	0.147496
645.875866	0.147588
646.081886	0.147682
646.287888	0.147830
646.493871	0.147950
646.699836	0.147877
646.905783	0.147906
647.111712	0.148174
647.317622	0.148203
647.523514	0.148196
647.729388	0.148410
647.935244	0.148587
648.141082	0.148883
648.346901	0.149010
648.552702	0.149050
648.758485	0.149144
648.964250	0.149373
649.169996	0.149638
649.375724	0.149826
649.581434	0.150025
649.787126	0.150155
649.992800	0.149969
650.198455	0.150146
650.404092	0.150502
650.609711	0.150878
650.815311	0.150913
651.020894	0.150947
651.226458	0.150873
651.432004	0.150929
651.637532	0.150590
651.843041	0.150634
652.048532	0.150471
652.254006	0.150451
652.459460	0.150483
652.664897	0.150368
652.870315	0.150398
653.075716	0.150675
653.281097	0.150745
653.486461	0.151129
653.691807	0.151366
653.897134	0.151838
654.102443	0.151970
654.307734	0.152053
654.513006	0.152236
654.718261	0.152552
654.923497	0.152657
655.128715	0.152792
655.333915	0.152960
655.539096	0.153329
655.744259	0.153415
655.949404	0.153459
656.154531	0.153527
656.359640	0.153504
656.564730	0.153617
656.769802	0.153668
656.974856	0.153735
657.179892	0.153998
657.384909	0.153907
657.589908	0.153909
657.794889	0.154148
657.999852	0.154361
658.204797	0.154575
658.409723	0.154798
658.614631	0.155056
658.819521	0.155197
659.024393	0.155163
659.229246	0.155303
659.434081	0.155492
659.638898	0.155499
659.843697	0.155689
660.048478	0.155800
660.253240	0.155675
660.457984	0.155559
660.662710	0.155795
660.867417	0.155863
661.072107	0.156026
661.276778	0.156057
661.481431	0.156305
661.686066	0.156395
661.890682	0.156659
662.095281	0.156801
662.299861	0.157142
662.504422	0.157180
662.708966	0.157452
662.913491	0.157715
663.117999	0.157927
663.322488	0.158184
663.526958	0.158213
663.731411	0.158367
663.935845	0.158501
664.140261	0.158670
664.344659	0.159019
664.549038	0.159002
664.753400	0.159072
664.957743	0.159424
665.162068	0.159532
665.366375	0.159535
665.570663	0.159500
665.774933	0.159890
665.979185	0.160041
666.183419	0.159972
666.387635	0.160153
666.591832	0.160001
666.796011	0.160010
667.000172	0.159988
667.204315	0.160239
667.408439	0.160574
667.612545	0.160529
667.816634	0.160574
668.020703	0.160687
668.224755	0.160782
668.428788	0.161090
668.632803	0.161022
668.836800	0.161113
669.040779	0.161001
669.244739	0.160803
669.448681	0.161005
669.652605	0.161106
669.856511	0.161338
670.060399	0.161588
670.264268	0.161660
670.468119	0.161629
670.671952	0.161706
670.875767	0.161820
671.079563	0.162134
671.283341	0.162067
671.487101	0.162165
671.690843	0.162303
671.894567	0.162365
672.098272	0.162378
672.301959	0.162753
672.505628	0.162939
672.709278	0.163175
672.912911	0.163293
673.116525	0.163464
673.320121	0.163364
673.523699	0.163264
673.727258	0.163443
673.930799	0.163617
674.134322	0.163622
674.337827	0.163671
674.541314	0.163828
674.744782	0.164095
674.948232	0.164163
675.151664	0.164526
675.355078	0.164914
675.558474	0.164929
675.761851	0.165220
675.965210	0.165631
676.168551	0.166065
676.371873	0.166188
676.575178	0.166287
676.778464	0.166594
676.981732	0.166721
677.184981	0.166640
677.388213	0.166781
677.591426	0.167053
677.794621	0.167064
677.997798	0.167021
678.200956	0.167278
678.404097	0.167327
678.607219	0.167377
678.810323	0.167469
679.013408	0.167661
679.216476	0.167754
679.419525	0.167740
679.622556	0.167928
679.825569	0.168164
680.028563	0.168165
680.231540	0.168305
680.434498	0.168311
680.637438	0.168425
680.840359	0.168548
681.043263	0.168599
681.246148	0.168688
681.449015	0.168662
681.651864	0.168717
681.854694	0.168812
682.057506	0.168883
682.260301	0.169158
682.463076	0.169273
682.665834	0.169288
682.868573	0.169622
683.071295	0.169826
683.273998	0.170100
683.476682	0.170304
683.679349	0.170458
683.881997	0.170535
684.084627	0.170684
684.287239	0.170659
684.489833	0.170683
684.692408	0.170470
684.894965	0.170392
685.097504	0.170349
685.300025	0.170384
685.502527	0.170487
685.705012	0.170428
685.907478	0.170363
686.109925	0.170370
686.312355	0.170480
686.514766	0.170731
686.717159	0.170815
686.919534	0.170918
687.121891	0.170709
687.324230	0.170822
687.526550	0.171086
687.728852	0.171193
687.931136	0.171395
688.133401	0.171537
688.335649	0.171663
688.537878	0.171748
688.740089	0.171834
688.942281	0.172153
689.144456	0.172240
689.346612	0.172189
689.548750	0.172162
689.750870	0.172372
689.952971	0.172338
690.155055	0.172451
690.357120	0.172542
690.559167	0.172582
690.761195	0.172588
690.963206	0.172714
691.165198	0.172911
691.367172	0.173076
691.569128	0.172971
691.771065	0.173140
691.972984	0.173155
692.174885	0.173350
692.376768	0.173296
692.578633	0.173481
692.780479	0.173329
692.982308	0.173295
693.184118	0.173524
693.385909	0.173575
