sample name	sample
index	992
start time	 04-14-2021  04:17:14 PM


Wavelength (nm)	Absorbance
494.344910	-0.526751
494.563924	-0.526751
494.782919	-0.526751
495.001897	NaN
495.220856	0.113960
495.439797	0.543288
495.658719	NaN
495.877624	1.629383
496.096510	0.804316
496.315378	NaN
496.534227	NaN
496.753059	0.557966
496.971872	0.263544
497.190667	0.067025
497.409444	0.063894
497.628203	0.062003
497.846943	0.060763
498.065665	0.060408
498.284369	0.058699
498.503055	0.056560
498.721723	0.056592
498.940372	0.056534
499.159003	0.057414
499.377616	0.056965
499.596210	0.057174
499.814787	0.056775
500.033345	0.056224
500.251885	0.056531
500.470406	0.057224
500.688910	0.058242
500.907395	0.059278
501.125862	0.059630
501.344311	0.059992
501.562742	0.060337
501.781154	0.061580
501.999548	0.062611
502.217924	0.063871
502.436282	0.064300
502.654621	0.063606
502.872942	0.063201
503.091245	0.062992
503.309530	0.062419
503.527797	0.062281
503.746045	0.062535
503.964275	0.062153
504.182487	0.060714
504.400681	0.061053
504.618856	0.061244
504.837013	0.061714
505.055152	0.062326
505.273273	0.062734
505.491376	0.062478
505.709460	0.061780
505.927526	0.061060
506.145574	0.061522
506.363604	0.061253
506.581615	0.061466
506.799608	0.061278
507.017583	0.061098
507.235540	0.060653
507.453478	0.060656
507.671399	0.060407
507.889301	0.060568
508.107185	0.060884
508.325050	0.060642
508.542898	0.060861
508.760727	0.060656
508.978538	0.061069
509.196330	0.061772
509.414105	0.062152
509.631861	0.062540
509.849599	0.063497
510.067319	0.063108
510.285021	0.063915
510.502704	0.064123
510.720369	0.064047
510.938016	0.064297
511.155645	0.063867
511.373255	0.064209
511.590848	0.063994
511.808422	0.064146
512.025977	0.064717
512.243515	0.063928
512.461034	0.064175
512.678536	0.064764
512.896018	0.064867
513.113483	0.065183
513.330930	0.064826
513.548358	0.065522
513.765768	0.064617
513.983160	0.063779
514.200533	0.064135
514.417889	0.063595
514.635226	0.063723
514.852545	0.063137
515.069845	0.063639
515.287128	0.063926
515.504392	0.063619
515.721638	0.064301
515.938866	0.064850
516.156075	0.064993
516.373267	0.065163
516.590440	0.064948
516.807594	0.065189
517.024731	0.064174
517.241850	0.063730
517.458950	0.064430
517.676032	0.064649
517.893095	0.064910
518.110141	0.064983
518.327168	0.065162
518.544177	0.065083
518.761168	0.065046
518.978141	0.065819
519.195095	0.066362
519.412031	0.065557
519.628949	0.065895
519.845849	0.065755
520.062731	0.066315
520.279594	0.065903
520.496439	0.066728
520.713266	0.066449
520.930074	0.066547
521.146865	0.065949
521.363637	0.066413
521.580391	0.066844
521.797127	0.067654
522.013844	0.067299
522.230543	0.068095
522.447224	0.068050
522.663887	0.068011
522.880532	0.068205
523.097158	0.069270
523.313766	0.069538
523.530356	0.069438
523.746928	0.069063
523.963481	0.069120
524.180017	0.068623
524.396534	0.068065
524.613032	0.068801
524.829513	0.068976
525.045975	0.068857
525.262420	0.069070
525.478845	0.068734
525.695253	0.069935
525.911643	0.070777
526.128014	0.071198
526.344367	0.071699
526.560702	0.071538
526.777018	0.071922
526.993316	0.072043
527.209597	0.072511
527.425858	0.072919
527.642102	0.072437
527.858328	0.072348
528.074535	0.072750
528.290724	0.073077
528.506894	0.074336
528.723047	0.074385
528.939181	0.074149
529.155297	0.073444
529.371395	0.073298
529.587475	0.073504
529.803536	0.073564
530.019579	0.074027
530.235604	0.074351
530.451611	0.073751
530.667600	0.073785
530.883570	0.074578
531.099522	0.075364
531.315456	0.075546
531.531372	0.075726
531.747269	0.075871
531.963148	0.075399
532.179009	0.075193
532.394852	0.074900
532.610676	0.075300
532.826482	0.074855
533.042271	0.074897
533.258040	0.075553
533.473792	0.075499
533.689525	0.076225
533.905240	0.076590
534.120937	0.076998
534.336616	0.077870
534.552277	0.077497
534.767919	0.077655
534.983543	0.078267
535.199149	0.078321
535.414736	0.078221
535.630306	0.078184
535.845857	0.078786
536.061390	0.078836
536.276904	0.078975
536.492401	0.079181
536.707879	0.079938
536.923339	0.079467
537.138781	0.079513
537.354204	0.080816
537.569610	0.080517
537.784997	0.080468
538.000366	0.080378
538.215716	0.080228
538.431049	0.080235
538.646363	0.079776
538.861659	0.079992
539.076937	0.079812
539.292196	0.079014
539.507438	0.079054
539.722661	0.079026
539.937866	0.079353
540.153052	0.079775
540.368221	0.080040
540.583371	0.080478
540.798503	0.080427
541.013617	0.080903
541.228712	0.080977
541.443789	0.081392
541.658848	0.081625
541.873889	0.081864
542.088912	0.081955
542.303916	0.082092
542.518902	0.081958
542.733870	0.082083
542.948820	0.082453
543.163752	0.082615
543.378665	0.082841
543.593560	0.082968
543.808437	0.083218
544.023295	0.083111
544.238136	0.083418
544.452958	0.083665
544.667762	0.083924
544.882548	0.083506
545.097315	0.083449
545.312064	0.083312
545.526795	0.083171
545.741508	0.082851
545.956203	0.083044
546.170879	0.083069
546.385537	0.082913
546.600177	0.082977
546.814799	0.082996
547.029402	0.083158
547.243988	0.083096
547.458555	0.083247
547.673103	0.083831
547.887634	0.084504
548.102146	0.084317
548.316640	0.085141
548.531116	0.085969
548.745574	0.086724
548.960013	0.087287
549.174435	0.088087
549.388838	0.088380
549.603222	0.088033
549.817589	0.087819
550.031937	0.088453
550.246267	0.088665
550.460579	0.088291
550.674873	0.088336
550.889148	0.088232
551.103405	0.087955
551.317644	0.088178
551.531865	0.088172
551.746068	0.088110
551.960252	0.087954
552.174418	0.087926
552.388566	0.088075
552.602696	0.088068
552.816807	0.088235
553.030900	0.088761
553.244975	0.089069
553.459032	0.089656
553.673070	0.089699
553.887091	0.090018
554.101093	0.089782
554.315077	0.090225
554.529042	0.090273
554.742990	0.090410
554.956919	0.089911
555.170830	0.089448
555.384722	0.089391
555.598597	0.089553
555.812453	0.089656
556.026291	0.089979
556.240111	0.089683
556.453913	0.089824
556.667696	0.090198
556.881461	0.090184
557.095208	0.090664
557.308937	0.090779
557.522647	0.091018
557.736339	0.091237
557.950013	0.091626
558.163669	0.091705
558.377307	0.091505
558.590926	0.091290
558.804527	0.091505
559.018110	0.091230
559.231675	0.091244
559.445221	0.091193
559.658749	0.091168
559.872259	0.090967
560.085751	0.091124
560.299225	0.091533
560.512680	0.091727
560.726117	0.092364
560.939536	0.092852
561.152937	0.093335
561.366319	0.093802
561.579683	0.094007
561.793029	0.094393
562.006357	0.094450
562.219667	0.094106
562.432958	0.094199
562.646231	0.093656
562.859486	0.093687
563.072723	0.093451
563.285941	0.093053
563.499141	0.092964
563.712323	0.092703
563.925487	0.092951
564.138632	0.093349
564.351760	0.093399
564.564869	0.093617
564.777960	0.093545
564.991032	0.093847
565.204087	0.093886
565.417123	0.093855
565.630141	0.093967
565.843140	0.094128
566.056122	0.094181
566.269085	0.094394
566.482030	0.094637
566.694957	0.094827
566.907866	0.094533
567.120756	0.094578
567.333628	0.094900
567.546482	0.095146
567.759318	0.094766
567.972135	0.094930
568.184935	0.095118
568.397716	0.095218
568.610478	0.095236
568.823223	0.095628
569.035949	0.095957
569.248657	0.095824
569.461347	0.096049
569.674019	0.096448
569.886672	0.096693
570.099308	0.096417
570.311925	0.096445
570.524523	0.096476
570.737104	0.096734
570.949666	0.096944
571.162210	0.097041
571.374736	0.097118
571.587244	0.097176
571.799733	0.097312
572.012205	0.097095
572.224658	0.096762
572.437092	0.097001
572.649509	0.096480
572.861907	0.096282
573.074287	0.096836
573.286649	0.096867
573.498993	0.096893
573.711318	0.096814
573.923625	0.097573
574.135914	0.097795
574.348185	0.097864
574.560438	0.098109
574.772672	0.098473
574.984888	0.097913
575.197086	0.097647
575.409266	0.097495
575.621427	0.097554
575.833570	0.097256
576.045695	0.097563
576.257802	0.097615
576.469890	0.097811
576.681961	0.097849
576.894013	0.097957
577.106046	0.098035
577.318062	0.098429
577.530059	0.098240
577.742039	0.098256
577.954000	0.098432
578.165942	0.098730
578.377867	0.098866
578.589773	0.098987
578.801661	0.099382
579.013531	0.099633
579.225382	0.099651
579.437216	0.100047
579.649031	0.100187
579.860828	0.100047
580.072606	0.100080
580.284367	0.100144
580.496109	0.100115
580.707833	0.100346
580.919539	0.100563
581.131227	0.100505
581.342896	0.100878
581.554547	0.101098
581.766180	0.101717
581.977795	0.101748
582.189391	0.101734
582.400969	0.101728
582.612529	0.101468
582.824071	0.101461
583.035595	0.101522
583.247100	0.101423
583.458587	0.101574
583.670056	0.101320
583.881506	0.101442
584.092939	0.101963
584.304353	0.102197
584.515749	0.102831
584.727127	0.102852
584.938486	0.103098
585.149828	0.102957
585.361151	0.102657
585.572456	0.102825
585.783742	0.102571
585.995011	0.102298
586.206261	0.102102
586.417493	0.102109
586.628706	0.102311
586.839902	0.102563
587.051079	0.102785
587.262238	0.103422
587.473379	0.103538
587.684502	0.103809
587.895606	0.103920
588.106692	0.103985
588.317760	0.103959
588.528810	0.103947
588.739841	0.104064
588.950855	0.104300
589.161850	0.104226
589.372827	0.104213
589.583785	0.104679
589.794726	0.104819
590.005648	0.105431
590.216552	0.105826
590.427437	0.105844
590.638305	0.105980
590.849154	0.105895
591.059985	0.105819
591.270798	0.106352
591.481592	0.106001
591.692369	0.106021
591.903127	0.105773
592.113867	0.105235
592.324588	0.105575
592.535292	0.105722
592.745977	0.105836
592.956644	0.105897
593.167293	0.105814
593.377923	0.106140
593.588536	0.106559
593.799130	0.106586
594.009706	0.106704
594.220263	0.106850
594.430803	0.106823
594.641324	0.107033
594.851827	0.107288
595.062312	0.107095
595.272778	0.107114
595.483227	0.107087
595.693657	0.107111
595.904069	0.107279
596.114462	0.107093
596.324838	0.107048
596.535195	0.106921
596.745534	0.106991
596.955855	0.107301
597.166157	0.107296
597.376441	0.107331
597.586707	0.107726
597.796955	0.107869
598.007185	0.108256
598.217396	0.108367
598.427589	0.108481
598.637764	0.108691
598.847921	0.108674
599.058060	0.108784
599.268180	0.108915
599.478282	0.108884
599.688366	0.108869
599.898431	0.108888
600.108479	0.108747
600.318508	0.108966
600.528519	0.108738
600.738511	0.109091
600.948486	0.109064
601.158442	0.108936
601.368380	0.108975
601.578300	0.109299
601.788202	0.109350
601.998085	0.109568
602.207950	0.109375
602.417797	0.109747
602.627626	0.109466
602.837436	0.109825
603.047228	0.110126
603.257002	0.110228
603.466758	0.110192
603.676496	0.110141
603.886215	0.110113
604.095916	0.110604
604.305599	0.110424
604.515264	0.110409
604.724910	0.110179
604.934538	0.110032
605.144148	0.110499
605.353740	0.110197
605.563314	0.110244
605.772869	0.110375
605.982406	0.110197
606.191925	0.110633
606.401425	0.110893
606.610908	0.111061
606.820372	0.111367
607.029818	0.111191
607.239246	0.111855
607.448655	0.111904
607.658047	0.111831
607.867420	0.111817
608.076775	0.111419
608.286111	0.111209
608.495430	0.111314
608.704730	0.111396
608.914012	0.111069
609.123275	0.110846
609.332521	0.110958
609.541748	0.110966
609.750957	0.111268
609.960148	0.111448
610.169321	0.111635
610.378475	0.111808
610.587611	0.112104
610.796729	0.112515
611.005829	0.112664
611.214910	0.112712
611.423974	0.113300
611.633019	0.113356
611.842045	0.113568
612.051054	0.113610
612.260044	0.113492
612.469017	0.113405
612.677970	0.113472
612.886906	0.113596
613.095824	0.113474
613.304723	0.113399
613.513604	0.113593
613.722467	0.113523
613.931311	0.113773
614.140138	0.114229
614.348946	0.114385
614.557736	0.114247
614.766507	0.114312
614.975261	0.114565
615.183996	0.114794
615.392713	0.114759
615.601412	0.115191
615.810092	0.115007
616.018754	0.114954
616.227399	0.114693
616.436024	0.114905
616.644632	0.115001
616.853222	0.115286
617.061793	0.115153
617.270346	0.115076
617.478880	0.114843
617.687397	0.115229
617.895895	0.115119
618.104375	0.115377
618.312837	0.115493
618.521281	0.115582
618.729706	0.115448
618.938113	0.115574
619.146502	0.115603
619.354873	0.115653
619.563226	0.115890
619.771560	0.116069
619.979876	0.115925
620.188174	0.115961
620.396453	0.115947
620.604715	0.115959
620.812958	0.115887
621.021183	0.115862
621.229390	0.116091
621.437578	0.116126
621.645748	0.116171
621.853900	0.116257
622.062034	0.116363
622.270150	0.116407
622.478247	0.116318
622.686326	0.116625
622.894387	0.116747
623.102430	0.116743
623.310454	0.116738
623.518461	0.116860
623.726449	0.117155
623.934418	0.117250
624.142370	0.117297
624.350303	0.117575
624.558218	0.117687
624.766115	0.118078
624.973994	0.118378
625.181855	0.118223
625.389697	0.118362
625.597521	0.118424
625.805327	0.118658
626.013114	0.118834
626.220883	0.119292
626.428634	0.119328
626.636367	0.119472
626.844082	0.119490
627.051778	0.119778
627.259457	0.119764
627.467117	0.119562
627.674758	0.119429
627.882382	0.119462
628.089987	0.119225
628.297574	0.119209
628.505143	0.119215
628.712694	0.119233
628.920226	0.119459
629.127740	0.119629
629.335236	0.120100
629.542714	0.120147
629.750174	0.120263
629.957615	0.120331
630.165038	0.120417
630.372443	0.120456
630.579829	0.120408
630.787198	0.120268
630.994548	0.120209
631.201880	0.120207
631.409194	0.120337
631.616489	0.120444
631.823766	0.120441
632.031025	0.120392
632.238266	0.120497
632.445489	0.120748
632.652693	0.120778
632.859879	0.120807
633.067047	0.120797
633.274197	0.120920
633.481329	0.120906
633.688442	0.121066
633.895537	0.121206
634.102614	0.121164
634.309672	0.121152
634.516713	0.121085
634.723735	0.121240
634.930739	0.121194
635.137724	0.121329
635.344692	0.121358
635.551641	0.121525
635.758572	0.121626
635.965485	0.121732
636.172379	0.121819
636.379256	0.122215
636.586114	0.122315
636.792954	0.122523
636.999775	0.122535
637.206579	0.122575
637.413364	0.122596
637.620131	0.122654
637.826880	0.122834
638.033610	0.122837
638.240323	0.122839
638.447017	0.122768
638.653692	0.122880
638.860350	0.122984
639.066990	0.122953
639.273611	0.123104
639.480214	0.123143
639.686798	0.123213
639.893365	0.123363
640.099913	0.123266
640.306443	0.123467
640.512955	0.123386
640.719449	0.123514
640.925924	0.123914
641.132381	0.123929
641.338820	0.124135
641.545241	0.124292
641.751644	0.124311
641.958028	0.124612
642.164394	0.124885
642.370742	0.125174
642.577071	0.125146
642.783383	0.125201
642.989676	0.125442
643.195951	0.125599
643.402207	0.125550
643.608446	0.125617
643.814666	0.125716
644.020868	0.125734
644.227052	0.125892
644.433218	0.125943
644.639365	0.125884
644.845494	0.125826
645.051605	0.125692
645.257698	0.125964
645.463772	0.126152
645.669828	0.126055
645.875866	0.126149
646.081886	0.126083
646.287888	0.126280
646.493871	0.126447
646.699836	0.126363
646.905783	0.126424
647.111712	0.126408
647.317622	0.126591
647.523514	0.126899
647.729388	0.126920
647.935244	0.126872
648.141082	0.126848
648.346901	0.127106
648.552702	0.127331
648.758485	0.127666
648.964250	0.127558
649.169996	0.127617
649.375724	0.127362
649.581434	0.127529
649.787126	0.127651
649.992800	0.127807
650.198455	0.127647
650.404092	0.127705
650.609711	0.127866
650.815311	0.127742
651.020894	0.127738
651.226458	0.128161
651.432004	0.128070
651.637532	0.128152
651.843041	0.128321
652.048532	0.128474
652.254006	0.128601
652.459460	0.128697
652.664897	0.129016
652.870315	0.129009
653.075716	0.129016
653.281097	0.129122
653.486461	0.129389
653.691807	0.129478
653.897134	0.129726
654.102443	0.129914
654.307734	0.129873
654.513006	0.130213
654.718261	0.130464
654.923497	0.130600
655.128715	0.130901
655.333915	0.131060
655.539096	0.131072
655.744259	0.130952
655.949404	0.130902
656.154531	0.130971
656.359640	0.130861
656.564730	0.130887
656.769802	0.130934
656.974856	0.131153
657.179892	0.131100
657.384909	0.131201
657.589908	0.131452
657.794889	0.131671
657.999852	0.131849
658.204797	0.131950
658.409723	0.132020
658.614631	0.132358
658.819521	0.132313
659.024393	0.132426
659.229246	0.132502
659.434081	0.132569
659.638898	0.132847
659.843697	0.133006
660.048478	0.133266
660.253240	0.133628
660.457984	0.133694
660.662710	0.133767
660.867417	0.133981
661.072107	0.134106
661.276778	0.134237
661.481431	0.134076
661.686066	0.134123
661.890682	0.134166
662.095281	0.134010
662.299861	0.133929
662.504422	0.134154
662.708966	0.134205
662.913491	0.134492
663.117999	0.134657
663.322488	0.134880
663.526958	0.135096
663.731411	0.135349
663.935845	0.135417
664.140261	0.135500
664.344659	0.135545
664.549038	0.135483
664.753400	0.135438
664.957743	0.135595
665.162068	0.135884
665.366375	0.135838
665.570663	0.135864
665.774933	0.136158
665.979185	0.136132
666.183419	0.136069
666.387635	0.136200
666.591832	0.136375
666.796011	0.136377
667.000172	0.136424
667.204315	0.136647
667.408439	0.136593
667.612545	0.136804
667.816634	0.137077
668.020703	0.137318
668.224755	0.137485
668.428788	0.137852
668.632803	0.137987
668.836800	0.138140
669.040779	0.138357
669.244739	0.138602
669.448681	0.138654
669.652605	0.138713
669.856511	0.138939
670.060399	0.139173
670.264268	0.139058
670.468119	0.139047
670.671952	0.138797
670.875767	0.138766
671.079563	0.138857
671.283341	0.138858
671.487101	0.139032
671.690843	0.139032
671.894567	0.138995
672.098272	0.139075
672.301959	0.139201
672.505628	0.139341
672.709278	0.139502
672.912911	0.139638
673.116525	0.139959
673.320121	0.140074
673.523699	0.140327
673.727258	0.140577
673.930799	0.140781
674.134322	0.141021
674.337827	0.141446
674.541314	0.141519
674.744782	0.141794
674.948232	0.141679
675.151664	0.141846
675.355078	0.141742
675.558474	0.141828
675.761851	0.141668
675.965210	0.141942
676.168551	0.141811
676.371873	0.141840
676.575178	0.141955
676.778464	0.142234
676.981732	0.142324
677.184981	0.142482
677.388213	0.142561
677.591426	0.142773
677.794621	0.142763
677.997798	0.142950
678.200956	0.143091
678.404097	0.142998
678.607219	0.142990
678.810323	0.143360
679.013408	0.143323
679.216476	0.143293
679.419525	0.143437
679.622556	0.143592
679.825569	0.143787
680.028563	0.143903
680.231540	0.144203
680.434498	0.144321
680.637438	0.144171
680.840359	0.144320
681.043263	0.144430
681.246148	0.144541
681.449015	0.144658
681.651864	0.144666
681.854694	0.144921
682.057506	0.144806
682.260301	0.144811
682.463076	0.144864
682.665834	0.145002
682.868573	0.145284
683.071295	0.145314
683.273998	0.145104
683.476682	0.145236
683.679349	0.145183
683.881997	0.145385
684.084627	0.145688
684.287239	0.145817
684.489833	0.145966
684.692408	0.146268
684.894965	0.146606
685.097504	0.147176
685.300025	0.147308
685.502527	0.147370
685.705012	0.147368
685.907478	0.147256
686.109925	0.147298
686.312355	0.147595
686.514766	0.147374
686.717159	0.147263
686.919534	0.147149
687.121891	0.147309
687.324230	0.147319
687.526550	0.147348
687.728852	0.147503
687.931136	0.147703
688.133401	0.147479
688.335649	0.147552
688.537878	0.147809
688.740089	0.147952
688.942281	0.147957
689.144456	0.148406
689.346612	0.148579
689.548750	0.148861
689.750870	0.148886
689.952971	0.148903
690.155055	0.148946
690.357120	0.148991
690.559167	0.148827
690.761195	0.148915
690.963206	0.148709
691.165198	0.148826
691.367172	0.148772
691.569128	0.148959
691.771065	0.149281
691.972984	0.149592
692.174885	0.149714
692.376768	0.150130
692.578633	0.150083
692.780479	0.150185
692.982308	0.150122
693.184118	0.150294
693.385909	0.150381
693.587683	0.150473
