sample name	sample
index	728
start time	 03-25-2021  02:33:43 PM
880	0.108078
Peak Time (s)	82.535
Peak Height 	0.1081
calc peak height	80,83
Baseline Time (s)	9.535
Baseline Value 	-0.006314
subtract baseline	10,4
Abs	0.081762
Peak Time (s)	80.547
Peak Height 	0.08176
calc peak height	80,83
Baseline Time (s)	9.034
Baseline Value 	0.004683
subtract baseline	10,3
PK_550	0.049369
Peak Time (s)	82.038
Peak Height 	0.04937
calc peak height	80,83
Baseline Time (s)	10.036
Baseline Value 	8.1118E-4
subtract baseline	10,2
PK_880	0.074530
Peak Time (s)	82.038
Peak Height 	0.07453
calc peak height	80,83
Baseline Time (s)	11.536
Baseline Value 	0.003524
subtract baseline	10,1


Time (s)	A880-A510	A880-A775	A880-A975	A880	I510	I775	I975	I880	
0.038000	-0.001389	-0.001298	-0.005090	0.001029	7142.965037	43959.242156	3940.745675	23466.297657
0.535500	-0.001581	-0.000451	-0.000783	0.004167	7110.281544	43743.122025	3943.719715	23317.904172
1.036000	-0.003884	-0.000917	-0.007261	0.006778	7062.517059	43454.729773	3920.809014	23195.271229
1.536000	0.001329	-0.000921	0.001978	0.000835	7171.755194	44013.203231	3959.349026	23475.497995
2.036000	-0.000721	-0.000718	0.002838	0.000142	7158.313378	44098.170053	3963.367116	23508.401119
2.536500	0.001173	-0.000351	-0.001502	0.000579	7172.743808	44091.528275	3951.052660	23487.657639
3.037000	-0.002088	-0.000960	-0.003827	0.002188	7124.699869	43881.588950	3941.009992	23411.355297
3.540000	-0.000891	-0.001252	-0.003070	0.002014	7138.174196	43870.493173	3943.379140	23419.588756
4.034500	-0.000945	-0.000507	-0.003983	0.002178	7136.024434	43925.330450	3940.639810	23411.822239
4.535000	-0.001227	0.000325	0.002269	0.002594	7129.166393	43964.685445	3955.563615	23392.166923
5.035500	-0.002348	-0.000327	-0.001325	0.002342	7120.638642	43926.915203	3946.993016	23404.074641
5.535500	-0.002265	-0.000686	0.001030	0.001708	7127.669663	43952.797970	3954.652559	23434.066804
6.035500	-0.000298	-0.000339	-0.002305	-0.000657	7170.414990	44210.072633	3952.164550	23546.465358
6.548000	0.000318	-0.000017	0.002920	-0.000238	7172.360793	44200.800709	3964.565469	23526.493112
7.036500	-0.002043	-0.000279	0.004318	0.001722	7129.718928	43990.029548	3963.109185	23433.441129
7.536500	-0.003071	-0.000328	-0.000627	0.000246	7134.118652	44125.244258	3954.152998	23503.456104
8.072500	-0.000445	-0.000832	-0.000443	-0.001110	7173.452275	44206.333318	3958.121736	23568.056119
8.537500	-0.001163	-0.001110	-0.001926	-0.001166	7166.872552	44185.136492	3954.442568	23570.681470
9.034500	-0.000321	-0.001149	0.000000	-0.001001	7173.593929	44165.809863	3958.982373	23562.851898
9.535000	-0.000260	0.000411	0.001650	0.000000	7164.275051	44218.917917	3960.658581	23515.167695
10.035500	0.002183	0.000000	-0.002295	-0.003025	7218.747968	44468.407814	3958.281239	23659.551101
10.535500	0.002235	0.000165	0.000530	0.000200	7187.065885	44176.510459	3957.250874	23505.672987
11.036000	0.000116	0.000325	0.000304	0.000516	7162.894381	44161.668263	3955.853185	23490.635170
11.536000	0.000000	-0.000044	-0.003299	0.000463	7162.269463	44131.670812	3946.750802	23493.164227
12.036000	-0.002092	-0.000571	0.004066	-0.000060	7146.771415	44131.239925	3967.079713	23518.018379
12.537000	0.000003	-0.000064	-0.003791	0.000198	7164.920226	44154.872035	3946.170921	23505.747707
13.037000	0.000862	0.000155	0.002392	-0.000177	7177.163740	44211.462358	3963.038040	23523.604169
13.537000	-0.000306	0.000002	0.000242	0.000097	7162.865625	44170.822045	3956.772503	23510.549807
14.037000	-0.001281	-0.000430	-0.003784	-0.000499	7159.112065	44186.394106	3947.966662	23538.897764
14.534500	0.000377	-0.000705	-0.001405	-0.000275	7173.309930	44138.927902	3953.492144	23528.238570
15.035000	-0.001295	0.000190	-0.000217	-0.000024	7154.270284	44200.115872	3955.902399	23516.285584
15.535500	-0.000730	-0.000378	0.002207	0.000545	7154.231696	44092.120076	3960.687362	23489.239217
16.036000	-0.001954	-0.000764	0.001359	-0.000194	7149.455529	44125.729565	3960.407036	23524.404525
16.536500	-0.001515	-0.001007	0.001051	-0.000591	7157.707334	44140.346064	3960.639577	23543.314500
17.039500	0.000977	0.000399	0.001760	-0.000113	7177.665532	44228.502861	3961.235604	23520.543556
17.539500	-0.002172	-0.001157	-0.001418	0.000475	7140.713889	44025.005892	3951.533355	23492.609665
18.037500	0.000137	0.000852	-0.000803	0.000880	7159.495030	44177.198940	3952.072352	23473.357036
18.534500	0.000157	0.000014	-0.001593	-0.000336	7171.742496	44213.069541	3953.165616	23531.152364
19.035000	-0.000568	0.000674	0.003416	0.000570	7155.591367	44189.696143	3963.754805	23488.056148
19.535500	-0.002117	-0.000680	-0.003590	0.000700	7139.039832	44048.807045	3945.401569	23481.902072
20.035500	-0.000088	-0.000709	0.001962	-0.002486	7190.668947	44349.162194	3967.918643	23633.759460
20.536000	0.002057	0.000511	-0.004625	-0.001371	7200.943731	44359.140140	3948.047360	23580.474787
21.036000	0.001282	-0.000717	-0.000245	-0.001163	7191.135165	44222.230996	3958.765996	23570.555007
21.536000	-0.000689	-0.000897	-0.002945	0.002101	7139.297942	43895.755281	3943.475090	23415.471141
22.040000	0.001765	0.000514	0.001870	-0.000441	7188.757581	44270.701266	3962.368528	23536.139310
22.536500	-0.000496	0.000247	-0.001982	0.003780	7124.703179	43845.247984	3941.653650	23336.140974
23.037500	0.000021	-0.000357	-0.003582	-0.000884	7175.817112	44229.922287	3949.469321	23557.237169
23.534500	0.001367	-0.000219	-0.002948	-0.000649	7186.869635	44220.794542	3950.494057	23546.071150
24.035000	0.001817	-0.000667	-0.000246	-0.000999	7194.837637	44211.396348	3958.339765	23562.726282
24.535500	-0.001927	-0.000175	-0.000411	0.002488	7123.332045	43927.426565	3948.954732	23397.145567
25.036000	0.000503	0.000163	0.002102	-0.000327	7175.086608	44226.442984	3962.676568	23530.737069
25.536000	-0.002290	-0.000109	0.001649	0.003385	7111.002413	43848.951685	3951.935469	23354.783563
26.036000	0.000106	-0.000080	0.000261	-0.000382	7171.689629	44208.509304	3958.057426	23533.341058
26.539000	-0.003055	-0.001115	-0.000162	0.002068	7116.395148	43878.315330	3950.668208	23417.014820
27.037000	-0.001259	-0.000867	0.003391	-0.001100	7165.273645	44202.001707	3968.030292	23567.544688
27.537000	-0.004607	-0.000853	-0.002256	0.002781	7094.288571	43835.856053	3943.498759	23383.322408
28.037500	0.001009	-0.000491	0.001239	-0.000987	7186.663058	44226.997540	3962.147331	23562.147953
28.535000	0.000214	-0.000206	-0.002205	0.003111	7138.247419	43865.684606	3942.787331	23367.721001
29.035500	-0.000350	-0.001304	-0.004806	-0.001428	7177.538552	44191.609280	3947.730971	23583.198856
29.535500	-0.003180	-0.000760	0.001342	0.002962	7106.431440	43827.491790	3952.232165	23374.750663
30.036000	0.001774	0.000126	0.004276	-0.000302	7187.471084	44220.521383	3968.257341	23529.537815
30.536000	-0.000583	-0.001352	-0.004460	0.002192	7139.446365	43844.250363	3939.392087	23411.163928
31.036500	0.000860	-0.000383	-0.000119	-0.000898	7184.297332	44228.746925	3958.406710	23557.903576
31.536000	-0.001038	-0.000920	0.002200	0.002923	7127.793629	43816.061916	3954.536934	23376.588681
32.037000	-0.000404	-0.000515	0.001453	-0.000873	7171.501828	44213.878434	3962.407448	23556.742556
32.534500	-0.000930	-0.000801	-0.001574	0.002494	7133.060075	43867.681458	3945.967833	23396.857819
33.035000	0.002075	-0.000564	0.002101	-0.000819	7195.614980	44204.038989	3963.946239	23554.145272
33.535000	-0.001827	-0.000149	-0.004069	0.003765	7111.813404	43809.383170	3936.399628	23336.866007
34.035000	0.000326	-0.000285	-0.003114	-0.000549	7175.535039	44204.985981	3949.810790	23541.316785
34.535500	-0.001103	-0.001667	-0.003008	0.003005	7126.352680	43738.091678	3941.015931	23372.740529
35.036000	0.000667	-0.000266	-0.002405	-0.000399	7177.424517	44192.446243	3951.244095	23534.159217
35.536000	-0.002138	-0.000574	-0.003582	0.003722	7109.196336	43773.504457	3937.741269	23338.907309
36.036500	0.000316	-0.000911	0.001451	-0.000891	7178.827668	44177.964547	3962.448916	23557.602981
36.537000	0.001427	-0.000359	-0.000385	-0.000499	7185.975589	44193.130696	3956.693165	23538.932446
37.037000	-0.000837	-0.000671	0.004025	-0.000909	7167.561405	44202.425196	3969.184785	23558.454532
37.537000	-0.002329	0.000144	-0.000133	0.004230	7102.360924	43793.209164	3945.214714	23314.928597
38.035000	-0.000449	-0.000100	-0.000704	-0.000544	7167.798367	44222.099141	3955.988124	23541.076773
38.535500	0.002793	-0.000507	0.001171	-0.000839	7202.982373	44211.366282	3961.588882	23555.113418
39.035000	0.000240	-0.000000	-0.000128	-0.000744	7176.609871	44250.573729	3957.987692	23550.578071
39.535500	-0.002213	-0.000979	0.000477	0.003242	7113.152916	43780.521769	3949.299662	23361.532816
40.036000	0.001374	-0.000428	0.001905	-0.000612	7186.569923	44197.310364	3962.902568	23544.278406
40.539000	0.000731	-0.000028	0.003798	-0.000320	7177.275501	44207.600471	3967.057112	23530.378688
41.036500	0.000056	-0.000136	0.000227	-0.000448	7171.846600	44209.449392	3958.138261	23536.476360
41.537000	-0.005173	-0.001249	-0.003961	0.003283	7083.895948	43751.203754	3937.891460	23359.589909
42.037000	0.001967	-0.000063	0.002724	-0.000239	7188.762127	44196.630892	3964.060814	23526.550806
42.584000	0.001622	-0.000551	0.003094	-0.000426	7187.179673	44167.929673	3965.505083	23535.421252
43.039000	0.000573	-0.000797	0.001590	-0.001313	7185.573206	44228.941952	3963.902361	23577.710583
43.538000	-0.003439	-0.001513	-0.002431	0.003150	7102.069266	43738.902036	3942.113464	23365.868096
44.035500	0.000550	-0.000729	0.002626	-0.000755	7179.794394	44182.266458	3965.142424	23551.104991
44.536500	-0.001892	-0.001050	-0.001783	0.005166	7097.495625	43593.042339	3938.638882	23270.900093
45.039000	-0.000140	-0.000567	0.000751	-0.000745	7172.849838	44196.764541	3960.259032	23550.631824
45.537000	-0.002417	-0.000562	0.000057	0.003656	7107.109175	43780.787109	3947.165981	23341.994967
46.037000	0.000958	-0.000334	0.001842	-0.000422	7180.540758	44188.146529	3962.246964	23535.240919
46.537000	-0.001882	0.000595	0.000207	0.004849	7100.691067	43777.398113	3944.503734	23285.817167
47.037500	0.001669	-0.000216	-0.000739	-0.000214	7185.539461	44179.608718	3955.048510	23525.337775
47.535000	-0.002232	0.000403	0.000052	0.004420	7101.453983	43799.669575	3945.202836	23305.991430
48.035500	0.000412	0.000083	-0.000391	0.000275	7168.213448	44161.658759	3954.686900	23502.111079
48.535500	-0.002106	-0.000074	0.000809	0.004470	7102.197086	43750.125145	3947.006770	23303.644874
49.035500	-0.000310	-0.000962	0.005555	-0.000977	7173.462355	44181.221595	3973.355320	23561.686968
49.536500	-0.001727	-0.001168	-0.001160	-0.001345	7163.073338	44196.712301	3956.875958	23579.249932
50.038500	0.002018	-0.000261	0.005046	-0.000163	7188.515727	44170.484122	3969.901618	23522.925849
50.537000	-0.001597	0.000009	-0.000161	0.005682	7095.344381	43643.988689	3941.446964	23246.675654
51.036500	0.001206	-0.000694	0.001174	-0.000544	7184.218921	44165.563676	3960.834471	23541.038600
51.537000	-0.001566	-0.000695	-0.001540	0.004223	7109.891761	43714.946084	3941.651326	23315.291339
52.034500	-0.000691	0.000213	-0.001012	0.002387	7136.468369	43973.697320	3947.677333	23401.959765
52.534500	-0.000900	0.000017	0.002240	0.005170	7107.143712	43692.869485	3948.875997	23270.719401
53.035500	-0.000540	-0.000445	-0.001262	-0.001036	7171.768089	44235.981510	3955.817346	23564.486962
53.536000	0.001482	-0.000891	0.003908	-0.000894	7190.447202	44180.095562	3968.837514	23557.716774
54.035500	0.001885	-0.000231	0.000078	-0.000078	7186.341113	44165.234652	3956.799478	23518.857236
54.536000	-0.001190	-0.000176	-0.001513	0.004006	7115.683370	43784.098741	3942.270488	23325.488165
55.036500	0.002807	0.000036	0.001104	0.000873	7186.056372	44100.311285	3956.995577	23473.680734
55.536500	0.000476	-0.000149	0.000065	0.000713	7164.505887	44097.977900	3954.731983	23481.268064
56.039500	0.001036	-0.000390	0.001644	0.001029	7166.921911	44045.189094	3957.984921	23466.290317
56.534000	-0.000497	-0.001148	-0.003507	0.000477	7157.215028	44025.549518	3946.181594	23492.473365
57.035000	0.002109	0.000001	-0.002091	0.000984	7178.008772	44086.432853	3948.505969	23468.405613
57.534500	0.002245	0.000086	-0.002745	0.001214	7177.082216	44072.764792	3946.247781	23457.510019
58.035500	0.000134	0.000137	0.001395	0.001526	7153.080034	44047.944723	3956.062952	23442.707494
58.535500	-0.000353	-0.000406	0.003072	0.001021	7153.262796	44044.365241	3961.697294	23466.671198
59.039000	-0.000414	-0.000331	0.001151	0.001018	7152.689707	44051.772790	3956.741846	23466.806140
59.536500	0.000171	-0.000500	0.001131	0.001141	7157.257025	44024.117385	3956.375279	23460.984607
60.039500	0.000315	-0.000312	0.000070	0.000904	7161.019923	44064.371671	3954.254284	23472.219175
60.537000	-0.000295	-0.000760	-0.001632	0.000406	7159.913273	44069.122725	3951.162501	23495.887218
61.037500	-0.001463	-0.001368	0.002587	0.000588	7146.582971	43994.298060	3961.563337	23487.237653
61.535000	-0.001891	-0.000538	-0.005512	0.003146	7117.246653	43831.090754	3934.315523	23366.079140
62.035500	0.000002	0.000079	-0.000037	0.001581	7151.234233	44037.275127	3952.237278	23440.090902
62.535500	0.000752	-0.000831	-0.003218	0.001049	7163.912689	44001.426664	3945.459941	23465.325692
63.037000	0.000460	-0.000540	0.001086	0.001199	7159.539745	44014.858187	3956.108482	23458.218089
63.538500	-0.000377	-0.000106	0.001293	0.003191	7131.653466	43867.598511	3951.520135	23363.938602
64.036000	-0.001608	-0.000921	0.000761	0.000429	7146.720425	44051.730400	3957.254782	23494.783741
64.536000	0.001544	0.000214	0.002905	-0.001144	7193.563393	44309.193901	3966.880085	23569.670967
65.037000	0.004533	-0.000300	0.008256	-0.003438	7246.536764	44479.166253	3986.934936	23679.330133
65.537000	-0.002021	-0.001295	-0.003486	0.003285	7114.607106	43746.639469	3939.089452	23359.489559
66.037500	0.000644	0.000023	0.000414	-0.000410	7177.309840	44221.013446	3958.524142	23534.694264
66.535000	0.002092	0.000471	-0.000767	0.000067	7186.958076	44218.189976	3954.251289	23511.964618
67.035500	0.000927	-0.000190	-0.002047	-0.000112	7177.155983	44172.464312	3951.427129	23520.501954
67.535500	-0.001281	-0.000460	-0.002788	0.002721	7127.388578	43878.466246	3942.295964	23386.125685
68.038000	-0.000791	0.000002	0.001580	0.000916	7149.976245	44093.058242	3958.111890	23471.649842
68.536000	-0.002282	-0.000950	-0.005446	0.001957	7125.068258	43904.407095	3937.489880	23422.288552
69.036500	-0.000951	0.000081	-0.005208	0.001874	7138.958209	44009.704079	3938.302817	23426.237628
69.536500	-0.001002	-0.000349	0.000813	0.003255	7124.889153	43838.632263	3950.126422	23360.925128
70.037000	0.001253	-0.000629	-0.000932	-0.000404	7183.300170	44158.488302	3955.040626	23534.412649
70.537500	-0.000403	-0.000668	-0.002099	0.002213	7141.011328	43906.781330	3945.344764	23410.152828
71.037500	0.002078	-0.000594	0.003481	-0.003449	7221.949586	44452.085968	3974.396804	23679.856097
71.535000	0.000617	-0.000186	-0.000702	0.004006	7133.412852	43783.267986	3944.335727	23325.512468
72.035500	0.001385	0.000704	0.003014	0.003749	7143.492719	43891.301959	3954.506276	23337.610202
72.535500	-0.036799	-0.017807	0.004702	-0.016938	6974.542297	44097.357059	4013.561918	24336.751910
73.035000	-0.033911	-0.008780	0.013600	0.124691	5850.652092	33255.493240	3703.872568	18359.705506
73.536500	-0.039614	-0.013376	0.011471	0.005112	6745.848112	42459.103645	3972.904371	23273.463175
74.036500	-0.035854	-0.015704	0.019850	-0.093473	7777.229290	52276.608128	4289.983299	28475.943855
74.536500	-0.026176	-0.008831	0.028282	-0.068180	7603.729980	50225.779460	4234.672204	27026.571791
75.037000	-0.001426	-0.000987	0.032765	-0.101273	8278.876170	54904.502824	4360.938733	28940.170722
75.537500	0.011269	0.008060	0.032496	-0.072983	8087.920556	52650.235396	4263.984275	27295.366686
76.037500	0.027437	0.015662	0.036401	-0.074273	8302.166326	53679.463616	4281.149072	27368.043016
76.535000	0.044456	0.026424	0.045555	-0.043159	8128.512317	51354.321320	4209.967036	25673.468474
77.035000	0.050076	0.031130	0.047731	-0.019254	7911.490287	49258.640664	4142.988826	24451.565186
77.536000	0.051544	0.034174	0.058046	0.011434	7583.113216	46399.369104	4083.166759	22978.423504
78.036000	0.049496	0.033952	0.063853	0.042609	7235.621053	43364.931625	4012.491720	21584.716274
78.536000	0.054827	0.039573	0.068058	0.058496	7130.667866	42419.485050	3981.308546	20912.064914
79.036500	0.056100	0.040728	0.067158	0.092617	6819.897399	39530.138823	3892.696140	19547.889253
79.536500	0.061457	0.044088	0.064799	0.091616	6878.233168	39899.917701	3889.402474	19586.414897
80.037000	0.067714	0.045054	0.072525	0.082998	7018.074799	40725.637176	3929.740929	19921.671946
80.547000	0.071146	0.047757	0.081762	0.089745	6986.497610	40374.946485	3936.020357	19658.614150
81.034500	0.074081	0.047938	0.079943	0.092631	6986.965607	40142.231422	3924.185099	19547.360102
81.535000	0.069923	0.048032	0.075341	0.103096	6850.474808	39263.195463	3887.131220	19149.998168
82.038500	0.074530	0.049369	0.079598	0.103497	6889.264642	39341.695300	3896.493411	19134.968110
82.535500	0.072492	0.048274	0.075666	0.108078	6828.385129	38868.453033	3875.936917	18964.177650
83.036000	0.073534	0.049169	0.083194	0.111971	6802.453597	38620.944626	3884.664607	18820.436706
83.536500	0.071968	0.050081	0.079110	0.121645	6701.846427	37907.330522	3852.014700	18468.818802
84.037000	0.077100	0.051085	0.087415	0.121045	6752.828637	38036.886390	3873.028306	18490.382129
84.537000	0.074004	0.050828	0.083452	0.125216	6688.307968	37680.320664	3853.815553	18340.959168
85.037000	0.077293	0.051764	0.085673	0.127519	6696.997481	37571.027007	3853.623740	18259.077353
85.535000	0.075813	0.052202	0.084869	0.136226	6608.150264	36916.966956	3831.611769	17953.379183
86.035000	0.079897	0.053797	0.086226	0.134855	6655.467553	37150.160275	3837.877754	18001.117408
86.537500	0.078064	0.054242	0.090694	0.139386	6600.326090	36829.406647	3837.732142	17843.957648
87.035500	0.080474	0.052816	0.087499	0.138881	6625.488135	36757.481514	3831.555721	17861.394186
87.536000	0.078384	0.054634	0.083438	0.148059	6529.157859	36188.400864	3801.711262	17547.636513
88.036000	0.082726	0.056174	0.088114	0.145612	6586.899146	36495.473816	3817.656497	17630.641511
88.536500	0.080068	0.054952	0.085491	0.148189	6542.306881	36202.835629	3805.991414	17543.267245
89.036000	0.082823	0.055590	0.085595	0.148820	6560.332913	36203.401045	3804.817538	17521.945161
89.536500	0.080995	0.056971	0.089946	0.156787	6477.919516	35702.046540	3796.796163	17255.391934
90.037500	0.083104	0.056678	0.089686	0.152052	6535.301454	36039.327094	3806.731692	17413.206186
90.535000	0.084308	0.057526	0.093914	0.155436	6516.923091	35846.311834	3808.617375	17300.228103
91.035500	0.084614	0.057171	0.088724	0.155579	6518.300747	35808.552725	3796.767313	17295.495910
91.535500	0.082893	0.057746	0.090151	0.161879	6451.438661	35377.504065	3786.063618	17087.569795
92.035500	0.087198	0.058652	0.095437	0.158508	6515.396963	35699.026687	3805.159697	17198.440342
92.538000	0.086968	0.057850	0.097324	0.160343	6498.077769	35500.414586	3805.275253	17137.987393
93.036000	0.088920	0.058795	0.097905	0.161195	6507.291753	35507.390460	3804.673132	17109.998183
93.536000	0.086116	0.058705	0.094850	0.167526	6431.475126	35028.723471	3783.994472	16903.729602
94.037000	0.089700	0.059221	0.091794	0.163241	6496.688156	35385.968414	3786.675878	17043.005526
94.537000	0.091116	0.060612	0.097933	0.166191	6483.886575	35269.502136	3793.671175	16946.977633
95.037500	0.091472	0.060154	0.099963	0.165914	6489.158259	35255.976550	3798.764334	16955.955829
95.535000	0.087068	0.059120	0.094553	0.171681	6405.265524	34753.133058	3774.342350	16769.995521
96.037500	0.091878	0.058991	0.097926	0.167234	6481.544120	35071.518529	3791.363325	16913.187794
96.536000	0.091427	0.060038	0.099675	0.169291	6460.720483	34996.806622	3790.687960	16846.778102
