sample name	sample
index	963
start time	 04-12-2021  04:15:48 PM
880	0.554201
Peak Time (s)	122.037
Peak Height 	0.5542
calc peak height	120,123
Baseline Time (s)	10.539
Baseline Value 	-0.002914
subtract baseline	10,4
Abs	0.385742
Peak Time (s)	121.036
Peak Height 	0.3857
calc peak height	120,123
Baseline Time (s)	9.556
Baseline Value 	0.002419
subtract baseline	10,3
PK_550	0.205288
Peak Time (s)	120.536
Peak Height 	0.2053
calc peak height	120,123
Baseline Time (s)	11.036
Baseline Value 	8.1996E-4
subtract baseline	10,2
PK_880	0.358124
Peak Time (s)	120.536
Peak Height 	0.3581
calc peak height	120,123
Baseline Time (s)	9.035
Baseline Value 	0.00163
subtract baseline	10,1


Time (s)	A880-A510	A880-A775	A880-A975	A880	I510	I775	I975	I880	
0.035000	-0.001448	-0.001073	0.000736	0.001175	7114.405618	42947.082603	3941.049963	23146.874778
0.538000	-0.003391	-0.000521	-0.006190	0.003315	7074.879844	42801.166747	3918.462106	23047.308171
1.036000	-0.004773	-0.001134	-0.001743	0.002785	7066.672952	42793.549377	3930.802175	23071.887896
1.536500	-0.006103	-0.000773	-0.009083	0.006146	7021.819564	42519.453957	3904.439511	22916.330168
2.036500	-0.001310	-0.001057	0.000355	0.000405	7123.238466	43019.505859	3942.026913	23182.805727
2.537000	-0.000524	0.000059	-0.003442	0.000985	7125.245585	43068.912079	3931.054546	23155.730184
3.037000	0.000708	0.000031	-0.003001	-0.001154	7158.241982	43264.326880	3937.508815	23255.782774
3.537000	-0.001490	-0.000324	-0.006616	0.003984	7086.769840	42757.969495	3915.764243	23016.281298
4.037000	-0.001078	-0.000894	-0.000654	0.000018	7129.281070	43070.220945	3940.461372	23200.893931
4.535000	0.000057	-0.000727	-0.002358	0.000246	7138.144255	43064.603705	3935.611255	23190.246262
5.035500	-0.003116	-0.000360	-0.002047	0.000237	7107.307402	43099.387749	3936.415103	23190.668051
5.535500	-0.001356	0.000368	0.000006	0.000829	7118.654152	43111.899253	3940.079846	23162.984071
6.039000	0.001121	0.000239	-0.002683	0.000662	7144.478665	43115.369566	3933.754440	23170.778527
6.536000	-0.001163	-0.000076	-0.003885	0.000056	7128.077431	43142.264419	3932.266361	23199.113638
7.036000	-0.000043	0.000377	-0.000370	0.000717	7132.556850	43123.104930	3939.417478	23168.226458
7.534000	-0.000460	-0.000303	-0.004492	-0.000118	7136.644066	43137.363181	3931.185577	23207.251924
8.037000	-0.000792	-0.000720	-0.006435	-0.000249	7134.674447	43111.008072	3926.675518	23213.392130
8.534500	-0.001619	-0.000528	-0.004509	-0.000275	7126.854571	43131.163808	3931.535464	23214.609102
9.035000	0.000000	-0.000122	-0.002594	0.000175	7138.269554	43127.023269	3935.197883	23193.531697
9.556500	0.000219	0.000044	0.000000	0.000550	7136.747922	43107.789092	3940.769189	23176.040894
10.035000	-0.000244	-0.000302	0.002347	-0.000304	7140.569567	43154.682995	3948.855030	23215.959695
10.538500	0.000913	0.000397	0.002876	0.000000	7148.926167	43191.232959	3949.424014	23201.730230
11.036000	0.000554	0.000000	-0.001110	-0.000220	7147.563383	43174.904833	3939.912907	23212.037060
11.537000	-0.000881	0.000519	0.001924	0.000536	7126.147685	43152.991015	3945.658519	23176.702817
12.036500	0.000090	0.000009	0.004564	0.000213	7138.775695	43135.674881	3953.172295	23191.765785
12.538000	0.001144	0.000431	-0.002327	0.000316	7148.093289	43165.170033	3935.513515	23186.957094
13.037500	0.000141	-0.000844	0.003521	-0.001761	7158.629641	43239.470317	3955.544834	23284.249787
13.537500	-0.000798	0.000761	0.003868	0.001074	7121.708434	43125.631273	3949.217173	23151.582308
14.051500	-0.004102	-0.001128	-0.001793	0.005458	7047.481573	42549.883869	3924.034238	22948.104610
14.535000	-0.000248	0.000683	0.000930	0.003187	7106.506145	42923.507348	3936.480395	23053.217507
15.037500	-0.000210	0.000409	-0.002305	0.001933	7119.069479	43013.768226	3931.524723	23111.535966
15.611000	-0.000234	-0.000690	0.002597	0.000705	7130.806210	43025.673353	3946.932011	23168.781629
16.036500	-0.002255	-0.000430	-0.006583	0.004501	7074.402410	42700.971667	3914.575942	22992.343707
16.536500	0.001262	0.000913	-0.002032	0.001543	7137.237610	43096.256898	3933.181996	23129.707581
17.037000	-0.001609	-0.000530	-0.000727	0.000139	7122.911826	43092.593280	3939.972484	23195.211853
17.534500	0.000593	0.000447	0.002049	0.001741	7128.764455	43034.940241	3942.931204	23120.477342
18.034500	-0.000882	0.000153	0.001799	0.002490	7107.113474	42938.894159	3940.412003	23085.602646
18.537500	0.000215	-0.000481	-0.003932	0.001664	7125.829395	42956.473106	3928.140307	23124.040755
19.035000	0.000785	-0.000024	-0.000139	0.002115	7126.990791	42957.107772	3936.486626	23103.047334
19.535000	-0.000551	0.000398	-0.001872	0.002096	7114.170878	42997.752040	3932.199193	23103.949782
20.035000	-0.000692	0.000476	0.005179	0.003806	7096.205471	42847.638334	3945.619530	23024.526848
20.538500	0.000289	0.000152	0.001291	0.002136	7121.951919	42971.357820	3940.024780	23102.066555
21.044000	0.001117	0.000884	-0.001940	0.002725	7124.284196	42984.557457	3930.461756	23074.712193
21.536000	-0.001613	-0.000241	0.002710	0.001690	7107.797089	42976.230767	3944.726497	23122.857595
22.037000	-0.002743	-0.000099	0.002420	0.003470	7079.634272	42825.758117	3939.511620	23040.122961
22.537500	0.001528	0.000792	0.004061	0.002601	7129.499801	42987.510933	3945.837181	23080.445802
23.037500	-0.001447	0.000745	-0.001399	0.002430	7102.214725	42998.928336	3932.546825	23088.399692
23.534500	-0.000344	0.000419	0.001679	0.002344	7113.773437	42976.821561	3940.479102	23092.430315
24.035500	0.000408	0.000232	0.002349	0.002584	7118.749164	42937.543929	3941.561384	23081.245736
24.538000	-0.000550	0.000662	0.000449	0.002584	7109.437104	42977.170380	3936.787988	23081.268420
25.035500	-0.000039	0.000875	0.004547	0.002759	7112.694010	42980.596674	3946.668898	23073.116325
25.536500	0.000376	0.000528	-0.000693	0.002059	7123.556854	43013.162673	3935.242588	23105.689344
26.036000	-0.002258	-0.000264	-0.002846	0.003778	7081.346077	42782.319767	3925.588658	23025.842606
26.537000	-0.000852	0.000272	-0.003166	0.002225	7109.982623	42974.190408	3928.652933	23097.942440
27.037500	0.000048	0.000860	-0.000338	0.002681	7114.298204	42986.317644	3934.569701	23076.722126
27.534500	-0.000599	-0.000076	-0.000342	0.001883	7115.769785	42973.727808	3936.562367	23113.871906
28.040500	-0.000309	-0.000088	-0.004117	-0.001906	7155.640529	43323.117177	3936.598206	23291.081160
28.535500	0.000777	0.000459	0.003636	0.000932	7138.475192	43110.811928	3948.988919	23158.201279
29.034500	0.000272	0.000546	0.005366	0.000927	7133.587362	43119.281917	3953.397245	23158.442613
29.535500	0.000884	0.000849	0.002278	0.002358	7125.591296	43015.132683	3941.951551	23091.755363
30.036000	-0.002266	0.000350	0.002575	0.006643	7053.710101	42576.493807	3931.949680	22893.450876
30.536500	0.001851	0.001351	0.007131	0.001655	7141.904435	43126.398893	3956.039128	23124.467180
31.036500	0.001647	0.000535	0.007139	0.001222	7144.143429	43090.980493	3957.165529	23144.668182
31.537000	-0.001867	0.000232	-0.002797	0.003517	7087.637255	42851.761386	3926.357184	23037.936101
32.040500	-0.004649	0.000745	-0.002314	0.006780	7029.621900	42600.075892	3919.473759	22887.123954
32.537500	-0.000080	0.000481	0.000393	0.000949	7129.929111	43111.237926	3940.752956	23157.396952
33.038000	-0.001024	0.000088	0.002231	0.000964	7120.575498	43073.528494	3945.349274	23156.680130
33.538000	-0.001885	0.000069	0.003945	0.003658	7086.094575	42823.868656	3942.876808	23031.378735
34.035500	-0.004043	0.000227	0.000009	0.006637	7036.774959	42565.873284	3925.579638	22893.737151
34.538500	-0.001834	0.000063	0.001714	0.002739	7095.476301	42907.701515	3939.573675	23074.055143
35.036000	-0.000352	0.000024	0.002310	0.002714	7110.094039	42906.347019	3941.135687	23075.192883
35.539000	-0.000230	0.000004	-0.000461	0.003077	7107.755487	42871.203865	3933.272386	23058.338134
36.036500	-0.001441	-0.000165	0.000465	0.004212	7085.027353	42751.551364	3932.751187	23005.689339
36.537000	-0.000177	0.000356	-0.001736	0.003148	7107.572133	42896.972172	3929.914565	23055.036789
37.037500	-0.000686	0.000461	0.001449	0.003439	7099.815648	42879.979423	3937.150871	23041.538978
37.540500	-0.001091	0.000029	0.005936	0.002686	7103.187873	42909.463442	3950.373990	23076.495794
38.035500	-0.003820	-0.000288	-0.005132	0.004097	7063.235112	42750.944841	3919.141757	23011.049917
38.535500	-0.000792	0.000574	0.000594	0.002922	7103.802119	42937.836186	3936.302629	23065.534478
39.036000	-0.000273	-0.000298	-0.000373	0.002101	7116.821197	42933.121736	3935.937112	23103.705499
39.538500	0.000968	-0.000014	0.000130	0.002425	7125.756765	42929.523248	3936.384153	23088.640217
40.036000	-0.002534	-0.001078	-0.006752	0.003681	7079.607047	42716.609499	3916.176272	23030.312858
40.536500	-0.000559	0.000631	0.002479	0.002507	7110.100857	42981.379401	3942.083632	23084.847170
41.036500	-0.001522	0.000315	-0.002888	0.002438	7101.410157	42958.535767	3928.812367	23088.018300
41.537000	-0.002270	0.000119	-0.001028	0.002674	7091.892657	42918.875973	3932.865091	23077.070243
42.037500	-0.001885	0.000179	0.000674	0.004213	7080.735635	42783.014255	3933.270286	23005.652037
42.537500	-0.000446	0.000929	-0.002025	0.002774	7108.595530	42984.165059	3930.126655	23072.418398
43.035000	-0.000951	0.000276	-0.002910	0.002932	7102.160771	42909.552890	3927.530836	23065.088678
43.537500	-0.001131	-0.000187	-0.000352	0.002156	7107.949366	42938.301277	3935.852592	23101.155623
44.036000	-0.003145	0.000357	-0.001303	0.004775	7063.201910	42747.824848	3926.942693	22979.660778
44.535500	0.002938	0.001442	0.003093	-0.000744	7176.155560	43357.233395	3951.864462	23236.534452
45.039500	-0.000323	0.000094	-0.000626	0.000905	7127.988693	43079.529691	3938.302594	23159.441172
45.536500	0.000484	-0.000094	0.001348	0.000631	7138.540560	43087.498406	3943.960450	23172.234794
46.037000	-0.002713	-0.000224	-0.000764	0.004707	7068.002138	42700.877935	3928.452410	22982.805863
46.534500	0.001042	0.001308	0.001564	0.001920	7131.409833	43097.925385	3941.258077	23112.149490
47.034500	0.001105	-0.000578	0.001586	0.001037	7140.650844	43005.427236	3943.537369	23153.303220
47.537500	0.001068	0.000956	-0.000507	0.001862	7132.217315	43070.737269	3936.198727	23114.831451
48.035500	-0.003789	0.000100	-0.000929	0.005819	7047.020790	42628.919129	3925.279929	22931.436357
48.538000	-0.000518	0.000827	0.002235	0.004179	7094.280122	42845.605079	3937.264706	23007.244591
49.038500	-0.000499	0.000677	-0.001128	0.001834	7117.226643	43047.649664	3934.715605	23116.165555
49.536000	-0.000624	0.000096	-0.000341	0.001530	7118.964684	43022.050549	3937.448704	23130.296442
50.036500	-0.002851	0.000742	-0.000522	0.005488	7059.182186	42717.911919	3927.113918	22946.725292
50.537000	0.003016	0.000615	0.002837	-0.000963	7179.102478	43300.811566	3951.773332	23246.834028
51.037000	-0.002907	0.001477	0.004208	0.006761	7046.437770	42668.584270	3935.737260	22887.998730
51.534500	-0.026737	-0.007439	0.017850	0.149470	5722.874869	30971.163542	3656.015069	17287.810940
52.038000	-0.051852	-0.007767	-0.006849	0.117681	5766.731787	33074.459243	3669.318197	18381.035831
52.535000	-0.040017	-0.027851	-0.015952	-0.173610	8670.375897	59178.357752	4421.150210	33182.941362
53.035500	-0.031270	-0.162982	-0.006972	-0.355276	11850.745334	65535.000000	5288.301861	48915.266407
53.535500	-0.030280	-0.140388	-0.008285	-0.332682	11415.936578	65535.000000	5157.583352	46582.140476
54.036000	-0.039097	-0.122927	-0.012296	-0.315222	10915.412161	65535.000000	5046.161513	44860.449185
54.536000	-0.037854	-0.105035	-0.001202	-0.297329	10613.606907	65535.000000	5012.016830	43166.568994
55.036500	-0.009811	-0.077615	-0.003363	-0.269773	10622.258919	65515.359124	4868.871011	40690.482142
55.537000	-0.003093	-0.098373	-0.006130	-0.290668	11129.798744	65535.000000	4955.023364	42553.522456
56.037500	0.002906	-0.087253	-0.000065	-0.279548	11033.209914	65535.000000	4930.635636	41550.885981
56.540000	0.001564	-0.051462	0.002715	-0.234878	10214.696504	64269.067609	4739.117059	37772.304792
57.035000	-0.000261	-0.033009	0.003931	-0.203234	9671.487185	62435.282755	4611.132165	35321.171146
57.535000	0.002927	-0.019266	0.002544	-0.168390	9194.826012	59615.387833	4469.988032	32820.998793
58.035500	0.005994	-0.012142	0.002499	-0.137942	8809.659065	56653.868401	4359.992440	30794.609481
58.535500	0.003901	-0.009579	0.008065	-0.101798	8310.832074	52659.580233	4257.175988	28566.417296
59.036000	0.007798	-0.005317	0.004106	-0.076095	8045.411006	50266.319156	4164.126027	27091.022843
59.536000	0.008686	-0.003836	0.010843	-0.058408	7849.834220	48534.106162	4131.351233	26125.315152
60.036500	0.008799	-0.001597	0.008408	-0.036592	7608.124812	46526.148909	4061.637824	24987.086934
60.537000	0.011630	-0.000791	0.013266	-0.017659	7436.428613	44745.756511	4022.926810	24044.563649
61.037500	0.008938	-0.000846	0.016316	0.005250	7176.215443	42594.486741	3970.397718	22957.679811
61.534500	0.017049	0.002686	0.022063	0.018570	7125.134268	41711.538210	3950.991052	22351.629731
62.035000	0.020874	0.004588	0.025306	0.032424	7028.470930	40660.099065	3924.363692	21740.670312
62.535500	0.024958	0.008104	0.033664	0.044724	6950.934790	39905.546092	3914.634177	21214.343852
63.035500	0.029266	0.010215	0.043669	0.058317	6865.052722	38941.917728	3905.855756	20649.739643
63.536000	0.042747	0.016323	0.049673	0.072759	6856.264095	38258.322057	3885.494828	20068.934305
64.036000	0.050154	0.022039	0.063368	0.100220	6677.325062	36535.224138	3853.116140	19016.459884
64.536500	0.066358	0.030788	0.079570	0.118164	6662.185176	35832.155299	3849.091664	18363.819303
65.037000	0.084957	0.038568	0.100991	0.143782	6601.733836	34510.048035	3839.461472	17477.614588
65.537000	0.103607	0.048751	0.112190	0.163152	6595.577295	33849.895544	3820.976982	16841.370055
66.037000	0.119837	0.059279	0.131457	0.183100	6564.003664	33187.442812	3819.452772	16215.150792
66.534500	0.134937	0.066578	0.144609	0.203338	6520.795380	32300.603134	3803.725497	15608.538988
67.035000	0.144353	0.071059	0.147742	0.215641	6496.749966	31777.177175	3783.750742	15253.372052
67.535500	0.151308	0.075726	0.162390	0.227749	6454.220900	31287.921726	3789.241435	14913.502798
68.037000	0.164805	0.082505	0.169585	0.239805	6466.062624	30945.985370	3778.762467	14584.377384
68.535500	0.171071	0.086316	0.178547	0.250976	6425.909758	30475.973949	3774.038733	14287.476202
69.047000	0.177796	0.090982	0.186047	0.267219	6349.276014	29752.520730	3755.576999	13869.146507
69.537000	0.185190	0.094927	0.194941	0.275763	6340.137921	29470.504604	3756.309170	13655.322995
70.037000	0.190579	0.099386	0.201738	0.292879	6248.250799	28709.527641	3734.975354	13239.384949
70.540000	0.201531	0.104791	0.216735	0.298792	6287.421425	28679.406392	3753.728585	13099.447942
71.037500	0.206538	0.108320	0.222487	0.310483	6235.551740	28200.837457	3741.423907	12828.353417
71.535000	0.213567	0.112096	0.228325	0.317487	6235.743543	28013.997126	3739.026804	12669.382530
72.035000	0.217860	0.116034	0.233125	0.335225	6133.785151	27230.945742	3712.868191	12278.117518
72.538500	0.227624	0.119888	0.240899	0.339099	6178.058830	27229.811213	3720.670332	12194.751131
73.036000	0.232347	0.124776	0.247525	0.352460	6113.322690	26761.209695	3707.235501	11912.912977
73.536000	0.241631	0.128404	0.252782	0.357767	6142.974135	26669.425021	3707.138880	11803.359418
74.036500	0.245067	0.131589	0.260717	0.371142	6069.397341	26119.972850	3696.442106	11533.117558
74.537000	0.250746	0.135416	0.265632	0.373609	6092.987159	26192.590913	3701.238637	11484.168945
75.039500	0.253365	0.136386	0.266769	0.383076	6042.896031	25742.739037	3685.023008	11298.907984
75.537000	0.261765	0.141745	0.275784	0.388107	6067.436764	25759.940784	3692.739425	11202.071433
76.034500	0.263573	0.143782	0.270940	0.398871	6002.605217	25306.656497	3662.909838	10998.642195
76.535000	0.272320	0.148316	0.290817	0.400955	6050.717784	25433.033357	3697.002002	10959.848050
77.035500	0.272342	0.149796	0.283617	0.411050	5978.270715	24991.913294	3663.844631	10774.480965
77.536000	0.278832	0.152601	0.295845	0.412743	6012.561020	25048.350393	3683.884145	10743.808502
78.036000	0.284738	0.155274	0.303342	0.418533	6013.392910	24890.528514	3687.179084	10639.837005
78.535500	0.286978	0.156276	0.301695	0.422663	5999.830290	24733.234751	3676.084930	10566.499202
79.036500	0.293501	0.160430	0.308603	0.429782	5995.574493	24585.215108	3675.682300	10441.734474
79.537000	0.296533	0.163005	0.315871	0.435399	5977.148253	24434.357384	3678.837188	10344.719065
80.037000	0.300781	0.166016	0.315091	0.441568	5963.526195	24278.871342	3665.643229	10239.601228
80.538000	0.301097	0.166848	0.324351	0.444944	5941.953872	24154.456215	3676.801023	10182.717588
81.034500	0.301540	0.167691	0.319048	0.454003	5882.017022	23757.529523	3649.830007	10032.208686
81.535000	0.303953	0.168547	0.324835	0.452035	5912.345264	23893.130791	3664.282808	10064.642913
82.035500	0.303567	0.170723	0.330470	0.456404	5879.441656	23787.764592	3666.666313	9992.846170
82.536000	0.310822	0.172778	0.329487	0.461149	5896.767323	23659.300443	3655.937831	9915.697480
83.036500	0.310200	0.173966	0.334654	0.469056	5838.313369	23341.740324	3650.854364	9788.983406
83.536000	0.316742	0.176882	0.337026	0.469946	5876.925530	23436.963268	3653.599478	9774.865633
84.036000	0.314830	0.175687	0.337154	0.476732	5817.707870	23064.381612	3641.338815	9668.147208
84.537000	0.319690	0.179028	0.340157	0.475220	5860.969516	23290.077111	3649.630757	9691.774880
85.037000	0.316827	0.178983	0.335202	0.483599	5785.075910	22899.871317	3625.386523	9561.856858
85.537500	0.320617	0.180590	0.337180	0.480750	5829.658836	23105.351645	3634.077858	9605.750962
86.035000	0.324286	0.182289	0.344631	0.484691	5827.813430	23001.683487	3640.458194	9545.101405
86.535000	0.326684	0.184129	0.347438	0.487827	5822.828711	22942.026527	3639.857725	9497.235907
87.035500	0.322388	0.183201	0.345110	0.495557	5742.757373	22547.940097	3621.722227	9380.712642
87.536000	0.326577	0.184375	0.348111	0.490863	5801.685006	22814.154326	3635.558880	9451.219709
88.036500	0.327351	0.185874	0.352033	0.499983	5746.290670	22469.122532	3626.186688	9314.931000
88.537000	0.326208	0.185706	0.351264	0.494937	5772.064145	22689.255797	3633.891003	9389.985445
89.039500	0.331898	0.188505	0.347931	0.505490	5739.985855	22340.440669	3609.152251	9234.003041
89.537000	0.331568	0.187117	0.357491	0.499304	5778.656665	22555.556258	3637.264162	9324.971072
90.037500	0.335079	0.189638	0.355952	0.502174	5782.922937	22539.834527	3629.289435	9282.609939
90.535000	0.332607	0.189767	0.349053	0.503126	5760.212935	22502.807204	3615.289080	9268.617782
91.035500	0.336337	0.191236	0.357006	0.505309	5770.451453	22470.724368	3625.554219	9236.645807
91.535500	0.336775	0.191906	0.357622	0.506723	5763.986554	22437.328053	3624.125580	9216.016601
92.036000	0.335402	0.191141	0.358070	0.507198	5751.787311	22381.848547	3624.077037	9209.110119
92.536000	0.339712	0.191220	0.360188	0.509364	5765.942141	22288.773775	3623.990710	9177.673909
93.036500	0.335831	0.192520	0.364958	0.516141	5696.249049	22046.782230	3620.413946	9080.366956
93.539500	0.339232	0.192894	0.366207	0.511362	5749.584979	22274.379916	3631.210802	9148.825954
94.037000	0.340154	0.195845	0.359903	0.519490	5702.553222	22045.736122	3605.605767	9032.832496
94.534500	0.343954	0.194249	0.362757	0.513199	5768.641176	22253.009999	3621.732074	9122.425272
95.035000	0.337269	0.193136	0.366337	0.519306	5685.118066	21935.189412	3617.240502	9035.426648
95.535000	0.340515	0.193834	0.361830	0.516271	5725.816006	22098.824803	3614.636111	9078.501899
96.035500	0.335890	0.194399	0.365685	0.524002	5646.302835	21785.898623	3607.824587	8969.364958
96.535500	0.343690	0.196674	0.366036	0.520870	5716.540310	22021.547442	3613.943979	9013.339227
97.036000	0.336630	0.196099	0.370952	0.527905	5626.307630	21690.735025	3610.214323	8914.990555
97.536000	0.340887	0.195250	0.359098	0.521129	5696.688191	21947.890430	3601.351986	9009.700193
