sample name	sample
index	160
start time	 02-15-2021  03:08:48 PM


Wavelength (nm)	Absorbance
494.344910	-0.101811
494.563924	-0.101811
494.782919	-0.101811
495.001897	-0.103438
495.220856	NaN
495.439797	NaN
495.658719	NaN
495.877624	-0.869675
496.096510	NaN
496.315378	-0.922530
496.534227	NaN
496.753059	NaN
496.971872	NaN
497.190667	0.109893
497.409444	0.084867
497.628203	0.066199
497.846943	0.065286
498.065665	0.070157
498.284369	0.065601
498.503055	0.066503
498.721723	0.066392
498.940372	0.066272
499.159003	0.070451
499.377616	0.071305
499.596210	0.072336
499.814787	0.071437
500.033345	0.071259
500.251885	0.073223
500.470406	0.072913
500.688910	0.072781
500.907395	0.075020
501.125862	0.072243
501.344311	0.072113
501.562742	0.074379
501.781154	0.077380
501.999548	0.076080
502.217924	0.075797
502.436282	0.081003
502.654621	0.081984
502.872942	0.081946
503.091245	0.085528
503.309530	0.082323
503.527797	0.083253
503.746045	0.083201
503.964275	0.082826
504.182487	0.086193
504.400681	0.083882
504.618856	0.082813
504.837013	0.081892
505.055152	0.080985
505.273273	0.084230
505.491376	0.083389
505.709460	0.084254
505.927526	0.084742
506.145574	0.081506
506.363604	0.081793
506.581615	0.082935
506.799608	0.083036
507.017583	0.082120
507.235540	0.082110
507.453478	0.081714
507.671399	0.079478
507.889301	0.080719
508.107185	0.081236
508.325050	0.082084
508.542898	0.081106
508.760727	0.082805
508.978538	0.084637
509.196330	0.084421
509.414105	0.084473
509.631861	0.087117
509.849599	0.085198
510.067319	0.084665
510.285021	0.085373
510.502704	0.085887
510.720369	0.085150
510.938016	0.084160
511.155645	0.085408
511.373255	0.088345
511.590848	0.086830
511.808422	0.088067
512.025977	0.089441
512.243515	0.088238
512.461034	0.090839
512.678536	0.090757
512.896018	0.087278
513.113483	0.086275
513.330930	0.085310
513.548358	0.086756
513.765768	0.087888
513.983160	0.089074
514.200533	0.089656
514.417889	0.089009
514.635226	0.092546
514.852545	0.096708
515.069845	0.096464
515.287128	0.096393
515.504392	0.096505
515.721638	0.096952
515.938866	0.095888
516.156075	0.095689
516.373267	0.094474
516.590440	0.091962
516.807594	0.090468
517.024731	0.090589
517.241850	0.091846
517.458950	0.090260
517.676032	0.089626
517.893095	0.090792
518.110141	0.092007
518.327168	0.092130
518.544177	0.092626
518.761168	0.093823
518.978141	0.094565
519.195095	0.093702
519.412031	0.094449
519.628949	0.095168
519.845849	0.095173
520.062731	0.094074
520.279594	0.095103
520.496439	0.095622
520.713266	0.095407
520.930074	0.096039
521.146865	0.096168
521.363637	0.096136
521.580391	0.096293
521.797127	0.095790
522.013844	0.096201
522.230543	0.097298
522.447224	0.096835
522.663887	0.097710
522.880532	0.097544
523.097158	0.095885
523.313766	0.097125
523.530356	0.095767
523.746928	0.097969
523.963481	0.097878
524.180017	0.097736
524.396534	0.097912
524.613032	0.097636
524.829513	0.097059
525.045975	0.100281
525.262420	0.100760
525.478845	0.100939
525.695253	0.098646
525.911643	0.098593
526.128014	0.098978
526.344367	0.099398
526.560702	0.100453
526.777018	0.102499
526.993316	0.103003
527.209597	0.102215
527.425858	0.104647
527.642102	0.104592
527.858328	0.105716
528.074535	0.104991
528.290724	0.107269
528.506894	0.108215
528.723047	0.107280
528.939181	0.107869
529.155297	0.108880
529.371395	0.109477
529.587475	0.111885
529.803536	0.112305
530.019579	0.112634
530.235604	0.111573
530.451611	0.111134
530.667600	0.110592
530.883570	0.110527
531.099522	0.110530
531.315456	0.110024
531.531372	0.111048
531.747269	0.111776
531.963148	0.112019
532.179009	0.112758
532.394852	0.113558
532.610676	0.115425
532.826482	0.113623
533.042271	0.114149
533.258040	0.114011
533.473792	0.112124
533.689525	0.111779
533.905240	0.113378
534.120937	0.111946
534.336616	0.112717
534.552277	0.112642
534.767919	0.113246
534.983543	0.114353
535.199149	0.114552
535.414736	0.113976
535.630306	0.115573
535.845857	0.116058
536.061390	0.117949
536.276904	0.117285
536.492401	0.118531
536.707879	0.119551
536.923339	0.117994
537.138781	0.119321
537.354204	0.121532
537.569610	0.121263
537.784997	0.119866
538.000366	0.118888
538.215716	0.118731
538.431049	0.118439
538.646363	0.117507
538.861659	0.118778
539.076937	0.118453
539.292196	0.119405
539.507438	0.119282
539.722661	0.120457
539.937866	0.121002
540.153052	0.121912
540.368221	0.123494
540.583371	0.124578
540.798503	0.126329
541.013617	0.126548
541.228712	0.126075
541.443789	0.126688
541.658848	0.127347
541.873889	0.127719
542.088912	0.129147
542.303916	0.128158
542.518902	0.128948
542.733870	0.127653
542.948820	0.127885
543.163752	0.128744
543.378665	0.129571
543.593560	0.128742
543.808437	0.128836
544.023295	0.127782
544.238136	0.129140
544.452958	0.129436
544.667762	0.130170
544.882548	0.131313
545.097315	0.131891
545.312064	0.131856
545.526795	0.134179
545.741508	0.134965
545.956203	0.135054
546.170879	0.134822
546.385537	0.135140
546.600177	0.135648
546.814799	0.134579
547.029402	0.134072
547.243988	0.133016
547.458555	0.132421
547.673103	0.131890
547.887634	0.132754
548.102146	0.131917
548.316640	0.131608
548.531116	0.130789
548.745574	0.131952
548.960013	0.131844
549.174435	0.133410
549.388838	0.133503
549.603222	0.134290
549.817589	0.134705
550.031937	0.135809
550.246267	0.136140
550.460579	0.137718
550.674873	0.137389
550.889148	0.138578
551.103405	0.138113
551.317644	0.138749
551.531865	0.139122
551.746068	0.139137
551.960252	0.138623
552.174418	0.139703
552.388566	0.139167
552.602696	0.138959
552.816807	0.138404
553.030900	0.138528
553.244975	0.137305
553.459032	0.137619
553.673070	0.137878
553.887091	0.138665
554.101093	0.137963
554.315077	0.138053
554.529042	0.139261
554.742990	0.140369
554.956919	0.141051
555.170830	0.142236
555.384722	0.142137
555.598597	0.141405
555.812453	0.142188
556.026291	0.143231
556.240111	0.142999
556.453913	0.142364
556.667696	0.142098
556.881461	0.142046
557.095208	0.140617
557.308937	0.141235
557.522647	0.143189
557.736339	0.142673
557.950013	0.141691
558.163669	0.143049
558.377307	0.144429
558.590926	0.144087
558.804527	0.145530
559.018110	0.147086
559.231675	0.147007
559.445221	0.146215
559.658749	0.146003
559.872259	0.146880
560.085751	0.146237
560.299225	0.146348
560.512680	0.146634
560.726117	0.145702
560.939536	0.147667
561.152937	0.147615
561.366319	0.148798
561.579683	0.149305
561.793029	0.149640
562.006357	0.150482
562.219667	0.150310
562.432958	0.149307
562.646231	0.149791
562.859486	0.148565
563.072723	0.149007
563.285941	0.148375
563.499141	0.149007
563.712323	0.149350
563.925487	0.149161
564.138632	0.149118
564.351760	0.150831
564.564869	0.151342
564.777960	0.153047
564.991032	0.153785
565.204087	0.154616
565.417123	0.154845
565.630141	0.154815
565.843140	0.155861
566.056122	0.156017
566.269085	0.156255
566.482030	0.156535
566.694957	0.155164
566.907866	0.155017
567.120756	0.154757
567.333628	0.154820
567.546482	0.154456
567.759318	0.153063
567.972135	0.153322
568.184935	0.153187
568.397716	0.152690
568.610478	0.153337
568.823223	0.152708
569.035949	0.152046
569.248657	0.152473
569.461347	0.153124
569.674019	0.153940
569.886672	0.154742
570.099308	0.154883
570.311925	0.156400
570.524523	0.156430
570.737104	0.156327
570.949666	0.157488
571.162210	0.156552
571.374736	0.157783
571.587244	0.157941
571.799733	0.157110
572.012205	0.158011
572.224658	0.156065
572.437092	0.156559
572.649509	0.157956
572.861907	0.158185
573.074287	0.159208
573.286649	0.159028
573.498993	0.159776
573.711318	0.160318
573.923625	0.159919
574.135914	0.161377
574.348185	0.161860
574.560438	0.162379
574.772672	0.161463
574.984888	0.160851
575.197086	0.159646
575.409266	0.159552
575.621427	0.160159
575.833570	0.160404
576.045695	0.160046
576.257802	0.160010
576.469890	0.158634
576.681961	0.160189
576.894013	0.161295
577.106046	0.162665
577.318062	0.163003
577.530059	0.163035
577.742039	0.162909
577.954000	0.162595
578.165942	0.161668
578.377867	0.163298
578.589773	0.162671
578.801661	0.162829
579.013531	0.163219
579.225382	0.163598
579.437216	0.164015
579.649031	0.163313
579.860828	0.164317
580.072606	0.166449
580.284367	0.166090
580.496109	0.166775
580.707833	0.165707
580.919539	0.165498
581.131227	0.165458
581.342896	0.164352
581.554547	0.165377
581.766180	0.165375
581.977795	0.163451
582.189391	0.164364
582.400969	0.165044
582.612529	0.166513
582.824071	0.165929
583.035595	0.166025
583.247100	0.166905
583.458587	0.167514
583.670056	0.167612
583.881506	0.167992
584.092939	0.167118
584.304353	0.166084
584.515749	0.166557
584.727127	0.167982
584.938486	0.167821
585.149828	0.168138
585.361151	0.168201
585.572456	0.169720
585.783742	0.170593
585.995011	0.170977
586.206261	0.171582
586.417493	0.171885
586.628706	0.172334
586.839902	0.172404
587.051079	0.172591
587.262238	0.173019
587.473379	0.172221
587.684502	0.172472
587.895606	0.173338
588.106692	0.174134
588.317760	0.173083
588.528810	0.172639
588.739841	0.173314
588.950855	0.173902
589.161850	0.173362
589.372827	0.173832
589.583785	0.173515
589.794726	0.173107
590.005648	0.171970
590.216552	0.172843
590.427437	0.173426
590.638305	0.173318
590.849154	0.173113
591.059985	0.173260
591.270798	0.172241
591.481592	0.172862
591.692369	0.173486
591.903127	0.174481
592.113867	0.174183
592.324588	0.173777
592.535292	0.175132
592.745977	0.174301
592.956644	0.175148
593.167293	0.176604
593.377923	0.177477
593.588536	0.177072
593.799130	0.176884
594.009706	0.177152
594.220263	0.176971
594.430803	0.176583
594.641324	0.177242
594.851827	0.177550
595.062312	0.176644
595.272778	0.175968
595.483227	0.176840
595.693657	0.178136
595.904069	0.178871
596.114462	0.179301
596.324838	0.179223
596.535195	0.180682
596.745534	0.180539
596.955855	0.181210
597.166157	0.181606
597.376441	0.181413
597.586707	0.181158
597.796955	0.181428
598.007185	0.182270
598.217396	0.182531
598.427589	0.181936
598.637764	0.182558
598.847921	0.182960
599.058060	0.183063
599.268180	0.183087
599.478282	0.183401
599.688366	0.183565
599.898431	0.182761
600.108479	0.182554
600.318508	0.183106
600.528519	0.183036
600.738511	0.183459
600.948486	0.183129
601.158442	0.183256
601.368380	0.182427
601.578300	0.181942
601.788202	0.181625
601.998085	0.181835
602.207950	0.181359
602.417797	0.181508
602.627626	0.180694
602.837436	0.180604
603.047228	0.180867
603.257002	0.181280
603.466758	0.181555
603.676496	0.182328
603.886215	0.182934
604.095916	0.184285
604.305599	0.184691
604.515264	0.185891
604.724910	0.186813
604.934538	0.187518
605.144148	0.188152
605.353740	0.188553
605.563314	0.189108
605.772869	0.188673
605.982406	0.188124
606.191925	0.188161
606.401425	0.188200
606.610908	0.188771
606.820372	0.188918
607.029818	0.189312
607.239246	0.190212
607.448655	0.190688
607.658047	0.191098
607.867420	0.190825
608.076775	0.191180
608.286111	0.190836
608.495430	0.191165
608.704730	0.190923
608.914012	0.190460
609.123275	0.190599
609.332521	0.190094
609.541748	0.190241
609.750957	0.191026
609.960148	0.191157
610.169321	0.191299
610.378475	0.190884
610.587611	0.190530
610.796729	0.191212
611.005829	0.190881
611.214910	0.191796
611.423974	0.191937
611.633019	0.191584
611.842045	0.191193
612.051054	0.191683
612.260044	0.191491
612.469017	0.192246
612.677970	0.192119
612.886906	0.192334
613.095824	0.192066
613.304723	0.193053
613.513604	0.193963
613.722467	0.193886
613.931311	0.193872
614.140138	0.194323
614.348946	0.193936
614.557736	0.193968
614.766507	0.193640
614.975261	0.194619
615.183996	0.193547
615.392713	0.193706
615.601412	0.193614
615.810092	0.193524
616.018754	0.193190
616.227399	0.193718
616.436024	0.194211
616.644632	0.194611
616.853222	0.194166
617.061793	0.194516
617.270346	0.194332
617.478880	0.195317
617.687397	0.195839
617.895895	0.196610
618.104375	0.196956
618.312837	0.197008
618.521281	0.196765
618.729706	0.196601
618.938113	0.197292
619.146502	0.197509
619.354873	0.197295
619.563226	0.197515
619.771560	0.197241
619.979876	0.197484
620.188174	0.197896
620.396453	0.198140
620.604715	0.198905
620.812958	0.198654
621.021183	0.197934
621.229390	0.198320
621.437578	0.198600
621.645748	0.199403
621.853900	0.199672
622.062034	0.199185
622.270150	0.199638
622.478247	0.199855
622.686326	0.200501
622.894387	0.201706
623.102430	0.202259
623.310454	0.203205
623.518461	0.203138
623.726449	0.203667
623.934418	0.203816
624.142370	0.204012
624.350303	0.203888
624.558218	0.204093
624.766115	0.203668
624.973994	0.203756
625.181855	0.203133
625.389697	0.203376
625.597521	0.203392
625.805327	0.203949
626.013114	0.204424
626.220883	0.204903
626.428634	0.205226
626.636367	0.205498
626.844082	0.205474
627.051778	0.206379
627.259457	0.206710
627.467117	0.206963
627.674758	0.207377
627.882382	0.207382
628.089987	0.206690
628.297574	0.206924
628.505143	0.208232
628.712694	0.208725
628.920226	0.208065
629.127740	0.207988
629.335236	0.207960
629.542714	0.208252
629.750174	0.208792
629.957615	0.209589
630.165038	0.208798
630.372443	0.208597
630.579829	0.208752
630.787198	0.209401
630.994548	0.209741
631.201880	0.209761
631.409194	0.209584
631.616489	0.209150
631.823766	0.209034
632.031025	0.209713
632.238266	0.208961
632.445489	0.209316
632.652693	0.209352
632.859879	0.210123
633.067047	0.210490
633.274197	0.211018
633.481329	0.211728
633.688442	0.212117
633.895537	0.212430
634.102614	0.213392
634.309672	0.213170
634.516713	0.213223
634.723735	0.212928
634.930739	0.212663
635.137724	0.213069
635.344692	0.212885
635.551641	0.212566
635.758572	0.213386
635.965485	0.213590
636.172379	0.214331
636.379256	0.215533
636.586114	0.215890
636.792954	0.216686
636.999775	0.216073
637.206579	0.215872
637.413364	0.216732
637.620131	0.216207
637.826880	0.216269
638.033610	0.215770
638.240323	0.215226
638.447017	0.215172
638.653692	0.215219
638.860350	0.216020
639.066990	0.217042
639.273611	0.217867
639.480214	0.218783
639.686798	0.218837
639.893365	0.219663
640.099913	0.220058
640.306443	0.220537
640.512955	0.220874
640.719449	0.219993
640.925924	0.219994
641.132381	0.219587
641.338820	0.220080
641.545241	0.220549
641.751644	0.220805
641.958028	0.220873
642.164394	0.221466
642.370742	0.221870
642.577071	0.222493
642.783383	0.223165
642.989676	0.224031
643.195951	0.223794
643.402207	0.224105
643.608446	0.224013
643.814666	0.224808
644.020868	0.224402
644.227052	0.224584
644.433218	0.224969
644.639365	0.224713
644.845494	0.224686
645.051605	0.224462
645.257698	0.224891
645.463772	0.224740
645.669828	0.224281
645.875866	0.224216
646.081886	0.224371
646.287888	0.225014
646.493871	0.225532
646.699836	0.225478
646.905783	0.226409
647.111712	0.226111
647.317622	0.226663
647.523514	0.227077
647.729388	0.227623
647.935244	0.228080
648.141082	0.228123
648.346901	0.228463
648.552702	0.228621
648.758485	0.228823
648.964250	0.229025
649.169996	0.229312
649.375724	0.229339
649.581434	0.229634
649.787126	0.229959
649.992800	0.229995
650.198455	0.230276
650.404092	0.230406
650.609711	0.230446
650.815311	0.230844
651.020894	0.230696
651.226458	0.230675
651.432004	0.230970
651.637532	0.230423
651.843041	0.230952
652.048532	0.230828
652.254006	0.231059
652.459460	0.231206
652.664897	0.230853
652.870315	0.231385
653.075716	0.231809
653.281097	0.231965
653.486461	0.232155
653.691807	0.232328
653.897134	0.232853
654.102443	0.233140
654.307734	0.232554
654.513006	0.233004
654.718261	0.232988
654.923497	0.233321
655.128715	0.233409
655.333915	0.234650
655.539096	0.234855
655.744259	0.234736
655.949404	0.235323
656.154531	0.236259
656.359640	0.237024
656.564730	0.237701
656.769802	0.237726
656.974856	0.238091
657.179892	0.238241
657.384909	0.238265
657.589908	0.239210
657.794889	0.238986
657.999852	0.239098
658.204797	0.239236
658.409723	0.239829
658.614631	0.240093
658.819521	0.240155
659.024393	0.240482
659.229246	0.241287
659.434081	0.241683
659.638898	0.242128
659.843697	0.242507
660.048478	0.242427
660.253240	0.241910
660.457984	0.242570
660.662710	0.243249
660.867417	0.242878
661.072107	0.243110
661.276778	0.242686
661.481431	0.243134
661.686066	0.243322
661.890682	0.243825
662.095281	0.244505
662.299861	0.244090
662.504422	0.244577
662.708966	0.245260
662.913491	0.245487
663.117999	0.245772
663.322488	0.245644
663.526958	0.245962
663.731411	0.246633
663.935845	0.246759
664.140261	0.247748
664.344659	0.247499
664.549038	0.247769
664.753400	0.247804
664.957743	0.248037
665.162068	0.248426
665.366375	0.248882
665.570663	0.249023
665.774933	0.249822
665.979185	0.249873
666.183419	0.251057
666.387635	0.251239
666.591832	0.251707
666.796011	0.252428
667.000172	0.253139
667.204315	0.253523
667.408439	0.254027
667.612545	0.254196
667.816634	0.254460
668.020703	0.254094
668.224755	0.254146
668.428788	0.254426
668.632803	0.253640
668.836800	0.253719
669.040779	0.253715
669.244739	0.253943
669.448681	0.254062
669.652605	0.254180
669.856511	0.253980
670.060399	0.254221
670.264268	0.255014
670.468119	0.256628
670.671952	0.256733
670.875767	0.256808
671.079563	0.256452
671.283341	0.256427
671.487101	0.256628
671.690843	0.257981
671.894567	0.257816
672.098272	0.257354
672.301959	0.257257
672.505628	0.257484
672.709278	0.257712
672.912911	0.258103
673.116525	0.257821
673.320121	0.258134
673.523699	0.257019
673.727258	0.257419
673.930799	0.257905
674.134322	0.257888
674.337827	0.258014
674.541314	0.258324
674.744782	0.258394
674.948232	0.259698
675.151664	0.260102
675.355078	0.260811
675.558474	0.261565
675.761851	0.261936
675.965210	0.261759
676.168551	0.262073
676.371873	0.262167
676.575178	0.262603
676.778464	0.262894
676.981732	0.263670
677.184981	0.264039
677.388213	0.263821
677.591426	0.264169
677.794621	0.264817
677.997798	0.265451
678.200956	0.265960
678.404097	0.266544
678.607219	0.266112
678.810323	0.266402
679.013408	0.266916
679.216476	0.267189
679.419525	0.267226
679.622556	0.267381
679.825569	0.267378
680.028563	0.268323
680.231540	0.268983
680.434498	0.269465
680.637438	0.269033
680.840359	0.269022
681.043263	0.269502
681.246148	0.269731
681.449015	0.270158
681.651864	0.270364
681.854694	0.270172
682.057506	0.269963
682.260301	0.270343
682.463076	0.270944
682.665834	0.271498
682.868573	0.271680
683.071295	0.271721
683.273998	0.271892
683.476682	0.271817
683.679349	0.271332
683.881997	0.271472
684.084627	0.271517
684.287239	0.271689
684.489833	0.272030
684.692408	0.272711
684.894965	0.273256
685.097504	0.273671
685.300025	0.274243
685.502527	0.275079
685.705012	0.275112
685.907478	0.275975
686.109925	0.276187
686.312355	0.275847
686.514766	0.275016
686.717159	0.274925
686.919534	0.274650
687.121891	0.274785
687.324230	0.274999
687.526550	0.275240
687.728852	0.274821
687.931136	0.274991
688.133401	0.275190
688.335649	0.276319
688.537878	0.276895
688.740089	0.277066
688.942281	0.277579
689.144456	0.277793
689.346612	0.277713
689.548750	0.277544
689.750870	0.278157
689.952971	0.278567
690.155055	0.278817
690.357120	0.279280
690.559167	0.279392
690.761195	0.279190
690.963206	0.279443
691.165198	0.279933
691.367172	0.280635
691.569128	0.280156
691.771065	0.280352
691.972984	0.280055
692.174885	0.280134
692.376768	0.280595
692.578633	0.280692
692.780479	0.281058
692.982308	0.281213
693.184118	0.281486
693.385909	0.281954
693.587683	0.282044
693.789438	0.282625
