sample name	sample
index	222
start time	 02-22-2021  10:31:05 AM
880	0.197346
Peak Time (s)	91.037
Peak Height 	0.1973
calc peak height	90,93
Baseline Time (s)	10.537
Baseline Value 	-0.00288
subtract baseline	10,4
Abs	0.153358
Peak Time (s)	91.037
Peak Height 	0.1534
calc peak height	90,93
Baseline Time (s)	8.536
Baseline Value 	0.003902
subtract baseline	10,3
PK_550	0.078943
Peak Time (s)	91.037
Peak Height 	0.07894
calc peak height	90,93
Baseline Time (s)	11.037
Baseline Value 	4.2454E-4
subtract baseline	10,2
PK_880	0.146906
Peak Time (s)	91.537
Peak Height 	0.1469
calc peak height	90,93
Baseline Time (s)	11.535
Baseline Value 	6.921E-4
subtract baseline	10,1


Time (s)	A880-A510	A880-A775	A880-A975	A880	I510	I775	I975	I880	
0.036500	-0.000818	0.000013	-0.002820	0.004308	6850.631235	46868.171562	3939.976392	24559.028921
0.537000	-0.003380	-0.000828	-0.010957	0.004306	6826.863003	46783.165025	3918.395454	24559.118235
1.035000	-0.000766	-0.000065	-0.003632	0.003849	6855.384377	46906.836647	3939.030546	24582.045627
1.535000	0.000082	-0.000645	-0.005659	0.000581	6893.926132	47180.603189	3942.354783	24746.635062
2.038000	-0.000580	-0.000360	-0.000915	0.003741	6858.127683	46887.825842	3946.612093	24587.445792
2.535500	0.000880	-0.000722	-0.001438	0.000422	6902.952216	47188.959469	3954.169075	24754.699828
3.035500	0.001823	0.000110	-0.004575	-0.001352	6928.649157	47456.049278	3950.478271	24844.593168
3.536000	0.001606	0.000020	-0.003580	-0.000401	6917.578996	47349.142876	3950.596909	24796.356864
4.039000	0.001425	0.000765	-0.004321	0.000938	6903.213884	47288.271077	3944.990591	24728.594746
4.535500	0.001748	-0.000505	-0.004130	-0.000051	6915.615701	47259.540615	3948.169595	24778.637840
5.037000	0.002626	-0.000170	-0.006855	0.000085	6922.637482	47279.911355	3940.479102	24771.734727
5.537500	0.001135	-0.000228	-0.000580	0.000046	6908.897733	47277.908753	3957.516465	24773.686271
6.036500	0.000315	0.000114	-0.006430	0.000303	6898.741875	47286.686691	3941.035985	24760.729189
6.535000	0.001327	-0.000309	-0.006918	-0.000261	6913.613622	47301.054860	3941.237645	24789.262229
7.035500	0.001962	-0.000610	-0.003424	-0.000235	6919.379637	47267.671893	3950.571140	24787.951015
7.535500	-0.001553	-0.000382	-0.002067	-0.000173	6885.653132	47284.652100	3954.075622	24784.822176
8.036000	0.000874	0.000023	-0.002580	-0.000137	6908.158385	47322.358346	3952.586649	24782.970836
8.536000	0.000973	0.000171	0.000000	-0.000011	6907.914752	47324.718501	3959.250150	24776.613593
9.036500	0.001011	-0.000036	-0.000575	-0.000111	6909.209649	47313.639936	3957.956139	24781.636069
9.536500	0.001388	0.000263	0.000193	0.000504	6906.961169	47281.383314	3958.372678	24750.539496
10.039500	-0.000082	-0.000572	0.000699	-0.000147	6899.246879	47262.520880	3961.524864	24783.505340
10.537000	-0.000471	0.000066	0.001544	0.000000	6894.193926	47312.756153	3963.428569	24776.040136
11.037500	-0.001378	0.000000	-0.004009	0.000262	6883.208797	47279.135751	3947.649688	24762.757164
11.535000	0.000000	-0.000235	-0.002378	0.000095	6897.730632	47272.195748	3952.506105	24771.214512
12.035500	-0.000185	-0.000281	-0.004275	-0.000187	6898.647110	47296.372655	3948.144050	24785.504766
12.535500	-0.001347	-0.000482	-0.001407	-0.000577	6891.380510	47315.695823	3956.960788	24805.263947
13.036000	0.001617	-0.001159	-0.003174	-0.002312	6935.808046	47424.321762	3956.875287	24893.397423
13.536000	-0.000597	-0.000526	-0.002502	-0.000152	6894.439288	47267.793659	3952.841188	24783.756573
14.036000	-0.000617	-0.001030	-0.001938	-0.000781	6900.179711	47280.579420	3956.076172	24815.628022
14.537000	-0.001237	-0.000534	-0.001641	0.002725	6861.478021	46973.451976	3947.396180	24638.528353
15.037000	0.000638	0.000088	-0.003763	0.000491	6900.012760	47264.780161	3947.695958	24751.201754
15.534500	0.001033	0.000108	-0.001023	0.000588	6902.819209	47256.791395	3954.840396	24746.272290
16.035000	0.001565	0.000025	-0.002173	-0.000238	6915.647619	47332.939702	3953.964645	24788.095520
16.535500	0.002186	-0.000001	-0.002903	-0.000065	6919.889681	47312.600183	3951.520737	24779.334659
17.035500	0.000426	-0.000200	-0.002689	-0.000245	6904.953901	47310.638834	3952.585288	24788.436425
17.536000	0.002982	0.000490	-0.001121	-0.002686	6952.371884	47632.574435	3963.487251	24912.466704
18.035500	0.003731	0.000626	-0.001710	0.000359	6930.518822	47333.348452	3953.601228	24757.876160
18.536500	0.000739	-0.000351	-0.004061	0.000895	6897.158779	47178.535676	3945.805404	24730.764911
19.039500	-0.000357	0.000020	-0.002346	0.001950	6876.956404	47108.737255	3947.582365	24677.531104
19.536500	0.000541	-0.000288	-0.000920	0.001423	6890.327270	47130.995680	3952.857489	24704.092749
20.037000	0.000030	-0.000693	-0.003800	0.001165	6887.952848	47116.152714	3945.783096	24717.154933
20.535000	0.000594	-0.000924	-0.003082	0.000929	6895.465946	47116.591365	3948.350064	24729.039340
21.037000	-0.000133	-0.000299	-0.007388	0.001447	6883.765630	47127.481146	3935.412987	24702.889585
21.535500	0.001418	0.000486	-0.001100	0.001626	6896.667906	47189.366570	3951.820962	24693.849546
22.035500	-0.000899	-0.000198	-0.002599	0.001532	6875.795750	47129.120593	3948.027822	24698.623762
22.536000	-0.000838	-0.000418	-0.003546	0.001249	6879.015353	47135.559634	3946.236884	24712.874582
23.036000	-0.000115	0.000142	0.001337	0.001543	6883.034879	47162.743613	3958.657721	24698.049282
23.536500	-0.002504	-0.000335	0.002916	0.001415	6861.874326	47127.081864	3963.309639	24704.494870
24.039500	-0.001197	-0.000453	0.001651	0.000945	6878.491623	47162.993022	3961.141306	24728.224183
24.537000	-0.000646	0.000206	-0.003773	0.002243	6871.496325	47097.757239	3942.954494	24662.754868
25.037500	0.001914	0.000414	-0.003542	0.001919	6898.582088	47152.148486	3944.447530	24679.100141
25.535000	-0.000568	0.000108	-0.003390	0.001834	6876.058455	47129.535293	3945.084801	24683.372495
26.035000	0.000370	0.000209	0.000389	0.001540	6887.625270	47169.909130	3956.090528	24698.228140
26.535500	0.000578	-0.000114	-0.000715	0.001524	6889.727600	47138.523383	3953.140897	24699.009668
27.036000	0.000669	0.000142	-0.004579	0.001800	6887.988768	47136.467404	3941.983259	24685.095422
27.536000	0.000367	-0.000327	-0.003652	0.001159	6891.168153	47153.962232	3946.195796	24717.425389
28.036500	-0.003672	-0.000530	-0.007264	0.003185	6834.535444	46927.032575	3931.116154	24615.365491
28.537000	0.000498	-0.000118	0.000380	-0.000032	6903.627828	47297.261474	3960.343104	24777.674689
29.047500	0.001602	0.000265	0.001756	0.001116	6903.204447	47218.868991	3960.961440	24719.591131
29.537000	-0.000505	0.000134	0.001385	-0.000024	6894.105287	47322.254433	3963.060573	24777.272185
30.034500	0.002959	0.000828	-0.002863	0.000397	6922.833585	47350.198634	3950.380979	24755.972059
30.535000	0.001088	0.000413	0.002459	0.000234	6906.684827	47324.342839	3965.291564	24764.194688
31.035000	0.000075	-0.000779	0.001789	-0.000489	6903.941818	47276.275568	3965.435057	24800.795534
31.535500	0.000754	0.000618	-0.002631	0.003580	6872.090709	47003.603492	3942.432245	24595.535465
32.036000	-0.002241	-0.000977	0.000201	0.004011	6840.152098	46797.948701	3948.893503	24573.907975
32.536500	0.000420	-0.000675	0.000906	-0.000736	6909.536733	47312.329313	3963.697620	24813.348089
33.050000	-0.000602	-0.000447	-0.001449	-0.000342	6896.182122	47295.243106	3956.210284	24793.364568
33.536500	0.001819	-0.000029	-0.002632	-0.000268	6918.339392	47330.546716	3952.802578	24789.622443
34.039500	-0.002858	0.000203	-0.001467	0.004687	6828.176032	46849.008595	3942.587393	24540.047595
34.537500	-0.001452	0.000538	-0.001281	0.000223	6882.885418	47338.356660	3955.133563	24764.774522
35.035000	-0.000632	-0.000284	-0.003643	0.000196	6890.836375	47256.853981	3948.814010	24766.114857
35.534500	0.001538	0.000285	-0.003029	0.002869	6886.104577	47042.091769	3943.274257	24631.259671
36.035000	-0.002947	-0.000068	-0.006039	0.003980	6833.895604	46893.238314	3932.259372	24575.473582
36.535500	0.000818	-0.000527	-0.005447	0.002080	6886.754397	47039.733354	3938.905902	24670.983667
37.035500	-0.000455	0.000388	-0.002289	0.002469	6871.178679	47093.415063	3946.340047	24651.414108
37.536000	-0.001144	-0.000128	0.000203	0.002506	6864.391933	47037.062174	3952.967417	24649.549295
38.035500	0.000001	-0.000076	-0.000194	0.002498	6875.174686	47043.098454	3951.915862	24649.953547
38.539000	0.000296	0.000279	-0.001885	0.003168	6871.657940	47011.033673	3945.545666	24616.231959
39.037000	0.000750	0.000127	-0.001599	0.002425	6882.884134	47071.264489	3948.316927	24653.613790
39.537500	-0.000037	0.000068	-0.006112	0.002363	6876.083554	47071.565956	3936.374083	24656.751376
40.035000	-0.000825	0.000105	-0.002555	0.002226	6869.990751	47089.199487	3946.275513	24663.621793
40.535500	0.001050	0.000444	-0.004197	0.002583	6884.213913	47087.417656	3940.907656	24645.677344
41.036000	-0.000285	0.000306	0.000094	0.002703	6870.577773	47061.139105	3952.137799	24639.617090
41.535500	-0.001342	-0.000171	-0.004319	0.001809	6869.054757	47103.699603	3942.657574	24684.653119
42.036000	0.002409	0.001051	-0.001197	0.003120	6891.937343	47094.599562	3947.526988	24618.658503
42.536500	-0.001807	0.000314	-0.003221	0.002730	6856.112460	47059.159739	3943.130006	24638.247883
43.037000	-0.002042	-0.000007	-0.007614	0.002237	6858.516231	47076.754818	3932.707085	24663.079437
43.537000	0.001190	-0.000521	-0.004651	0.002258	6888.585721	47022.230415	3940.562727	24662.032004
44.037500	0.001185	-0.000847	-0.002203	0.001992	6891.027783	47016.120709	3947.854721	24675.414273
44.538000	-0.000586	0.000514	-0.000414	0.002744	6867.376599	47078.119439	3950.655125	24637.565591
45.035000	0.001371	-0.000322	-0.001078	-0.001286	6923.736228	47404.866043	3959.784569	24841.243479
45.535500	0.003128	0.000280	0.001503	-0.000109	6929.232177	47345.940339	3963.614977	24781.564748
46.035500	-0.003005	0.000383	-0.007826	0.006113	6813.629146	46722.821855	3921.880485	24468.726066
46.546500	0.001264	0.000097	-0.000077	0.000098	6909.624729	47305.836804	3958.742103	24771.062906
47.036000	0.002031	-0.000309	-0.001719	0.000249	6915.448306	47248.872210	3953.875013	24763.439693
47.536500	0.001215	0.000094	-0.000239	0.001115	6899.573024	47201.499519	3955.537914	24719.658901
48.036500	-0.002508	-0.000381	-0.000365	0.005019	6828.340563	46756.278943	3944.655421	24523.426908
48.549500	0.000782	0.000638	0.003148	0.000872	6897.772135	47282.026806	3965.430410	24731.915978
49.037500	-0.001228	-0.000768	0.000816	0.002976	6859.216645	46924.195024	3953.354951	24625.908387
49.535000	0.001314	0.000259	-0.005967	0.002926	6883.469525	47033.615170	3935.257615	24628.389709
50.085500	-0.003226	-0.000476	-0.000180	0.002794	6842.316830	46972.281832	3951.153413	24635.059217
50.535500	0.000594	0.000388	0.001085	0.000670	6897.916803	47277.130769	3960.351590	24742.164450
51.035500	0.001815	-0.001121	-0.000933	-0.000368	6919.249248	47228.919888	3957.683180	24794.692082
51.536500	0.002692	0.000164	-0.000188	-0.001164	6935.113462	47442.264157	3961.878745	24835.030685
52.036000	0.000859	-0.000060	-0.003777	0.002588	6882.375968	47035.552495	3942.020974	24645.406919
52.539500	0.001239	0.000191	-0.001376	-0.000617	6916.157020	47388.895359	3957.156801	24807.316109
53.037000	-0.012258	-0.017047	0.010065	0.128697	5764.757425	34622.335963	3676.650007	19137.164601
53.537000	-0.022027	-0.021601	-0.003261	0.053303	6247.152005	40257.741737	3814.858106	22236.496278
54.037500	-0.033068	-0.033688	-0.008977	-0.118032	7782.662442	56842.759510	4296.663567	31642.586143
54.535000	-0.010221	-0.034269	0.001514	-0.148477	8432.175971	60688.644426	4446.865620	33737.817618
55.035000	-0.014049	-0.014003	-0.006151	-0.080388	7573.797796	54654.131690	4179.588674	29246.869077
55.535500	0.002617	-0.008219	0.000013	-0.078888	7743.184496	55168.051916	4194.734881	29155.658986
56.036000	0.001199	-0.005833	0.003417	-0.031978	7223.399181	50066.701798	4059.597665	26456.079357
56.536500	0.012343	-0.000603	0.009152	-0.025073	7266.720067	49884.834005	4056.149386	26082.786556
57.042000	0.017139	0.001461	0.013556	-0.015155	7214.443207	49041.223953	4040.011133	25556.853190
57.536500	0.023180	0.004724	0.022052	-0.003697	7159.810503	48177.189804	4031.427848	24964.023065
58.037000	0.031839	0.006774	0.031269	0.026882	6945.585880	45293.000121	3971.221329	23456.324514
58.537000	0.038727	0.010058	0.039945	0.043805	6851.080654	43979.719537	3948.760664	22666.510587
59.037500	0.048745	0.015902	0.048341	0.063619	6760.890071	42676.657228	3918.356241	21779.997335
59.535500	0.058038	0.019328	0.056734	0.087332	6631.779461	40857.391956	3878.798705	20770.848849
60.035500	0.068065	0.025961	0.068320	0.108408	6535.710507	39613.037691	3854.984092	19919.037093
60.536000	0.078685	0.031635	0.077736	0.123439	6498.031671	38828.707728	3841.137835	19336.287527
61.036000	0.085029	0.037782	0.088820	0.138146	6427.645774	38125.818700	3832.296310	18785.306532
61.539000	0.094125	0.044204	0.099264	0.145354	6443.422238	38061.958305	3840.189511	18522.013267
62.036000	0.100444	0.049452	0.100185	0.155728	6409.637430	37648.426922	3817.299243	18150.655552
62.537000	0.106436	0.054441	0.106239	0.160475	6419.974321	37667.795244	3820.435351	17983.664120
63.037500	0.111250	0.056798	0.120038	0.156490	6493.909573	38180.498213	3864.046126	18123.709024
63.535000	0.113900	0.060986	0.114442	0.141944	6642.792704	39739.413160	3886.679892	18646.016653
64.034500	0.117050	0.066486	0.121308	0.137984	6706.105188	40552.550435	3914.687970	18791.284789
64.535500	0.119283	0.068510	0.118401	0.136633	6738.408879	40847.007915	3910.618858	18841.144480
65.039500	0.121296	0.070284	0.123016	0.140765	6719.279162	40641.058138	3911.880490	18689.147942
65.574500	0.124177	0.072536	0.125686	0.141559	6738.117468	40768.210510	3916.791526	18660.083614
66.036000	0.125782	0.072532	0.128919	0.142867	6740.816998	40653.808980	3921.857419	18612.375772
66.536500	0.127004	0.073883	0.129228	0.143938	6742.176916	40678.166889	3919.849725	18573.395551
67.037000	0.128197	0.073703	0.132434	0.144227	6750.371061	40637.266125	3927.550443	18562.873346
67.537000	0.129924	0.072944	0.130144	0.143610	6771.713486	40624.920333	3923.126934	18585.314458
68.037000	0.129503	0.074141	0.129474	0.146997	6737.106670	40434.754929	3912.470285	18462.598943
68.537500	0.133285	0.076171	0.133291	0.146530	6775.739089	40651.630248	3923.725440	18479.453930
69.035000	0.131363	0.075731	0.131350	0.146765	6756.090534	40592.925169	3917.996955	18470.992549
69.535000	0.133363	0.076054	0.132767	0.147242	6769.953854	40579.432872	3920.465668	18453.745760
70.035500	0.132266	0.076485	0.134001	0.147718	6755.629256	40575.591219	3922.465460	18436.596435
70.536000	0.133635	0.075723	0.132446	0.147875	6766.657025	40495.754024	3917.958792	18430.942089
71.036000	0.135184	0.076951	0.133503	0.149789	6763.341570	40436.343343	3915.710674	18362.168238
71.536500	0.136538	0.075986	0.134470	0.150564	6768.613451	40285.885726	3916.213454	18334.400542
72.036500	0.136618	0.077301	0.137422	0.153083	6746.429155	40182.103693	3917.349838	18244.490384
72.537500	0.135329	0.076591	0.137084	0.152769	6737.601397	40148.080476	3917.285820	18255.670304
73.037500	0.136721	0.076137	0.138330	0.155178	6728.407225	39902.801577	3914.237847	18170.123884
73.535000	0.135634	0.075971	0.137615	0.156004	6711.166640	39818.183629	3910.209239	18140.879467
74.035500	0.136160	0.077040	0.137986	0.159647	6683.255311	39599.425954	3901.702728	18012.635553
74.535500	0.138975	0.076578	0.142984	0.159432	6710.385887	39578.550005	3915.284220	18020.184229
75.035000	0.138236	0.076499	0.142835	0.161749	6683.023338	39376.299187	3908.840022	17939.147166
75.538500	0.138489	0.077417	0.137261	0.162527	6678.343320	39388.128690	3892.406879	17912.031587
76.036500	0.138088	0.076944	0.137740	0.164210	6659.808678	39207.004257	3889.320054	17853.529457
76.536500	0.141963	0.077379	0.139173	0.165361	6684.046143	39147.021038	3890.041776	17813.649943
77.037000	0.139395	0.077149	0.147578	0.167806	6639.553486	38923.890315	3905.420214	17729.298148
77.537500	0.140356	0.077597	0.143252	0.168254	6644.095457	38923.982216	3893.085773	17713.921533
78.035000	0.137778	0.076795	0.143679	0.170390	6602.668495	38680.478245	3888.703216	17640.680407
78.535000	0.139524	0.076756	0.141243	0.169845	6622.743001	38722.291119	3883.873015	17659.331871
79.035500	0.140952	0.077839	0.141656	0.173123	6606.533175	38541.276549	3876.597478	17547.526448
79.535500	0.140174	0.077586	0.146249	0.173506	6596.378947	38488.957247	3887.304098	17534.488513
80.038500	0.140393	0.077541	0.140094	0.174669	6588.162026	38389.943462	3868.755745	17495.071160
80.536000	0.141852	0.077953	0.143666	0.175143	6596.739333	38384.772434	3876.568627	17479.015926
81.036500	0.140575	0.076763	0.145105	0.176961	6569.835690	38139.360546	3875.611507	17417.668441
81.537000	0.141612	0.078172	0.147307	0.178331	6566.950878	38142.479257	3877.717250	17371.588377
82.037000	0.143777	0.077824	0.145855	0.178963	6580.246298	38062.836449	3872.447754	17350.374824
82.534500	0.143515	0.077461	0.144816	0.179222	6575.718952	38012.420816	3869.179186	17341.703454
83.034500	0.140188	0.077017	0.142147	0.181662	6526.010343	37779.404432	3856.405829	17260.159053
83.535500	0.143572	0.077575	0.146697	0.181824	6553.704225	37811.342961	3867.367816	17254.756300
84.035500	0.144785	0.078238	0.145075	0.183067	6553.447696	37764.687572	3860.198969	17213.436649
84.535500	0.144173	0.077708	0.148022	0.183883	6541.147611	37656.536136	3865.527595	17186.356233
85.036000	0.144153	0.077620	0.145333	0.184494	6535.725181	37600.420242	3857.286761	17166.101867
85.536000	0.144690	0.078363	0.149214	0.185931	6528.006593	37544.888019	3863.383758	17118.614569
86.036500	0.144028	0.078159	0.148721	0.186784	6515.054315	37460.475151	3860.023613	17090.500614
86.536500	0.144769	0.079161	0.152026	0.188928	6503.104239	37369.556114	3862.921843	17020.083664
87.037000	0.145055	0.077931	0.147280	0.190304	6493.838030	37162.830917	3847.724030	16975.063947
87.534500	0.145186	0.078178	0.146739	0.189294	6503.529399	37262.352677	3848.878816	17008.089587
88.035500	0.145274	0.077587	0.149945	0.190659	6492.673769	37107.536129	3853.430050	16963.444191
88.535000	0.145249	0.077541	0.149776	0.190644	6492.593678	37105.077829	3853.049953	16963.952162
89.035000	0.144679	0.078470	0.147540	0.193229	6465.920574	36974.538512	3841.171643	16879.818123
89.535500	0.145954	0.077555	0.152412	0.192390	6483.769526	36968.598253	3855.257499	16907.082751
90.036000	0.145543	0.078540	0.148353	0.194076	6466.068009	36913.545807	3841.088621	16852.380588
90.536500	0.144147	0.076947	0.151112	0.193438	6459.683548	36838.628637	3849.444495	16873.036923
91.036500	0.146295	0.078943	0.153358	0.197346	6444.912545	36689.106914	3845.347135	16746.872276
91.537000	0.146906	0.077901	0.152789	0.195755	6463.397680	36732.016634	3847.864374	16798.097867
92.037000	0.145090	0.078524	0.151485	0.197235	6435.766003	36665.155301	3841.022727	16750.455479
92.534500	0.144603	0.077529	0.151588	0.196684	6436.293784	36630.541711	3842.626585	16768.171104
93.035500	0.144490	0.076774	0.150783	0.198672	6418.781107	36417.652096	3835.795903	16704.325183
93.535500	0.144487	0.077619	0.150592	0.198666	6418.809467	36483.576763	3835.344885	16704.519926
94.038500	0.147175	0.077267	0.155335	0.198597	6441.802283	36461.629035	3847.133787	16706.726187
94.536500	0.146370	0.076654	0.153328	0.198850	6432.959801	36394.579872	3841.581641	16698.620842
95.036000	0.146932	0.077318	0.153627	0.202147	6410.202861	36191.640902	3834.259299	16593.429278
95.536500	0.146269	0.077236	0.146496	0.200346	6419.652276	36324.002332	3821.360987	16650.780823
96.033500	0.147320	0.077713	0.154463	0.202556	6410.028498	36190.571796	3835.298684	16580.433061
96.534500	0.147316	0.077276	0.152780	0.201741	6416.763414	36219.603871	3833.184746	16606.347524
97.037000	0.147162	0.076963	0.153098	0.202348	6410.448075	36148.966474	3832.483165	16587.045448
