sample name	sample
index	1216
start time	 04-29-2021  10:02:53 AM
880	0.381839
Peak Time (s)	91.537
Peak Height 	0.3818
calc peak height	90,93
Baseline Time (s)	11.537
Baseline Value 	-8.0584E-4
subtract baseline	10,4
Abs	0.290116
Peak Time (s)	91.037
Peak Height 	0.2901
calc peak height	90,93
Baseline Time (s)	10.536
Baseline Value 	-3.6304E-4
subtract baseline	10,3
PK_550	0.171933
Peak Time (s)	92.037
Peak Height 	0.1719
calc peak height	90,93
Baseline Time (s)	10.536
Baseline Value 	-1.1391E-4
subtract baseline	10,2
PK_880	0.280402
Peak Time (s)	92.537
Peak Height 	0.2804
calc peak height	90,93
Baseline Time (s)	9.041
Baseline Value 	1.2005E-4
subtract baseline	10,1


Time (s)	A880-A510	A880-A775	A880-A975	A880	I510	I775	I975	I880	
0.035500	-0.004228	-0.000701	-0.003161	0.006412	6097.515395	43802.833202	3783.620090	22504.664590
0.539000	-0.002287	-0.000174	0.000472	0.003647	6133.618299	44114.779010	3798.909498	22630.719031
1.036500	-0.000813	0.000263	-0.002485	0.003024	6149.825506	44215.745098	3793.305056	22659.202435
1.540000	-0.002140	0.000301	-0.004370	0.000690	6157.648297	44442.581481	3794.380727	22766.407659
2.036000	0.000084	0.000275	-0.000471	0.000570	6175.906944	44451.615933	3804.059599	22771.943545
2.537000	-0.000092	0.000419	-0.000331	-0.001340	6189.473862	44649.064794	3809.028646	22860.080207
3.035000	-0.000588	-0.000030	0.005788	-0.002259	6192.792035	44694.362629	3826.274881	22902.633343
3.536500	-0.002733	0.000207	0.001532	0.001277	6148.488711	44377.357691	3807.198272	22739.395883
4.035500	-0.001165	0.000822	0.001205	0.000936	6163.315496	44469.008587	3807.231098	22755.082632
4.536000	-0.000526	0.000031	-0.001412	0.000359	6172.784972	44448.373991	3802.292416	22781.627313
5.038500	-0.001897	0.000198	0.000152	0.000379	6161.947376	44462.532521	3806.029732	22780.716893
5.536000	-0.001762	0.000070	0.000783	0.000435	6162.565723	44444.926328	3807.425545	22778.165183
6.042000	-0.000689	0.000107	0.004875	-0.000024	6174.512193	44492.526127	3818.528030	22799.328076
6.537000	0.000356	0.000588	0.006422	0.000623	6177.611832	44476.576244	3820.736936	22769.498983
7.034500	-0.001682	0.000360	-0.000203	0.000320	6164.085033	44483.832491	3805.313571	22783.468548
7.534500	-0.000253	0.000046	0.000944	0.000173	6176.367776	44467.700765	3808.450505	22790.205856
8.040500	-0.002039	-0.000380	0.001663	-0.000084	6164.444084	44451.510885	3810.823560	22802.056994
8.535500	0.000389	0.000765	0.005694	0.000413	6179.511093	44513.681772	3819.462979	22779.150987
9.041000	0.000000	0.000663	-0.000193	0.000026	6179.501211	44541.119463	3806.050544	22797.021435
9.535000	-0.000140	0.000562	-0.000742	-0.000029	6178.826637	44536.593594	3804.850072	22799.513976
10.038500	-0.000804	-0.000048	-0.001292	-0.000425	6176.743379	44516.162539	3804.480872	22817.826910
10.536000	0.000206	0.000000	0.000000	0.000331	6178.722633	44448.144613	3805.777137	22782.938466
11.042000	-0.000380	-0.000131	0.003939	-0.000095	6177.475662	44476.419376	3816.408464	22802.587886
11.537000	0.001425	-0.000077	0.000109	0.000000	6190.863673	44472.510120	3806.843788	22798.198370
12.034500	-0.000948	-0.000377	-0.002454	-0.000872	6179.104016	44527.360160	3802.748994	22838.431660
12.538000	-0.000387	0.000451	-0.000706	-0.000542	6180.912366	44575.283234	3806.181954	22823.201267
13.037500	0.002247	0.001018	0.002687	-0.001963	6212.782843	44767.024125	3817.916460	22888.950028
13.538000	0.001879	0.000242	-0.001167	-0.002114	6211.061700	44706.640415	3808.878232	22895.918145
14.051500	0.001455	0.001257	-0.003057	-0.000748	6196.964628	44672.678245	3800.994274	22832.702175
14.536000	0.001074	0.000939	0.000136	0.001923	6173.066946	44385.545603	3802.255149	22709.713975
15.041500	-0.003139	0.000858	0.001207	-0.000407	6158.407952	44601.484863	3810.499219	22816.966996
15.556500	-0.000410	0.000494	0.003235	-0.001835	6190.863475	44704.053482	3818.946824	22883.016565
16.040500	-0.001395	0.000482	0.003879	-0.001293	6178.901886	44650.534848	3819.194685	22857.902848
16.537000	0.000202	0.001391	0.000805	-0.001430	6192.488470	44751.472280	3812.013669	22864.251186
17.037500	0.000201	0.000588	-0.001600	-0.002285	6199.198631	44756.577920	3808.241856	22903.872097
17.537500	0.000275	-0.000034	0.005791	-0.002462	6201.175315	44713.657433	3826.784805	22912.083659
18.040000	-0.000500	0.000635	0.005107	-0.002113	6192.332438	44744.437043	3824.233001	22895.867790
18.535500	-0.000254	0.000740	0.002934	0.000445	6174.237580	44508.196808	3812.632762	22777.674809
19.035500	0.000574	0.001410	0.001724	0.001246	6174.449246	44495.632991	3807.738251	22740.821195
19.536000	0.001828	0.000634	0.005184	0.000440	6190.567173	44498.506943	3818.146212	22777.914760
20.036000	-0.001595	0.000467	0.004033	0.000362	6164.430151	44489.941446	3815.517928	22781.490983
20.539500	0.000991	0.001113	0.005696	0.000699	6181.986209	44519.668320	3818.767560	22766.000184
21.036500	-0.000318	0.000225	0.007229	0.000322	6174.701575	44470.614470	3823.462823	22783.358184
21.537000	0.000309	0.001152	0.003775	0.000893	6175.137802	44504.773261	3813.593393	22757.072617
22.037500	-0.002572	0.000035	0.002313	0.000181	6158.244707	44465.912508	3811.763466	22789.867387
22.535000	0.001074	0.000345	0.003942	-0.000247	6190.040923	44536.715177	3816.785412	22809.577419
23.035000	-0.003441	0.000705	0.002254	0.000747	6147.117726	44475.877673	3810.242269	22763.798583
23.535500	0.000672	0.000560	-0.000598	0.000263	6182.903526	44508.481502	3804.494694	22786.091067
24.035500	-0.001797	0.000367	0.001892	-0.000088	6166.367506	44523.668690	3811.393147	22802.279348
24.535500	0.000076	0.000835	0.005403	0.000382	6177.307772	44523.354461	3818.824813	22780.575269
25.036500	0.001696	0.001486	0.001510	0.000889	6186.012454	44537.191438	3808.084609	22757.226599
25.536500	-0.001490	0.000723	0.003426	0.000618	6163.258775	44490.048967	3813.412563	22769.736980
26.036500	-0.003220	0.000414	0.002258	-0.000362	6157.432629	44554.494315	3812.953799	22814.913573
26.537000	0.000093	0.000721	0.002048	0.000165	6179.144185	44533.291886	3811.156475	22790.609810
27.034500	-0.001552	0.001325	0.002197	0.000358	6164.799677	44572.806678	3811.048665	22781.708471
27.535000	-0.002557	0.000365	0.001891	0.000180	6158.368178	44497.709019	3810.737612	22789.917322
28.040500	-0.000348	0.000328	0.003489	-0.001359	6187.617488	44642.122740	3818.401217	22860.974687
28.535000	0.002293	0.001014	0.001949	-0.002149	6214.612883	44784.521846	3816.564817	22897.550139
29.041500	0.002139	-0.000075	0.004130	-0.003238	6222.012243	44784.599026	3824.600928	22948.105511
29.539000	-0.004427	-0.000219	0.005242	0.003895	6115.247693	44086.905891	3809.850225	22619.353846
30.039000	0.000317	0.000901	0.003471	-0.000632	6187.128690	44627.303798	3816.575335	22827.361057
30.536500	0.001088	-0.000134	0.001522	-0.002556	6208.313898	44713.000263	3816.515690	22916.425828
31.040500	0.001460	0.000334	0.000663	-0.002285	6209.105915	44732.015665	3813.752914	22903.840600
31.567000	-0.003144	0.000245	0.002726	0.004175	6122.949581	44104.410222	3803.071012	22606.582122
32.035000	-0.003575	0.000287	-0.003555	0.002314	6133.964455	44285.803511	3792.443059	22691.769046
32.535000	-0.000189	0.000963	0.004580	-0.000163	6179.503237	44588.146540	3818.145007	22805.730619
33.057500	0.001025	0.001325	-0.001644	-0.001679	6200.915575	44769.280019	3806.664903	22875.798866
33.536500	-0.002196	-0.000334	-0.000430	0.002549	6142.801749	44204.142903	3799.380569	22680.982494
34.041500	0.000967	0.000648	0.002791	0.000082	6186.634457	44534.283885	3813.169728	22794.439556
34.539500	0.002165	0.001210	0.007608	-0.001152	6205.736358	44707.245491	3828.038019	22851.400771
35.038000	0.000526	0.000743	0.000871	0.000366	6180.955055	44516.160159	3807.805643	22781.341216
35.537000	-0.001994	0.001021	0.001717	0.002896	6141.680276	44300.402011	3803.725790	22665.092401
36.037000	-0.002168	0.000826	0.003501	0.001073	6154.450632	44456.198345	3812.483088	22748.775987
36.537500	-0.000321	0.000820	0.000960	0.000796	6170.977808	44482.163619	3806.978056	22761.523500
37.035000	-0.001026	0.001141	0.003508	0.001344	6161.220034	44460.482549	3811.840412	22736.320560
37.535500	-0.000282	0.000611	-0.001546	0.001836	6163.178980	44362.444046	3798.409937	22713.700048
38.035500	-0.000394	0.000361	-0.003149	0.000395	6173.534350	44476.677593	3798.020751	22779.987407
38.536000	-0.002818	0.000421	0.002202	0.000944	6150.404771	44429.710264	3809.633917	22754.687644
39.036000	-0.001422	0.001032	0.001249	0.000876	6161.774941	44494.793337	3807.482264	22757.822044
39.536000	-0.000571	0.001185	0.002599	0.000965	6167.715418	44501.040629	3810.548657	22753.750002
40.037000	-0.002187	0.000612	0.003488	0.000595	6158.019206	44481.521354	3813.617975	22770.776087
40.537000	-0.000303	-0.000100	-0.000930	-0.000167	6178.642640	44486.383315	3804.732416	22805.922384
41.037500	-0.001136	0.000707	0.002804	0.000663	6165.657654	44484.065824	3811.782936	22767.627878
41.537000	-0.000319	0.000995	0.003437	0.001009	6169.333594	44478.580769	3812.482641	22751.710832
42.035000	-0.002540	-0.000082	0.000811	0.000361	6157.091909	44437.347923	3807.669877	22781.545912
42.535500	0.000043	0.000282	0.004153	0.000490	6176.208434	44459.965053	3815.498993	22775.623066
43.036000	-0.000034	0.001107	0.001576	0.000754	6173.545763	44513.810899	3808.574392	22763.456990
43.536000	-0.001774	0.000141	-0.001919	0.000382	6162.883765	44456.821036	3801.016359	22780.606796
44.039500	-0.000587	0.000019	0.000699	0.000324	6172.582891	44450.573598	3807.488806	22783.244926
44.536500	-0.003101	0.000767	0.001889	0.000540	6151.352178	44501.767837	3809.855785	22773.330264
45.037000	0.001128	0.000878	0.004291	-0.003378	6215.121197	44890.452838	3825.341809	22954.612644
45.534500	-0.001401	0.000712	0.002864	0.003245	6143.562689	44237.449477	3805.654679	22649.083374
46.034000	0.001809	0.000300	0.001362	-0.002611	6214.439558	44760.187138	3816.257156	22918.965203
46.535000	0.002952	0.001030	0.004734	-0.001908	6217.909563	44762.815379	3822.808940	22886.371609
47.035000	0.001333	0.000889	0.004093	-0.001686	6203.393804	44727.787308	3820.687946	22876.117844
47.535500	-0.003203	0.000917	0.000687	0.003433	6128.208617	44239.156875	3799.943770	22640.519657
48.035500	-0.000750	0.000978	0.000663	-0.001294	6183.959088	44698.547205	3811.336944	22857.987015
48.555500	0.001455	0.001109	0.004669	-0.002089	6207.523857	44787.891139	3823.095498	22894.761273
49.036000	-0.001394	0.000811	0.002892	0.001460	6157.454616	44417.642501	3810.057668	22730.975776
49.536500	-0.002210	0.000316	-0.001196	0.002074	6146.369978	44311.515622	3798.679659	22702.784573
50.052500	-0.000044	0.000877	0.005235	0.001154	6170.348098	44453.287021	3816.522076	22745.052306
50.537500	-0.000021	0.000972	0.005937	-0.002559	6199.608573	44820.211061	3827.384807	22916.573762
51.040500	0.003093	0.001150	0.005268	-0.001875	6218.770703	44771.231754	3824.042685	22884.851002
51.540500	-0.001012	0.000669	0.000383	0.001636	6159.058711	44387.157492	3803.544804	22722.887699
52.041000	0.000969	0.000610	0.002937	0.001008	6179.394143	44441.672301	3811.266471	22751.750631
52.536000	0.013278	-0.009180	0.013588	0.024013	6096.788201	41412.919738	3781.600002	21720.804763
53.036000	0.005093	-0.026704	0.017928	0.291409	4540.306643	22835.747047	3314.497614	13008.136874
53.539500	-0.001082	-0.020139	-0.003369	-0.054380	6623.098001	47899.175753	3937.833983	25469.864830
54.036000	-0.010462	-0.040150	-0.013617	-0.176909	7765.736539	59906.830039	4287.269221	32869.204203
54.570000	0.002778	-0.018321	0.001202	-0.119395	7282.901879	55402.057570	4143.657202	29135.749910
55.043000	0.006015	-0.010962	0.004211	-0.097286	7091.574219	53645.464074	4083.840782	27827.064128
55.537000	0.005885	-0.009404	0.016254	-0.050874	6653.822696	48656.215572	3982.615708	25287.372939
56.035000	0.007986	-0.006092	0.015282	-0.049918	6664.029544	48905.567077	3977.170098	25237.825421
56.549000	0.020558	0.002920	0.025873	-0.054828	6823.408611	50407.547148	4021.634384	25493.286026
57.034500	0.031595	0.011334	0.035469	-0.045784	6841.990141	50338.518618	4023.249810	25024.977425
57.536000	0.040625	0.014531	0.038132	-0.053203	6998.643394	51514.927503	4053.073613	25408.441299
58.036500	0.060135	0.026013	0.058847	-0.028048	6944.206594	50005.031048	4039.853282	24134.403527
58.584000	0.071901	0.035565	0.079671	0.009635	6703.197551	47044.202222	3990.871948	22358.723946
59.036500	0.091684	0.042671	0.091039	0.044172	6572.292722	44336.125870	3926.587694	20861.265351
59.539500	0.104286	0.052522	0.111354	0.080563	6370.355932	41873.699977	3883.954540	19407.041527
60.037000	0.113715	0.058825	0.123104	0.113791	6179.105993	39524.808255	3829.407081	18181.573833
60.554000	0.128848	0.065680	0.137318	0.152575	5999.151665	36921.655094	3770.224471	16864.893137
61.035500	0.141635	0.074272	0.148845	0.169479	5968.814678	36274.766621	3757.711817	16326.776480
61.535500	0.146031	0.079259	0.151536	0.237191	5536.743595	31772.867574	3618.071841	14369.556580
62.035500	0.158883	0.085627	0.171817	0.212108	5788.012254	33948.859396	3713.270150	15059.248010
62.535500	0.166040	0.084890	0.175755	0.240004	5647.930893	31961.469521	3661.756102	14294.670255
63.039000	0.176705	0.093108	0.190788	0.217612	5874.441965	34091.041155	3743.500937	14904.482731
63.536500	0.183253	0.102779	0.198180	0.248806	5703.943230	32578.053931	3690.701228	14063.436829
64.036500	0.189003	0.110379	0.203701	0.289704	5476.930118	30380.247352	3617.379193	13048.403585
64.537000	0.190390	0.115484	0.199311	0.279853	5547.522592	31346.567185	3628.312708	13284.227312
65.074500	0.196448	0.120082	0.205910	0.278234	5596.808610	31758.181183	3645.023853	13323.496762
65.535000	0.198242	0.123577	0.200794	0.280624	5592.954208	31831.984075	3629.748044	13265.581385
66.038000	0.200007	0.123467	0.209709	0.280539	5604.949147	31830.337268	3648.097527	13267.640644
66.544000	0.204011	0.125235	0.212514	0.280989	5628.121266	31918.525963	3652.960554	13256.754376
67.035500	0.203903	0.127627	0.212475	0.282620	5616.757718	31969.581115	3649.507989	13217.433791
67.585500	0.205989	0.130594	0.222273	0.285657	5610.558884	31964.908175	3663.567765	13144.635243
68.036000	0.208949	0.130556	0.214802	0.286431	5624.825871	31910.404335	3646.452424	13126.168083
68.536500	0.211250	0.133316	0.222306	0.286717	5638.042483	32076.752160	3661.419659	13119.355453
69.037500	0.216648	0.133080	0.218641	0.286353	5676.159177	32085.385096	3654.543223	13128.026617
69.536500	0.215405	0.135775	0.230321	0.289327	5648.204764	32066.510083	3672.786909	13057.320414
70.034500	0.218843	0.138066	0.223230	0.291180	5658.684248	32096.079356	3654.048172	13013.530540
70.563500	0.222583	0.139221	0.231904	0.293123	5670.604630	32043.015981	3668.115695	12967.808497
71.038500	0.225549	0.142002	0.237526	0.295448	5674.866010	32073.686440	3675.086342	12913.340694
71.535500	0.221643	0.142492	0.232330	0.300767	5614.105175	31749.921584	3653.039669	12789.858301
72.036000	0.226136	0.144763	0.236540	0.301573	5638.232607	31847.810544	3660.117162	12771.285138
72.535500	0.228273	0.144954	0.237571	0.302150	5648.507589	31822.054213	3661.068567	12758.019915
73.035000	0.232334	0.148080	0.242253	0.306400	5647.262743	31746.983379	3661.970000	12660.744880
73.536500	0.234536	0.149552	0.254049	0.312711	5620.295906	31426.183901	3673.517049	12518.033595
74.036500	0.235872	0.150683	0.244385	0.313285	5625.279539	31463.021580	3652.082635	12505.175390
74.537500	0.237501	0.152678	0.251632	0.315868	5619.040437	31424.160974	3661.784797	12447.432409
75.035000	0.242691	0.154830	0.250180	0.319871	5626.799294	31302.430924	3650.445261	12358.636047
75.535500	0.239443	0.154839	0.247230	0.327045	5559.397272	30836.081914	3629.778771	12201.546828
76.035500	0.244305	0.155485	0.251888	0.325467	5600.854224	30980.025178	3642.451754	12235.877938
76.535500	0.246177	0.156381	0.257861	0.327744	5598.228609	30890.497569	3650.049844	12186.363330
77.038500	0.246939	0.158365	0.255776	0.331652	5577.918820	30766.353696	3637.763189	12102.017370
77.536500	0.244165	0.158285	0.254701	0.339811	5508.458195	30240.783795	3619.157961	11928.313988
78.036500	0.249960	0.158829	0.262011	0.336967	5563.199252	30455.733911	3639.636012	11988.489141
78.537000	0.254180	0.161178	0.263844	0.340990	5564.457339	30349.265153	3635.178180	11903.475179
79.043000	0.250968	0.160494	0.267538	0.342424	5534.865580	30215.260742	3639.778542	11873.365044
79.537500	0.254435	0.160462	0.268339	0.346384	5531.744744	29964.439201	3633.354552	11790.733557
80.038000	0.258142	0.162591	0.269389	0.349938	5532.717943	29875.429346	3628.297457	11717.222219
80.535500	0.257285	0.163145	0.271757	0.351569	5517.014949	29808.363227	3629.783728	11683.670377
81.041000	0.261145	0.164322	0.266777	0.354818	5520.864806	29679.814555	3613.334956	11617.237910
81.536000	0.259761	0.162956	0.270528	0.357122	5497.715167	29453.608792	3616.204715	11570.413986
82.038500	0.259372	0.164038	0.276604	0.359033	5483.385283	29402.806511	3624.518966	11531.780591
82.537000	0.263266	0.165320	0.279189	0.360488	5498.584953	29392.193788	3626.787740	11502.467924
83.487500	0.263168	0.166029	0.271829	0.368445	5448.700402	28952.038569	3596.522387	11343.916542
84.052000	0.265825	0.166865	0.282291	0.367782	5469.152734	29042.538475	3618.398214	11357.030402
84.173500	0.269318	0.166844	0.278400	0.367504	5492.569425	29058.069665	3611.232517	11362.529474
84.534500	0.267338	0.166965	0.285164	0.368410	5474.630056	29010.574073	3622.880249	11344.612880
85.035000	0.265683	0.167024	0.278073	0.369615	5456.968758	28941.576232	3606.431477	11320.861937
85.535500	0.267916	0.166957	0.278682	0.370304	5466.488630	28896.085311	3606.274229	11307.296296
86.036000	0.269798	0.168067	0.280624	0.373523	5458.240976	28769.641745	3603.769832	11244.252143
86.538500	0.270662	0.167934	0.279749	0.373683	5462.576222	28752.124450	3601.744185	11241.123547
87.036500	0.270379	0.167935	0.284949	0.374732	5454.374666	28689.578065	3609.893131	11220.692186
87.536500	0.271605	0.169001	0.285002	0.376084	5453.601671	28672.562483	3607.334494	11194.428486
88.037000	0.270796	0.168682	0.285331	0.377481	5440.076552	28570.509803	3605.237392	11167.371204
88.537500	0.277457	0.170307	0.283826	0.378175	5476.824631	28625.819093	3600.935155	11153.962463
89.035000	0.273185	0.169597	0.290224	0.378861	5446.250780	28542.949302	3612.156277	11140.722596
89.535000	0.277383	0.170073	0.288208	0.379158	5470.281223	28553.583686	3607.595885	11135.008510
90.035500	0.276217	0.170891	0.287203	0.381207	5450.458799	28480.630135	3601.609022	11095.618859
90.538500	0.278496	0.171857	0.289976	0.381353	5463.589787	28529.131038	3606.754476	11092.817299
91.036500	0.278973	0.169687	0.290116	0.379471	5478.184006	28512.093062	3610.736951	11128.965822
91.536500	0.278725	0.171206	0.289707	0.381839	5462.008963	28461.953133	3605.273610	11083.523829
92.036500	0.278069	0.171933	0.289035	0.381498	5460.064346	28525.141123	3604.624616	11090.055325
92.536500	0.280402	0.170183	0.287228	0.380130	5482.966250	28502.461169	3603.763067	11116.292974
93.039500	0.279776	0.172901	0.292253	0.381976	5467.653434	28554.177575	3610.010943	11080.901852
93.537000	0.278937	0.172307	0.292075	0.382296	5460.496077	28499.971521	3609.029482	11074.764984
94.035000	0.280527	0.172097	0.298794	0.381915	5472.670566	28510.123291	3623.130968	11082.061550
94.535500	0.278961	0.172223	0.295272	0.380766	5470.087937	28585.645739	3618.392499	11104.074313
95.035500	0.281845	0.172881	0.292966	0.381816	5481.459589	28562.427707	3611.733594	11083.955637
95.535500	0.282623	0.174420	0.294572	0.382913	5479.476185	28588.706717	3612.740874	11062.983455
96.039000	0.283419	0.173881	0.295162	0.383006	5483.845128	28551.189290	3613.726397	11061.213450
96.539000	0.286781	0.175944	0.301447	0.384610	5494.796462	28578.415420	3623.047430	11030.634204
97.036500	0.283820	0.174873	0.294405	0.383581	5482.766195	28575.891989	3611.089919	11050.237119
97.537000	0.284313	0.174677	0.297088	0.384350	5481.044756	28518.669617	3614.877878	11035.579640
