sample name	sample
index	320
start time	 02-25-2021  03:17:06 PM


Wavelength (nm)	Absorbance
494.344910	NaN
494.563924	NaN
494.782919	NaN
495.001897	-0.015914
495.220856	-0.175855
495.439797	-0.207536
495.658719	-0.303836
495.877624	-0.281084
496.096510	-0.249121
496.315378	-0.144875
496.534227	-0.169185
496.753059	-0.168158
496.971872	-0.002010
497.190667	0.123524
497.409444	0.140395
497.628203	0.148158
497.846943	0.146347
498.065665	0.146650
498.284369	0.147651
498.503055	0.148597
498.721723	0.148947
498.940372	0.150809
499.159003	0.152030
499.377616	0.152077
499.596210	0.151188
499.814787	0.152382
500.033345	0.151896
500.251885	0.151810
500.470406	0.152664
500.688910	0.152916
500.907395	0.151621
501.125862	0.152581
501.344311	0.152801
501.562742	0.151846
501.781154	0.152582
501.999548	0.153660
502.217924	0.154372
502.436282	0.154734
502.654621	0.155348
502.872942	0.155389
503.091245	0.155971
503.309530	0.155479
503.527797	0.156743
503.746045	0.155992
503.964275	0.154929
504.182487	0.154373
504.400681	0.154147
504.618856	0.153468
504.837013	0.153129
505.055152	0.152696
505.273273	0.153764
505.491376	0.153866
505.709460	0.155731
505.927526	0.157442
506.145574	0.157978
506.363604	0.158324
506.581615	0.159638
506.799608	0.160625
507.017583	0.160373
507.235540	0.160509
507.453478	0.160810
507.671399	0.158498
507.889301	0.158507
508.107185	0.157692
508.325050	0.157412
508.542898	0.158062
508.760727	0.158084
508.978538	0.158375
509.196330	0.158332
509.414105	0.157952
509.631861	0.159496
509.849599	0.159046
510.067319	0.159907
510.285021	0.160803
510.502704	0.159657
510.720369	0.159699
510.938016	0.160114
511.155645	0.160793
511.373255	0.161122
511.590848	0.160704
511.808422	0.161129
512.025977	0.161356
512.243515	0.161255
512.461034	0.161806
512.678536	0.162065
512.896018	0.163075
513.113483	0.163082
513.330930	0.163804
513.548358	0.164756
513.765768	0.165299
513.983160	0.165361
514.200533	0.166025
514.417889	0.167119
514.635226	0.167485
514.852545	0.167865
515.069845	0.168370
515.287128	0.168459
515.504392	0.168415
515.721638	0.168261
515.938866	0.168310
516.156075	0.167741
516.373267	0.167671
516.590440	0.168019
516.807594	0.167465
517.024731	0.167892
517.241850	0.167693
517.458950	0.167287
517.676032	0.167840
517.893095	0.168283
518.110141	0.169288
518.327168	0.169213
518.544177	0.169312
518.761168	0.169773
518.978141	0.169375
519.195095	0.170380
519.412031	0.170528
519.628949	0.170710
519.845849	0.171836
520.062731	0.170976
520.279594	0.171064
520.496439	0.171285
520.713266	0.171541
520.930074	0.171600
521.146865	0.171447
521.363637	0.172143
521.580391	0.172665
521.797127	0.172174
522.013844	0.172524
522.230543	0.172131
522.447224	0.172739
522.663887	0.172322
522.880532	0.172433
523.097158	0.172839
523.313766	0.173049
523.530356	0.173209
523.746928	0.172874
523.963481	0.173867
524.180017	0.174952
524.396534	0.174834
524.613032	0.175620
524.829513	0.176174
525.045975	0.176262
525.262420	0.177224
525.478845	0.176811
525.695253	0.177298
525.911643	0.177270
526.128014	0.177692
526.344367	0.178521
526.560702	0.178487
526.777018	0.178554
526.993316	0.179140
527.209597	0.179095
527.425858	0.179773
527.642102	0.180889
527.858328	0.180976
528.074535	0.181210
528.290724	0.180977
528.506894	0.181942
528.723047	0.182686
528.939181	0.182900
529.155297	0.183243
529.371395	0.183338
529.587475	0.182821
529.803536	0.182780
530.019579	0.183713
530.235604	0.184227
530.451611	0.184235
530.667600	0.184536
530.883570	0.185160
531.099522	0.185267
531.315456	0.186236
531.531372	0.187461
531.747269	0.188420
531.963148	0.187828
532.179009	0.187887
532.394852	0.188607
532.610676	0.188953
532.826482	0.189277
533.042271	0.189263
533.258040	0.188927
533.473792	0.188711
533.689525	0.189227
533.905240	0.190290
534.120937	0.190610
534.336616	0.190808
534.552277	0.191125
534.767919	0.191588
534.983543	0.191680
535.199149	0.192097
535.414736	0.192826
535.630306	0.192711
535.845857	0.192005
536.061390	0.191927
536.276904	0.191808
536.492401	0.192623
536.707879	0.192862
536.923339	0.194387
537.138781	0.195368
537.354204	0.195428
537.569610	0.196238
537.784997	0.197409
538.000366	0.197898
538.215716	0.198171
538.431049	0.198100
538.646363	0.198015
538.861659	0.198237
539.076937	0.197512
539.292196	0.197426
539.507438	0.197785
539.722661	0.197920
539.937866	0.198151
540.153052	0.198785
540.368221	0.198503
540.583371	0.198683
540.798503	0.198694
541.013617	0.199756
541.228712	0.199997
541.443789	0.200023
541.658848	0.200366
541.873889	0.200844
542.088912	0.201249
542.303916	0.201843
542.518902	0.202158
542.733870	0.201939
542.948820	0.202432
543.163752	0.203302
543.378665	0.203767
543.593560	0.203715
543.808437	0.204472
544.023295	0.204621
544.238136	0.205199
544.452958	0.205521
544.667762	0.206365
544.882548	0.206394
545.097315	0.206746
545.312064	0.206806
545.526795	0.207097
545.741508	0.206777
545.956203	0.206570
546.170879	0.206645
546.385537	0.207070
546.600177	0.207400
546.814799	0.206941
547.029402	0.206652
547.243988	0.207209
547.458555	0.207065
547.673103	0.207746
547.887634	0.208414
548.102146	0.208884
548.316640	0.209039
548.531116	0.208824
548.745574	0.209364
548.960013	0.210429
549.174435	0.210236
549.388838	0.210787
549.603222	0.210845
549.817589	0.211300
550.031937	0.211422
550.246267	0.211427
550.460579	0.211575
550.674873	0.212256
550.889148	0.212304
551.103405	0.212735
551.317644	0.212968
551.531865	0.213059
551.746068	0.212937
551.960252	0.213038
552.174418	0.213425
552.388566	0.213677
552.602696	0.214189
552.816807	0.213783
553.030900	0.213926
553.244975	0.214335
553.459032	0.214480
553.673070	0.214710
553.887091	0.214822
554.101093	0.215065
554.315077	0.215816
554.529042	0.215276
554.742990	0.216017
554.956919	0.215908
555.170830	0.215989
555.384722	0.216237
555.598597	0.216280
555.812453	0.216644
556.026291	0.217080
556.240111	0.216888
556.453913	0.217033
556.667696	0.216616
556.881461	0.217286
557.095208	0.217251
557.308937	0.217804
557.522647	0.218588
557.736339	0.218795
557.950013	0.219066
558.163669	0.219473
558.377307	0.220222
558.590926	0.221354
558.804527	0.221630
559.018110	0.221921
559.231675	0.221895
559.445221	0.222102
559.658749	0.222242
559.872259	0.222199
560.085751	0.222746
560.299225	0.222282
560.512680	0.222323
560.726117	0.222189
560.939536	0.222962
561.152937	0.223255
561.366319	0.223001
561.579683	0.223403
561.793029	0.224089
562.006357	0.223527
562.219667	0.224253
562.432958	0.223924
562.646231	0.224003
562.859486	0.223834
563.072723	0.223711
563.285941	0.224091
563.499141	0.223853
563.712323	0.223503
563.925487	0.224239
564.138632	0.224495
564.351760	0.224925
564.564869	0.225444
564.777960	0.225940
564.991032	0.226395
565.204087	0.226546
565.417123	0.227358
565.630141	0.227634
565.843140	0.227580
566.056122	0.228053
566.269085	0.228536
566.482030	0.228722
566.694957	0.228954
566.907866	0.229166
567.120756	0.229488
567.333628	0.229236
567.546482	0.229687
567.759318	0.229761
567.972135	0.229597
568.184935	0.229089
568.397716	0.229716
568.610478	0.229880
568.823223	0.229795
569.035949	0.229912
569.248657	0.230351
569.461347	0.230334
569.674019	0.230796
569.886672	0.230627
570.099308	0.231327
570.311925	0.230831
570.524523	0.230505
570.737104	0.230891
570.949666	0.230995
571.162210	0.231289
571.374736	0.231662
571.587244	0.231886
571.799733	0.232798
572.012205	0.232944
572.224658	0.233187
572.437092	0.233752
572.649509	0.233925
572.861907	0.234213
573.074287	0.234068
573.286649	0.234161
573.498993	0.233761
573.711318	0.233380
573.923625	0.233638
574.135914	0.233946
574.348185	0.234035
574.560438	0.234067
574.772672	0.234447
574.984888	0.234119
575.197086	0.233861
575.409266	0.234509
575.621427	0.234959
575.833570	0.235066
576.045695	0.235271
576.257802	0.235514
576.469890	0.235774
576.681961	0.235824
576.894013	0.236765
577.106046	0.237304
577.318062	0.237560
577.530059	0.237708
577.742039	0.237762
577.954000	0.238142
578.165942	0.238283
578.377867	0.238654
578.589773	0.238512
578.801661	0.238466
579.013531	0.238555
579.225382	0.238645
579.437216	0.238985
579.649031	0.239564
579.860828	0.239617
580.072606	0.239597
580.284367	0.240101
580.496109	0.240607
580.707833	0.241013
580.919539	0.241323
581.131227	0.241717
581.342896	0.241839
581.554547	0.241866
581.766180	0.242216
581.977795	0.242712
582.189391	0.242365
582.400969	0.242418
582.612529	0.242161
582.824071	0.242355
583.035595	0.242262
583.247100	0.242296
583.458587	0.241735
583.670056	0.241948
583.881506	0.241982
584.092939	0.242442
584.304353	0.242685
584.515749	0.242940
584.727127	0.243209
584.938486	0.243611
585.149828	0.243831
585.361151	0.244543
585.572456	0.244222
585.783742	0.244543
585.995011	0.244554
586.206261	0.244675
586.417493	0.245311
586.628706	0.245383
586.839902	0.245480
587.051079	0.245851
587.262238	0.246496
587.473379	0.246807
587.684502	0.246685
587.895606	0.247079
588.106692	0.247273
588.317760	0.246895
588.528810	0.247419
588.739841	0.247669
588.950855	0.247697
589.161850	0.247455
589.372827	0.247855
589.583785	0.248213
589.794726	0.248532
590.005648	0.248751
590.216552	0.248879
590.427437	0.248836
590.638305	0.248621
590.849154	0.248751
591.059985	0.248952
591.270798	0.249196
591.481592	0.249380
591.692369	0.249515
591.903127	0.249873
592.113867	0.250265
592.324588	0.250161
592.535292	0.250670
592.745977	0.250728
592.956644	0.250643
593.167293	0.250684
593.377923	0.251038
593.588536	0.251119
593.799130	0.251158
594.009706	0.251379
594.220263	0.251800
594.430803	0.251963
594.641324	0.252348
594.851827	0.252996
595.062312	0.253110
595.272778	0.253097
595.483227	0.253313
595.693657	0.253458
595.904069	0.253950
596.114462	0.253756
596.324838	0.253836
596.535195	0.253975
596.745534	0.253940
596.955855	0.254273
597.166157	0.254401
597.376441	0.254483
597.586707	0.254685
597.796955	0.254700
598.007185	0.255357
598.217396	0.255898
598.427589	0.256111
598.637764	0.256431
598.847921	0.256775
599.058060	0.256854
599.268180	0.256901
599.478282	0.257328
599.688366	0.257598
599.898431	0.257510
600.108479	0.257302
600.318508	0.257747
600.528519	0.258008
600.738511	0.257794
600.948486	0.258048
601.158442	0.258406
601.368380	0.258312
601.578300	0.258336
601.788202	0.258611
601.998085	0.259042
602.207950	0.259104
602.417797	0.259151
602.627626	0.259770
602.837436	0.260305
603.047228	0.260484
603.257002	0.260745
603.466758	0.260839
603.676496	0.261130
603.886215	0.261188
604.095916	0.261104
604.305599	0.260943
604.515264	0.260669
604.724910	0.260635
604.934538	0.260838
605.144148	0.260506
605.353740	0.260814
605.563314	0.260676
605.772869	0.260582
605.982406	0.261073
606.191925	0.261267
606.401425	0.261378
606.610908	0.261539
606.820372	0.261586
607.029818	0.262135
607.239246	0.262040
607.448655	0.262507
607.658047	0.262714
607.867420	0.262449
608.076775	0.262825
608.286111	0.263219
608.495430	0.262838
608.704730	0.262959
608.914012	0.263062
609.123275	0.263259
609.332521	0.263263
609.541748	0.263383
609.750957	0.263430
609.960148	0.263706
610.169321	0.263767
610.378475	0.264399
610.587611	0.264492
610.796729	0.264655
611.005829	0.264990
611.214910	0.264992
611.423974	0.265365
611.633019	0.265677
611.842045	0.265603
612.051054	0.265529
612.260044	0.265560
612.469017	0.265600
612.677970	0.265753
612.886906	0.266024
613.095824	0.266040
613.304723	0.266014
613.513604	0.266316
613.722467	0.266592
613.931311	0.267154
614.140138	0.267134
614.348946	0.267346
614.557736	0.267259
614.766507	0.266970
614.975261	0.267389
615.183996	0.267631
615.392713	0.267876
615.601412	0.267753
615.810092	0.267400
616.018754	0.267517
616.227399	0.267774
616.436024	0.268484
616.644632	0.268838
616.853222	0.268953
617.061793	0.269065
617.270346	0.268940
617.478880	0.269113
617.687397	0.269439
617.895895	0.269849
618.104375	0.270210
618.312837	0.270347
618.521281	0.270716
618.729706	0.271049
618.938113	0.271437
619.146502	0.271863
619.354873	0.272040
619.563226	0.272488
619.771560	0.272382
619.979876	0.272347
620.188174	0.272332
620.396453	0.272190
620.604715	0.272428
620.812958	0.272439
621.021183	0.271937
621.229390	0.272242
621.437578	0.272292
621.645748	0.272503
621.853900	0.272565
622.062034	0.272280
622.270150	0.272555
622.478247	0.272311
622.686326	0.272494
622.894387	0.273077
623.102430	0.273449
623.310454	0.273555
623.518461	0.273906
623.726449	0.274115
623.934418	0.274003
624.142370	0.274089
624.350303	0.274597
624.558218	0.274691
624.766115	0.274601
624.973994	0.274430
625.181855	0.273992
625.389697	0.273913
625.597521	0.273990
625.805327	0.274607
626.013114	0.274911
626.220883	0.274883
626.428634	0.275107
626.636367	0.275442
626.844082	0.275651
627.051778	0.276241
627.259457	0.276839
627.467117	0.277047
627.674758	0.277209
627.882382	0.277189
628.089987	0.277383
628.297574	0.277412
628.505143	0.277464
628.712694	0.277574
628.920226	0.277844
629.127740	0.277622
629.335236	0.277716
629.542714	0.277743
629.750174	0.278014
629.957615	0.278231
630.165038	0.278147
630.372443	0.278582
630.579829	0.278914
630.787198	0.279206
630.994548	0.279551
631.201880	0.279758
631.409194	0.280003
631.616489	0.280239
631.823766	0.279987
632.031025	0.280260
632.238266	0.280245
632.445489	0.280120
632.652693	0.280000
632.859879	0.280272
633.067047	0.280428
633.274197	0.280795
633.481329	0.280995
633.688442	0.281361
633.895537	0.281609
634.102614	0.281831
634.309672	0.281932
634.516713	0.282218
634.723735	0.282304
634.930739	0.282697
635.137724	0.282829
635.344692	0.282822
635.551641	0.283048
635.758572	0.283357
635.965485	0.283606
636.172379	0.284057
636.379256	0.284144
636.586114	0.284234
636.792954	0.284137
636.999775	0.284539
637.206579	0.284766
637.413364	0.284829
637.620131	0.285017
637.826880	0.285015
638.033610	0.285170
638.240323	0.285492
638.447017	0.285709
638.653692	0.286242
638.860350	0.286003
639.066990	0.286025
639.273611	0.286225
639.480214	0.286161
639.686798	0.286340
639.893365	0.286560
640.099913	0.286395
640.306443	0.286557
640.512955	0.286485
640.719449	0.286784
640.925924	0.286919
641.132381	0.287120
641.338820	0.287408
641.545241	0.287688
641.751644	0.287679
641.958028	0.288402
642.164394	0.288344
642.370742	0.288532
642.577071	0.288846
642.783383	0.289361
642.989676	0.289681
643.195951	0.290034
643.402207	0.289813
643.608446	0.290069
643.814666	0.290040
644.020868	0.290397
644.227052	0.290374
644.433218	0.290364
644.639365	0.290363
644.845494	0.290516
645.051605	0.290489
645.257698	0.291159
645.463772	0.291317
645.669828	0.291630
645.875866	0.291922
646.081886	0.292419
646.287888	0.292446
646.493871	0.292707
646.699836	0.292716
646.905783	0.292921
647.111712	0.293246
647.317622	0.293431
647.523514	0.293537
647.729388	0.293877
647.935244	0.293808
648.141082	0.294120
648.346901	0.294296
648.552702	0.294501
648.758485	0.294873
648.964250	0.295178
649.169996	0.295485
649.375724	0.295585
649.581434	0.295619
649.787126	0.295703
649.992800	0.296025
650.198455	0.296116
650.404092	0.296411
650.609711	0.296655
650.815311	0.296600
651.020894	0.296577
651.226458	0.296787
651.432004	0.296677
651.637532	0.296971
651.843041	0.297002
652.048532	0.297241
652.254006	0.297310
652.459460	0.297276
652.664897	0.297372
652.870315	0.297958
653.075716	0.298530
653.281097	0.298966
653.486461	0.299304
653.691807	0.299551
653.897134	0.299699
654.102443	0.299940
654.307734	0.300007
654.513006	0.300381
654.718261	0.300078
654.923497	0.299676
655.128715	0.299665
655.333915	0.299965
655.539096	0.299926
655.744259	0.299899
655.949404	0.300081
656.154531	0.300385
656.359640	0.300463
656.564730	0.300784
656.769802	0.301179
656.974856	0.301585
657.179892	0.301644
657.384909	0.301890
657.589908	0.302174
657.794889	0.302503
657.999852	0.302558
658.204797	0.302976
658.409723	0.303532
658.614631	0.303752
658.819521	0.304078
659.024393	0.304110
659.229246	0.304448
659.434081	0.304677
659.638898	0.304805
659.843697	0.305142
660.048478	0.305025
660.253240	0.305223
660.457984	0.305359
660.662710	0.305392
660.867417	0.305778
661.072107	0.306166
661.276778	0.306611
661.481431	0.306639
661.686066	0.306909
661.890682	0.307114
662.095281	0.307425
662.299861	0.307732
662.504422	0.308050
662.708966	0.308079
662.913491	0.308205
663.117999	0.308201
663.322488	0.308675
663.526958	0.308923
663.731411	0.309307
663.935845	0.309420
664.140261	0.309544
664.344659	0.309692
664.549038	0.309792
664.753400	0.310175
664.957743	0.310574
665.162068	0.310798
665.366375	0.310855
665.570663	0.310858
665.774933	0.310794
665.979185	0.311013
666.183419	0.311200
666.387635	0.311599
666.591832	0.311641
666.796011	0.311678
667.000172	0.311822
667.204315	0.311832
667.408439	0.312235
667.612545	0.312562
667.816634	0.312850
668.020703	0.312945
668.224755	0.313218
668.428788	0.313485
668.632803	0.313940
668.836800	0.313962
669.040779	0.314664
669.244739	0.314555
669.448681	0.314704
669.652605	0.314818
669.856511	0.315409
670.060399	0.315635
670.264268	0.315954
670.468119	0.315983
670.671952	0.316289
670.875767	0.316530
671.079563	0.316979
671.283341	0.317139
671.487101	0.317574
671.690843	0.317394
671.894567	0.317421
672.098272	0.317406
672.301959	0.317884
672.505628	0.318249
672.709278	0.318349
672.912911	0.318674
673.116525	0.318946
673.320121	0.318879
673.523699	0.319554
673.727258	0.319920
673.930799	0.320046
674.134322	0.320160
674.337827	0.320516
674.541314	0.320598
674.744782	0.320700
674.948232	0.320738
675.151664	0.321034
675.355078	0.320828
675.558474	0.321160
675.761851	0.321467
675.965210	0.321541
676.168551	0.321479
676.371873	0.322061
676.575178	0.322278
676.778464	0.322826
676.981732	0.323008
677.184981	0.323356
677.388213	0.323538
677.591426	0.323905
677.794621	0.324346
677.997798	0.324530
678.200956	0.324356
678.404097	0.324576
678.607219	0.324650
678.810323	0.324895
679.013408	0.324923
679.216476	0.325230
679.419525	0.325308
679.622556	0.325440
679.825569	0.325786
680.028563	0.326473
680.231540	0.326813
680.434498	0.327078
680.637438	0.327445
680.840359	0.327911
681.043263	0.328058
681.246148	0.328433
681.449015	0.328565
681.651864	0.328945
681.854694	0.328914
682.057506	0.328909
682.260301	0.329022
682.463076	0.329059
682.665834	0.329302
682.868573	0.329660
683.071295	0.330109
683.273998	0.330320
683.476682	0.330363
683.679349	0.330334
683.881997	0.330777
684.084627	0.331091
684.287239	0.331348
684.489833	0.331432
684.692408	0.331275
684.894965	0.331014
685.097504	0.331233
685.300025	0.331460
685.502527	0.331533
685.705012	0.331549
685.907478	0.331664
686.109925	0.331973
686.312355	0.332080
686.514766	0.332567
686.717159	0.332889
686.919534	0.333049
687.121891	0.333218
687.324230	0.333689
687.526550	0.333980
687.728852	0.334304
687.931136	0.334236
688.133401	0.334776
688.335649	0.335079
688.537878	0.335032
688.740089	0.335201
688.942281	0.335231
689.144456	0.335388
689.346612	0.335554
689.548750	0.335517
689.750870	0.336003
689.952971	0.335991
690.155055	0.335825
690.357120	0.336050
690.559167	0.336597
690.761195	0.337080
690.963206	0.337292
691.165198	0.337337
691.367172	0.337485
691.569128	0.337662
691.771065	0.337966
691.972984	0.338442
692.174885	0.338912
692.376768	0.338698
692.578633	0.338878
692.780479	0.339367
692.982308	0.339718
693.184118	0.340033
693.385909	0.340140
