sample name	sample
index	781
start time	 03-31-2021  01:47:41 PM
880	0.202203
Peak Time (s)	92.035
Peak Height 	0.2022
calc peak height	90,93
Baseline Time (s)	10.535
Baseline Value 	-0.002286
subtract baseline	10,4
Abs	0.141222
Peak Time (s)	90.537
Peak Height 	0.1412
calc peak height	90,93
Baseline Time (s)	9.037
Baseline Value 	0.001311
subtract baseline	10,3
PK_550	0.037231
Peak Time (s)	90.037
Peak Height 	0.03723
calc peak height	90,93
Baseline Time (s)	9.037
Baseline Value 	1.4018E-4
subtract baseline	10,2
PK_880	0.136277
Peak Time (s)	92.035
Peak Height 	0.1363
calc peak height	90,93
Baseline Time (s)	9.037
Baseline Value 	0.002129
subtract baseline	10,1


Time (s)	A880-A510	A880-A775	A880-A975	A880	I510	I775	I975	I880	
0.034500	-0.002504	-0.000243	0.001397	0.001879	6789.228041	40896.184190	4085.104582	22368.715618
0.535000	-0.002984	-0.000920	-0.000469	0.002911	6776.483576	40747.955897	4078.528147	22323.017008
1.035000	-0.000341	0.000027	0.004431	0.003587	6793.077651	40771.390306	4088.130694	22293.155937
1.545000	-0.002377	-0.000888	0.002377	0.001177	6796.240632	40901.119540	4088.942581	22399.880051
2.036000	-0.001310	-0.000161	-0.000415	0.001679	6801.023024	40920.671738	4081.440510	22377.570903
2.538500	0.000398	0.000065	-0.004191	0.001856	6814.017793	40924.929208	4072.514242	22369.735380
3.036500	-0.006043	-0.000775	-0.003103	0.004824	6734.876422	40595.208053	4068.297350	22238.597315
3.536500	-0.002657	0.000236	-0.005217	0.000496	6799.631040	41058.267971	4073.264590	22430.122271
4.037000	-0.002821	-0.000587	-0.002649	-0.000259	6804.646245	41052.399490	4080.771308	22463.745824
4.540000	-0.000533	0.000115	-0.004169	0.000287	6819.448029	41065.996250	4076.097236	22439.432377
5.037500	0.001152	0.000490	0.003305	0.000603	6831.120331	41071.111191	4092.382151	22425.363308
5.536500	-0.000640	-0.000154	0.005291	0.000395	6817.623424	41033.117339	4097.427145	22434.629734
6.035500	-0.000610	0.000326	0.000667	0.000251	6819.099452	41087.503643	4087.150662	22441.008631
6.536000	0.000323	-0.000515	0.001184	0.000335	6826.333838	41006.811651	4088.140988	22437.285461
7.036000	-0.001344	-0.000182	-0.001862	0.000009	6814.911493	41064.323789	4081.946458	22451.791455
7.536000	0.000703	0.000855	0.003603	0.000827	6825.379810	41083.510725	4092.552929	22415.428063
8.036500	-0.001597	-0.000002	0.001938	0.000316	6810.155090	41053.285636	4089.907275	22438.131451
8.536500	-0.000397	-0.000303	-0.002224	0.000077	6822.396034	41047.901601	4080.973570	22448.784206
9.037000	0.000000	0.000000	0.000000	0.000104	6825.552196	41071.946835	4085.966734	22447.575444
9.537500	0.000114	0.000105	-0.000194	-0.000151	6828.699070	41103.331723	4086.103394	22458.902816
10.034500	-0.000791	-0.000399	0.007665	-0.000388	6823.003560	41080.064087	4104.731395	22469.478111
10.535000	0.001156	0.000421	-0.001480	0.000000	6836.313653	41117.776303	4082.835652	22452.197754
11.038000	-0.001675	-0.000268	0.000700	-0.000547	6816.826515	41105.408648	4089.050391	22476.575243
11.535000	0.001101	0.000651	0.001364	0.000528	6831.330218	41091.752398	4088.110864	22428.709714
12.036000	-0.000492	0.000436	-0.001218	0.000340	6819.347829	41089.350055	4082.657507	22437.059464
12.536500	-0.000991	-0.000007	0.002661	0.000285	6815.570256	41055.540687	4091.636002	22439.531521
13.036500	0.000209	0.000597	0.006131	0.001129	6818.598698	41034.521072	4097.670048	22401.983769
13.536500	-0.000272	0.000280	0.007151	0.001265	6813.348506	40995.110376	4099.711929	22395.943249
14.034000	-0.004023	-0.000586	-0.001580	0.002523	6771.005908	40810.418821	4076.892891	22340.171450
14.537500	-0.002508	-0.000103	-0.001668	0.002975	6779.948541	40813.137646	4075.674758	22320.163619
15.046000	-0.001836	-0.000797	-0.001688	0.000557	6806.076966	40962.883747	4081.098817	22427.399853
15.535000	-0.001335	-0.000225	-0.000659	0.000652	6809.529035	41004.535963	4083.220328	22423.206044
16.036000	-0.001239	0.000890	-0.005867	0.001701	6801.442898	41010.329498	4069.102920	22376.625677
16.536000	-0.001435	-0.000059	0.001494	0.000723	6808.068571	41012.809314	4087.960966	22420.024566
17.035500	0.001925	-0.000404	0.002641	-0.002432	6863.793054	41258.564400	4097.835266	22560.782801
17.536500	-0.002070	0.000217	0.000880	0.000296	6806.304788	41074.130878	4087.535114	22439.017355
18.036500	-0.002901	-0.000767	-0.003387	0.000855	6794.526060	40939.580443	4076.580788	22414.148798
18.536500	-0.000665	0.001005	0.000976	0.002886	6796.263706	40917.108132	4081.859149	22324.134111
19.034500	-0.001778	0.000314	-0.001050	0.004302	6774.920885	40734.260975	4074.077149	22261.574375
19.540500	-0.001788	-0.000879	0.001657	0.001010	6802.642782	40916.388705	4087.679228	22407.258859
20.035000	0.000329	-0.000203	-0.002128	0.001866	6813.351669	40900.721649	4077.141286	22369.290969
20.538500	-0.002040	0.000155	0.002323	0.001575	6795.728513	40957.233218	4087.910030	22382.216286
21.371500	-0.000333	-0.001046	0.000747	0.001173	6813.610470	40887.766972	4085.234184	22400.044772
21.796500	-0.000950	0.000656	0.003272	0.002520	6796.950928	40918.590289	4087.918740	22340.330031
22.036500	0.000335	-0.000026	-0.001434	0.001261	6818.543756	40968.815217	4080.079487	22396.138712
22.536500	-0.002442	-0.000082	0.004956	0.001803	6790.396749	40916.805072	4093.418230	22372.092078
23.036500	-0.001596	-0.000577	-0.006145	0.001345	6801.432127	40913.477692	4069.275127	22392.392621
23.537000	-0.000945	0.000423	-0.001469	0.002177	6799.900464	40928.195760	4077.927834	22355.517141
24.042500	-0.000451	0.000518	0.002424	0.002780	6798.974995	40883.995687	4085.392861	22328.804309
24.538000	-0.000855	-0.000046	-0.002306	0.001699	6804.706968	40928.927565	4077.114759	22376.684670
25.038000	-0.003640	-0.000840	0.001118	0.002961	6770.548435	40750.517213	4082.011594	22320.806082
25.535500	-0.001599	-0.000382	0.003452	0.001743	6798.039100	40895.887136	4090.108108	22374.763538
26.036000	-0.000570	-0.000394	-0.002452	0.001883	6805.567120	40882.674297	4076.371021	22368.524968
26.536000	-0.001990	-0.000979	-0.002852	0.000790	6802.793873	40926.779814	4077.936630	22417.045622
27.036000	-0.002079	0.000324	-0.001521	0.001806	6793.440013	40951.789582	4078.648437	22371.932321
27.536000	-0.001453	-0.000282	-0.002139	-0.002409	6834.600959	41267.236795	4086.818953	22559.746557
28.037000	0.000068	0.000211	0.003805	0.001151	6817.205627	40998.962851	4092.270726	22400.997758
28.536500	-0.000081	0.001034	0.000935	0.001856	6809.949946	41009.246641	4084.105994	22369.730026
29.034500	-0.001718	0.000103	0.002806	0.000861	6804.494512	41014.879739	4090.646590	22413.889866
29.535000	-0.001297	0.000028	0.002801	0.001200	6805.194679	40978.769909	4089.860024	22398.830267
30.038000	0.000495	0.000263	0.002285	0.001209	6820.350771	40998.465241	4088.658795	22398.443940
30.536000	-0.002523	0.000241	-0.001945	0.002327	6785.283172	40899.282210	4076.512346	22348.851933
31.035500	-0.003051	-0.000047	0.002447	0.002666	6777.980701	40844.826234	4085.704361	22333.857855
31.536500	-0.001588	-0.000436	0.005786	0.001120	6803.401498	40945.337155	4096.897012	22402.384385
32.036500	-0.001693	-0.000516	-0.002709	0.000593	6806.985192	40984.305135	4078.705088	22425.822545
32.536500	-0.002575	0.000180	-0.000757	0.000711	6798.514310	41034.715330	4082.862850	22420.583854
33.039500	0.000401	0.000483	0.002826	0.001446	6817.530586	40996.935988	4089.353181	22387.897401
33.537000	-0.002119	0.000950	-0.002112	0.001755	6793.527762	41010.707705	4077.427533	22374.189387
34.035000	-0.001788	-0.000138	-0.005942	0.002086	6793.534037	40887.292268	4068.071350	22359.533383
34.538000	-0.002493	-0.000435	0.001098	0.001653	6791.230862	40899.099012	4084.938091	22378.719923
35.035500	-0.001715	0.000630	0.004880	0.003085	6785.706207	40867.142117	4090.303226	22315.297928
35.536000	-0.003097	0.000706	0.001926	0.002777	6776.660952	40900.541820	4084.264825	22328.933927
36.036000	-0.000267	0.000270	0.000308	0.002569	6802.324937	40880.775369	4081.064476	22338.164800
36.536500	-0.002458	0.000066	0.001212	0.002151	6787.317960	40899.317037	4084.064371	22356.655989
37.036500	0.000548	0.000075	0.004396	0.002642	6808.610335	40857.491914	4090.209463	22334.907335
37.537000	-0.003981	-0.000869	-0.000260	0.002255	6773.616057	40809.132277	4080.486782	22352.053719
38.037000	-0.003801	-0.000371	0.003604	0.001965	6777.568140	40877.569481	4089.946729	22364.914842
38.534500	-0.000469	0.000032	0.001158	0.002507	6801.134292	40865.501535	4083.134604	22340.903311
39.034500	-0.000297	0.000709	0.001762	0.002460	6802.982959	40928.324667	4084.611786	22342.954146
39.535000	0.000163	0.000152	0.000870	0.002202	6809.080011	40902.390155	4083.169772	22354.376362
40.035500	-0.001707	0.000373	-0.000610	0.002284	6792.548042	40914.561373	4079.630276	22350.783803
40.536000	-0.002730	0.000472	0.003127	0.002902	6778.693665	40869.364759	4086.716324	22323.413829
41.036000	0.000469	-0.000012	-0.000474	0.002549	6808.733213	40858.033928	4079.336798	22339.038492
41.536500	-0.000040	-0.000504	0.003562	0.002146	6807.836450	40850.281150	4089.437477	22356.893901
42.036500	-0.000907	0.001024	0.000814	0.002918	6793.945461	40915.962853	4081.418959	22322.717254
42.536500	-0.001775	-0.000643	0.001108	0.001820	6795.896502	40866.523106	4084.582557	22371.338679
43.037000	-0.001233	0.000086	0.010001	0.003037	6790.183304	40824.111638	4102.205653	22317.423878
43.537500	0.001781	-0.000062	0.002662	-0.002226	6860.788872	41270.502907	4097.409191	22551.588543
44.037500	-0.002769	-0.000528	-0.000141	-0.000187	6804.475539	41051.228321	4086.308961	22460.518955
44.535000	0.001628	0.000598	0.006945	0.001328	6828.993050	41017.272596	4099.088928	22393.137657
45.036000	-0.004029	-0.000643	-0.003135	0.004860	6751.372718	40603.484699	4068.145507	22237.007801
45.536000	0.000172	-0.000651	0.001968	0.000353	6824.891161	40993.416803	4089.891731	22436.477858
46.036500	-0.003074	-0.000343	-0.001148	0.000823	6793.333834	40979.303646	4081.721129	22415.576393
46.536500	-0.000198	0.000493	0.000253	0.001303	6813.649009	41010.322760	4083.812603	22394.249857
47.037000	-0.000601	-0.000002	0.002660	0.002674	6798.595538	40848.022931	4086.169959	22333.484887
47.537000	-0.001365	-0.000293	-0.005003	0.002550	6793.186103	40833.607959	4069.135609	22339.002664
48.035000	-0.001643	-0.000049	0.003973	0.000869	6805.070565	41000.923174	4093.305377	22413.562014
48.537500	-0.001095	-0.000022	0.000075	0.001080	6807.931018	40984.925538	4083.914783	22404.178450
49.035500	-0.001376	-0.000531	0.001636	0.000514	6810.340866	40989.859844	4088.763162	22429.304411
49.535500	0.000778	0.000492	0.001456	-0.001846	6848.890822	41285.732795	4093.759476	22534.566393
50.035000	-0.000895	0.000001	0.003156	0.002771	6795.296684	40839.926937	4087.082289	22329.214909
50.536000	-0.004177	0.000385	0.009065	0.027631	6564.754771	38774.652353	4044.773563	21260.194130
51.036500	-0.050255	-0.001582	-0.015260	0.110883	5677.852504	32427.826112	3836.649414	18094.857518
51.539500	-0.045887	-0.010307	-0.017113	-0.080779	7136.421234	47763.026593	4242.510339	26405.252932
52.039500	-0.041330	-0.073630	-0.005191	-0.284230	9603.397497	64750.214394	4978.433850	40322.373889
52.537500	-0.029645	-0.098684	0.008711	-0.314782	10265.504895	65535.000000	5181.299468	43034.157797
53.034500	-0.025082	-0.074940	0.009217	-0.285596	9871.715530	64758.232384	5048.054098	40439.578514
53.538000	-0.015112	-0.059552	0.021086	-0.264303	9697.989928	63926.228976	5006.154543	38653.705536
54.035500	-0.007292	-0.030964	0.019439	-0.215574	9106.751741	61172.215802	4796.978013	34881.700211
54.535000	0.005884	-0.027548	0.023146	-0.216420	9303.150832	61744.285506	4814.899836	34943.586256
55.036000	0.017655	-0.014298	0.036558	-0.188501	9077.510732	59798.225944	4758.436572	32961.819420
55.536000	0.030634	-0.003538	0.047656	-0.140993	8622.276176	55202.347963	4624.762871	29869.031994
56.036500	0.043014	0.005432	0.052864	-0.116410	8469.853029	53364.535621	4558.070909	28396.709616
56.537000	0.053137	0.013087	0.063006	-0.071914	8062.832081	49280.665114	4446.886500	25934.645931
57.037000	0.061056	0.020255	0.066540	-0.022109	7608.482925	44967.242532	4310.385179	23462.141143
57.534500	0.074866	0.030262	0.076670	0.027579	7252.671910	41316.080785	4204.679654	21262.384328
58.040500	0.075437	0.030311	0.079685	0.051636	7035.176596	39263.670350	4152.253346	20284.458726
58.535500	0.076113	0.032411	0.085937	0.064580	6926.162183	38373.190344	4136.104798	19780.264871
59.035500	0.081908	0.034260	0.091694	0.093034	6732.720879	36280.324260	4083.153918	18723.356713
59.544000	0.087783	0.038869	0.099221	0.101566	6710.687723	35982.403058	4080.873042	18419.705560
60.036000	0.091002	0.038573	0.109299	0.102309	6731.213625	35903.924204	4102.268087	18393.543355
60.539000	0.096316	0.041345	0.104687	0.127247	6571.718349	34274.267691	4036.090266	17540.907118
61.036500	0.099512	0.042311	0.110215	0.129107	6582.347244	34210.256324	4044.062738	17479.244749
61.539500	0.106933	0.047826	0.111743	0.133064	6610.059209	34321.906309	4038.775201	17348.946205
62.034000	0.110735	0.048102	0.108880	0.128248	6679.988918	34689.516542	4043.022819	17507.681349
62.534500	0.115189	0.049813	0.108591	0.131899	6686.578672	34548.990930	4034.473859	17387.202088
63.046000	0.115366	0.049399	0.109183	0.133169	6677.620327	34427.452044	4033.008554	17345.526371
63.536000	0.117285	0.049615	0.116873	0.138633	6648.700571	34051.798204	4037.822746	17167.582972
64.035500	0.116567	0.049361	0.117821	0.141306	6621.270432	33844.274990	4034.090077	17081.368374
64.536000	0.118531	0.050269	0.115369	0.143899	6616.199395	33725.396518	4023.258072	16998.217666
65.036000	0.119278	0.050456	0.116640	0.145464	6609.623130	33628.553299	4022.631543	16948.294742
65.536500	0.120471	0.049378	0.115365	0.146308	6612.429135	33493.994111	4018.121639	16921.424682
66.037000	0.119314	0.049420	0.121661	0.148556	6585.163921	33340.262727	4026.755790	16850.152454
66.537000	0.122619	0.050410	0.120543	0.152508	6580.009433	33135.041441	4015.954666	16725.724270
67.037500	0.122643	0.050333	0.120441	0.155649	6555.266274	32913.707783	4009.112037	16627.622706
67.537500	0.124020	0.049145	0.121942	0.157959	6547.902141	32675.009284	4007.413589	16555.956696
68.040500	0.126235	0.051389	0.122518	0.161086	6540.712273	32614.994608	4002.078354	16459.517990
68.582500	0.128322	0.051291	0.122428	0.162764	6543.931135	32494.694055	3998.394899	16408.032468
69.036000	0.128562	0.050237	0.121060	0.162617	6546.987739	32433.568707	3995.864733	16412.550792
69.536000	0.126952	0.049620	0.132521	0.163517	6527.237550	32331.429015	4018.009077	16385.015586
70.036500	0.128882	0.050116	0.125531	0.165350	6528.006395	32241.808956	3999.471397	16329.136730
70.536500	0.128056	0.050553	0.124605	0.167313	6506.196516	32139.750471	3993.483863	16269.543274
71.037000	0.127520	0.050086	0.125226	0.169340	6486.274633	31973.744652	3990.582688	16208.266239
71.537500	0.131216	0.050423	0.119858	0.170334	6507.280587	31930.155588	3977.575585	16178.346663
72.034500	0.128813	0.048090	0.123600	0.169423	6495.657940	31836.038700	3987.069185	16205.761065
72.538000	0.129263	0.049072	0.122532	0.170593	6490.071475	31823.700105	3982.490461	16170.550245
73.035000	0.131249	0.049489	0.121333	0.171650	6497.283676	31781.437539	3977.897379	16138.805679
73.535500	0.128792	0.047579	0.125875	0.170916	6483.916022	31704.004006	3988.674697	16160.839438
74.036000	0.132441	0.049239	0.130216	0.173143	6494.953920	31666.812472	3993.030882	16094.128244
74.536000	0.131413	0.047402	0.121642	0.173446	6484.624440	31526.619711	3974.885314	16085.063268
75.036000	0.128246	0.046959	0.122040	0.174591	6451.396614	31423.078208	3973.375150	16050.914415
75.537000	0.132074	0.048087	0.128279	0.175729	6472.091147	31422.450939	3983.739165	16017.068264
76.037000	0.128996	0.045938	0.130857	0.175890	6447.191510	31272.511385	3988.692427	16012.292934
76.534500	0.132392	0.045696	0.125844	0.176907	6465.458111	31191.096524	3976.386389	15982.116619
77.037500	0.130154	0.046252	0.133043	0.178941	6432.722047	31095.781350	3986.916448	15921.986436
77.535000	0.129212	0.044954	0.129911	0.178309	6430.359137	31052.992353	3981.802770	15940.642200
78.035500	0.130236	0.045324	0.129421	0.179427	6429.640442	31004.962985	3978.528866	15907.650219
78.535500	0.131705	0.045637	0.125544	0.179488	6440.389103	31021.150723	3970.566930	15905.877296
79.036000	0.132506	0.044192	0.133004	0.180267	6440.552249	30878.786737	3984.121741	15882.952523
79.536500	0.131186	0.044063	0.132659	0.180250	6430.607514	30871.659287	3983.449526	15883.438414
80.036500	0.133386	0.044660	0.130152	0.181920	6434.650262	30803.246711	3974.957595	15834.440317
80.537000	0.131958	0.043805	0.133428	0.181120	6429.859915	30799.710424	3983.244785	15857.885883
81.037500	0.132812	0.042698	0.133020	0.181777	6431.368206	30687.712848	3981.071513	15838.630849
81.537500	0.131253	0.042724	0.129007	0.183270	6408.183636	30594.828325	3969.923789	15794.958563
82.035000	0.132084	0.042112	0.131309	0.183974	6409.148287	30511.836383	3973.146448	15774.432503
82.535500	0.134868	0.042118	0.133020	0.184264	6428.073206	30493.851671	3976.019064	15765.955060
83.035500	0.135534	0.042098	0.133885	0.185586	6423.086905	30409.535502	3975.093807	15727.511299
83.535500	0.131824	0.041109	0.131020	0.185947	6392.273275	30324.937073	3968.588156	15717.023356
84.036000	0.134254	0.041285	0.135864	0.187881	6396.016212	30215.189147	3974.454281	15661.044302
84.536000	0.133978	0.040878	0.136398	0.188661	6388.066145	30141.353149	3973.958783	15638.535330
85.036000	0.134426	0.040842	0.134666	0.189900	6382.113167	30062.201049	3967.971988	15602.832722
85.536500	0.135024	0.040716	0.134560	0.190772	6380.061729	30000.457038	3966.012080	15577.804676
86.037500	0.134553	0.040567	0.135752	0.192041	6367.032077	29912.934577	3965.859033	15541.434998
86.537000	0.133552	0.039340	0.134458	0.192400	6356.881753	29815.385720	3962.553283	15531.165324
87.035000	0.134158	0.039192	0.133645	0.193528	6352.993654	29737.131575	3958.690789	15498.945423
87.535500	0.134073	0.037949	0.134439	0.192580	6359.422188	29719.086328	3962.156730	15526.017116
88.035000	0.133300	0.038447	0.138454	0.194419	6340.012127	29637.236149	3966.507131	15473.585407
88.536000	0.134232	0.037353	0.140471	0.194773	6344.296185	29549.053753	3969.845570	15463.503977
89.038500	0.136477	0.038701	0.138532	0.197414	6341.354307	29470.544888	3960.679702	15388.622403
89.536500	0.135970	0.037897	0.138841	0.197595	6336.259851	29410.956887	3960.934776	15383.517661
90.036500	0.135385	0.037231	0.134651	0.197837	6330.147680	29356.114830	3952.157561	15376.695194
90.537000	0.134027	0.036014	0.141222	0.198688	6313.856923	29231.589070	3963.502949	15352.678820
91.042500	0.135657	0.035727	0.136784	0.199131	6322.598118	29187.794797	3953.809876	15340.192652
91.535000	0.134428	0.035376	0.138355	0.200512	6303.418597	29084.197026	3954.187718	15301.397636
92.035500	0.136277	0.036053	0.139308	0.202203	6304.573322	29023.730203	3952.729471	15254.029791
92.535500	0.133837	0.034284	0.138961	0.202184	6286.881736	28919.734009	3952.084609	15254.574912
93.039500	0.137168	0.035124	0.143307	0.204190	6296.552403	28850.604918	3956.708951	15198.629639
93.536000	0.135804	0.032566	0.142308	0.203555	6291.223652	28737.081770	3955.985490	15216.293282
94.036500	0.134202	0.032726	0.136979	0.204759	6270.807239	28675.631847	3943.149388	15182.784607
94.537000	0.137284	0.032105	0.138258	0.205419	6288.426788	28600.480208	3944.357675	15164.477478
95.037000	0.134314	0.032578	0.145733	0.206599	6258.297514	28559.065684	3956.740951	15131.761307
95.537500	0.137462	0.032535	0.139046	0.207836	6272.136228	28484.291575	3941.183025	15097.598828
