sample name	sample
index	407
start time	 03-08-2021  10:45:12 AM


Wavelength (nm)	Absorbance
494.344910	-0.126660
494.563924	-0.126660
494.782919	-0.126660
495.001897	0.709097
495.220856	-0.038803
495.439797	-0.020395
495.658719	-0.033768
495.877624	-0.054312
496.096510	-0.080407
496.315378	-0.039386
496.534227	-0.029512
496.753059	-0.008579
496.971872	-0.014755
497.190667	0.055528
497.409444	0.054893
497.628203	0.059569
497.846943	0.062269
498.065665	0.062216
498.284369	0.061772
498.503055	0.061833
498.721723	0.061368
498.940372	0.060929
499.159003	0.059821
499.377616	0.060421
499.596210	0.059838
499.814787	0.058713
500.033345	0.058277
500.251885	0.058486
500.470406	0.058219
500.688910	0.057613
500.907395	0.057452
501.125862	0.057158
501.344311	0.056606
501.562742	0.056967
501.781154	0.057907
501.999548	0.058124
502.217924	0.057183
502.436282	0.057291
502.654621	0.058289
502.872942	0.058189
503.091245	0.058500
503.309530	0.059717
503.527797	0.059642
503.746045	0.059370
503.964275	0.058847
504.182487	0.058345
504.400681	0.057904
504.618856	0.057656
504.837013	0.058597
505.055152	0.058730
505.273273	0.058331
505.491376	0.057756
505.709460	0.057693
505.927526	0.056910
506.145574	0.057453
506.363604	0.057443
506.581615	0.057280
506.799608	0.056754
507.017583	0.056708
507.235540	0.056963
507.453478	0.057184
507.671399	0.057480
507.889301	0.058650
508.107185	0.059408
508.325050	0.059782
508.542898	0.059659
508.760727	0.060277
508.978538	0.061081
509.196330	0.060599
509.414105	0.061647
509.631861	0.060977
509.849599	0.061765
510.067319	0.062229
510.285021	0.061889
510.502704	0.062295
510.720369	0.062165
510.938016	0.061724
511.155645	0.061719
511.373255	0.061088
511.590848	0.062149
511.808422	0.062185
512.025977	0.061835
512.243515	0.062723
512.461034	0.062297
512.678536	0.062566
512.896018	0.062852
513.113483	0.063381
513.330930	0.063391
513.548358	0.063506
513.765768	0.062806
513.983160	0.062925
514.200533	0.062228
514.417889	0.062639
514.635226	0.062356
514.852545	0.062113
515.069845	0.062156
515.287128	0.062673
515.504392	0.062475
515.721638	0.062756
515.938866	0.063060
516.156075	0.063775
516.373267	0.063939
516.590440	0.064058
516.807594	0.064344
517.024731	0.064717
517.241850	0.064644
517.458950	0.064858
517.676032	0.065240
517.893095	0.064594
518.110141	0.064707
518.327168	0.064452
518.544177	0.064592
518.761168	0.064173
518.978141	0.063987
519.195095	0.064351
519.412031	0.064446
519.628949	0.064060
519.845849	0.064618
520.062731	0.064265
520.279594	0.065315
520.496439	0.065403
520.713266	0.065743
520.930074	0.065979
521.146865	0.066016
521.363637	0.065410
521.580391	0.066107
521.797127	0.066304
522.013844	0.066593
522.230543	0.065890
522.447224	0.066301
522.663887	0.066938
522.880532	0.066576
523.097158	0.067178
523.313766	0.067885
523.530356	0.067928
523.746928	0.068320
523.963481	0.068604
524.180017	0.069263
524.396534	0.069374
524.613032	0.069159
524.829513	0.069863
525.045975	0.069308
525.262420	0.069505
525.478845	0.069754
525.695253	0.069074
525.911643	0.068901
526.128014	0.068845
526.344367	0.068482
526.560702	0.068767
526.777018	0.068338
526.993316	0.068606
527.209597	0.068556
527.425858	0.067977
527.642102	0.068363
527.858328	0.068675
528.074535	0.068483
528.290724	0.069066
528.506894	0.068888
528.723047	0.069462
528.939181	0.069968
529.155297	0.070761
529.371395	0.071336
529.587475	0.072014
529.803536	0.072378
530.019579	0.072913
530.235604	0.072817
530.451611	0.073246
530.667600	0.073154
530.883570	0.072558
531.099522	0.072522
531.315456	0.072339
531.531372	0.072426
531.747269	0.072751
531.963148	0.072460
532.179009	0.072767
532.394852	0.073094
532.610676	0.073383
532.826482	0.073547
533.042271	0.073440
533.258040	0.073738
533.473792	0.073638
533.689525	0.073596
533.905240	0.074044
534.120937	0.074297
534.336616	0.074283
534.552277	0.074334
534.767919	0.074521
534.983543	0.074371
535.199149	0.074385
535.414736	0.074150
535.630306	0.074442
535.845857	0.074522
536.061390	0.074817
536.276904	0.075134
536.492401	0.075458
536.707879	0.076217
536.923339	0.076588
537.138781	0.077027
537.354204	0.077454
537.569610	0.077201
537.784997	0.077361
538.000366	0.077850
538.215716	0.077661
538.431049	0.077714
538.646363	0.077311
538.861659	0.077768
539.076937	0.078297
539.292196	0.078893
539.507438	0.079239
539.722661	0.079504
539.937866	0.079323
540.153052	0.079523
540.368221	0.079361
540.583371	0.079738
540.798503	0.079653
541.013617	0.079812
541.228712	0.079885
541.443789	0.079942
541.658848	0.079907
541.873889	0.079902
542.088912	0.079964
542.303916	0.080341
542.518902	0.080331
542.733870	0.080538
542.948820	0.080203
543.163752	0.080023
543.378665	0.079889
543.593560	0.080448
543.808437	0.080603
544.023295	0.080938
544.238136	0.080858
544.452958	0.080952
544.667762	0.081100
544.882548	0.081143
545.097315	0.081479
545.312064	0.082300
545.526795	0.082412
545.741508	0.082388
545.956203	0.082296
546.170879	0.082270
546.385537	0.082522
546.600177	0.082717
546.814799	0.083136
547.029402	0.083193
547.243988	0.083034
547.458555	0.082797
547.673103	0.083142
547.887634	0.083877
548.102146	0.084489
548.316640	0.084916
548.531116	0.084750
548.745574	0.084661
548.960013	0.084669
549.174435	0.084609
549.388838	0.084922
549.603222	0.084780
549.817589	0.084369
550.031937	0.084391
550.246267	0.083859
550.460579	0.083855
550.674873	0.084153
550.889148	0.084369
551.103405	0.084504
551.317644	0.084730
551.531865	0.085055
551.746068	0.085186
551.960252	0.084931
552.174418	0.085388
552.388566	0.085525
552.602696	0.085455
552.816807	0.085527
553.030900	0.085406
553.244975	0.085182
553.459032	0.084953
553.673070	0.085028
553.887091	0.085369
554.101093	0.085447
554.315077	0.085485
554.529042	0.085859
554.742990	0.085860
554.956919	0.086275
555.170830	0.086468
555.384722	0.086739
555.598597	0.087298
555.812453	0.087637
556.026291	0.087427
556.240111	0.087648
556.453913	0.087355
556.667696	0.087420
556.881461	0.087832
557.095208	0.088105
557.308937	0.088336
557.522647	0.087959
557.736339	0.088056
557.950013	0.088533
558.163669	0.088458
558.377307	0.088716
558.590926	0.088989
558.804527	0.088842
559.018110	0.088819
559.231675	0.088974
559.445221	0.089326
559.658749	0.089248
559.872259	0.089050
560.085751	0.089322
560.299225	0.089737
560.512680	0.089566
560.726117	0.089390
560.939536	0.089210
561.152937	0.089000
561.366319	0.088819
561.579683	0.088792
561.793029	0.089010
562.006357	0.089261
562.219667	0.089196
562.432958	0.089439
562.646231	0.089863
562.859486	0.090115
563.072723	0.090464
563.285941	0.090830
563.499141	0.090964
563.712323	0.091131
563.925487	0.091159
564.138632	0.091053
564.351760	0.090942
564.564869	0.090986
564.777960	0.091279
564.991032	0.091332
565.204087	0.090967
565.417123	0.090820
565.630141	0.090851
565.843140	0.090838
566.056122	0.091041
566.269085	0.091356
566.482030	0.091294
566.694957	0.091424
566.907866	0.091630
567.120756	0.092132
567.333628	0.092522
567.546482	0.092552
567.759318	0.092528
567.972135	0.092468
568.184935	0.092962
568.397716	0.093255
568.610478	0.093216
568.823223	0.093124
569.035949	0.093004
569.248657	0.093151
569.461347	0.093338
569.674019	0.093500
569.886672	0.093556
570.099308	0.093544
570.311925	0.093275
570.524523	0.093136
570.737104	0.093287
570.949666	0.093344
571.162210	0.093595
571.374736	0.093869
571.587244	0.094097
571.799733	0.094495
572.012205	0.094392
572.224658	0.094666
572.437092	0.094892
572.649509	0.095153
572.861907	0.095577
573.074287	0.095687
573.286649	0.095717
573.498993	0.095812
573.711318	0.095830
573.923625	0.096035
574.135914	0.096291
574.348185	0.096284
574.560438	0.096218
574.772672	0.096060
574.984888	0.095960
575.197086	0.096087
575.409266	0.096395
575.621427	0.096103
575.833570	0.096050
576.045695	0.096117
576.257802	0.096276
576.469890	0.096315
576.681961	0.096604
576.894013	0.096598
577.106046	0.096824
577.318062	0.096994
577.530059	0.097667
577.742039	0.097893
577.954000	0.097898
578.165942	0.097993
578.377867	0.098264
578.589773	0.098259
578.801661	0.098648
579.013531	0.098406
579.225382	0.098261
579.437216	0.098100
579.649031	0.097979
579.860828	0.097895
580.072606	0.098066
580.284367	0.097886
580.496109	0.097815
580.707833	0.097794
580.919539	0.097832
581.131227	0.097813
581.342896	0.097778
581.554547	0.098011
581.766180	0.098661
581.977795	0.099421
582.189391	0.099775
582.400969	0.099984
582.612529	0.100298
582.824071	0.100484
583.035595	0.100621
583.247100	0.100977
583.458587	0.100920
583.670056	0.100557
583.881506	0.100248
584.092939	0.100109
584.304353	0.100494
584.515749	0.100363
584.727127	0.100706
584.938486	0.100901
585.149828	0.101221
585.361151	0.101471
585.572456	0.101683
585.783742	0.101838
585.995011	0.102094
586.206261	0.101994
586.417493	0.102262
586.628706	0.102204
586.839902	0.102048
587.051079	0.101863
587.262238	0.101986
587.473379	0.102235
587.684502	0.101884
587.895606	0.101814
588.106692	0.101746
588.317760	0.101825
588.528810	0.102071
588.739841	0.102707
588.950855	0.102758
589.161850	0.102853
589.372827	0.102818
589.583785	0.103005
589.794726	0.103430
590.005648	0.103713
590.216552	0.103544
590.427437	0.103441
590.638305	0.103418
590.849154	0.103722
591.059985	0.103828
591.270798	0.103866
591.481592	0.104033
591.692369	0.104043
591.903127	0.104237
592.113867	0.104454
592.324588	0.104446
592.535292	0.104668
592.745977	0.104340
592.956644	0.104414
593.167293	0.104534
593.377923	0.104753
593.588536	0.104667
593.799130	0.104720
594.009706	0.104744
594.220263	0.105264
594.430803	0.104989
594.641324	0.105221
594.851827	0.105245
595.062312	0.105321
595.272778	0.105511
595.483227	0.105581
595.693657	0.105725
595.904069	0.106085
596.114462	0.105950
596.324838	0.106050
596.535195	0.106298
596.745534	0.106321
596.955855	0.106544
597.166157	0.106447
597.376441	0.106542
597.586707	0.106442
597.796955	0.106478
598.007185	0.106465
598.217396	0.106575
598.427589	0.106539
598.637764	0.106646
598.847921	0.106674
599.058060	0.106977
599.268180	0.107186
599.478282	0.107347
599.688366	0.107235
599.898431	0.107618
600.108479	0.107857
600.318508	0.108360
600.528519	0.108560
600.738511	0.108640
600.948486	0.108274
601.158442	0.108503
601.368380	0.108834
601.578300	0.109124
601.788202	0.108873
601.998085	0.108710
602.207950	0.108367
602.417797	0.108542
602.627626	0.108685
602.837436	0.108816
603.047228	0.108528
603.257002	0.108160
603.466758	0.108039
603.676496	0.108378
603.886215	0.108407
604.095916	0.108475
604.305599	0.108382
604.515264	0.108447
604.724910	0.108944
604.934538	0.109382
605.144148	0.109835
605.353740	0.110062
605.563314	0.109794
605.772869	0.110028
605.982406	0.110184
606.191925	0.110166
606.401425	0.110159
606.610908	0.110102
606.820372	0.109913
607.029818	0.109709
607.239246	0.109549
607.448655	0.109780
607.658047	0.109738
607.867420	0.109677
608.076775	0.109827
608.286111	0.109950
608.495430	0.110202
608.704730	0.110304
608.914012	0.110612
609.123275	0.110877
609.332521	0.111065
609.541748	0.111488
609.750957	0.111802
609.960148	0.111842
610.169321	0.111865
610.378475	0.111646
610.587611	0.111934
610.796729	0.111895
611.005829	0.112039
611.214910	0.112153
611.423974	0.112045
611.633019	0.111851
611.842045	0.112106
612.051054	0.112582
612.260044	0.112707
612.469017	0.112800
612.677970	0.113071
612.886906	0.113034
613.095824	0.112892
613.304723	0.112890
613.513604	0.113172
613.722467	0.113143
613.931311	0.112962
614.140138	0.112998
614.348946	0.113003
614.557736	0.112910
614.766507	0.113235
614.975261	0.113422
615.183996	0.113637
615.392713	0.113756
615.601412	0.113761
615.810092	0.114011
616.018754	0.114213
616.227399	0.114331
616.436024	0.114550
616.644632	0.114660
616.853222	0.114936
617.061793	0.114847
617.270346	0.115030
617.478880	0.115218
617.687397	0.115039
617.895895	0.115230
618.104375	0.115375
618.312837	0.115366
618.521281	0.115276
618.729706	0.115175
618.938113	0.115340
619.146502	0.115156
619.354873	0.115192
619.563226	0.115259
619.771560	0.115346
619.979876	0.115188
620.188174	0.115103
620.396453	0.115121
620.604715	0.115104
620.812958	0.114849
621.021183	0.114894
621.229390	0.114952
621.437578	0.115054
621.645748	0.115019
621.853900	0.115217
622.062034	0.115254
622.270150	0.115246
622.478247	0.115457
622.686326	0.115792
622.894387	0.116100
623.102430	0.116008
623.310454	0.116067
623.518461	0.116120
623.726449	0.116034
623.934418	0.116162
624.142370	0.116341
624.350303	0.116408
624.558218	0.116424
624.766115	0.116153
624.973994	0.116434
625.181855	0.116702
625.389697	0.116911
625.597521	0.117280
625.805327	0.117562
626.013114	0.117731
626.220883	0.117866
626.428634	0.118042
626.636367	0.118233
626.844082	0.118282
627.051778	0.118241
627.259457	0.118241
627.467117	0.118120
627.674758	0.118181
627.882382	0.118299
628.089987	0.118372
628.297574	0.118343
628.505143	0.118626
628.712694	0.118959
628.920226	0.118988
629.127740	0.119156
629.335236	0.119352
629.542714	0.119355
629.750174	0.119250
629.957615	0.119159
630.165038	0.119237
630.372443	0.119145
630.579829	0.119011
630.787198	0.118997
630.994548	0.118822
631.201880	0.118865
631.409194	0.119052
631.616489	0.119091
631.823766	0.119234
632.031025	0.119459
632.238266	0.119581
632.445489	0.119584
632.652693	0.119631
632.859879	0.119881
633.067047	0.119914
633.274197	0.119757
633.481329	0.119731
633.688442	0.119979
633.895537	0.120066
634.102614	0.120187
634.309672	0.120282
634.516713	0.120635
634.723735	0.120598
634.930739	0.120697
635.137724	0.120982
635.344692	0.121029
635.551641	0.120908
635.758572	0.120937
635.965485	0.120969
636.172379	0.121070
636.379256	0.121004
636.586114	0.121107
636.792954	0.121169
636.999775	0.121373
637.206579	0.121498
637.413364	0.121664
637.620131	0.121704
637.826880	0.121870
638.033610	0.121918
638.240323	0.122128
638.447017	0.122338
638.653692	0.122450
638.860350	0.122437
639.066990	0.122619
639.273611	0.122650
639.480214	0.122903
639.686798	0.122840
639.893365	0.123136
640.099913	0.123151
640.306443	0.123049
640.512955	0.123034
640.719449	0.123032
640.925924	0.122960
641.132381	0.123065
641.338820	0.123137
641.545241	0.123286
641.751644	0.123495
641.958028	0.123554
642.164394	0.123753
642.370742	0.123922
642.577071	0.123916
642.783383	0.124302
642.989676	0.124431
643.195951	0.124437
643.402207	0.124557
643.608446	0.124456
643.814666	0.124555
644.020868	0.124643
644.227052	0.124710
644.433218	0.125031
644.639365	0.125027
644.845494	0.125031
645.051605	0.125167
645.257698	0.125342
645.463772	0.125081
645.669828	0.125254
645.875866	0.125264
646.081886	0.125160
646.287888	0.124863
646.493871	0.124651
646.699836	0.124803
646.905783	0.124840
647.111712	0.124768
647.317622	0.125070
647.523514	0.125032
647.729388	0.125220
647.935244	0.125468
648.141082	0.125707
648.346901	0.126046
648.552702	0.126043
648.758485	0.126248
648.964250	0.126468
649.169996	0.126778
649.375724	0.126931
649.581434	0.127039
649.787126	0.127207
649.992800	0.127447
650.198455	0.127727
650.404092	0.128019
650.609711	0.128096
650.815311	0.128074
651.020894	0.128030
651.226458	0.127950
651.432004	0.127840
651.637532	0.127760
651.843041	0.127611
652.048532	0.127341
652.254006	0.127120
652.459460	0.126983
652.664897	0.127064
652.870315	0.127098
653.075716	0.127218
653.281097	0.127357
653.486461	0.127518
653.691807	0.127650
653.897134	0.127793
654.102443	0.128036
654.307734	0.128304
654.513006	0.128515
654.718261	0.128522
654.923497	0.128586
655.128715	0.128639
655.333915	0.128822
655.539096	0.129051
655.744259	0.129330
655.949404	0.129363
656.154531	0.129596
656.359640	0.129654
656.564730	0.129901
656.769802	0.129850
656.974856	0.130212
657.179892	0.130328
657.384909	0.130154
657.589908	0.130084
657.794889	0.130212
657.999852	0.130123
658.204797	0.130120
658.409723	0.130278
658.614631	0.130680
658.819521	0.130605
659.024393	0.130580
659.229246	0.131067
659.434081	0.131364
659.638898	0.131377
659.843697	0.131408
660.048478	0.131487
660.253240	0.131424
660.457984	0.131522
660.662710	0.131452
660.867417	0.131561
661.072107	0.131548
661.276778	0.131543
661.481431	0.131848
661.686066	0.131893
661.890682	0.132050
662.095281	0.132201
662.299861	0.132038
662.504422	0.132163
662.708966	0.132246
662.913491	0.132348
663.117999	0.132451
663.322488	0.132513
663.526958	0.132580
663.731411	0.132604
663.935845	0.132733
664.140261	0.133105
664.344659	0.133252
664.549038	0.133264
664.753400	0.133299
664.957743	0.133356
665.162068	0.133373
665.366375	0.133584
665.570663	0.133844
665.774933	0.133940
665.979185	0.133899
666.183419	0.134199
666.387635	0.134593
666.591832	0.134633
666.796011	0.135021
667.000172	0.135280
667.204315	0.135377
667.408439	0.135582
667.612545	0.135522
667.816634	0.135874
668.020703	0.135925
668.224755	0.135931
668.428788	0.136087
668.632803	0.136013
668.836800	0.136056
669.040779	0.136339
669.244739	0.136217
669.448681	0.136536
669.652605	0.136416
669.856511	0.136431
670.060399	0.136534
670.264268	0.136842
670.468119	0.136931
670.671952	0.137098
670.875767	0.137162
671.079563	0.137447
671.283341	0.137468
671.487101	0.137628
671.690843	0.137844
671.894567	0.137850
672.098272	0.137799
672.301959	0.137705
672.505628	0.137449
672.709278	0.137462
672.912911	0.137527
673.116525	0.137805
673.320121	0.137862
673.523699	0.137618
673.727258	0.137799
673.930799	0.137859
674.134322	0.138169
674.337827	0.138572
674.541314	0.138470
674.744782	0.138446
674.948232	0.138419
675.151664	0.138698
675.355078	0.139150
675.558474	0.139366
675.761851	0.139349
675.965210	0.139322
676.168551	0.139480
676.371873	0.139853
676.575178	0.140039
676.778464	0.139986
676.981732	0.139711
677.184981	0.139675
677.388213	0.139614
677.591426	0.139941
677.794621	0.140029
677.997798	0.139982
678.200956	0.139964
678.404097	0.140035
678.607219	0.140251
678.810323	0.140400
679.013408	0.140492
679.216476	0.140558
679.419525	0.140497
679.622556	0.140630
679.825569	0.140739
680.028563	0.140714
680.231540	0.140677
680.434498	0.140770
680.637438	0.141121
680.840359	0.141061
681.043263	0.141177
681.246148	0.141325
681.449015	0.141423
681.651864	0.141557
681.854694	0.141900
682.057506	0.142248
682.260301	0.142504
682.463076	0.142611
682.665834	0.143020
682.868573	0.143303
683.071295	0.143599
683.273998	0.143808
683.476682	0.143811
683.679349	0.143825
683.881997	0.143695
684.084627	0.143473
684.287239	0.143374
684.489833	0.143252
684.692408	0.143000
684.894965	0.142765
685.097504	0.142764
685.300025	0.143112
685.502527	0.143178
685.705012	0.143360
685.907478	0.143700
686.109925	0.144049
686.312355	0.144238
686.514766	0.144484
686.717159	0.144758
686.919534	0.144906
687.121891	0.144708
687.324230	0.144991
687.526550	0.145334
687.728852	0.145178
687.931136	0.145031
688.133401	0.145322
688.335649	0.145571
688.537878	0.145695
688.740089	0.145862
688.942281	0.145906
689.144456	0.145901
689.346612	0.145796
689.548750	0.146133
689.750870	0.146282
689.952971	0.146205
690.155055	0.146116
690.357120	0.146099
690.559167	0.146115
690.761195	0.146519
690.963206	0.146384
691.165198	0.146178
691.367172	0.146072
691.569128	0.145978
691.771065	0.145904
691.972984	0.146093
692.174885	0.146279
692.376768	0.146088
692.578633	0.145873
692.780479	0.146073
692.982308	0.146371
693.184118	0.146539
693.385909	0.146833
