sample name	sample
index	321
start time	 02-25-2021  03:19:27 PM


Wavelength (nm)	Absorbance
494.344910	0.844008
494.563924	0.844008
494.782919	0.844008
495.001897	-0.380475
495.220856	0.335165
495.439797	0.110318
495.658719	0.073068
495.877624	0.112079
496.096510	0.817332
496.315378	0.340767
496.534227	0.567455
496.753059	0.353234
496.971872	0.136108
497.190667	0.142996
497.409444	0.145164
497.628203	0.147871
497.846943	0.145380
498.065665	0.146414
498.284369	0.147940
498.503055	0.149028
498.721723	0.149123
498.940372	0.150042
499.159003	0.150380
499.377616	0.150038
499.596210	0.148942
499.814787	0.150063
500.033345	0.148715
500.251885	0.148146
500.470406	0.147069
500.688910	0.146968
500.907395	0.147112
501.125862	0.147567
501.344311	0.148961
501.562742	0.149588
501.781154	0.149693
501.999548	0.150472
502.217924	0.149905
502.436282	0.150802
502.654621	0.151404
502.872942	0.151673
503.091245	0.152339
503.309530	0.152795
503.527797	0.152758
503.746045	0.153305
503.964275	0.153243
504.182487	0.155076
504.400681	0.154079
504.618856	0.153791
504.837013	0.153281
505.055152	0.152114
505.273273	0.151751
505.491376	0.151961
505.709460	0.151266
505.927526	0.151703
506.145574	0.151148
506.363604	0.152525
506.581615	0.152868
506.799608	0.152638
507.017583	0.154149
507.235540	0.154183
507.453478	0.154387
507.671399	0.154408
507.889301	0.154485
508.107185	0.154789
508.325050	0.155398
508.542898	0.155729
508.760727	0.156157
508.978538	0.155484
509.196330	0.156248
509.414105	0.155877
509.631861	0.156140
509.849599	0.155883
510.067319	0.155744
510.285021	0.155041
510.502704	0.154712
510.720369	0.154510
510.938016	0.153598
511.155645	0.154255
511.373255	0.155159
511.590848	0.155474
511.808422	0.155765
512.025977	0.155954
512.243515	0.156953
512.461034	0.157575
512.678536	0.158089
512.896018	0.159116
513.113483	0.158331
513.330930	0.158376
513.548358	0.159560
513.765768	0.159544
513.983160	0.159581
514.200533	0.158882
514.417889	0.158985
514.635226	0.159114
514.852545	0.159345
515.069845	0.159654
515.287128	0.159951
515.504392	0.158867
515.721638	0.158979
515.938866	0.160870
516.156075	0.160432
516.373267	0.160632
516.590440	0.161315
516.807594	0.162117
517.024731	0.163201
517.241850	0.163492
517.458950	0.163405
517.676032	0.164127
517.893095	0.163206
518.110141	0.163853
518.327168	0.164627
518.544177	0.164438
518.761168	0.163509
518.978141	0.163370
519.195095	0.163246
519.412031	0.163530
519.628949	0.163338
519.845849	0.163775
520.062731	0.164251
520.279594	0.164559
520.496439	0.165350
520.713266	0.166932
520.930074	0.166988
521.146865	0.167494
521.363637	0.169002
521.580391	0.168724
521.797127	0.168454
522.013844	0.169053
522.230543	0.168565
522.447224	0.167964
522.663887	0.168314
522.880532	0.168491
523.097158	0.169214
523.313766	0.168936
523.530356	0.170633
523.746928	0.170848
523.963481	0.171157
524.180017	0.171754
524.396534	0.172301
524.613032	0.171678
524.829513	0.172279
525.045975	0.172431
525.262420	0.172607
525.478845	0.172116
525.695253	0.172835
525.911643	0.172470
526.128014	0.172425
526.344367	0.173303
526.560702	0.173917
526.777018	0.173451
526.993316	0.173611
527.209597	0.173272
527.425858	0.173666
527.642102	0.173673
527.858328	0.174364
528.074535	0.174973
528.290724	0.174665
528.506894	0.175010
528.723047	0.175863
528.939181	0.176142
529.155297	0.177458
529.371395	0.177494
529.587475	0.178346
529.803536	0.178149
530.019579	0.178297
530.235604	0.178714
530.451611	0.178969
530.667600	0.179085
530.883570	0.179341
531.099522	0.179206
531.315456	0.179436
531.531372	0.179447
531.747269	0.180191
531.963148	0.181036
532.179009	0.181475
532.394852	0.181431
532.610676	0.181721
532.826482	0.181561
533.042271	0.182000
533.258040	0.182745
533.473792	0.183018
533.689525	0.183109
533.905240	0.182647
534.120937	0.182389
534.336616	0.182879
534.552277	0.183266
534.767919	0.184227
534.983543	0.184229
535.199149	0.184037
535.414736	0.184086
535.630306	0.184591
535.845857	0.185524
536.061390	0.186451
536.276904	0.187168
536.492401	0.187450
536.707879	0.187485
536.923339	0.187892
537.138781	0.188583
537.354204	0.189069
537.569610	0.188749
537.784997	0.189207
538.000366	0.189787
538.215716	0.189832
538.431049	0.190571
538.646363	0.191163
538.861659	0.191961
539.076937	0.192339
539.292196	0.192857
539.507438	0.194015
539.722661	0.193792
539.937866	0.193513
540.153052	0.193931
540.368221	0.194010
540.583371	0.194268
540.798503	0.194302
541.013617	0.194123
541.228712	0.194271
541.443789	0.193921
541.658848	0.194625
541.873889	0.195164
542.088912	0.195596
542.303916	0.195751
542.518902	0.195783
542.733870	0.195638
542.948820	0.196772
543.163752	0.196944
543.378665	0.197737
543.593560	0.198031
543.808437	0.198180
544.023295	0.198362
544.238136	0.198674
544.452958	0.199035
544.667762	0.199713
544.882548	0.199395
545.097315	0.199306
545.312064	0.199732
545.526795	0.199467
545.741508	0.200165
545.956203	0.200276
546.170879	0.200325
546.385537	0.200261
546.600177	0.200309
546.814799	0.200546
547.029402	0.201412
547.243988	0.201077
547.458555	0.201178
547.673103	0.200789
547.887634	0.201192
548.102146	0.200962
548.316640	0.201762
548.531116	0.202553
548.745574	0.202485
548.960013	0.202707
549.174435	0.203696
549.388838	0.204412
549.603222	0.204936
549.817589	0.204683
550.031937	0.205769
550.246267	0.205766
550.460579	0.205568
550.674873	0.205831
550.889148	0.205734
551.103405	0.205559
551.317644	0.205728
551.531865	0.205663
551.746068	0.206492
551.960252	0.206317
552.174418	0.206453
552.388566	0.206960
552.602696	0.207240
552.816807	0.207606
553.030900	0.208139
553.244975	0.208806
553.459032	0.209282
553.673070	0.209317
553.887091	0.209596
554.101093	0.209913
554.315077	0.209715
554.529042	0.210277
554.742990	0.210460
554.956919	0.210518
555.170830	0.210357
555.384722	0.210405
555.598597	0.210419
555.812453	0.210428
556.026291	0.211052
556.240111	0.211051
556.453913	0.211404
556.667696	0.211757
556.881461	0.211673
557.095208	0.211238
557.308937	0.211647
557.522647	0.211654
557.736339	0.212231
557.950013	0.212008
558.163669	0.212422
558.377307	0.212310
558.590926	0.212853
558.804527	0.213163
559.018110	0.213616
559.231675	0.213931
559.445221	0.214764
559.658749	0.214756
559.872259	0.215025
560.085751	0.215634
560.299225	0.215822
560.512680	0.215484
560.726117	0.215839
560.939536	0.216294
561.152937	0.216753
561.366319	0.216774
561.579683	0.217367
561.793029	0.217267
562.006357	0.217223
562.219667	0.217455
562.432958	0.218007
562.646231	0.218356
562.859486	0.218619
563.072723	0.218423
563.285941	0.218160
563.499141	0.217908
563.712323	0.217989
563.925487	0.218348
564.138632	0.218887
564.351760	0.218865
564.564869	0.218478
564.777960	0.218685
564.991032	0.218853
565.204087	0.219524
565.417123	0.219947
565.630141	0.220426
565.843140	0.220247
566.056122	0.219942
566.269085	0.219936
566.482030	0.220240
566.694957	0.220354
566.907866	0.220328
567.120756	0.220032
567.333628	0.219862
567.546482	0.219826
567.759318	0.220185
567.972135	0.220950
568.184935	0.221474
568.397716	0.221835
568.610478	0.222000
568.823223	0.222448
569.035949	0.222658
569.248657	0.222908
569.461347	0.223454
569.674019	0.223611
569.886672	0.223400
570.099308	0.223493
570.311925	0.223838
570.524523	0.223813
570.737104	0.223747
570.949666	0.224278
571.162210	0.224855
571.374736	0.224862
571.587244	0.225020
571.799733	0.225422
572.012205	0.225369
572.224658	0.225751
572.437092	0.226282
572.649509	0.226624
572.861907	0.226407
573.074287	0.226205
573.286649	0.226505
573.498993	0.226956
573.711318	0.226791
573.923625	0.226872
574.135914	0.226650
574.348185	0.226558
574.560438	0.226562
574.772672	0.226999
574.984888	0.226842
575.197086	0.227044
575.409266	0.227049
575.621427	0.227264
575.833570	0.227724
576.045695	0.228136
576.257802	0.228570
576.469890	0.228805
576.681961	0.228853
576.894013	0.229396
577.106046	0.229872
577.318062	0.230247
577.530059	0.230558
577.742039	0.230653
577.954000	0.230593
578.165942	0.230516
578.377867	0.231183
578.589773	0.231453
578.801661	0.231645
579.013531	0.231370
579.225382	0.231565
579.437216	0.231548
579.649031	0.231750
579.860828	0.232082
580.072606	0.232346
580.284367	0.232194
580.496109	0.232516
580.707833	0.233033
580.919539	0.233558
581.131227	0.233868
581.342896	0.234432
581.554547	0.234657
581.766180	0.234975
581.977795	0.235133
582.189391	0.235089
582.400969	0.235458
582.612529	0.235547
582.824071	0.235206
583.035595	0.235177
583.247100	0.234809
583.458587	0.235001
583.670056	0.234948
583.881506	0.235410
584.092939	0.235821
584.304353	0.235660
584.515749	0.235739
584.727127	0.235920
584.938486	0.235446
585.149828	0.235892
585.361151	0.236118
585.572456	0.236548
585.783742	0.236953
585.995011	0.237079
586.206261	0.237376
586.417493	0.237341
586.628706	0.237519
586.839902	0.237944
587.051079	0.238440
587.262238	0.238633
587.473379	0.238575
587.684502	0.238549
587.895606	0.238649
588.106692	0.238926
588.317760	0.239063
588.528810	0.239357
588.739841	0.239711
588.950855	0.239662
589.161850	0.239919
589.372827	0.240091
589.583785	0.240105
589.794726	0.240506
590.005648	0.240502
590.216552	0.240766
590.427437	0.241109
590.638305	0.241374
590.849154	0.241468
591.059985	0.241432
591.270798	0.241639
591.481592	0.241780
591.692369	0.241675
591.903127	0.242010
592.113867	0.241968
592.324588	0.241772
592.535292	0.241967
592.745977	0.242147
592.956644	0.242358
593.167293	0.242699
593.377923	0.242927
593.588536	0.243196
593.799130	0.243353
594.009706	0.243987
594.220263	0.244154
594.430803	0.244261
594.641324	0.244725
594.851827	0.244782
595.062312	0.244905
595.272778	0.245313
595.483227	0.245602
595.693657	0.245320
595.904069	0.245404
596.114462	0.245855
596.324838	0.246044
596.535195	0.246113
596.745534	0.246439
596.955855	0.246494
597.166157	0.246554
597.376441	0.246787
597.586707	0.247258
597.796955	0.247455
598.007185	0.247653
598.217396	0.248239
598.427589	0.248242
598.637764	0.248263
598.847921	0.248311
599.058060	0.248574
599.268180	0.248902
599.478282	0.249177
599.688366	0.248861
599.898431	0.249101
600.108479	0.248959
600.318508	0.249163
600.528519	0.249604
600.738511	0.249835
600.948486	0.249784
601.158442	0.249749
601.368380	0.250018
601.578300	0.250686
601.788202	0.251151
601.998085	0.251136
602.207950	0.251384
602.417797	0.251319
602.627626	0.251414
602.837436	0.251694
603.047228	0.251826
603.257002	0.251507
603.466758	0.251239
603.676496	0.251275
603.886215	0.251470
604.095916	0.251712
604.305599	0.252155
604.515264	0.252521
604.724910	0.252658
604.934538	0.252736
605.144148	0.253104
605.353740	0.253827
605.563314	0.253775
605.772869	0.253902
605.982406	0.253713
606.191925	0.253796
606.401425	0.253693
606.610908	0.253678
606.820372	0.254086
607.029818	0.254412
607.239246	0.254039
607.448655	0.254195
607.658047	0.254303
607.867420	0.254763
608.076775	0.254950
608.286111	0.255050
608.495430	0.255186
608.704730	0.254816
608.914012	0.254845
609.123275	0.254964
609.332521	0.255169
609.541748	0.255646
609.750957	0.255360
609.960148	0.255507
610.169321	0.255536
610.378475	0.255865
610.587611	0.256232
610.796729	0.256642
611.005829	0.257300
611.214910	0.257587
611.423974	0.257837
611.633019	0.258489
611.842045	0.258412
612.051054	0.258948
612.260044	0.258751
612.469017	0.258867
612.677970	0.258855
612.886906	0.258812
613.095824	0.258942
613.304723	0.258803
613.513604	0.258904
613.722467	0.259075
613.931311	0.258946
614.140138	0.259281
614.348946	0.259434
614.557736	0.259421
614.766507	0.259863
614.975261	0.259894
615.183996	0.259846
615.392713	0.259926
615.601412	0.260037
615.810092	0.260357
616.018754	0.260351
616.227399	0.260843
616.436024	0.260868
616.644632	0.260760
616.853222	0.261042
617.061793	0.261260
617.270346	0.261150
617.478880	0.261631
617.687397	0.261846
617.895895	0.262163
618.104375	0.262192
618.312837	0.262692
618.521281	0.262832
618.729706	0.262921
618.938113	0.263180
619.146502	0.263535
619.354873	0.263580
619.563226	0.263597
619.771560	0.263640
619.979876	0.263698
620.188174	0.264076
620.396453	0.264177
620.604715	0.264361
620.812958	0.264327
621.021183	0.264715
621.229390	0.264871
621.437578	0.265092
621.645748	0.265122
621.853900	0.265036
622.062034	0.264823
622.270150	0.265052
622.478247	0.264839
622.686326	0.265180
622.894387	0.265228
623.102430	0.264963
623.310454	0.265167
623.518461	0.265396
623.726449	0.265764
623.934418	0.265829
624.142370	0.266237
624.350303	0.266609
624.558218	0.266640
624.766115	0.266658
624.973994	0.267046
625.181855	0.267400
625.389697	0.267821
625.597521	0.268150
625.805327	0.268307
626.013114	0.268025
626.220883	0.268149
626.428634	0.267922
626.636367	0.267866
626.844082	0.268089
627.051778	0.268152
627.259457	0.268204
627.467117	0.268106
627.674758	0.268451
627.882382	0.268667
628.089987	0.268860
628.297574	0.269442
628.505143	0.269729
628.712694	0.269669
628.920226	0.269413
629.127740	0.269677
629.335236	0.269778
629.542714	0.269773
629.750174	0.270269
629.957615	0.270236
630.165038	0.270427
630.372443	0.270487
630.579829	0.270642
630.787198	0.270851
630.994548	0.270832
631.201880	0.271170
631.409194	0.271206
631.616489	0.270977
631.823766	0.271249
632.031025	0.271463
632.238266	0.271569
632.445489	0.271827
632.652693	0.272289
632.859879	0.272168
633.067047	0.272211
633.274197	0.272473
633.481329	0.272651
633.688442	0.272838
633.895537	0.272999
634.102614	0.273390
634.309672	0.273597
634.516713	0.273475
634.723735	0.273662
634.930739	0.273932
635.137724	0.274157
635.344692	0.274325
635.551641	0.274472
635.758572	0.274583
635.965485	0.274581
636.172379	0.274678
636.379256	0.275075
636.586114	0.275583
636.792954	0.275645
636.999775	0.275628
637.206579	0.275703
637.413364	0.275828
637.620131	0.276072
637.826880	0.276377
638.033610	0.276551
638.240323	0.276350
638.447017	0.276409
638.653692	0.276759
638.860350	0.277149
639.066990	0.277122
639.273611	0.277455
639.480214	0.277665
639.686798	0.277965
639.893365	0.277852
640.099913	0.278168
640.306443	0.278446
640.512955	0.278522
640.719449	0.278645
640.925924	0.279095
641.132381	0.279074
641.338820	0.279243
641.545241	0.279171
641.751644	0.279620
641.958028	0.279872
642.164394	0.279983
642.370742	0.279866
642.577071	0.279789
642.783383	0.279932
642.989676	0.279988
643.195951	0.280098
643.402207	0.280107
643.608446	0.280219
643.814666	0.280230
644.020868	0.280274
644.227052	0.280647
644.433218	0.280848
644.639365	0.281104
644.845494	0.281526
645.051605	0.281735
645.257698	0.282375
645.463772	0.282754
645.669828	0.283109
645.875866	0.283459
646.081886	0.283661
646.287888	0.283906
646.493871	0.284135
646.699836	0.284207
646.905783	0.284107
647.111712	0.284074
647.317622	0.283970
647.523514	0.284178
647.729388	0.284401
647.935244	0.284419
648.141082	0.284699
648.346901	0.285042
648.552702	0.285155
648.758485	0.285638
648.964250	0.285604
649.169996	0.285825
649.375724	0.285877
649.581434	0.285986
649.787126	0.286505
649.992800	0.286710
650.198455	0.286586
650.404092	0.286780
650.609711	0.286760
650.815311	0.287191
651.020894	0.287528
651.226458	0.287859
651.432004	0.287973
651.637532	0.287972
651.843041	0.288074
652.048532	0.288189
652.254006	0.288101
652.459460	0.288405
652.664897	0.288673
652.870315	0.288663
653.075716	0.288730
653.281097	0.288952
653.486461	0.289005
653.691807	0.289009
653.897134	0.289237
654.102443	0.289758
654.307734	0.289757
654.513006	0.290077
654.718261	0.290446
654.923497	0.290546
655.128715	0.290500
655.333915	0.290859
655.539096	0.291566
655.744259	0.291956
655.949404	0.292077
656.154531	0.292579
656.359640	0.292422
656.564730	0.292533
656.769802	0.292837
656.974856	0.293318
657.179892	0.293652
657.384909	0.293517
657.589908	0.293656
657.794889	0.293994
657.999852	0.294135
658.204797	0.294479
658.409723	0.294980
658.614631	0.295173
658.819521	0.295292
659.024393	0.295522
659.229246	0.295927
659.434081	0.296281
659.638898	0.296435
659.843697	0.296771
660.048478	0.296819
660.253240	0.296836
660.457984	0.297120
660.662710	0.297243
660.867417	0.297159
661.072107	0.297136
661.276778	0.296982
661.481431	0.297152
661.686066	0.297179
661.890682	0.297536
662.095281	0.297857
662.299861	0.298224
662.504422	0.298492
662.708966	0.298820
662.913491	0.299280
663.117999	0.299504
663.322488	0.299634
663.526958	0.299850
663.731411	0.299978
663.935845	0.300049
664.140261	0.299947
664.344659	0.299958
664.549038	0.300125
664.753400	0.300200
664.957743	0.300612
665.162068	0.300932
665.366375	0.301272
665.570663	0.301511
665.774933	0.301629
665.979185	0.302123
666.183419	0.302565
666.387635	0.302969
666.591832	0.303115
666.796011	0.303138
667.000172	0.303585
667.204315	0.303609
667.408439	0.303808
667.612545	0.304113
667.816634	0.304140
668.020703	0.304266
668.224755	0.304188
668.428788	0.304437
668.632803	0.304846
668.836800	0.305028
669.040779	0.305091
669.244739	0.305451
669.448681	0.305661
669.652605	0.305710
669.856511	0.306007
670.060399	0.306455
670.264268	0.306862
670.468119	0.306906
670.671952	0.306793
670.875767	0.307213
671.079563	0.307283
671.283341	0.307655
671.487101	0.308133
671.690843	0.308436
671.894567	0.308448
672.098272	0.308298
672.301959	0.308621
672.505628	0.309001
672.709278	0.309205
672.912911	0.309388
673.116525	0.309559
673.320121	0.309895
673.523699	0.310034
673.727258	0.310432
673.930799	0.311009
674.134322	0.311343
674.337827	0.311673
674.541314	0.311879
674.744782	0.312180
674.948232	0.312599
675.151664	0.312750
675.355078	0.313000
675.558474	0.312994
675.761851	0.312975
675.965210	0.313350
676.168551	0.313471
676.371873	0.313570
676.575178	0.313952
676.778464	0.313869
676.981732	0.314240
677.184981	0.314438
677.388213	0.314955
677.591426	0.315164
677.794621	0.315115
677.997798	0.315465
678.200956	0.316003
678.404097	0.316109
678.607219	0.316392
678.810323	0.316190
679.013408	0.316252
679.216476	0.316491
679.419525	0.316722
679.622556	0.317092
679.825569	0.317230
680.028563	0.317218
680.231540	0.317415
680.434498	0.317786
680.637438	0.318279
680.840359	0.318705
681.043263	0.318752
681.246148	0.318911
681.449015	0.318952
681.651864	0.318943
681.854694	0.319214
682.057506	0.319314
682.260301	0.319190
682.463076	0.319216
682.665834	0.319211
682.868573	0.319405
683.071295	0.319956
683.273998	0.320315
683.476682	0.320741
683.679349	0.320799
683.881997	0.321098
684.084627	0.321561
684.287239	0.321858
684.489833	0.322294
684.692408	0.322616
684.894965	0.322436
685.097504	0.322592
685.300025	0.322927
685.502527	0.323253
685.705012	0.323356
685.907478	0.323243
686.109925	0.323284
686.312355	0.323313
686.514766	0.323332
686.717159	0.323527
686.919534	0.323618
687.121891	0.323614
687.324230	0.323630
687.526550	0.323745
687.728852	0.324152
687.931136	0.324352
688.133401	0.324573
688.335649	0.324716
688.537878	0.325080
688.740089	0.325233
688.942281	0.325160
689.144456	0.325427
689.346612	0.325765
689.548750	0.325992
689.750870	0.326413
689.952971	0.326633
690.155055	0.326954
690.357120	0.326992
690.559167	0.327352
690.761195	0.327770
690.963206	0.328104
691.165198	0.328284
691.367172	0.328346
691.569128	0.328314
691.771065	0.328715
691.972984	0.328815
692.174885	0.329340
692.376768	0.329392
692.578633	0.329364
692.780479	0.329355
692.982308	0.329372
693.184118	0.329582
693.385909	0.329761
