sample name	sample
index	213
start time	 02-22-2021  09:57:55 AM
880	0.486928
Peak Time (s)	92.535
Peak Height 	0.4869
calc peak height	90,93
Baseline Time (s)	11.037
Baseline Value 	-0.003759
subtract baseline	10,4
Abs	0.341143
Peak Time (s)	91.04
Peak Height 	0.3411
calc peak height	90,93
Baseline Time (s)	10.537
Baseline Value 	0.00217
subtract baseline	10,3
PK_550	0.165132
Peak Time (s)	91.537
Peak Height 	0.1651
calc peak height	90,93
Baseline Time (s)	10.537
Baseline Value 	5.631E-4
subtract baseline	10,2
PK_880	0.314293
Peak Time (s)	91.537
Peak Height 	0.3143
calc peak height	90,93
Baseline Time (s)	9.036
Baseline Value 	0.001808
subtract baseline	10,1


Time (s)	A880-A510	A880-A775	A880-A975	A880	I510	I775	I975	I880	
0.036000	-0.001225	-0.000565	-0.002239	0.000978	6850.412998	47134.790000	3891.577417	24672.778244
0.536500	-0.004141	-0.000539	-0.001946	0.004396	6789.992489	46788.914010	3882.656243	24500.175994
1.037000	-0.001687	-0.000341	0.001218	0.003558	6821.282911	46894.273233	3894.091350	24542.356558
1.537500	-0.000814	-0.000186	-0.001000	0.001207	6852.163638	47150.137919	3894.474597	24661.175604
2.034500	-0.000703	-0.000311	-0.003753	-0.000102	6865.829868	47271.509262	3890.332775	24727.578109
2.534500	0.001487	-0.000377	-0.001479	-0.000046	6886.461207	47258.988787	3896.700183	24724.763496
3.035000	0.001729	-0.000690	0.001511	-0.001703	6904.909483	47397.142104	3910.138680	24809.107745
3.538500	-0.000967	0.000226	-0.002431	0.000379	6858.661689	47277.271651	3892.744372	24703.183382
4.039000	0.001049	-0.000127	-0.000434	0.000264	6879.220151	47252.776523	3898.815084	24708.996674
4.536000	0.000926	0.000468	-0.002348	0.000678	6874.026384	47271.406008	3892.123179	24687.978797
5.037000	0.000270	-0.000225	0.003790	0.000476	6869.642866	47220.975708	3910.431108	24698.235724
5.537000	-0.000118	0.000166	0.000181	0.000264	6867.943166	47282.953180	3900.590547	24709.013912
6.037000	-0.000462	-0.000121	-0.000893	0.000029	6866.894916	47277.625175	3898.170221	24720.960101
6.537000	-0.000829	0.000391	0.006430	0.000449	6859.308100	47287.064971	3918.210853	24699.621206
7.035000	0.000192	-0.000348	-0.004468	-0.000058	6874.046296	47263.228130	3888.163909	24725.360988
7.535500	-0.003611	-0.000294	0.002070	0.000171	6835.271036	47245.242246	3906.322181	24713.728447
8.038000	-0.001303	-0.000110	0.000246	0.000266	6856.511779	47254.400954	3900.771308	24708.908658
8.536000	0.000141	-0.000431	-0.002049	-0.000348	6876.360489	47284.424351	3895.929316	24740.099143
9.036000	0.000000	-0.000751	0.002365	-0.000321	6874.731344	47248.816894	3908.605536	24738.712997
9.536500	0.000999	0.000282	-0.000542	0.000580	6875.683346	47262.403233	3897.593956	24692.974588
10.036500	-0.001478	0.000048	-0.007289	-0.000030	6857.673422	47301.004505	3880.052298	24723.932881
10.536500	-0.000696	0.000000	0.000000	0.000156	6863.415129	47276.910217	3900.377612	24714.475590
11.036500	0.000334	-0.000100	0.001279	0.000000	6874.861337	47282.690257	3904.525304	24722.413657
11.537500	-0.002172	0.000257	0.001988	0.000436	6846.525393	47274.588404	3905.316001	24700.254946
12.035000	-0.000459	-0.000299	0.001564	-0.000013	6867.330995	47263.577131	3905.389401	24723.071401
12.535500	-0.001703	0.000006	-0.004552	0.003875	6818.110839	46897.350086	3876.740610	24526.416469
13.035500	0.001544	0.000413	0.003980	-0.001104	6897.282152	47449.028726	3915.587682	24778.585171
13.536000	-0.001293	-0.000139	0.000231	-0.000999	6868.794029	47381.354344	3904.381810	24773.219207
14.036500	0.001307	0.000486	0.001748	-0.000361	6887.767665	47380.011769	3906.927675	24740.738206
14.535500	-0.002549	-0.000649	-0.001129	0.003979	6809.064695	46820.211794	3886.171845	24521.189358
15.037000	-0.001075	-0.000055	-0.004108	-0.000128	6862.498552	47300.494151	3889.394659	24728.934506
15.534000	-0.001307	-0.000840	0.001008	-0.001236	6870.950411	47333.670189	3907.323092	24785.306142
16.037000	0.001947	0.000224	-0.002199	-0.000638	6896.670031	47381.613459	3896.331206	24754.855072
16.534500	-0.002557	-0.000197	-0.002003	0.003578	6812.805211	46906.914760	3884.822923	24541.353729
17.035500	0.000248	-0.000115	0.002063	-0.000436	6878.241419	47325.933872	3908.063078	24744.573123
17.535500	0.003797	0.000240	-0.000436	-0.002986	6937.654094	47625.559394	3908.210566	24874.672379
18.035000	-0.001012	-0.000106	-0.002103	-0.001189	6873.341632	47404.335546	3898.192685	24782.900570
18.536000	-0.001249	-0.000477	-0.001413	0.001770	6842.588428	47062.787670	3891.675914	24632.690154
19.036000	-0.001239	0.000370	0.003624	0.001640	6843.928237	47162.732168	3906.566737	24639.247038
19.537000	0.001362	0.000363	-0.006773	0.001753	6867.861543	47150.473316	3876.460215	24633.547303
20.037000	-0.002768	-0.000430	-0.000445	0.001358	6831.984979	47109.709259	3895.635477	24653.548543
20.537000	-0.002723	0.000029	-0.001266	0.002834	6818.321615	47005.847155	3889.050779	24578.916611
21.034500	-0.000140	-0.000211	0.001043	0.001275	6857.988499	47140.607009	3900.159048	24657.714588
21.534500	-0.001091	0.000011	-0.000037	0.001552	6846.193467	47134.994310	3896.252091	24643.711547
22.037500	-0.000706	-0.000630	0.000367	0.001621	6849.222304	47062.311831	3897.212275	24640.186276
22.535000	-0.001078	0.000218	-0.004504	0.002672	6835.572873	47041.564513	3880.284839	24587.054203
23.035500	0.000019	0.000237	0.002769	0.002014	6852.404751	47110.753206	3903.009804	24620.308277
23.536000	0.000856	0.001022	0.003040	0.002421	6856.542660	47149.413512	3902.614541	24599.727562
24.036000	-0.001220	0.000270	-0.002828	0.002162	6839.101229	47098.979916	3886.506412	24612.825117
24.536500	-0.000796	0.000209	-0.004102	0.002963	6835.497871	47011.070367	3880.604826	24572.408035
25.037000	-0.000158	-0.000253	-0.000330	0.001786	6852.907779	47084.019689	3894.735541	24631.871240
25.537000	-0.000869	0.000582	0.001103	0.002059	6843.454163	47141.491928	3898.072172	24618.041276
26.035000	0.000268	0.000194	-0.001574	0.001843	6856.455553	47123.925542	3891.006780	24628.991440
26.538000	0.001145	0.000323	0.002823	0.002447	6859.086256	47075.336527	3901.916850	24598.460083
27.035000	-0.000342	-0.000122	0.001447	0.001935	6849.709174	47082.241026	3899.421783	24624.336311
27.535500	-0.001909	-0.000114	0.003946	0.001550	6838.367810	47122.378619	3907.763748	24643.810180
28.036000	0.001548	0.000023	0.000308	-0.001081	6897.105961	47406.536233	3904.845377	24777.422311
28.537500	-0.002775	0.000115	-0.001537	0.005148	6795.820611	46779.032744	3881.683355	24462.422041
29.050000	0.001815	0.001379	0.003825	0.000671	6882.698605	47365.801236	3909.966559	24688.366628
29.537000	0.000442	0.000038	0.004829	-0.000523	6880.958044	47350.620347	3916.372285	24748.997144
30.037000	0.001264	-0.000187	0.000074	-0.000328	6887.036914	47307.418022	3901.988907	24739.089395
30.534500	-0.002363	-0.000746	-0.004559	0.003821	6812.333163	46826.277701	3876.871486	24529.111094
31.037500	-0.002495	-0.000253	0.002235	0.004519	6804.443670	46805.508575	3894.255363	24494.021590
31.535000	-0.001153	-0.000295	-0.004044	0.002675	6834.830412	46989.005414	3881.587337	24586.937851
32.035000	-0.000880	-0.000250	-0.004772	0.002338	6840.674246	47027.984380	3880.475447	24603.969862
32.569000	0.000138	0.000267	0.002760	0.000126	6871.754979	47307.443584	3908.454519	24716.026457
33.036000	-0.001760	0.000341	0.000589	0.004148	6814.971821	46903.600198	3890.598435	24512.667639
33.536500	0.000920	-0.000383	-0.002468	-0.000895	6889.199127	47345.625743	3896.297174	24767.956573
34.036500	0.001537	-0.000448	0.000074	-0.000777	6894.033299	47326.722659	3903.285551	24761.906606
34.537000	-0.001625	-0.000550	0.001970	0.000179	6854.245710	47218.084452	3906.006015	24713.298624
35.037500	-0.001883	0.000765	0.000079	0.003019	6824.563237	47062.071521	3892.371109	24569.565355
35.537500	-0.001814	0.000024	0.001443	0.002737	6827.915254	47015.209752	3897.099732	24583.789490
36.038000	-0.000680	-0.000174	-0.004769	0.002356	6842.419402	47033.866118	3880.431725	24603.044732
36.535500	-0.001129	0.000007	0.003471	0.004031	6822.094544	46881.577085	3899.211861	24518.544850
37.035500	-0.000966	-0.000954	-0.001964	0.003787	6825.986694	46808.724480	3884.340266	24530.859470
37.535500	-0.001453	0.000187	-0.003944	0.002494	6833.694067	47056.620267	3882.383215	24596.068373
38.036000	-0.001528	-0.000192	-0.000423	0.002468	6833.222611	47020.554475	3892.511608	24597.373904
38.535500	-0.001446	-0.000205	-0.002819	0.002121	6837.323513	47054.669338	3886.651421	24614.906096
39.036500	0.000844	-0.000506	-0.003311	0.002396	6856.677594	46995.915919	3884.464618	24601.013931
39.537000	-0.001727	0.000202	-0.000603	0.002400	6831.969712	47067.716575	3892.191018	24600.804958
40.037000	-0.000728	0.000769	0.002352	0.002813	6837.575002	47083.438636	3899.497816	24579.942208
40.538000	-0.000498	0.000684	-0.000753	0.004203	6826.476135	46932.903253	3886.606114	24509.885692
41.035000	-0.001293	0.000840	-0.000473	0.004086	6820.006246	46960.840551	3887.740020	24515.789552
41.535500	-0.000847	0.000262	-0.000352	0.003023	6834.436824	47010.355335	3891.126089	24569.380692
42.035500	-0.001881	0.000410	0.003676	0.002825	6826.434285	47045.621024	3903.285620	24579.334940
42.536000	-0.002238	0.000149	-0.003709	0.003415	6817.392489	46958.761776	3880.434135	24549.583545
43.036000	-0.001780	0.000518	0.002334	0.004104	6815.195691	46926.120575	3895.730893	24514.874533
43.536500	-0.001383	0.000316	0.000603	0.002930	6830.195850	47025.372344	3894.132818	24574.072604
44.037000	-0.001340	0.000187	-0.003227	0.002360	6836.063993	47070.336375	3884.808721	24602.857151
44.537500	0.001182	0.001089	0.001164	0.004317	6841.470414	46962.637103	3891.762688	24504.175065
45.041500	-0.001059	-0.000041	0.000504	0.005222	6811.417278	46755.616133	3887.284405	24458.678807
45.535500	0.000358	0.000999	0.000555	0.000293	6872.264380	47365.588576	3901.584624	24707.548984
46.035000	0.003226	0.001148	0.000025	0.000713	6895.970259	47337.697036	3898.844089	24686.233071
46.535500	-0.002023	-0.000115	-0.000526	0.003532	6818.324382	46919.881468	3889.168814	24543.670658
47.036000	-0.002911	-0.000216	0.001456	0.005746	6788.854563	46684.689391	3888.506291	24432.375375
47.536000	0.002002	0.000390	0.000252	0.000099	6890.048063	47322.825634	3901.269372	24717.366854
48.066500	-0.000815	-0.000050	0.004114	-0.000206	6865.759362	47308.997758	3913.358946	24732.889326
48.536500	-0.004376	-0.000223	-0.003230	0.004483	6786.955302	46812.208618	3878.764382	24495.824109
49.037000	-0.002903	-0.000037	-0.000985	0.004267	6802.963097	46853.061224	3885.760574	24506.660145
49.565500	0.001267	-0.000148	-0.002009	-0.000150	6885.340623	47293.173138	3895.476043	24730.060393
50.037000	0.000010	0.000555	0.003783	0.000187	6869.923061	47330.763057	3911.249984	24712.892477
50.535000	-0.003107	0.000331	0.002739	0.004246	6801.229552	46892.694541	3896.487403	24507.741993
51.035000	-0.002795	-0.000368	-0.004522	0.003931	6807.184110	46853.653849	3876.666522	24523.606759
51.535500	0.002919	0.000865	0.002847	0.001456	6885.789499	47232.346951	3904.849956	24648.572572
52.035500	0.000721	-0.001666	0.001019	-0.002395	6901.825259	47367.853570	3910.718939	24844.419305
52.536500	-0.010233	-0.013886	0.019190	0.173249	5426.501283	31677.328570	3526.486582	17463.874809
53.036000	-0.028000	-0.026162	0.000469	-0.014724	6745.374878	46133.462641	3945.456860	25483.333703
53.537000	-0.003504	-0.014078	0.004470	-0.069706	7562.221346	53388.588290	4134.289968	28564.045620
54.037000	-0.017994	-0.017346	-0.002938	-0.070940	7415.393953	53151.697971	4113.300254	28637.775165
54.537500	-0.020177	-0.017330	-0.010233	-0.095185	7662.274005	56051.012898	4171.644021	30129.388940
55.034500	0.005862	-0.010625	0.002742	-0.105624	8099.021400	58199.833468	4256.078232	30797.738411
55.535000	0.021816	-0.004330	0.016322	-0.079153	7969.320508	55679.816188	4209.031845	29133.753341
56.035500	0.032586	-0.000788	0.029003	-0.044410	7685.151452	52006.200808	4131.680842	27098.185612
56.536000	0.045099	0.005572	0.043221	-0.013954	7482.479662	49344.236677	4077.204615	25442.883108
57.036000	0.054896	0.006843	0.050564	0.015828	7266.383101	46379.563285	4005.202428	23932.693368
57.536500	0.073301	0.014535	0.070284	0.041078	7194.627503	44648.328155	3988.022243	22730.991211
58.036500	0.086305	0.025140	0.084868	0.102441	6718.672129	40019.792109	3851.118672	20085.944389
58.537000	0.104816	0.030751	0.106662	0.138174	6561.564122	37518.151353	3813.098516	18709.346210
59.037500	0.127633	0.044971	0.124469	0.177772	6414.361323	35541.041550	3756.048915	17310.478500
59.537500	0.150607	0.057572	0.158224	0.199349	6426.399396	34869.016654	3787.579050	16600.246873
60.035000	0.173357	0.074482	0.186153	0.247898	6210.197447	32607.772711	3734.704495	15125.514732
60.535500	0.194023	0.086398	0.212236	0.311046	5881.026531	29278.338118	3645.754130	13438.219311
61.036000	0.206681	0.097488	0.227819	0.350525	5689.186753	27595.647160	3592.304222	12501.398076
61.535500	0.223682	0.109006	0.248545	0.370014	5671.984953	27142.593020	3594.997127	12069.384763
62.036500	0.235431	0.118286	0.256343	0.383702	5658.645857	26895.695970	3582.234201	11777.368495
62.536500	0.247504	0.125534	0.268355	0.394673	5666.212268	26688.969381	3584.476157	11549.844010
63.036500	0.251420	0.132845	0.272909	0.403137	5635.081880	26625.376615	3576.077163	11378.214115
63.539500	0.259734	0.139032	0.278150	0.400453	5710.931462	27119.342706	3593.178010	11432.271861
64.037000	0.264998	0.142565	0.280060	0.401163	5742.909107	27278.731065	3595.797137	11417.953722
64.534500	0.268963	0.145420	0.286110	0.404633	5746.399072	27243.912339	3601.448004	11348.222494
65.065500	0.270182	0.147162	0.285907	0.407252	5736.529438	27194.405941	3595.269105	11295.979815
65.535000	0.272223	0.147825	0.291384	0.409737	5733.399165	27091.795170	3601.822318	11246.691533
66.035500	0.274744	0.148990	0.289275	0.413424	5725.209072	26950.480147	3589.168872	11174.067994
66.536000	0.270703	0.148548	0.296452	0.421875	5638.798531	26458.640310	3586.408489	11009.932296
67.036500	0.276533	0.150872	0.300592	0.420150	5690.760560	26681.364352	3599.178403	11043.187814
67.536500	0.277391	0.150391	0.300355	0.421663	5686.217206	26571.365497	3595.349200	11014.009966
68.040000	0.279947	0.152266	0.302226	0.425827	5675.101046	26445.851528	3590.356037	10934.266673
68.537500	0.280099	0.153498	0.303336	0.434839	5614.566453	26023.985051	3573.353910	10764.273675
69.037500	0.281990	0.153496	0.303774	0.431095	5652.925100	26225.933908	3582.313695	10834.476955
69.535500	0.284670	0.154371	0.305088	0.432693	5660.347188	26186.806387	3581.703466	10804.448940
70.035500	0.285475	0.154857	0.307206	0.435801	5644.575565	26045.381811	3579.575638	10746.347335
70.535500	0.284470	0.155818	0.306818	0.443690	5584.436536	25675.683373	3561.978311	10600.735018
71.036000	0.289033	0.157155	0.314423	0.442660	5622.113347	25801.312370	3580.344387	10619.599602
71.536000	0.290133	0.159231	0.309232	0.443173	5626.084996	25884.638261	3568.170138	10610.184876
72.036500	0.289994	0.159223	0.313678	0.444465	5616.386956	25815.308320	3574.881047	10586.560184
72.540000	0.290450	0.159023	0.317046	0.452069	5568.419008	25403.417684	3565.878366	10448.935447
73.037000	0.289733	0.159107	0.316145	0.451932	5564.562876	25414.962951	3564.264368	10451.396162
73.537500	0.294674	0.162260	0.315104	0.450981	5603.994082	25630.753326	3564.073760	10468.477505
74.035000	0.297967	0.160217	0.317955	0.450836	5627.248812	25530.687208	3570.421183	10471.088116
74.535000	0.293749	0.160860	0.314918	0.458761	5545.927539	25150.895503	3547.413258	10329.795132
75.035500	0.292520	0.161021	0.319608	0.457037	5549.199219	25248.582605	3560.805416	10360.316262
75.535500	0.300139	0.161768	0.317592	0.455334	5611.496211	25376.193038	3560.145148	10390.571207
76.036000	0.298612	0.162306	0.323275	0.457099	5589.345661	25312.225726	3568.420099	10359.220003
76.536000	0.297432	0.161979	0.316616	0.463538	5538.708569	24962.431288	3541.053356	10245.858931
77.036500	0.298117	0.163737	0.316213	0.463599	5542.820341	25049.673981	3540.099851	10244.794948
77.537000	0.303525	0.164721	0.320238	0.461541	5592.503998	25206.857678	3552.693272	10280.836956
78.037500	0.301803	0.162529	0.324702	0.460661	5586.855228	25138.920245	3563.901330	10296.303153
78.534000	0.297214	0.163892	0.324186	0.469203	5500.221806	24770.826372	3544.983466	10147.520906
79.035000	0.302385	0.163309	0.319786	0.466675	5550.701779	24869.969192	3541.122331	10191.244844
79.535000	0.302624	0.164191	0.328982	0.464584	5566.149480	25022.338188	3564.655810	10227.602875
80.036000	0.302299	0.162824	0.325069	0.464731	5563.015897	24944.630068	3556.121050	10225.044008
80.535500	0.299505	0.162546	0.319781	0.471406	5500.786495	24591.060902	3531.426848	10109.607013
81.036000	0.304049	0.164768	0.322075	0.469909	5540.333959	24779.486810	3539.179861	10135.347940
81.536000	0.304964	0.164007	0.330073	0.467450	5562.653190	24865.981035	3560.913381	10177.802894
82.036500	0.303239	0.164720	0.331195	0.468534	5544.059702	24847.108310	3560.994372	10159.065370
82.537000	0.302535	0.164391	0.323993	0.475570	5493.426316	24474.452020	3531.525724	10038.503507
83.038000	0.306109	0.163975	0.331285	0.472664	5535.756908	24599.704879	3552.533546	10088.058664
83.537500	0.304582	0.164908	0.334208	0.471149	5535.677163	24723.601521	3561.832252	10114.031363
84.038000	0.309176	0.165506	0.330275	0.472364	5557.996443	24692.274019	3551.053953	10093.185516
84.535000	0.304529	0.163546	0.328756	0.476555	5499.981138	24382.857136	3539.252055	10021.785205
85.036000	0.307490	0.164811	0.335102	0.475648	5525.220951	24491.581751	3554.271207	10037.172589
85.536000	0.308180	0.165057	0.334891	0.473765	5542.141666	24598.746553	3557.769906	10069.241578
86.036500	0.307136	0.165091	0.328659	0.474283	5531.855716	24574.305478	3543.727928	10060.398987
86.539500	0.309807	0.163792	0.334761	0.473866	5552.231070	24529.957765	3557.287782	10067.524485
87.037000	0.310117	0.165366	0.326562	0.475549	5543.155676	24524.467492	3536.815808	10038.859963
87.537000	0.310200	0.164290	0.329227	0.475408	5544.632346	24477.474765	3542.579752	10041.250138
88.035000	0.312469	0.165562	0.331001	0.476127	5554.880153	24505.225697	3544.758000	10029.032500
88.535000	0.310223	0.164139	0.331053	0.476278	5539.049389	24426.340950	3544.555067	10026.484342
89.035000	0.306807	0.163422	0.330124	0.478183	5504.202052	24295.484841	3538.718015	9994.221907
89.535500	0.307728	0.162432	0.331772	0.475906	5525.089426	24359.577305	3546.808969	10032.785182
90.035500	0.310522	0.164081	0.328635	0.478113	5528.942445	24331.726873	3535.809112	9995.398148
90.536000	0.310391	0.164036	0.331593	0.478097	5528.185508	24330.305635	3541.915060	9995.672155
91.039500	0.312324	0.164042	0.341143	0.478418	5538.787623	24314.605455	3561.128932	9990.248345
91.536500	0.314293	0.165132	0.334044	0.480689	5536.800860	24255.888640	3541.623992	9952.005790
92.037000	0.311280	0.164070	0.335425	0.479167	5526.996987	24278.742472	3547.620925	9977.612616
92.534500	0.307542	0.164913	0.330753	0.486928	5452.549765	23937.509338	3522.215519	9847.960177
93.034500	0.311227	0.163620	0.333301	0.480365	5518.803880	24196.978536	3540.762219	9957.448428
93.535000	0.313066	0.161482	0.334583	0.479859	5534.185374	24116.281179	3544.448376	9965.960011
94.035000	0.309752	0.162216	0.340156	0.480151	5510.570011	24138.135377	3555.424409	9961.052779
94.535500	0.311681	0.163037	0.335905	0.481493	5514.397338	24112.419585	3543.803066	9938.515020
95.074000	0.311945	0.163291	0.330030	0.482988	5506.376667	24051.282262	3528.720430	9913.499607
95.536500	0.311508	0.162435	0.334632	0.481224	5515.022108	24095.968045	3541.733541	9943.020918
96.036000	0.310913	0.162464	0.340611	0.481724	5507.885897	24072.771455	3553.089224	9934.645086
96.537000	0.307527	0.160757	0.329833	0.487952	5445.926759	23685.583883	3518.308854	9831.030770
97.034000	0.315889	0.163318	0.335273	0.484840	5520.027431	23961.650210	3535.628041	9882.616520
97.537000	0.315502	0.162022	0.337838	0.483370	5527.125746	23970.197708	3543.920343	9907.115989
