sample name	sample
index	406
start time	 03-08-2021  10:42:48 AM


Wavelength (nm)	Absorbance
494.344910	0.094153
494.563924	0.094153
494.782919	0.094153
495.001897	0.018348
495.220856	0.078817
495.439797	0.008218
495.658719	-0.000788
495.877624	0.033933
496.096510	0.092699
496.315378	0.078792
496.534227	0.042273
496.753059	0.072184
496.971872	0.051773
497.190667	0.080583
497.409444	0.089445
497.628203	0.091409
497.846943	0.089190
498.065665	0.086676
498.284369	0.087126
498.503055	0.087867
498.721723	0.086184
498.940372	0.086198
499.159003	0.086097
499.377616	0.086550
499.596210	0.085658
499.814787	0.086548
500.033345	0.087649
500.251885	0.087454
500.470406	0.087326
500.688910	0.087503
500.907395	0.087952
501.125862	0.088272
501.344311	0.088371
501.562742	0.088697
501.781154	0.087623
501.999548	0.086856
502.217924	0.087179
502.436282	0.088012
502.654621	0.087972
502.872942	0.087990
503.091245	0.088211
503.309530	0.087974
503.527797	0.088924
503.746045	0.089282
503.964275	0.090351
504.182487	0.090275
504.400681	0.088630
504.618856	0.089602
504.837013	0.090234
505.055152	0.090787
505.273273	0.091039
505.491376	0.089641
505.709460	0.089834
505.927526	0.088791
506.145574	0.089251
506.363604	0.090498
506.581615	0.091089
506.799608	0.090558
507.017583	0.090321
507.235540	0.090059
507.453478	0.090501
507.671399	0.090303
507.889301	0.090375
508.107185	0.090746
508.325050	0.090683
508.542898	0.090048
508.760727	0.090684
508.978538	0.090911
509.196330	0.090658
509.414105	0.091197
509.631861	0.090846
509.849599	0.090926
510.067319	0.090471
510.285021	0.090708
510.502704	0.090081
510.720369	0.090524
510.938016	0.090143
511.155645	0.090579
511.373255	0.090409
511.590848	0.091139
511.808422	0.091337
512.025977	0.091290
512.243515	0.091417
512.461034	0.092458
512.678536	0.092197
512.896018	0.092414
513.113483	0.092691
513.330930	0.093005
513.548358	0.093044
513.765768	0.093321
513.983160	0.094070
514.200533	0.094047
514.417889	0.094543
514.635226	0.094135
514.852545	0.094689
515.069845	0.094462
515.287128	0.094422
515.504392	0.094817
515.721638	0.095505
515.938866	0.094563
516.156075	0.094949
516.373267	0.093908
516.590440	0.094461
516.807594	0.094250
517.024731	0.094748
517.241850	0.094421
517.458950	0.093990
517.676032	0.093493
517.893095	0.094128
518.110141	0.094153
518.327168	0.094978
518.544177	0.095046
518.761168	0.095381
518.978141	0.095450
519.195095	0.095773
519.412031	0.096651
519.628949	0.096590
519.845849	0.097300
520.062731	0.096791
520.279594	0.097381
520.496439	0.097702
520.713266	0.097794
520.930074	0.097857
521.146865	0.097679
521.363637	0.097877
521.580391	0.098540
521.797127	0.097807
522.013844	0.097800
522.230543	0.096968
522.447224	0.096084
522.663887	0.096075
522.880532	0.096080
523.097158	0.096554
523.313766	0.096280
523.530356	0.096020
523.746928	0.096700
523.963481	0.097028
524.180017	0.097911
524.396534	0.098724
524.613032	0.098504
524.829513	0.098623
525.045975	0.098448
525.262420	0.098544
525.478845	0.098646
525.695253	0.098472
525.911643	0.098796
526.128014	0.098496
526.344367	0.098688
526.560702	0.099059
526.777018	0.098550
526.993316	0.099369
527.209597	0.099626
527.425858	0.100164
527.642102	0.100519
527.858328	0.101161
528.074535	0.101318
528.290724	0.101826
528.506894	0.102007
528.723047	0.102927
528.939181	0.102696
529.155297	0.102921
529.371395	0.102812
529.587475	0.102760
529.803536	0.102802
530.019579	0.103278
530.235604	0.102986
530.451611	0.102753
530.667600	0.102676
530.883570	0.103103
531.099522	0.102862
531.315456	0.102998
531.531372	0.103356
531.747269	0.103008
531.963148	0.102765
532.179009	0.103045
532.394852	0.103199
532.610676	0.103591
532.826482	0.103568
533.042271	0.103511
533.258040	0.103465
533.473792	0.103634
533.689525	0.103765
533.905240	0.104256
534.120937	0.104131
534.336616	0.104627
534.552277	0.104940
534.767919	0.105286
534.983543	0.105392
535.199149	0.105737
535.414736	0.105375
535.630306	0.105956
535.845857	0.105960
536.061390	0.106344
536.276904	0.106493
536.492401	0.106113
536.707879	0.106114
536.923339	0.106714
537.138781	0.107122
537.354204	0.107760
537.569610	0.107606
537.784997	0.107757
538.000366	0.107556
538.215716	0.107806
538.431049	0.108404
538.646363	0.108598
538.861659	0.108801
539.076937	0.109010
539.292196	0.109266
539.507438	0.109915
539.722661	0.110150
539.937866	0.110659
540.153052	0.110456
540.368221	0.110367
540.583371	0.110465
540.798503	0.110722
541.013617	0.110504
541.228712	0.110123
541.443789	0.109602
541.658848	0.109816
541.873889	0.109902
542.088912	0.110044
542.303916	0.110369
542.518902	0.110909
542.733870	0.110857
542.948820	0.111385
543.163752	0.111566
543.378665	0.112111
543.593560	0.112235
543.808437	0.112243
544.023295	0.112884
544.238136	0.112895
544.452958	0.113094
544.667762	0.113376
544.882548	0.113174
545.097315	0.113612
545.312064	0.113664
545.526795	0.113481
545.741508	0.114005
545.956203	0.113697
546.170879	0.114024
546.385537	0.113452
546.600177	0.113208
546.814799	0.113609
547.029402	0.113670
547.243988	0.113387
547.458555	0.113938
547.673103	0.113459
547.887634	0.113732
548.102146	0.113911
548.316640	0.114257
548.531116	0.114819
548.745574	0.114726
548.960013	0.115269
549.174435	0.116177
549.388838	0.116119
549.603222	0.116668
549.817589	0.116605
550.031937	0.116714
550.246267	0.116726
550.460579	0.116695
550.674873	0.116960
550.889148	0.116590
551.103405	0.116546
551.317644	0.116470
551.531865	0.116351
551.746068	0.116800
551.960252	0.116690
552.174418	0.116969
552.388566	0.116847
552.602696	0.116816
552.816807	0.117036
553.030900	0.116452
553.244975	0.116737
553.459032	0.117204
553.673070	0.117276
553.887091	0.117082
554.101093	0.117247
554.315077	0.117745
554.529042	0.118254
554.742990	0.118570
554.956919	0.119084
555.170830	0.119095
555.384722	0.119022
555.598597	0.119143
555.812453	0.119694
556.026291	0.120014
556.240111	0.119747
556.453913	0.119435
556.667696	0.119478
556.881461	0.119579
557.095208	0.119712
557.308937	0.119927
557.522647	0.119848
557.736339	0.119824
557.950013	0.119694
558.163669	0.119972
558.377307	0.120321
558.590926	0.119901
558.804527	0.120218
559.018110	0.120475
559.231675	0.120345
559.445221	0.120627
559.658749	0.120622
559.872259	0.120858
560.085751	0.121103
560.299225	0.121207
560.512680	0.121816
560.726117	0.121976
560.939536	0.121844
561.152937	0.121828
561.366319	0.121925
561.579683	0.122099
561.793029	0.122245
562.006357	0.122137
562.219667	0.122021
562.432958	0.122131
562.646231	0.122095
562.859486	0.122341
563.072723	0.122886
563.285941	0.122777
563.499141	0.122988
563.712323	0.122748
563.925487	0.122669
564.138632	0.122811
564.351760	0.122559
564.564869	0.122713
564.777960	0.122836
564.991032	0.122274
565.204087	0.122360
565.417123	0.122226
565.630141	0.122190
565.843140	0.122593
566.056122	0.122501
566.269085	0.123009
566.482030	0.123146
566.694957	0.123207
566.907866	0.123668
567.120756	0.123998
567.333628	0.124285
567.546482	0.124995
567.759318	0.124970
567.972135	0.125253
568.184935	0.124998
568.397716	0.124848
568.610478	0.125252
568.823223	0.125696
569.035949	0.125900
569.248657	0.125751
569.461347	0.125557
569.674019	0.125685
569.886672	0.126087
570.099308	0.126436
570.311925	0.126807
570.524523	0.126308
570.737104	0.126058
570.949666	0.126074
571.162210	0.126426
571.374736	0.127224
571.587244	0.127402
571.799733	0.127314
572.012205	0.127198
572.224658	0.126944
572.437092	0.127260
572.649509	0.127655
572.861907	0.127880
573.074287	0.128051
573.286649	0.127597
573.498993	0.127786
573.711318	0.128020
573.923625	0.128153
574.135914	0.128626
574.348185	0.128766
574.560438	0.128818
574.772672	0.128734
574.984888	0.128741
575.197086	0.128915
575.409266	0.128976
575.621427	0.129185
575.833570	0.128987
576.045695	0.129048
576.257802	0.129071
576.469890	0.129098
576.681961	0.129330
576.894013	0.129625
577.106046	0.129417
577.318062	0.129420
577.530059	0.129265
577.742039	0.129493
577.954000	0.129265
578.165942	0.129585
578.377867	0.129403
578.589773	0.129590
578.801661	0.129471
579.013531	0.129781
579.225382	0.130035
579.437216	0.130208
579.649031	0.130619
579.860828	0.130927
580.072606	0.131260
580.284367	0.131465
580.496109	0.131531
580.707833	0.131855
580.919539	0.131743
581.131227	0.131863
581.342896	0.132152
581.554547	0.132392
581.766180	0.132664
581.977795	0.132554
582.189391	0.132781
582.400969	0.132852
582.612529	0.133099
582.824071	0.133457
583.035595	0.133286
583.247100	0.133241
583.458587	0.133290
583.670056	0.133147
583.881506	0.133210
584.092939	0.133472
584.304353	0.133685
584.515749	0.133847
584.727127	0.133782
584.938486	0.133980
585.149828	0.133627
585.361151	0.133621
585.572456	0.133948
585.783742	0.134264
585.995011	0.134422
586.206261	0.134427
586.417493	0.134071
586.628706	0.134245
586.839902	0.134478
587.051079	0.134852
587.262238	0.134861
587.473379	0.134912
587.684502	0.134878
587.895606	0.134736
588.106692	0.134516
588.317760	0.134571
588.528810	0.134391
588.739841	0.134306
588.950855	0.134346
589.161850	0.134627
589.372827	0.134537
589.583785	0.134653
589.794726	0.134617
590.005648	0.134985
590.216552	0.135063
590.427437	0.135223
590.638305	0.135350
590.849154	0.135354
591.059985	0.135169
591.270798	0.134972
591.481592	0.134818
591.692369	0.135146
591.903127	0.134866
592.113867	0.135249
592.324588	0.135675
592.535292	0.135895
592.745977	0.136151
592.956644	0.136293
593.167293	0.136600
593.377923	0.136849
593.588536	0.137017
593.799130	0.137238
594.009706	0.136992
594.220263	0.136850
594.430803	0.136656
594.641324	0.136607
594.851827	0.137006
595.062312	0.137463
595.272778	0.137529
595.483227	0.137363
595.693657	0.137679
595.904069	0.137965
596.114462	0.138063
596.324838	0.138190
596.535195	0.138386
596.745534	0.138330
596.955855	0.138052
597.166157	0.138008
597.376441	0.138156
597.586707	0.138139
597.796955	0.138223
598.007185	0.138378
598.217396	0.138569
598.427589	0.138526
598.637764	0.138794
598.847921	0.138879
599.058060	0.138877
599.268180	0.138809
599.478282	0.139279
599.688366	0.139365
599.898431	0.139504
600.108479	0.139903
600.318508	0.140209
600.528519	0.139935
600.738511	0.140232
600.948486	0.140355
601.158442	0.140543
601.368380	0.140458
601.578300	0.140550
601.788202	0.140534
601.998085	0.140141
602.207950	0.140095
602.417797	0.140503
602.627626	0.140546
602.837436	0.140693
603.047228	0.140823
603.257002	0.140807
603.466758	0.141184
603.676496	0.141374
603.886215	0.141609
604.095916	0.141575
604.305599	0.141253
604.515264	0.141196
604.724910	0.141025
604.934538	0.141208
605.144148	0.141060
605.353740	0.140831
605.563314	0.140659
605.772869	0.140777
605.982406	0.141086
606.191925	0.141104
606.401425	0.141264
606.610908	0.141561
606.820372	0.141533
607.029818	0.141823
607.239246	0.141883
607.448655	0.142236
607.658047	0.142428
607.867420	0.142382
608.076775	0.142549
608.286111	0.142785
608.495430	0.143161
608.704730	0.143436
608.914012	0.143576
609.123275	0.143715
609.332521	0.143564
609.541748	0.143737
609.750957	0.143824
609.960148	0.144029
610.169321	0.143771
610.378475	0.143766
610.587611	0.143652
610.796729	0.143572
611.005829	0.143656
611.214910	0.144034
611.423974	0.143868
611.633019	0.144021
611.842045	0.144151
612.051054	0.144089
612.260044	0.144176
612.469017	0.144475
612.677970	0.144759
612.886906	0.144991
613.095824	0.145070
613.304723	0.145366
613.513604	0.145432
613.722467	0.145372
613.931311	0.145907
614.140138	0.145788
614.348946	0.145538
614.557736	0.145361
614.766507	0.145305
614.975261	0.144966
615.183996	0.144956
615.392713	0.144879
615.601412	0.144963
615.810092	0.145028
616.018754	0.145243
616.227399	0.145389
616.436024	0.145725
616.644632	0.145849
616.853222	0.146233
617.061793	0.146421
617.270346	0.146512
617.478880	0.146715
617.687397	0.146733
617.895895	0.146535
618.104375	0.146790
618.312837	0.146783
618.521281	0.146699
618.729706	0.146474
618.938113	0.146415
619.146502	0.146568
619.354873	0.146716
619.563226	0.146653
619.771560	0.146849
619.979876	0.146526
620.188174	0.146492
620.396453	0.146488
620.604715	0.146467
620.812958	0.146337
621.021183	0.146545
621.229390	0.146268
621.437578	0.146427
621.645748	0.146395
621.853900	0.146688
622.062034	0.146809
622.270150	0.146937
622.478247	0.147095
622.686326	0.147410
622.894387	0.147245
623.102430	0.147486
623.310454	0.147567
623.518461	0.147827
623.726449	0.147959
623.934418	0.147755
624.142370	0.147915
624.350303	0.147997
624.558218	0.147853
624.766115	0.147991
624.973994	0.148070
625.181855	0.148114
625.389697	0.148246
625.597521	0.148048
625.805327	0.148275
626.013114	0.148243
626.220883	0.148466
626.428634	0.148610
626.636367	0.148545
626.844082	0.148561
627.051778	0.148541
627.259457	0.148585
627.467117	0.148932
627.674758	0.149227
627.882382	0.149295
628.089987	0.149237
628.297574	0.149399
628.505143	0.149790
628.712694	0.150071
628.920226	0.150321
629.127740	0.150331
629.335236	0.150296
629.542714	0.150279
629.750174	0.150428
629.957615	0.150562
630.165038	0.150596
630.372443	0.150481
630.579829	0.150263
630.787198	0.150206
630.994548	0.150215
631.201880	0.150307
631.409194	0.150047
631.616489	0.150038
631.823766	0.150123
632.031025	0.150418
632.238266	0.150483
632.445489	0.150677
632.652693	0.150838
632.859879	0.151017
633.067047	0.151270
633.274197	0.151557
633.481329	0.151759
633.688442	0.151913
633.895537	0.151583
634.102614	0.151784
634.309672	0.151876
634.516713	0.152111
634.723735	0.152313
634.930739	0.152141
635.137724	0.151993
635.344692	0.152016
635.551641	0.152110
635.758572	0.152268
635.965485	0.152215
636.172379	0.152342
636.379256	0.152428
636.586114	0.152233
636.792954	0.152504
636.999775	0.152844
637.206579	0.152766
637.413364	0.152928
637.620131	0.153165
637.826880	0.153285
638.033610	0.153196
638.240323	0.153327
638.447017	0.153800
638.653692	0.153828
638.860350	0.153936
639.066990	0.154379
639.273611	0.154368
639.480214	0.154308
639.686798	0.154383
639.893365	0.154733
640.099913	0.154402
640.306443	0.154284
640.512955	0.154163
640.719449	0.154263
640.925924	0.154062
641.132381	0.154116
641.338820	0.154400
641.545241	0.154642
641.751644	0.154681
641.958028	0.154944
642.164394	0.154905
642.370742	0.155148
642.577071	0.155239
642.783383	0.155366
642.989676	0.155457
643.195951	0.155275
643.402207	0.155226
643.608446	0.155277
643.814666	0.155180
644.020868	0.155257
644.227052	0.155254
644.433218	0.155177
644.639365	0.155246
644.845494	0.155197
645.051605	0.155401
645.257698	0.155333
645.463772	0.155373
645.669828	0.155599
645.875866	0.155538
646.081886	0.155650
646.287888	0.155964
646.493871	0.156009
646.699836	0.155975
646.905783	0.155789
647.111712	0.156116
647.317622	0.156130
647.523514	0.156206
647.729388	0.156120
647.935244	0.156022
648.141082	0.155790
648.346901	0.156138
648.552702	0.156468
648.758485	0.156968
648.964250	0.156841
649.169996	0.157109
649.375724	0.157222
649.581434	0.157691
649.787126	0.157991
649.992800	0.158377
650.198455	0.158191
650.404092	0.158262
650.609711	0.158021
650.815311	0.158212
651.020894	0.158114
651.226458	0.158117
651.432004	0.158107
651.637532	0.158230
651.843041	0.158121
652.048532	0.158211
652.254006	0.158206
652.459460	0.158180
652.664897	0.158125
652.870315	0.158207
653.075716	0.158297
653.281097	0.158505
653.486461	0.158538
653.691807	0.158475
653.897134	0.158718
654.102443	0.158757
654.307734	0.159117
654.513006	0.159243
654.718261	0.159456
654.923497	0.159460
655.128715	0.159426
655.333915	0.159790
655.539096	0.160045
655.744259	0.160230
655.949404	0.160554
656.154531	0.160718
656.359640	0.160852
656.564730	0.160748
656.769802	0.160872
656.974856	0.161323
657.179892	0.161201
657.384909	0.161412
657.589908	0.161129
657.794889	0.161289
657.999852	0.161182
658.204797	0.161175
658.409723	0.161440
658.614631	0.161586
658.819521	0.161619
659.024393	0.161742
659.229246	0.161641
659.434081	0.161934
659.638898	0.161950
659.843697	0.162392
660.048478	0.162743
660.253240	0.162719
660.457984	0.163020
660.662710	0.162697
660.867417	0.162675
661.072107	0.162919
661.276778	0.162961
661.481431	0.162940
661.686066	0.162450
661.890682	0.162473
662.095281	0.162665
662.299861	0.162447
662.504422	0.162774
662.708966	0.162828
662.913491	0.162711
663.117999	0.162764
663.322488	0.162843
663.526958	0.163282
663.731411	0.163311
663.935845	0.163480
664.140261	0.163943
664.344659	0.164103
664.549038	0.164236
664.753400	0.164440
664.957743	0.164743
665.162068	0.164970
665.366375	0.165184
665.570663	0.165352
665.774933	0.165293
665.979185	0.165070
666.183419	0.165205
666.387635	0.165470
666.591832	0.165624
666.796011	0.165661
667.000172	0.165808
667.204315	0.165900
667.408439	0.166111
667.612545	0.166225
667.816634	0.166545
668.020703	0.166644
668.224755	0.166818
668.428788	0.166907
668.632803	0.167122
668.836800	0.167150
669.040779	0.167482
669.244739	0.167403
669.448681	0.167663
669.652605	0.168013
669.856511	0.168130
670.060399	0.168062
670.264268	0.168255
670.468119	0.168379
670.671952	0.168493
670.875767	0.168161
671.079563	0.168467
671.283341	0.168497
671.487101	0.168326
671.690843	0.168309
671.894567	0.168212
672.098272	0.168070
672.301959	0.168034
672.505628	0.168297
672.709278	0.168619
672.912911	0.168639
673.116525	0.168978
673.320121	0.169000
673.523699	0.168887
673.727258	0.169211
673.930799	0.169531
674.134322	0.169619
674.337827	0.169534
674.541314	0.169575
674.744782	0.169586
674.948232	0.169260
675.151664	0.169178
675.355078	0.169324
675.558474	0.169493
675.761851	0.169613
675.965210	0.169838
676.168551	0.169924
676.371873	0.169839
676.575178	0.170013
676.778464	0.170429
676.981732	0.170613
677.184981	0.170894
677.388213	0.170937
677.591426	0.170786
677.794621	0.170813
677.997798	0.170808
678.200956	0.171028
678.404097	0.170902
678.607219	0.170848
678.810323	0.170996
679.013408	0.170983
679.216476	0.171001
679.419525	0.171196
679.622556	0.171259
679.825569	0.171447
680.028563	0.171600
680.231540	0.171692
680.434498	0.171627
680.637438	0.171931
680.840359	0.172130
681.043263	0.172278
681.246148	0.172308
681.449015	0.172382
681.651864	0.172445
681.854694	0.172395
682.057506	0.172845
682.260301	0.173057
682.463076	0.173081
682.665834	0.173101
682.868573	0.173215
683.071295	0.173500
683.273998	0.173473
683.476682	0.173418
683.679349	0.173758
683.881997	0.173688
684.084627	0.173734
684.287239	0.173572
684.489833	0.173509
684.692408	0.173559
684.894965	0.173411
685.097504	0.173623
685.300025	0.173821
685.502527	0.173666
685.705012	0.173645
685.907478	0.173860
686.109925	0.173903
686.312355	0.174050
686.514766	0.174162
686.717159	0.174598
686.919534	0.174593
687.121891	0.174725
687.324230	0.175100
687.526550	0.175353
687.728852	0.175428
687.931136	0.175608
688.133401	0.175695
688.335649	0.175677
688.537878	0.175433
688.740089	0.175570
688.942281	0.175651
689.144456	0.175579
689.346612	0.175329
689.548750	0.175248
689.750870	0.175572
689.952971	0.175521
690.155055	0.175697
690.357120	0.175971
690.559167	0.176021
690.761195	0.175940
690.963206	0.176022
691.165198	0.176212
691.367172	0.176307
691.569128	0.175992
691.771065	0.176335
691.972984	0.176284
692.174885	0.176437
692.376768	0.176653
692.578633	0.176783
692.780479	0.176803
692.982308	0.176963
693.184118	0.177110
693.385909	0.177116
