sample name	sample
index	253
start time	 02-25-2021  10:34:37 AM
880	0.051511
Peak Time (s)	92.037
Peak Height 	0.05151
calc peak height	90,93
Baseline Time (s)	11.037
Baseline Value 	-0.005809
subtract baseline	10,4
Abs	0.032460
Peak Time (s)	91.035
Peak Height 	0.03246
calc peak height	90,93
Baseline Time (s)	10.537
Baseline Value 	0.003948
subtract baseline	10,3
PK_550	0.016170
Peak Time (s)	92.037
Peak Height 	0.01617
calc peak height	90,93
Baseline Time (s)	10.537
Baseline Value 	7.3081E-4
subtract baseline	10,2
PK_880	0.031161
Peak Time (s)	92.537
Peak Height 	0.03116
calc peak height	90,93
Baseline Time (s)	10.537
Baseline Value 	0.002504
subtract baseline	10,1


Time (s)	A880-A510	A880-A775	A880-A975	A880	I510	I775	I975	I880	
0.035000	0.000264	-0.000965	0.001411	0.000306	6852.525061	46116.598670	3911.451333	24270.775592
0.538500	-0.002732	-0.000785	-0.001829	0.005251	6778.981618	45643.990868	3890.006987	24027.409536
1.036500	-0.002999	0.000155	0.000536	0.004154	6786.602723	45845.404724	3899.028758	24081.180795
1.537000	-0.001120	-0.000994	-0.006507	-0.000608	6848.133292	46204.923908	3893.076529	24316.051543
2.036500	0.001259	-0.000114	-0.003699	0.000080	6863.951457	46224.124101	3898.607864	24281.962364
2.537000	-0.001206	-0.000002	-0.001394	0.004057	6804.019548	45839.365020	3894.241609	24085.909918
3.037500	0.002742	0.000346	-0.000077	-0.001262	6890.516554	46404.638331	3911.664026	24348.528420
3.537500	0.002076	0.000303	-0.002717	0.000712	6865.689152	46202.665506	3899.524480	24250.707423
4.035000	-0.001665	0.000030	-0.002789	0.000486	6832.856100	46197.906414	3899.926525	24261.867096
4.535500	-0.002359	-0.000295	0.003214	-0.000143	6832.255095	46228.295073	3917.423169	24293.017751
5.035500	0.000055	-0.000246	0.000642	-0.000151	6854.840687	46234.062882	3910.627052	24293.422844
5.536000	0.001175	0.000256	0.001337	0.000056	6863.379900	46263.509583	3911.916708	24283.132173
6.036000	0.000555	-0.000672	-0.001208	-0.000765	6865.272343	46252.776321	3907.364268	24323.838781
6.536500	0.000919	0.000825	0.000606	0.000495	6856.881503	46276.463180	3908.824168	24261.423373
7.037000	0.000969	0.000709	0.005802	0.000151	6860.569004	46299.406002	3923.537155	24278.460921
7.537000	-0.001585	-0.000008	0.001152	-0.000703	6844.680777	46313.019735	3913.435358	24320.770951
8.037500	0.000792	0.000868	0.001812	0.000690	6853.863733	46261.217379	3911.494230	24251.761898
8.535000	0.000047	-0.000267	-0.002981	-0.000363	6856.742319	46253.029631	3901.647506	24303.889913
9.035000	-0.001572	-0.000601	-0.002327	-0.000065	6838.861598	46189.949674	3902.582231	24289.161083
9.535500	-0.000465	0.000319	0.000226	0.000100	6847.640690	46265.444051	3908.864362	24280.982913
10.036000	0.001444	0.000291	0.000864	0.000433	6862.373302	46229.285881	3909.667453	24264.468076
10.536500	0.000000	0.000000	0.000000	-0.000126	6854.094175	46256.107033	3908.865119	24292.169837
11.036500	0.000749	0.000441	0.002929	0.000000	6859.921012	46287.572085	3916.284237	24285.919595
11.536500	-0.000352	-0.000448	-0.006275	0.003311	6818.827657	45869.177588	3883.523042	24122.572277
12.037000	0.001891	-0.000127	-0.001232	-0.000553	6875.827273	46286.153758	3906.742472	24313.329965
12.537500	0.000961	0.000475	0.002417	0.000202	6860.017951	46270.849931	3914.390963	24275.939173
13.037500	0.000598	0.000245	0.001992	-0.002351	6880.571966	46503.817297	3920.046495	24402.654721
13.535000	-0.002400	-0.000350	-0.003476	0.003951	6793.983555	45815.466380	3889.107206	24091.118981
14.035000	0.000402	-0.000706	-0.002597	-0.001571	6871.402351	46330.065750	3905.828335	24363.871376
14.535500	-0.002486	0.000452	0.003914	0.002034	6810.885347	46085.619969	3913.503197	24185.434503
15.036000	-0.000353	-0.000144	-0.003341	-0.000998	6858.950531	46328.937519	3902.367730	24335.404966
15.545000	-0.000738	0.000003	0.003041	0.003682	6811.810322	45877.135171	3906.842845	24104.340891
16.036000	-0.001081	-0.000072	0.000553	-0.001705	6858.750872	46407.024524	3914.503369	24370.504125
16.537000	0.002093	0.001314	-0.000854	-0.000764	6879.696992	46451.770366	3908.293656	24323.767041
17.037000	0.001158	-0.000002	-0.001075	-0.001361	6876.525760	46379.674505	3909.286840	24353.435140
17.540000	-0.000733	0.000199	0.002022	0.003092	6817.317339	45955.121540	3905.712176	24133.338558
18.034500	0.000879	0.000844	0.000306	-0.002250	6882.263514	46553.955468	3915.292861	24397.627013
18.535000	0.000479	0.000742	-0.002715	0.000921	6848.787262	46225.569986	3898.980525	24240.343562
19.035500	0.001129	0.000382	-0.000467	0.000857	6855.458539	46196.005949	3905.044179	24243.523085
19.536000	-0.000006	-0.000381	-0.001869	0.002733	6827.393649	45933.175350	3896.457348	24151.011527
20.036000	-0.002139	-0.000074	0.001877	0.000648	6826.955446	46171.360819	3911.778309	24253.861468
20.536500	0.001456	-0.000170	-0.000215	0.001013	6857.055470	46125.284304	3905.298047	24235.806862
21.036500	0.000816	-0.000001	0.000844	0.000734	6853.687593	46170.071894	3908.824770	24249.620940
21.537500	-0.000743	-0.000656	-0.000309	0.001498	6832.020158	46028.534708	3903.775937	24211.854079
22.040000	-0.001157	-0.000042	0.001259	0.000901	6833.717931	46149.264866	3909.477447	24241.331742
22.534500	-0.001084	-0.000136	-0.002394	0.000360	6839.440665	46193.970827	3901.291680	24268.119207
23.038000	-0.000419	0.000585	0.001513	0.001335	6836.561832	46168.600576	3909.002984	24219.924742
23.535000	0.000591	0.000333	-0.000141	0.001472	6844.686707	46129.713218	3904.286532	24213.143006
24.035500	0.001570	0.000928	-0.001002	0.000913	6859.058489	46245.015633	3903.490740	24240.743094
24.536000	0.001068	0.000465	0.002339	0.000969	6853.844415	46193.116432	3912.153741	24237.998358
25.036000	-0.000344	-0.000535	-0.002470	-0.000130	6850.914938	46202.964684	3902.376974	24292.359525
25.536500	0.000411	0.000228	-0.003642	0.001161	6845.912975	46150.249065	3895.933447	24228.499168
26.036500	-0.001018	0.000096	0.002439	0.000624	6837.595852	46190.690212	3913.329717	24255.033829
26.537000	-0.001176	0.000152	-0.001089	0.000127	6840.750632	46246.032956	3905.330203	24279.630578
27.037000	0.000103	0.000008	-0.000612	0.000108	6852.870278	46233.421586	3906.633681	24280.560728
27.535000	-0.000536	-0.000793	0.000227	-0.000009	6847.992329	46165.156521	3909.154224	24286.356728
28.035000	-0.001572	-0.000464	-0.003549	-0.002685	6863.326391	46466.098105	3906.254255	24419.284405
28.534500	0.001027	-0.000586	0.002524	-0.002079	6882.048242	46393.135435	3920.739367	24389.142200
29.047000	0.001060	0.000263	0.002931	-0.001206	6874.154006	46390.673912	3919.497652	24345.752339
29.536000	0.001015	0.000224	0.002059	-0.001894	6880.194980	46455.772091	3919.007266	24379.906424
30.036000	-0.000062	0.000205	0.004458	-0.001566	6867.001787	46420.955233	3924.533041	24363.621496
30.536500	-0.002404	-0.000372	-0.001154	0.001362	6817.870269	46070.392516	3901.915731	24218.587568
31.036500	0.000973	0.000015	0.002517	-0.001825	6879.150880	46427.898844	3920.044843	24376.497749
31.539500	0.001638	0.000846	0.005574	0.001562	6853.624992	46172.017220	3919.165116	24208.717724
32.037000	-0.001052	-0.000415	-0.001820	0.001067	6833.153291	46095.534249	3900.941483	24233.134439
32.574500	-0.002770	0.000159	-0.000797	0.002659	6802.484774	45994.111951	3899.451976	24154.615580
33.035000	0.001019	0.000303	0.003437	-0.001949	6880.744155	46469.206983	3922.828051	24382.638680
33.535500	0.000704	0.000581	0.004508	-0.001475	6873.331602	46449.571985	3924.424697	24359.083803
34.036000	0.001881	-0.000006	0.003093	-0.001585	6885.439489	46401.607218	3920.938995	24364.539317
34.536000	-0.000253	0.000073	0.000013	0.000709	6843.929374	46179.875138	3906.697389	24250.826029
35.036500	-0.000616	0.000267	0.003067	0.000877	6838.979240	46182.464323	3914.322005	24242.516888
35.537000	-0.000065	0.000358	-0.003372	0.001174	6841.349017	46161.974820	3896.602512	24227.851229
36.037000	-0.000453	0.000806	-0.000617	0.000945	6839.874076	46229.645796	3904.418855	24239.184765
36.537500	-0.000885	0.000508	0.001251	0.000925	6836.034101	46201.811844	3909.391947	24240.164795
37.038000	-0.002338	0.000218	0.002032	0.000945	6822.348602	46170.852735	3911.403995	24239.170506
37.535000	-0.000322	-0.000490	0.000171	0.000534	6844.923077	46141.202308	3907.574414	24259.479778
38.035500	-0.000052	0.000776	0.002248	0.001339	6839.932032	46187.162331	3910.932613	24219.704190
38.535500	0.000816	0.000343	0.000157	0.001149	6849.803495	46162.950102	3905.917364	24229.082156
39.036000	-0.000574	-0.000393	-0.000143	0.000488	6843.003558	46155.469348	3906.869975	24261.777697
39.536500	-0.001627	-0.000609	-0.004798	0.001204	6826.539921	46062.557724	3892.807788	24226.378931
40.036500	0.000238	-0.000451	0.002578	0.000414	6851.273298	46157.066387	3914.255284	24265.445816
40.536500	-0.001022	-0.000238	-0.000363	0.000573	6838.036082	46162.493818	3906.067778	24257.576451
41.040000	0.000375	0.000436	0.000760	0.001319	6844.102550	46155.336101	3907.058638	24220.714420
41.537500	0.000658	0.000611	-0.006638	0.001735	6842.863436	46131.246756	3886.656223	24200.177805
42.035000	-0.000346	-0.000086	0.001070	0.001017	6840.194589	46133.247911	3908.671499	24235.602257
42.535000	-0.000202	0.000197	0.000891	0.001141	6840.379228	46149.169064	3907.871868	24229.487676
43.035500	0.000077	-0.000396	-0.004005	0.000678	6847.304762	46136.246816	3896.245705	24252.391667
43.535500	-0.000440	0.000333	-0.000042	0.003051	6820.418016	45972.480136	3900.401728	24135.361660
44.036000	0.000425	-0.000040	-0.001112	0.001237	6845.324915	46115.953000	3902.352548	24224.722092
44.536500	0.002469	0.000101	0.000073	-0.000796	6883.548628	46333.317909	3910.827885	24325.392986
45.037000	0.003307	0.000683	0.001977	-0.003037	6912.643833	46617.104915	3921.834576	24436.845597
45.537500	-0.000745	-0.000210	0.000702	0.005181	6797.897248	45707.600389	3896.777198	24030.831478
46.034000	0.001577	0.000419	0.002221	-0.001124	6878.234502	46398.072049	3917.388087	24341.640016
46.537500	-0.000840	-0.000348	0.003678	-0.000859	6853.089651	46294.546494	3920.561153	24328.484676
47.035000	0.000451	0.000534	-0.001280	-0.001452	6870.747985	46442.616876	3908.987286	24357.969136
47.535500	-0.003385	-0.000182	0.000667	0.004991	6775.378654	45729.245351	3897.184182	24040.176747
48.038000	0.003138	0.000216	0.003149	-0.001164	6893.320977	46381.689375	3919.965126	24343.637432
48.536000	0.001294	0.000783	0.002144	0.002857	6838.326455	46036.547021	3906.652995	24144.880104
49.036500	0.001347	0.000197	-0.002039	0.001491	6851.565499	46114.248294	3899.257839	24212.196764
49.603000	-0.001348	0.000377	-0.002266	0.005255	6791.663186	45758.350577	3888.863700	24027.240722
50.037000	0.000274	-0.000528	0.001858	-0.002203	6876.130888	46411.298987	3919.294874	24395.292639
50.540000	-0.000415	-0.000172	-0.001246	0.000168	6847.468353	46209.493814	3904.809314	24277.603956
51.037000	0.002948	0.000584	0.001026	-0.002915	6908.087434	46594.867640	3918.974732	24430.764072
51.537500	-0.002880	-0.000401	0.002292	0.004506	6784.458594	45755.497187	3902.705895	24063.903295
52.038000	0.000917	-0.000524	0.003443	-0.004238	6901.377668	46616.441318	3928.972248	24496.810578
52.536000	-0.025382	-0.013381	-0.005509	0.250549	4944.073303	26462.881850	3398.218366	14857.306109
53.036000	-0.016099	-0.014531	-0.015211	-0.001598	6719.619932	44969.115879	3873.180975	24365.211705
53.536000	-0.034366	-0.122600	-0.025553	-0.282212	9976.382000	65535.000000	4831.621189	43970.205600
54.036000	-0.046225	-0.213539	-0.027551	-0.373151	11410.902500	65535.000000	5301.776818	53565.220985
54.536500	-0.037218	-0.150356	-0.009838	-0.309969	10400.303455	65535.000000	5049.406480	46688.830925
55.039500	-0.032344	-0.144632	-0.004524	-0.304244	10385.434673	65535.000000	5047.249130	46113.839459
55.536500	-0.032332	-0.112178	-0.012392	-0.271790	9838.991473	65535.000000	4844.709059	42993.443521
56.037500	-0.012591	-0.115468	-0.011946	-0.275080	10222.686888	65535.000000	4862.694075	43299.265083
56.535000	-0.005951	-0.115475	-0.006050	-0.275087	10337.270919	65535.000000	4891.428968	43299.902764
57.035000	-0.008864	-0.097081	-0.008642	-0.256693	9976.101409	65535.000000	4791.020000	41619.440487
57.535500	-0.005625	-0.054415	-0.005611	-0.204816	9215.132787	64218.528305	4575.272974	37246.124311
58.035500	-0.005022	-0.033526	-0.007002	-0.171175	8744.758444	62441.742946	4434.823589	34676.986500
58.535500	-0.002013	-0.018100	-0.000721	-0.128542	8225.822906	58820.470324	4300.576618	31694.290078
59.041500	-0.002928	-0.012855	-0.002058	-0.085952	7708.039028	54205.366112	4152.655304	28993.128542
59.536500	-0.002001	-0.010083	0.002315	-0.059349	7425.924426	51461.017460	4083.307258	27435.459569
60.037000	-0.000353	-0.007503	-0.001183	-0.037416	7214.547409	49340.580419	4008.211791	26221.131246
60.537500	-0.001839	-0.006520	-0.001097	-0.016755	6994.746549	47279.189676	3950.587889	25131.903922
61.035000	-0.003909	-0.004830	0.000258	0.000528	6811.654439	45710.876096	3907.820330	24259.792104
61.535000	-0.002366	-0.004325	0.002259	0.012852	6713.146535	44559.092749	3880.928118	23658.762898
62.035500	-0.001756	-0.003298	0.001239	0.026217	6599.702852	43389.773100	3844.503316	23025.955979
62.535500	0.001514	0.001518	0.002543	0.036139	6541.847877	42915.351826	3823.249372	22568.562859
63.036000	0.005329	0.000465	0.009342	0.031002	6619.913725	43294.336727	3852.797806	22804.072397
63.536500	0.002469	0.000459	0.007727	0.023351	6662.353263	44013.243332	3868.050325	23159.993755
64.036500	0.007696	0.002482	0.005924	0.015372	6781.807386	44973.289780	3883.878799	23537.962497
64.539500	0.006540	0.003529	0.007843	0.017071	6755.669030	44910.068354	3884.447783	23456.893067
65.055500	0.010068	0.004478	0.009437	0.014352	6813.075821	45267.157967	3895.641037	23586.776467
65.534000	0.008983	0.003983	0.008105	0.013924	6806.995666	45260.534977	3893.284128	23607.258427
66.037500	0.008920	0.004552	0.013546	0.015241	6794.265282	45187.561265	3904.069173	23544.213463
66.535000	0.010312	0.003912	0.008984	0.016611	6794.466572	44991.803853	3888.586834	23478.783947
67.035500	0.011007	0.004801	0.011004	0.017345	6794.105545	45006.842138	3891.925875	23443.841056
67.535500	0.009269	0.004938	0.011949	0.022262	6733.281221	44545.065012	3881.649839	23211.201298
68.036000	0.009503	0.005050	0.012556	0.020969	6747.157189	44680.276004	3886.554042	23272.125520
68.536000	0.009563	0.005692	0.014641	0.022961	6729.600488	44550.279581	3886.793349	23178.325882
69.036500	0.012146	0.005973	0.012062	0.023616	6747.119391	44514.419308	3878.458286	23147.592081
69.537500	0.011269	0.006143	0.013329	0.029614	6685.022058	43958.429529	3866.369159	22868.170002
70.037500	0.014221	0.006242	0.010624	0.025929	6744.941467	44318.441490	3868.861076	23039.357983
70.535000	0.013245	0.007001	0.011821	0.028010	6717.229502	44192.338283	3866.614094	22942.503025
71.035000	0.013594	0.007675	0.014245	0.028730	6713.881288	44187.887232	3870.952686	22909.094305
71.535500	0.013713	0.008377	0.010597	0.035335	6655.774824	43629.355180	3845.101461	22605.265164
72.035500	0.014755	0.007813	0.010836	0.030407	6709.218514	44041.551586	3858.050174	22831.502739
72.536000	0.016464	0.009323	0.022205	0.033119	6700.195888	43927.628899	3880.103476	22706.708712
73.037000	0.016764	0.009551	0.014361	0.032839	6705.409863	43975.718087	3860.811298	22719.521588
73.536500	0.013040	0.008975	0.014745	0.038467	6622.086165	43391.873389	3847.634622	22462.780992
74.039500	0.018300	0.010285	0.020550	0.034833	6701.289989	43856.493707	3871.467722	22628.173729
74.537500	0.019246	0.010032	0.020639	0.035061	6707.763139	43811.065463	3871.113997	22617.783098
75.034500	0.019293	0.010654	0.017845	0.036078	6699.021103	43773.706186	3861.430993	22571.344684
75.535000	0.016289	0.010565	0.012814	0.042003	6619.548251	43210.369888	3834.064250	22303.140544
76.035000	0.020212	0.011629	0.020258	0.037412	6695.292939	43739.926647	3864.162595	22510.647093
76.535500	0.020570	0.010913	0.021001	0.037501	6697.712965	43664.153068	3865.824584	22506.622993
77.035500	0.023424	0.012335	0.020809	0.039058	6709.382056	43651.387266	3861.390197	22435.996206
77.536000	0.018680	0.011718	0.012992	0.044653	6617.269483	43071.365014	3827.985344	22184.363635
78.036500	0.023781	0.012601	0.019561	0.040216	6702.175487	43567.574548	3855.320983	22383.651435
78.537000	0.022730	0.013155	0.018127	0.040687	6688.496708	43575.384876	3850.540754	22362.401847
79.037000	0.023190	0.013757	0.020081	0.041550	6684.889545	43550.903700	3853.277003	22323.519747
79.537000	0.022373	0.013074	0.021876	0.045000	6646.847804	43165.094190	3849.130963	22168.890908
80.035000	0.025525	0.013629	0.022952	0.042324	6698.892839	43466.331932	3858.554246	22288.708368
80.535000	0.023721	0.013837	0.021197	0.042903	6677.528723	43431.733173	3852.683231	22262.746170
81.035500	0.026220	0.015213	0.025571	0.044498	6685.617084	43411.148693	3859.677100	22191.285247
81.535500	0.023599	0.014895	0.022121	0.043915	6667.409329	43436.061414	3852.461363	22217.401579
82.036000	0.025639	0.014692	0.022786	0.044335	6681.877062	43377.711709	3853.075275	22198.595530
82.536000	0.026662	0.014611	0.024477	0.044519	6689.393669	43352.983395	3856.865333	22190.366524
83.036000	0.026863	0.014348	0.023175	0.044805	6688.636583	43301.780658	3852.873392	22177.599794
83.539500	0.027503	0.015134	0.027804	0.045535	6687.831225	43307.013850	3862.703367	22145.007399
84.037500	0.027341	0.016019	0.021899	0.047459	6669.170987	43210.243618	3843.056121	22059.412556
84.537500	0.027017	0.015516	0.023885	0.046183	6677.672947	43282.210352	3851.195462	22116.112312
85.035000	0.027550	0.015021	0.026218	0.046159	6682.650156	43238.274923	3857.118599	22117.176326
85.534500	0.028929	0.014901	0.034869	0.046169	6694.937297	43226.276228	3879.110292	22116.770776
86.035500	0.026495	0.015596	0.025710	0.047270	6663.311145	43188.389036	3853.047990	22067.771333
86.535500	0.027796	0.015175	0.028674	0.046834	6678.817889	43189.857973	3861.617694	22087.179411
87.036000	0.027273	0.013940	0.026741	0.045381	6687.153687	43210.148567	3860.403624	22151.892647
87.536000	0.027028	0.016100	0.027150	0.050379	6640.430140	42947.019614	3848.867024	21930.190329
88.039500	0.026223	0.014984	0.025627	0.048454	6650.350221	43021.806394	3849.870415	22015.243214
88.536500	0.028926	0.015570	0.027226	0.047636	6681.752355	43151.969719	3855.937219	22051.513625
89.037000	0.028349	0.015212	0.028051	0.047369	6678.977379	43143.601153	3858.690011	22063.380764
89.537500	0.024656	0.014845	0.027258	0.052446	6601.310998	42641.169065	3843.980775	21839.247960
90.035000	0.027365	0.015548	0.027800	0.050117	6645.729789	42920.195916	3851.148727	21941.736932
90.535500	0.028973	0.015020	0.028441	0.048376	6675.556980	43032.417011	3857.136261	22018.730945
91.035500	0.028343	0.015583	0.032460	0.048385	6669.843733	43083.685958	3867.284191	22018.311800
91.536000	0.029742	0.015457	0.030072	0.048573	6680.670903	43054.592688	3860.754423	22009.996520
92.036500	0.028794	0.016170	0.026154	0.051511	6646.046399	42848.943995	3843.559055	21880.314722
92.536500	0.031161	0.014972	0.030439	0.049079	6688.846668	42962.833832	3860.400474	21987.585461
93.036500	0.029672	0.014429	0.030136	0.048107	6684.217343	43002.605395	3862.095015	22030.659957
93.537000	0.028290	0.014939	0.026024	0.054079	6618.892255	42500.216813	3836.866101	21767.689184
94.037500	0.030435	0.014828	0.032477	0.049201	6681.253034	42938.307961	3865.255686	21982.210776
94.537500	0.028550	0.014751	0.027398	0.049448	6662.209880	42908.377307	3851.817929	21971.281912
95.035000	0.031069	0.014826	0.034119	0.048990	6688.825916	42957.639697	3869.970039	21991.545519
95.538000	0.027133	0.014523	0.025481	0.054253	6607.187343	42446.284504	3835.094993	21760.087479
96.041500	0.030538	0.014534	0.030367	0.049808	6676.747477	42855.121468	3858.381057	21955.387519
96.536000	0.029940	0.014878	0.031483	0.049650	6672.803398	42901.382189	3861.596659	21962.341736
97.036000	0.031060	0.014985	0.031399	0.050003	6679.664700	42878.763026	3860.494082	21946.778472
