sample name	sample
index	1489
start time	 05-18-2021  12:58:52 PM


Wavelength (nm)	Absorbance
494.344910	0.887003
494.563924	0.887003
494.782919	0.887003
495.001897	-0.373064
495.220856	0.201471
495.439797	0.176559
495.658719	0.102247
495.877624	0.007420
496.096510	0.036891
496.315378	0.155095
496.534227	0.174229
496.753059	0.223808
496.971872	0.073546
497.190667	0.077357
497.409444	0.072157
497.628203	0.072104
497.846943	0.073950
498.065665	0.075073
498.284369	0.073659
498.503055	0.071764
498.721723	0.071266
498.940372	0.070446
499.159003	0.068678
499.377616	0.068859
499.596210	0.068281
499.814787	0.068005
500.033345	0.067465
500.251885	0.066446
500.470406	0.066593
500.688910	0.066091
500.907395	0.066377
501.125862	0.066975
501.344311	0.067540
501.562742	0.068336
501.781154	0.068777
501.999548	0.068969
502.217924	0.069493
502.436282	0.069350
502.654621	0.069207
502.872942	0.070478
503.091245	0.069706
503.309530	0.068885
503.527797	0.068532
503.746045	0.067219
503.964275	0.066913
504.182487	0.066483
504.400681	0.067167
504.618856	0.067243
504.837013	0.067168
505.055152	0.068592
505.273273	0.067598
505.491376	0.067317
505.709460	0.067543
505.927526	0.067447
506.145574	0.067831
506.363604	0.066840
506.581615	0.066796
506.799608	0.066667
507.017583	0.066750
507.235540	0.068711
507.453478	0.069369
507.671399	0.069806
507.889301	0.069499
508.107185	0.070411
508.325050	0.071743
508.542898	0.072383
508.760727	0.073498
508.978538	0.073393
509.196330	0.072498
509.414105	0.072357
509.631861	0.072627
509.849599	0.073341
510.067319	0.072746
510.285021	0.072242
510.502704	0.071717
510.720369	0.070329
510.938016	0.069839
511.155645	0.069940
511.373255	0.069753
511.590848	0.069637
511.808422	0.068956
512.025977	0.069492
512.243515	0.069908
512.461034	0.071073
512.678536	0.071219
512.896018	0.071931
513.113483	0.072391
513.330930	0.073207
513.548358	0.073184
513.765768	0.073267
513.983160	0.072821
514.200533	0.072557
514.417889	0.072044
514.635226	0.072528
514.852545	0.072158
515.069845	0.072051
515.287128	0.071369
515.504392	0.071739
515.721638	0.072393
515.938866	0.072769
516.156075	0.073572
516.373267	0.073244
516.590440	0.073563
516.807594	0.073963
517.024731	0.073457
517.241850	0.074489
517.458950	0.074315
517.676032	0.074414
517.893095	0.074375
518.110141	0.073009
518.327168	0.073441
518.544177	0.072660
518.761168	0.072573
518.978141	0.072930
519.195095	0.072363
519.412031	0.072115
519.628949	0.071781
519.845849	0.071740
520.062731	0.072502
520.279594	0.072791
520.496439	0.073147
520.713266	0.072881
520.930074	0.072435
521.146865	0.072406
521.363637	0.072620
521.580391	0.073158
521.797127	0.073662
522.013844	0.073858
522.230543	0.072707
522.447224	0.071937
522.663887	0.071631
522.880532	0.072338
523.097158	0.071246
523.313766	0.071632
523.530356	0.071052
523.746928	0.070610
523.963481	0.070257
524.180017	0.070824
524.396534	0.071404
524.613032	0.072081
524.829513	0.071561
525.045975	0.072640
525.262420	0.072205
525.478845	0.072607
525.695253	0.072615
525.911643	0.072712
526.128014	0.073389
526.344367	0.072960
526.560702	0.072973
526.777018	0.073523
526.993316	0.073092
527.209597	0.073135
527.425858	0.073659
527.642102	0.073379
527.858328	0.073612
528.074535	0.073257
528.290724	0.073756
528.506894	0.073409
528.723047	0.073392
528.939181	0.073896
529.155297	0.073769
529.371395	0.073020
529.587475	0.073685
529.803536	0.073263
530.019579	0.073253
530.235604	0.073443
530.451611	0.073442
530.667600	0.073198
530.883570	0.073741
531.099522	0.074151
531.315456	0.074633
531.531372	0.074445
531.747269	0.075230
531.963148	0.075676
532.179009	0.075811
532.394852	0.076633
532.610676	0.077179
532.826482	0.076196
533.042271	0.076046
533.258040	0.076481
533.473792	0.076730
533.689525	0.076567
533.905240	0.076581
534.120937	0.076480
534.336616	0.075527
534.552277	0.075296
534.767919	0.075715
534.983543	0.076081
535.199149	0.075865
535.414736	0.076097
535.630306	0.076697
535.845857	0.076709
536.061390	0.077164
536.276904	0.077854
536.492401	0.078235
536.707879	0.078944
536.923339	0.078878
537.138781	0.078599
537.354204	0.078205
537.569610	0.077801
537.784997	0.077279
538.000366	0.077104
538.215716	0.076394
538.431049	0.076154
538.646363	0.076150
538.861659	0.076263
539.076937	0.076902
539.292196	0.077178
539.507438	0.077459
539.722661	0.078275
539.937866	0.078450
540.153052	0.079445
540.368221	0.079650
540.583371	0.079641
540.798503	0.079825
541.013617	0.079555
541.228712	0.078891
541.443789	0.079282
541.658848	0.079001
541.873889	0.079276
542.088912	0.079247
542.303916	0.079395
542.518902	0.079532
542.733870	0.079626
542.948820	0.079779
543.163752	0.080731
543.378665	0.080326
543.593560	0.080630
543.808437	0.080205
544.023295	0.080283
544.238136	0.080108
544.452958	0.079894
544.667762	0.080102
544.882548	0.080191
545.097315	0.080103
545.312064	0.080526
545.526795	0.080367
545.741508	0.080518
545.956203	0.080779
546.170879	0.081145
546.385537	0.081368
546.600177	0.081233
546.814799	0.081474
547.029402	0.081772
547.243988	0.081821
547.458555	0.082002
547.673103	0.082332
547.887634	0.082244
548.102146	0.082299
548.316640	0.082552
548.531116	0.083078
548.745574	0.082787
548.960013	0.082468
549.174435	0.082417
549.388838	0.082845
549.603222	0.082814
549.817589	0.082643
550.031937	0.082547
550.246267	0.082383
550.460579	0.082269
550.674873	0.082185
550.889148	0.082474
551.103405	0.082433
551.317644	0.081870
551.531865	0.081705
551.746068	0.082525
551.960252	0.082332
552.174418	0.082200
552.388566	0.081661
552.602696	0.082306
552.816807	0.082592
553.030900	0.082468
553.244975	0.083304
553.459032	0.083463
553.673070	0.083013
553.887091	0.083881
554.101093	0.084182
554.315077	0.084909
554.529042	0.084782
554.742990	0.084705
554.956919	0.085176
555.170830	0.084787
555.384722	0.085286
555.598597	0.085292
555.812453	0.084967
556.026291	0.085254
556.240111	0.085415
556.453913	0.085516
556.667696	0.085128
556.881461	0.085064
557.095208	0.084909
557.308937	0.084682
557.522647	0.084712
557.736339	0.084467
557.950013	0.084403
558.163669	0.084199
558.377307	0.083939
558.590926	0.084508
558.804527	0.084664
559.018110	0.084911
559.231675	0.084839
559.445221	0.084892
559.658749	0.085529
559.872259	0.085695
560.085751	0.085957
560.299225	0.086574
560.512680	0.086524
560.726117	0.086292
560.939536	0.086383
561.152937	0.086673
561.366319	0.086669
561.579683	0.086058
561.793029	0.085891
562.006357	0.085810
562.219667	0.085598
562.432958	0.085580
562.646231	0.085680
562.859486	0.085701
563.072723	0.085458
563.285941	0.085573
563.499141	0.085932
563.712323	0.086219
563.925487	0.086205
564.138632	0.086378
564.351760	0.086723
564.564869	0.086873
564.777960	0.087133
564.991032	0.087155
565.204087	0.087504
565.417123	0.087845
565.630141	0.087914
565.843140	0.088407
566.056122	0.088411
566.269085	0.088325
566.482030	0.088562
566.694957	0.088634
566.907866	0.088956
567.120756	0.089006
567.333628	0.088999
567.546482	0.089045
567.759318	0.088720
567.972135	0.088858
568.184935	0.089176
568.397716	0.089087
568.610478	0.089090
568.823223	0.089304
569.035949	0.089443
569.248657	0.089534
569.461347	0.089691
569.674019	0.089886
569.886672	0.090068
570.099308	0.089926
570.311925	0.090092
570.524523	0.090294
570.737104	0.090115
570.949666	0.090219
571.162210	0.090382
571.374736	0.090358
571.587244	0.090454
571.799733	0.090286
572.012205	0.090562
572.224658	0.090611
572.437092	0.090742
572.649509	0.090953
572.861907	0.090973
573.074287	0.091009
573.286649	0.091108
573.498993	0.091418
573.711318	0.091603
573.923625	0.091791
574.135914	0.092081
574.348185	0.092165
574.560438	0.092631
574.772672	0.092699
574.984888	0.092840
575.197086	0.092867
575.409266	0.092714
575.621427	0.092781
575.833570	0.092271
576.045695	0.092394
576.257802	0.092461
576.469890	0.092168
576.681961	0.092294
576.894013	0.092043
577.106046	0.092187
577.318062	0.092236
577.530059	0.092652
577.742039	0.093244
577.954000	0.093415
578.165942	0.093450
578.377867	0.093583
578.589773	0.093806
578.801661	0.093930
579.013531	0.094006
579.225382	0.094033
579.437216	0.093911
579.649031	0.093949
579.860828	0.093977
580.072606	0.094079
580.284367	0.093954
580.496109	0.093600
580.707833	0.093694
580.919539	0.093819
581.131227	0.094210
581.342896	0.094415
581.554547	0.094347
581.766180	0.093906
581.977795	0.093440
582.189391	0.093907
582.400969	0.093994
582.612529	0.094158
582.824071	0.094089
583.035595	0.093692
583.247100	0.093575
583.458587	0.093634
583.670056	0.093923
583.881506	0.094659
584.092939	0.094737
584.304353	0.095150
584.515749	0.095377
584.727127	0.095407
584.938486	0.096024
585.149828	0.096072
585.361151	0.096237
585.572456	0.096286
585.783742	0.096183
585.995011	0.096162
586.206261	0.096305
586.417493	0.096079
586.628706	0.096354
586.839902	0.095888
587.051079	0.096224
587.262238	0.096529
587.473379	0.096729
587.684502	0.096642
587.895606	0.096715
588.106692	0.096366
588.317760	0.096461
588.528810	0.096419
588.739841	0.097005
588.950855	0.096881
589.161850	0.096577
589.372827	0.096596
589.583785	0.096554
589.794726	0.096436
590.005648	0.096909
590.216552	0.097130
590.427437	0.097308
590.638305	0.097094
590.849154	0.097022
591.059985	0.097205
591.270798	0.097263
591.481592	0.097650
591.692369	0.097881
591.903127	0.097764
592.113867	0.097887
592.324588	0.097917
592.535292	0.098049
592.745977	0.098535
592.956644	0.098599
593.167293	0.098673
593.377923	0.098789
593.588536	0.098862
593.799130	0.099131
594.009706	0.099352
594.220263	0.099388
594.430803	0.099618
594.641324	0.099442
594.851827	0.099667
595.062312	0.099906
595.272778	0.099959
595.483227	0.099969
595.693657	0.100156
595.904069	0.100217
596.114462	0.100258
596.324838	0.100187
596.535195	0.100100
596.745534	0.100071
596.955855	0.100061
597.166157	0.099821
597.376441	0.099876
597.586707	0.099564
597.796955	0.099526
598.007185	0.099514
598.217396	0.099794
598.427589	0.100114
598.637764	0.100179
598.847921	0.100397
599.058060	0.100606
599.268180	0.101004
599.478282	0.101406
599.688366	0.101145
599.898431	0.101110
600.108479	0.100920
600.318508	0.101107
600.528519	0.101456
600.738511	0.101527
600.948486	0.101757
601.158442	0.101578
601.368380	0.101894
601.578300	0.102529
601.788202	0.102796
601.998085	0.102805
602.207950	0.102862
602.417797	0.102688
602.627626	0.102648
602.837436	0.102684
603.047228	0.102984
603.257002	0.102371
603.466758	0.101958
603.676496	0.102084
603.886215	0.102354
604.095916	0.102121
604.305599	0.102061
604.515264	0.102064
604.724910	0.102144
604.934538	0.101667
605.144148	0.102016
605.353740	0.102554
605.563314	0.102547
605.772869	0.102272
605.982406	0.102362
606.191925	0.102344
606.401425	0.102472
606.610908	0.102623
606.820372	0.103064
607.029818	0.103066
607.239246	0.102941
607.448655	0.103197
607.658047	0.103463
607.867420	0.103928
608.076775	0.104092
608.286111	0.104167
608.495430	0.104350
608.704730	0.104428
608.914012	0.104244
609.123275	0.104376
609.332521	0.104319
609.541748	0.104445
609.750957	0.103951
609.960148	0.104029
610.169321	0.104024
610.378475	0.103787
610.587611	0.103951
610.796729	0.104188
611.005829	0.104094
611.214910	0.104103
611.423974	0.104023
611.633019	0.104342
611.842045	0.104653
612.051054	0.104849
612.260044	0.105087
612.469017	0.105106
612.677970	0.105300
612.886906	0.105417
613.095824	0.105677
613.304723	0.105781
613.513604	0.105701
613.722467	0.105669
613.931311	0.105498
614.140138	0.105379
614.348946	0.105118
614.557736	0.105209
614.766507	0.105172
614.975261	0.104929
615.183996	0.105120
615.392713	0.105045
615.601412	0.105081
615.810092	0.105166
616.018754	0.105382
616.227399	0.105852
616.436024	0.105717
616.644632	0.105703
616.853222	0.105684
617.061793	0.105603
617.270346	0.105847
617.478880	0.105891
617.687397	0.105739
617.895895	0.105518
618.104375	0.105257
618.312837	0.105211
618.521281	0.105395
618.729706	0.105581
618.938113	0.105577
619.146502	0.105507
619.354873	0.105564
619.563226	0.105936
619.771560	0.106160
619.979876	0.106367
620.188174	0.106607
620.396453	0.106772
620.604715	0.107152
620.812958	0.107607
621.021183	0.107693
621.229390	0.107483
621.437578	0.107557
621.645748	0.107595
621.853900	0.107522
622.062034	0.107600
622.270150	0.107521
622.478247	0.107282
622.686326	0.106948
622.894387	0.107068
623.102430	0.107144
623.310454	0.107035
623.518461	0.106927
623.726449	0.107050
623.934418	0.107097
624.142370	0.106988
624.350303	0.106963
624.558218	0.107125
624.766115	0.107184
624.973994	0.107441
625.181855	0.107667
625.389697	0.107940
625.597521	0.108157
625.805327	0.108222
626.013114	0.108707
626.220883	0.108607
626.428634	0.108407
626.636367	0.108266
626.844082	0.108023
627.051778	0.107980
627.259457	0.107873
627.467117	0.107949
627.674758	0.108033
627.882382	0.107877
628.089987	0.108207
628.297574	0.108213
628.505143	0.108374
628.712694	0.108745
628.920226	0.108998
629.127740	0.109264
629.335236	0.109327
629.542714	0.109493
629.750174	0.109569
629.957615	0.109988
630.165038	0.110540
630.372443	0.110829
630.579829	0.110761
630.787198	0.110722
630.994548	0.110786
631.201880	0.110645
631.409194	0.110607
631.616489	0.110653
631.823766	0.110574
632.031025	0.110615
632.238266	0.110623
632.445489	0.110930
632.652693	0.111129
632.859879	0.111237
633.067047	0.111357
633.274197	0.111616
633.481329	0.111671
633.688442	0.111485
633.895537	0.111736
634.102614	0.111876
634.309672	0.111825
634.516713	0.111856
634.723735	0.112037
634.930739	0.112265
635.137724	0.112152
635.344692	0.112351
635.551641	0.112680
635.758572	0.112615
635.965485	0.112633
636.172379	0.112785
636.379256	0.112884
636.586114	0.112874
636.792954	0.112647
636.999775	0.112477
637.206579	0.112462
637.413364	0.112075
637.620131	0.112004
637.826880	0.112007
638.033610	0.112086
638.240323	0.111890
638.447017	0.111681
638.653692	0.111917
638.860350	0.112177
639.066990	0.112229
639.273611	0.112490
639.480214	0.112448
639.686798	0.112484
639.893365	0.112324
640.099913	0.112331
640.306443	0.112235
640.512955	0.112227
640.719449	0.112253
640.925924	0.112437
641.132381	0.112391
641.338820	0.112628
641.545241	0.112623
641.751644	0.112801
641.958028	0.113073
642.164394	0.113221
642.370742	0.113179
642.577071	0.113269
642.783383	0.113346
642.989676	0.113591
643.195951	0.113720
643.402207	0.113792
643.608446	0.113886
643.814666	0.113967
644.020868	0.114219
644.227052	0.114752
644.433218	0.115004
644.639365	0.114959
644.845494	0.115155
645.051605	0.115108
645.257698	0.115271
645.463772	0.115357
645.669828	0.115424
645.875866	0.115310
646.081886	0.114982
646.287888	0.114878
646.493871	0.114847
646.699836	0.114748
646.905783	0.114685
647.111712	0.114695
647.317622	0.114666
647.523514	0.114607
647.729388	0.114862
647.935244	0.114879
648.141082	0.115139
648.346901	0.115622
648.552702	0.115649
648.758485	0.115815
648.964250	0.116002
649.169996	0.116226
649.375724	0.116495
649.581434	0.116572
649.787126	0.116810
649.992800	0.116723
650.198455	0.116606
650.404092	0.116692
650.609711	0.116809
650.815311	0.116946
651.020894	0.116994
651.226458	0.117061
651.432004	0.117136
651.637532	0.117135
651.843041	0.117112
652.048532	0.117079
652.254006	0.117310
652.459460	0.117345
652.664897	0.117685
652.870315	0.117734
653.075716	0.117664
653.281097	0.117766
653.486461	0.118034
653.691807	0.118307
653.897134	0.118287
654.102443	0.118167
654.307734	0.118235
654.513006	0.117927
654.718261	0.118002
654.923497	0.118052
655.128715	0.118166
655.333915	0.118136
655.539096	0.118066
655.744259	0.118277
655.949404	0.118527
656.154531	0.118490
656.359640	0.118674
656.564730	0.118875
656.769802	0.119270
656.974856	0.119463
657.179892	0.119810
657.384909	0.119922
657.589908	0.119889
657.794889	0.119948
657.999852	0.120213
658.204797	0.120479
658.409723	0.120643
658.614631	0.120404
658.819521	0.120344
659.024393	0.120204
659.229246	0.120424
659.434081	0.120780
659.638898	0.120890
659.843697	0.120978
660.048478	0.121097
660.253240	0.120952
660.457984	0.121273
660.662710	0.121563
660.867417	0.121694
661.072107	0.121707
661.276778	0.121627
661.481431	0.121675
661.686066	0.121799
661.890682	0.121547
662.095281	0.121775
662.299861	0.121625
662.504422	0.121533
662.708966	0.121553
662.913491	0.121697
663.117999	0.121767
663.322488	0.121873
663.526958	0.121763
663.731411	0.121838
663.935845	0.121769
664.140261	0.121842
664.344659	0.121708
664.549038	0.121681
664.753400	0.121515
664.957743	0.121549
665.162068	0.121612
665.366375	0.121842
665.570663	0.121904
665.774933	0.121944
665.979185	0.122132
666.183419	0.122408
666.387635	0.122534
666.591832	0.122918
666.796011	0.122729
667.000172	0.122625
667.204315	0.122674
667.408439	0.122787
667.612545	0.122920
667.816634	0.122772
668.020703	0.122832
668.224755	0.122808
668.428788	0.122522
668.632803	0.122833
668.836800	0.122951
669.040779	0.122991
669.244739	0.122938
669.448681	0.122922
669.652605	0.123147
669.856511	0.123272
670.060399	0.123417
670.264268	0.123569
670.468119	0.123677
670.671952	0.123825
670.875767	0.123916
671.079563	0.124291
671.283341	0.124493
671.487101	0.124608
671.690843	0.124634
671.894567	0.124858
672.098272	0.125211
672.301959	0.125380
672.505628	0.125478
672.709278	0.125658
672.912911	0.125664
673.116525	0.125569
673.320121	0.125812
673.523699	0.125864
673.727258	0.125879
673.930799	0.125801
674.134322	0.125774
674.337827	0.125892
674.541314	0.125800
674.744782	0.125987
674.948232	0.126280
675.151664	0.126220
675.355078	0.126412
675.558474	0.126445
675.761851	0.126532
675.965210	0.126600
676.168551	0.126637
676.371873	0.126730
676.575178	0.126881
676.778464	0.126891
676.981732	0.127036
677.184981	0.126994
677.388213	0.127164
677.591426	0.127339
677.794621	0.127486
677.997798	0.127663
678.200956	0.127770
678.404097	0.127590
678.607219	0.127831
678.810323	0.128106
679.013408	0.128368
679.216476	0.128510
679.419525	0.128658
679.622556	0.128854
679.825569	0.128848
680.028563	0.128942
680.231540	0.129188
680.434498	0.129145
680.637438	0.129086
680.840359	0.129202
681.043263	0.129244
681.246148	0.129150
681.449015	0.129192
681.651864	0.129372
681.854694	0.129656
682.057506	0.129598
682.260301	0.129616
682.463076	0.129534
682.665834	0.129478
682.868573	0.129544
683.071295	0.129742
683.273998	0.129601
683.476682	0.129596
683.679349	0.129446
683.881997	0.129495
684.084627	0.129679
684.287239	0.129738
684.489833	0.129774
684.692408	0.129685
684.894965	0.129605
685.097504	0.129830
685.300025	0.129847
685.502527	0.129867
685.705012	0.129901
685.907478	0.129805
686.109925	0.129957
686.312355	0.129912
686.514766	0.130103
686.717159	0.130201
686.919534	0.130364
687.121891	0.130471
687.324230	0.130683
687.526550	0.130987
687.728852	0.130918
687.931136	0.131104
688.133401	0.131392
688.335649	0.131393
688.537878	0.131442
688.740089	0.131427
688.942281	0.131511
689.144456	0.131434
689.346612	0.131249
689.548750	0.131343
689.750870	0.131195
689.952971	0.131064
690.155055	0.131104
690.357120	0.131251
690.559167	0.131200
690.761195	0.131225
690.963206	0.131305
691.165198	0.131190
691.367172	0.131465
691.569128	0.131488
691.771065	0.131736
691.972984	0.131697
692.174885	0.131832
692.376768	0.131784
692.578633	0.131901
692.780479	0.131843
692.982308	0.132120
693.184118	0.132019
693.385909	0.132218
