sample name	sample
index	614
start time	 03-19-2021  02:04:35 PM


Wavelength (nm)	Absorbance
494.344910	-0.158221
494.563924	-0.158221
494.782919	-0.158221
495.001897	0.343882
495.220856	-0.102958
495.439797	-0.089866
495.658719	-0.054353
495.877624	0.007566
496.096510	0.009192
496.315378	0.054030
496.534227	0.080419
496.753059	0.077580
496.971872	0.106445
497.190667	0.065270
497.409444	0.067834
497.628203	0.067521
497.846943	0.064507
498.065665	0.063359
498.284369	0.062988
498.503055	0.063620
498.721723	0.064194
498.940372	0.064885
499.159003	0.065113
499.377616	0.064790
499.596210	0.063952
499.814787	0.065441
500.033345	0.065610
500.251885	0.065929
500.470406	0.066479
500.688910	0.066833
500.907395	0.066240
501.125862	0.066643
501.344311	0.066675
501.562742	0.068188
501.781154	0.068222
501.999548	0.068644
502.217924	0.067829
502.436282	0.067574
502.654621	0.067174
502.872942	0.067147
503.091245	0.066619
503.309530	0.065698
503.527797	0.064032
503.746045	0.063128
503.964275	0.062866
504.182487	0.062556
504.400681	0.062329
504.618856	0.062888
504.837013	0.062836
505.055152	0.062606
505.273273	0.063913
505.491376	0.063445
505.709460	0.063633
505.927526	0.063609
506.145574	0.063871
506.363604	0.063859
506.581615	0.063231
506.799608	0.063523
507.017583	0.063901
507.235540	0.063250
507.453478	0.064439
507.671399	0.064289
507.889301	0.063806
508.107185	0.063999
508.325050	0.063746
508.542898	0.063513
508.760727	0.062991
508.978538	0.063514
509.196330	0.063495
509.414105	0.063250
509.631861	0.062798
509.849599	0.062736
510.067319	0.062961
510.285021	0.063586
510.502704	0.063371
510.720369	0.063717
510.938016	0.063219
511.155645	0.063777
511.373255	0.063998
511.590848	0.064207
511.808422	0.065273
512.025977	0.065211
512.243515	0.064312
512.461034	0.064873
512.678536	0.065041
512.896018	0.065717
513.113483	0.065064
513.330930	0.065222
513.548358	0.065219
513.765768	0.064701
513.983160	0.065870
514.200533	0.065827
514.417889	0.066002
514.635226	0.066067
514.852545	0.065899
515.069845	0.066455
515.287128	0.066271
515.504392	0.066725
515.721638	0.067100
515.938866	0.066817
516.156075	0.067688
516.373267	0.067288
516.590440	0.067175
516.807594	0.066939
517.024731	0.067197
517.241850	0.066816
517.458950	0.066543
517.676032	0.066294
517.893095	0.065879
518.110141	0.065749
518.327168	0.065491
518.544177	0.065445
518.761168	0.065118
518.978141	0.064710
519.195095	0.065626
519.412031	0.065785
519.628949	0.066241
519.845849	0.066011
520.062731	0.065610
520.279594	0.065703
520.496439	0.065724
520.713266	0.066659
520.930074	0.066830
521.146865	0.066756
521.363637	0.066851
521.580391	0.066514
521.797127	0.066791
522.013844	0.067065
522.230543	0.067710
522.447224	0.068145
522.663887	0.067330
522.880532	0.067529
523.097158	0.067721
523.313766	0.067287
523.530356	0.067442
523.746928	0.067311
523.963481	0.067639
524.180017	0.067595
524.396534	0.067501
524.613032	0.068300
524.829513	0.068582
525.045975	0.068131
525.262420	0.068923
525.478845	0.069122
525.695253	0.069364
525.911643	0.069459
526.128014	0.069871
526.344367	0.069633
526.560702	0.069619
526.777018	0.069464
526.993316	0.069889
527.209597	0.069910
527.425858	0.070027
527.642102	0.070606
527.858328	0.070777
528.074535	0.070522
528.290724	0.070963
528.506894	0.071002
528.723047	0.071266
528.939181	0.071171
529.155297	0.071270
529.371395	0.071556
529.587475	0.071201
529.803536	0.070548
530.019579	0.070651
530.235604	0.070495
530.451611	0.070069
530.667600	0.069911
530.883570	0.069690
531.099522	0.069596
531.315456	0.069278
531.531372	0.069160
531.747269	0.069500
531.963148	0.070211
532.179009	0.070453
532.394852	0.070974
532.610676	0.070390
532.826482	0.070704
533.042271	0.070399
533.258040	0.070827
533.473792	0.071208
533.689525	0.071970
533.905240	0.071593
534.120937	0.071299
534.336616	0.071140
534.552277	0.071722
534.767919	0.072268
534.983543	0.072937
535.199149	0.072768
535.414736	0.072511
535.630306	0.072889
535.845857	0.073119
536.061390	0.073818
536.276904	0.074074
536.492401	0.074214
536.707879	0.074097
536.923339	0.073641
537.138781	0.074471
537.354204	0.075193
537.569610	0.074714
537.784997	0.074446
538.000366	0.074109
538.215716	0.073976
538.431049	0.074401
538.646363	0.074230
538.861659	0.074575
539.076937	0.073998
539.292196	0.073508
539.507438	0.073462
539.722661	0.073474
539.937866	0.073990
540.153052	0.074364
540.368221	0.074185
540.583371	0.074371
540.798503	0.074938
541.013617	0.075169
541.228712	0.075387
541.443789	0.075432
541.658848	0.075756
541.873889	0.075675
542.088912	0.075703
542.303916	0.075858
542.518902	0.076121
542.733870	0.075754
542.948820	0.075563
543.163752	0.075642
543.378665	0.075644
543.593560	0.075793
543.808437	0.075916
544.023295	0.076174
544.238136	0.076073
544.452958	0.076304
544.667762	0.076982
544.882548	0.077327
545.097315	0.077505
545.312064	0.077657
545.526795	0.077809
545.741508	0.077674
545.956203	0.077339
546.170879	0.077743
546.385537	0.077180
546.600177	0.077159
546.814799	0.077652
547.029402	0.077932
547.243988	0.078249
547.458555	0.078263
547.673103	0.078426
547.887634	0.078981
548.102146	0.078849
548.316640	0.079263
548.531116	0.078842
548.745574	0.078462
548.960013	0.078546
549.174435	0.078411
549.388838	0.078396
549.603222	0.078526
549.817589	0.078559
550.031937	0.078720
550.246267	0.078398
550.460579	0.078788
550.674873	0.078781
550.889148	0.078517
551.103405	0.078752
551.317644	0.078804
551.531865	0.078920
551.746068	0.078891
551.960252	0.078672
552.174418	0.078666
552.388566	0.078448
552.602696	0.078413
552.816807	0.078566
553.030900	0.078767
553.244975	0.078953
553.459032	0.078781
553.673070	0.078670
553.887091	0.078954
554.101093	0.079651
554.315077	0.079557
554.529042	0.079794
554.742990	0.079770
554.956919	0.079809
555.170830	0.079700
555.384722	0.080051
555.598597	0.080079
555.812453	0.080233
556.026291	0.080099
556.240111	0.080513
556.453913	0.080822
556.667696	0.080838
556.881461	0.080822
557.095208	0.081310
557.308937	0.081252
557.522647	0.081305
557.736339	0.081127
557.950013	0.081166
558.163669	0.081307
558.377307	0.080910
558.590926	0.080889
558.804527	0.080859
559.018110	0.080255
559.231675	0.080325
559.445221	0.080299
559.658749	0.080446
559.872259	0.080382
560.085751	0.080559
560.299225	0.081018
560.512680	0.081271
560.726117	0.081451
560.939536	0.082223
561.152937	0.082045
561.366319	0.082294
561.579683	0.082800
561.793029	0.082606
562.006357	0.082182
562.219667	0.081835
562.432958	0.082047
562.646231	0.082023
562.859486	0.082120
563.072723	0.082343
563.285941	0.082578
563.499141	0.082322
563.712323	0.082823
563.925487	0.083349
564.138632	0.083437
564.351760	0.083313
564.564869	0.083171
564.777960	0.082879
564.991032	0.082972
565.204087	0.083035
565.417123	0.083260
565.630141	0.083222
565.843140	0.083084
566.056122	0.083241
566.269085	0.083249
566.482030	0.083470
566.694957	0.083162
566.907866	0.083259
567.120756	0.083335
567.333628	0.083214
567.546482	0.083170
567.759318	0.083276
567.972135	0.083286
568.184935	0.083472
568.397716	0.083173
568.610478	0.083613
568.823223	0.083680
569.035949	0.083216
569.248657	0.083251
569.461347	0.083585
569.674019	0.083490
569.886672	0.083735
570.099308	0.083629
570.311925	0.083995
570.524523	0.083733
570.737104	0.083765
570.949666	0.084470
571.162210	0.084587
571.374736	0.084664
571.587244	0.084429
571.799733	0.084267
572.012205	0.084222
572.224658	0.083954
572.437092	0.084275
572.649509	0.084136
572.861907	0.083882
573.074287	0.083728
573.286649	0.083897
573.498993	0.084216
573.711318	0.084229
573.923625	0.084319
574.135914	0.084874
574.348185	0.084684
574.560438	0.084939
574.772672	0.084907
574.984888	0.084681
575.197086	0.084249
575.409266	0.084221
575.621427	0.084223
575.833570	0.084298
576.045695	0.083938
576.257802	0.084207
576.469890	0.084070
576.681961	0.083851
576.894013	0.084116
577.106046	0.084377
577.318062	0.084463
577.530059	0.084712
577.742039	0.084591
577.954000	0.084621
578.165942	0.084536
578.377867	0.084928
578.589773	0.085307
578.801661	0.085311
579.013531	0.085354
579.225382	0.085046
579.437216	0.084881
579.649031	0.085163
579.860828	0.085259
580.072606	0.085344
580.284367	0.084922
580.496109	0.085096
580.707833	0.085315
580.919539	0.085114
581.131227	0.085572
581.342896	0.085959
581.554547	0.085872
581.766180	0.085926
581.977795	0.085961
582.189391	0.086516
582.400969	0.086246
582.612529	0.086102
582.824071	0.086050
583.035595	0.085974
583.247100	0.085646
583.458587	0.086083
583.670056	0.086550
583.881506	0.086582
584.092939	0.086416
584.304353	0.086752
584.515749	0.087173
584.727127	0.087482
584.938486	0.087519
585.149828	0.087756
585.361151	0.087593
585.572456	0.087486
585.783742	0.087458
585.995011	0.087261
586.206261	0.087320
586.417493	0.087276
586.628706	0.087517
586.839902	0.087679
587.051079	0.087725
587.262238	0.087671
587.473379	0.087578
587.684502	0.087735
587.895606	0.088071
588.106692	0.087884
588.317760	0.087838
588.528810	0.087787
588.739841	0.087704
588.950855	0.087439
589.161850	0.087542
589.372827	0.087644
589.583785	0.087966
589.794726	0.087766
590.005648	0.087796
590.216552	0.087932
590.427437	0.087743
590.638305	0.088002
590.849154	0.088143
591.059985	0.088088
591.270798	0.088180
591.481592	0.087974
591.692369	0.088128
591.903127	0.088380
592.113867	0.088516
592.324588	0.088822
592.535292	0.088764
592.745977	0.089033
592.956644	0.089282
593.167293	0.089176
593.377923	0.089182
593.588536	0.089291
593.799130	0.089381
594.009706	0.089275
594.220263	0.089303
594.430803	0.089362
594.641324	0.089434
594.851827	0.089504
595.062312	0.089523
595.272778	0.089713
595.483227	0.089703
595.693657	0.089663
595.904069	0.089783
596.114462	0.089702
596.324838	0.089812
596.535195	0.089782
596.745534	0.089978
596.955855	0.090395
597.166157	0.090612
597.376441	0.090905
597.586707	0.090831
597.796955	0.090940
598.007185	0.091098
598.217396	0.091286
598.427589	0.091373
598.637764	0.091124
598.847921	0.091034
599.058060	0.090891
599.268180	0.090721
599.478282	0.090814
599.688366	0.090557
599.898431	0.090495
600.108479	0.090328
600.318508	0.090195
600.528519	0.090421
600.738511	0.090307
600.948486	0.090427
601.158442	0.090307
601.368380	0.090202
601.578300	0.090477
601.788202	0.090568
601.998085	0.090836
602.207950	0.091148
602.417797	0.090780
602.627626	0.090826
602.837436	0.090555
603.047228	0.090689
603.257002	0.090779
603.466758	0.090677
603.676496	0.090778
603.886215	0.090812
604.095916	0.090823
604.305599	0.091299
604.515264	0.091416
604.724910	0.091390
604.934538	0.091580
605.144148	0.091545
605.353740	0.091787
605.563314	0.091470
605.772869	0.091424
605.982406	0.091272
606.191925	0.091084
606.401425	0.091215
606.610908	0.091253
606.820372	0.091295
607.029818	0.091238
607.239246	0.091174
607.448655	0.091459
607.658047	0.091553
607.867420	0.091726
608.076775	0.091787
608.286111	0.091710
608.495430	0.091927
608.704730	0.092081
608.914012	0.092292
609.123275	0.092351
609.332521	0.092467
609.541748	0.092556
609.750957	0.092329
609.960148	0.092438
610.169321	0.092717
610.378475	0.092770
610.587611	0.092583
610.796729	0.092744
611.005829	0.092887
611.214910	0.092985
611.423974	0.092912
611.633019	0.093223
611.842045	0.093280
612.051054	0.092913
612.260044	0.093073
612.469017	0.093101
612.677970	0.093283
612.886906	0.093415
613.095824	0.093236
613.304723	0.092848
613.513604	0.092749
613.722467	0.092961
613.931311	0.093253
614.140138	0.093184
614.348946	0.093118
614.557736	0.092955
614.766507	0.092915
614.975261	0.093134
615.183996	0.093513
615.392713	0.093873
615.601412	0.093747
615.810092	0.093619
616.018754	0.093883
616.227399	0.094026
616.436024	0.094160
616.644632	0.093855
616.853222	0.093990
617.061793	0.094006
617.270346	0.093793
617.478880	0.093811
617.687397	0.093965
617.895895	0.093855
618.104375	0.093937
618.312837	0.093873
618.521281	0.093895
618.729706	0.093960
618.938113	0.093851
619.146502	0.094025
619.354873	0.093969
619.563226	0.093786
619.771560	0.093799
619.979876	0.093836
620.188174	0.094056
620.396453	0.094200
620.604715	0.094214
620.812958	0.094215
621.021183	0.094218
621.229390	0.094382
621.437578	0.094659
621.645748	0.094640
621.853900	0.094828
622.062034	0.094662
622.270150	0.094781
622.478247	0.094635
622.686326	0.094931
622.894387	0.094753
623.102430	0.094760
623.310454	0.094681
623.518461	0.094791
623.726449	0.094705
623.934418	0.094650
624.142370	0.094822
624.350303	0.095172
624.558218	0.095311
624.766115	0.095571
624.973994	0.095532
625.181855	0.095532
625.389697	0.095342
625.597521	0.095272
625.805327	0.095402
626.013114	0.095251
626.220883	0.095063
626.428634	0.095040
626.636367	0.094997
626.844082	0.094948
627.051778	0.094916
627.259457	0.095042
627.467117	0.095097
627.674758	0.095272
627.882382	0.095380
628.089987	0.095393
628.297574	0.095417
628.505143	0.095544
628.712694	0.095670
628.920226	0.095907
629.127740	0.096116
629.335236	0.096279
629.542714	0.096198
629.750174	0.096424
629.957615	0.096586
630.165038	0.096540
630.372443	0.096501
630.579829	0.096670
630.787198	0.096847
630.994548	0.096796
631.201880	0.096556
631.409194	0.096613
631.616489	0.096549
631.823766	0.096703
632.031025	0.096804
632.238266	0.096787
632.445489	0.096646
632.652693	0.096418
632.859879	0.096481
633.067047	0.096909
633.274197	0.096968
633.481329	0.097123
633.688442	0.097036
633.895537	0.096992
634.102614	0.097057
634.309672	0.097556
634.516713	0.097926
634.723735	0.098143
634.930739	0.097913
635.137724	0.098053
635.344692	0.097795
635.551641	0.097732
635.758572	0.097785
635.965485	0.097889
636.172379	0.097457
636.379256	0.097307
636.586114	0.097272
636.792954	0.097385
636.999775	0.097349
637.206579	0.097448
637.413364	0.097473
637.620131	0.097705
637.826880	0.097913
638.033610	0.098052
638.240323	0.097949
638.447017	0.097964
638.653692	0.098089
638.860350	0.098180
639.066990	0.098340
639.273611	0.098638
639.480214	0.098559
639.686798	0.098515
639.893365	0.098607
640.099913	0.098702
640.306443	0.098673
640.512955	0.098763
640.719449	0.098832
640.925924	0.098826
641.132381	0.098584
641.338820	0.098582
641.545241	0.098548
641.751644	0.098651
641.958028	0.098781
642.164394	0.098676
642.370742	0.098730
642.577071	0.098566
642.783383	0.098548
642.989676	0.098799
643.195951	0.098924
643.402207	0.099108
643.608446	0.099165
643.814666	0.099434
644.020868	0.099720
644.227052	0.099791
644.433218	0.100012
644.639365	0.100191
644.845494	0.099897
645.051605	0.100082
645.257698	0.099849
645.463772	0.099748
645.669828	0.099663
645.875866	0.099654
646.081886	0.099720
646.287888	0.099763
646.493871	0.099570
646.699836	0.099767
646.905783	0.099514
647.111712	0.099865
647.317622	0.100005
647.523514	0.099999
647.729388	0.100188
647.935244	0.100062
648.141082	0.100216
648.346901	0.100648
648.552702	0.100843
648.758485	0.100996
648.964250	0.101125
649.169996	0.101202
649.375724	0.101147
649.581434	0.101217
649.787126	0.101308
649.992800	0.101309
650.198455	0.101352
650.404092	0.101391
650.609711	0.101508
650.815311	0.101220
651.020894	0.101202
651.226458	0.101179
651.432004	0.101131
651.637532	0.101231
651.843041	0.101200
652.048532	0.101040
652.254006	0.100849
652.459460	0.100895
652.664897	0.101025
652.870315	0.101154
653.075716	0.101366
653.281097	0.101332
653.486461	0.101085
653.691807	0.101007
653.897134	0.101049
654.102443	0.101116
654.307734	0.101180
654.513006	0.101268
654.718261	0.101260
654.923497	0.101123
655.128715	0.101150
655.333915	0.101385
655.539096	0.101542
655.744259	0.101680
655.949404	0.101935
656.154531	0.102050
656.359640	0.101961
656.564730	0.102017
656.769802	0.102271
656.974856	0.102487
657.179892	0.102724
657.384909	0.102889
657.589908	0.102896
657.794889	0.102868
657.999852	0.102792
658.204797	0.102982
658.409723	0.103095
658.614631	0.103263
658.819521	0.103210
659.024393	0.103094
659.229246	0.102999
659.434081	0.103025
659.638898	0.103122
659.843697	0.103184
660.048478	0.103183
660.253240	0.103193
660.457984	0.103113
660.662710	0.103113
660.867417	0.103320
661.072107	0.103451
661.276778	0.103683
661.481431	0.103791
661.686066	0.103807
661.890682	0.103947
662.095281	0.104024
662.299861	0.104041
662.504422	0.104167
662.708966	0.104030
662.913491	0.103938
663.117999	0.103988
663.322488	0.104080
663.526958	0.104299
663.731411	0.104355
663.935845	0.104490
664.140261	0.104544
664.344659	0.104479
664.549038	0.104667
664.753400	0.104965
664.957743	0.104915
665.162068	0.105072
665.366375	0.105164
665.570663	0.105050
665.774933	0.104979
665.979185	0.105051
666.183419	0.105150
666.387635	0.105267
666.591832	0.105112
666.796011	0.105160
667.000172	0.105042
667.204315	0.105003
667.408439	0.105293
667.612545	0.105478
667.816634	0.105621
668.020703	0.105663
668.224755	0.105729
668.428788	0.105742
668.632803	0.105908
668.836800	0.106137
669.040779	0.106081
669.244739	0.106087
669.448681	0.106021
669.652605	0.106027
669.856511	0.106038
670.060399	0.105998
670.264268	0.106178
670.468119	0.106025
670.671952	0.105948
670.875767	0.106128
671.079563	0.106174
671.283341	0.106547
671.487101	0.106495
671.690843	0.106817
671.894567	0.106948
672.098272	0.107142
672.301959	0.107417
672.505628	0.107518
672.709278	0.107487
672.912911	0.107349
673.116525	0.107096
673.320121	0.107339
673.523699	0.107345
673.727258	0.107134
673.930799	0.107073
674.134322	0.106947
674.337827	0.106952
674.541314	0.107009
674.744782	0.107172
674.948232	0.107063
675.151664	0.106976
675.355078	0.106940
675.558474	0.107218
675.761851	0.107252
675.965210	0.107316
676.168551	0.107246
676.371873	0.107402
676.575178	0.107442
676.778464	0.107620
676.981732	0.107699
677.184981	0.107855
677.388213	0.108091
677.591426	0.108157
677.794621	0.108317
677.997798	0.108429
678.200956	0.108448
678.404097	0.108446
678.607219	0.108585
678.810323	0.108702
679.013408	0.108799
679.216476	0.108547
679.419525	0.108860
679.622556	0.108988
679.825569	0.109132
680.028563	0.109109
680.231540	0.109339
680.434498	0.109374
680.637438	0.109539
680.840359	0.109485
681.043263	0.109564
681.246148	0.109428
681.449015	0.109270
681.651864	0.109112
681.854694	0.109191
682.057506	0.109252
682.260301	0.109277
682.463076	0.109061
682.665834	0.109095
682.868573	0.109137
683.071295	0.109188
683.273998	0.109425
683.476682	0.109530
683.679349	0.109694
683.881997	0.109637
684.084627	0.109753
684.287239	0.110057
684.489833	0.109937
684.692408	0.110146
684.894965	0.110171
685.097504	0.110171
685.300025	0.110346
685.502527	0.110308
685.705012	0.110301
685.907478	0.110151
686.109925	0.110041
686.312355	0.110407
686.514766	0.110382
686.717159	0.110577
686.919534	0.110561
687.121891	0.110549
687.324230	0.110641
687.526550	0.110752
687.728852	0.111037
687.931136	0.111099
688.133401	0.111033
688.335649	0.111085
688.537878	0.110595
688.740089	0.110649
688.942281	0.110739
689.144456	0.110692
689.346612	0.110810
689.548750	0.110800
689.750870	0.110898
689.952971	0.110870
690.155055	0.111039
690.357120	0.111369
690.559167	0.111666
690.761195	0.111815
690.963206	0.111639
691.165198	0.111628
691.367172	0.111738
691.569128	0.111732
691.771065	0.111955
691.972984	0.111778
692.174885	0.111866
692.376768	0.111530
692.578633	0.111398
692.780479	0.111676
692.982308	0.111805
693.184118	0.111862
693.385909	0.111758
