sample name	sample
index	1267
start time	 04-29-2021  01:34:07 PM
880	0.578533
Peak Time (s)	102.537
Peak Height 	0.5785
calc peak height	100,103
Baseline Time (s)	10.036
Baseline Value 	-0.004442
subtract baseline	10,4
Abs	0.353900
Peak Time (s)	100.038
Peak Height 	0.3539
calc peak height	100,103
Baseline Time (s)	11.039
Baseline Value 	0.002627
subtract baseline	10,3
PK_550	0.186960
Peak Time (s)	102.036
Peak Height 	0.187
calc peak height	100,103
Baseline Time (s)	10.036
Baseline Value 	5.7527E-4
subtract baseline	10,2
PK_880	0.333401
Peak Time (s)	102.036
Peak Height 	0.3334
calc peak height	100,103
Baseline Time (s)	10.036
Baseline Value 	0.001528
subtract baseline	10,1


Time (s)	A880-A510	A880-A775	A880-A975	A880	I510	I775	I975	I880	
0.041000	-0.003120	-0.000785	-0.001698	0.005948	6139.683335	43263.482703	3900.948025	22435.155425
0.536000	-0.001542	-0.000584	-0.002936	0.003198	6171.699666	43538.280191	3904.382705	22559.034578
1.036000	-0.002725	-0.001424	-0.005849	0.005904	6142.922454	43208.373347	3891.686500	22437.134549
1.537000	-0.001872	-0.000590	-0.001813	0.000081	6192.473795	43829.915904	3914.068205	22700.361763
2.036000	0.003051	-0.000065	-0.001443	0.000449	6226.729367	43844.724464	3914.073231	22683.627727
2.536500	-0.001293	-0.000766	0.002550	-0.000071	6197.943904	43827.592883	3924.489387	22707.257262
3.037500	-0.002216	-0.000594	-0.005271	0.003727	6162.762467	43487.868879	3897.889224	22535.108236
3.537500	-0.000857	0.000109	-0.003178	0.000734	6195.185529	43834.181358	3909.446342	22670.658554
4.035000	0.001425	-0.000116	-0.000661	0.000504	6214.046316	43834.697188	3915.744706	22681.122339
4.538000	-0.001163	-0.000245	-0.004656	-0.000354	6201.044679	43903.303162	3908.554222	22720.153579
5.035500	-0.001145	-0.000812	0.000558	-0.000535	6202.539631	43866.999899	3920.951320	22728.412487
5.535500	-0.002442	-0.000634	-0.000201	-0.000008	6188.884617	43834.135398	3917.981928	22704.416208
6.036500	-0.003114	-0.000181	0.004058	0.000268	6181.807054	43850.734559	3927.205806	22691.844520
6.536500	-0.000398	0.000342	0.002563	0.000657	6199.199471	43863.362793	3922.832872	22674.167519
7.036500	-0.000745	0.000703	0.001178	0.000588	6197.122142	43903.928545	3919.788341	22677.312810
7.537000	0.002204	0.000314	-0.002087	0.000401	6220.691852	43884.813936	3912.705666	22685.776353
8.037500	-0.001112	-0.000145	-0.000775	-0.000181	6200.127510	43896.494886	3917.059528	22712.292431
8.535000	0.002613	0.000210	-0.002758	0.000039	6226.514984	43909.136249	3911.996941	22702.248747
9.038500	0.001377	-0.000469	0.002295	-0.000389	6220.416795	43885.490424	3924.636117	22721.755855
9.535500	-0.000329	0.000562	-0.001960	0.000007	6204.594578	43945.455534	3913.901490	22703.738247
10.036000	0.000000	0.000000	-0.000452	0.000000	6207.117225	43893.061322	3917.386211	22704.041101
10.536000	-0.000651	-0.000566	0.000101	-0.000436	6205.500185	43880.760099	3919.666553	22723.884990
11.039000	-0.000027	0.000409	0.000000	0.000511	6203.080999	43883.527263	3917.250291	22680.815971
11.536500	0.001852	-0.000486	0.003728	-0.000543	6225.164404	43898.436825	3928.325286	22728.770959
12.037000	-0.002929	0.000135	0.000933	0.004355	6152.845895	43497.387319	3910.567320	22506.824772
12.534500	-0.000129	-0.000673	-0.004442	-0.001292	6215.869043	43951.380888	3911.188824	22762.921645
13.035000	0.001075	-0.000083	-0.002238	-0.002501	6234.097600	44121.521917	3919.032880	22818.184121
13.537500	0.000551	-0.000128	0.003386	-0.000683	6216.400332	43945.375443	3927.854731	22735.147328
14.035000	-0.000853	0.000043	-0.000773	0.003538	6174.291485	43565.101068	3908.536113	22543.681005
14.536000	0.000931	0.000019	-0.004108	0.001858	6200.161701	43720.162833	3904.764386	22619.665392
15.036000	-0.003456	0.000532	-0.000099	0.002832	6160.215264	43676.942802	3911.691087	22575.578864
15.548000	-0.000525	-0.001107	-0.001733	-0.001333	6213.196095	43914.334412	3917.504986	22764.805865
16.036500	-0.003474	0.000721	-0.002514	0.003259	6156.910827	43654.543129	3905.200824	22556.243970
16.536500	0.000554	0.000153	0.002965	-0.000331	6213.769184	43938.688182	3926.056804	22719.104459
17.036500	-0.001265	-0.000767	0.001364	-0.001616	6209.755488	43973.100136	3925.323136	22777.722520
17.543000	0.001513	0.000019	-0.001978	-0.000921	6225.461052	43981.681545	3915.991740	22746.004481
18.037500	-0.001009	-0.000856	0.001935	-0.000023	6199.717321	43814.618193	3922.953385	22705.096843
18.535000	0.000358	0.000046	0.005083	0.000670	6204.772251	43834.323577	3928.654809	22673.558265
19.035500	-0.000930	-0.000142	0.002068	0.000600	6195.641322	43823.149321	3921.815864	22676.730418
19.536000	-0.001759	-0.000353	0.003090	0.000184	6192.552602	43842.556058	3925.151910	22695.677031
20.036500	-0.002294	-0.000341	-0.001813	0.001667	6177.489842	43704.284911	3910.434258	22628.311047
20.536500	-0.002493	-0.000243	0.000739	-0.000064	6188.917671	43876.177613	3920.279639	22706.955041
21.039500	0.000150	-0.000275	0.000027	0.000077	6207.665165	43859.824200	3918.309798	22700.519083
21.537000	-0.000485	-0.000028	-0.004646	0.000199	6201.988875	43871.691735	3907.318135	22695.007646
22.037000	0.000053	-0.000231	-0.003089	0.002009	6192.452401	43682.514009	3906.737962	22612.788690
22.538000	-0.000635	-0.000516	0.001132	-0.000631	6207.088766	43903.909538	3922.501833	22732.781518
23.035000	-0.000870	-0.000101	0.005510	0.000021	6200.427024	43881.482235	3931.163269	22703.065798
23.535000	-0.000980	-0.000498	-0.003199	-0.000726	6205.208181	43914.536690	3912.739629	22737.108947
24.035500	-0.000592	-0.000915	-0.001356	-0.000545	6206.760546	43858.179553	3916.558246	22728.853499
24.536000	-0.001624	0.000284	-0.001132	0.000363	6192.228136	43885.688125	3914.985940	22687.547291
25.036000	-0.002434	-0.000788	-0.004207	-0.001125	6197.295023	43924.764577	3911.343885	22755.302435
25.542000	0.001474	-0.000362	-0.001359	-0.000384	6221.114195	43895.198545	3916.182366	22721.549295
26.036500	-0.000550	-0.000491	-0.002274	0.000787	6197.086074	43772.780435	3911.393409	22668.251684
26.542500	-0.000816	-0.000619	-0.003404	-0.000759	6206.690880	43906.204489	3912.345485	22738.610391
27.037500	0.000883	-0.000023	0.000146	-0.000222	6215.435138	43911.879719	3919.275870	22714.161910
27.534500	-0.001929	-0.001398	-0.003192	-0.001387	6203.051058	43892.091167	3914.273462	22767.289897
28.035500	-0.000897	0.000537	0.003696	0.003391	6175.056575	43625.063120	3919.131911	22550.304818
28.535500	0.001022	0.000163	0.002798	-0.001574	6226.679612	44057.097223	3928.560375	22775.817329
29.036000	-0.002404	-0.000683	-0.001973	-0.001647	6201.435599	43984.014234	3917.675540	22779.135735
29.536000	-0.000255	-0.000189	0.000674	-0.001832	6218.993189	44048.229252	3924.223864	22787.609328
30.035500	-0.002407	-0.000913	-0.002705	0.003309	6164.451100	43497.191999	3904.653185	22554.000919
30.536500	0.001121	0.000410	-0.000174	-0.000639	6220.369214	43992.088987	3919.500062	22733.158817
31.037000	-0.000743	-0.001237	-0.002337	-0.000822	6207.706964	43853.949127	3914.937638	22741.468683
31.556500	-0.001090	0.000041	0.001258	-0.001479	6210.046158	44036.504833	3924.758730	22771.479826
32.035000	-0.003078	-0.000043	0.000582	0.003511	6157.979581	43559.509463	3911.694616	22544.874186
32.539000	0.000851	-0.000379	-0.000987	-0.001385	6223.959628	43987.955681	3919.345517	22767.185093
33.051500	0.000543	0.000146	0.004149	-0.000228	6212.916246	43928.312674	3928.571339	22714.405833
33.534500	-0.001032	-0.000288	0.001188	-0.001984	6214.276312	44053.159512	3925.767767	22794.532414
34.036000	-0.003006	0.000139	0.000576	0.004010	6154.821047	43529.926255	3910.539072	22522.370385
34.536500	0.002162	0.000349	0.005569	-0.001675	6236.074580	44084.160699	3935.272264	22780.413740
35.037500	-0.001133	0.000558	-0.001522	0.001389	6188.223087	43814.871503	3911.736686	22640.934532
35.537000	-0.001162	-0.000014	0.000211	0.000900	6191.663200	43806.995530	3916.840517	22663.123748
36.040000	0.000589	-0.000037	0.002251	0.002483	6192.912740	43656.237819	3917.891693	22591.328089
36.536500	-0.003181	-0.000264	-0.004200	0.000050	6182.935691	43863.554067	3908.674064	22701.780362
37.035000	-0.002551	-0.000504	-0.003673	0.000555	6183.855182	43793.324082	3908.723639	22678.773584
37.535500	-0.001557	0.000513	-0.001846	0.000961	6188.247100	43850.821682	3911.974185	22660.333767
38.035500	-0.001118	-0.000132	0.001199	0.000456	6195.316609	43837.688073	3920.143719	22683.316363
38.538500	0.000395	0.000484	0.003393	0.000729	6204.612266	43870.044690	3924.591120	22670.905517
39.036000	-0.003201	0.000155	-0.000900	0.000774	6177.378871	43834.742837	3914.573395	22668.824178
39.536500	-0.000946	-0.000652	0.005267	-0.000055	6200.431125	43836.874255	3930.775959	22706.550575
40.036500	-0.001770	0.000325	0.002213	0.001267	6184.374119	43804.338834	3920.610901	22646.441662
40.539500	0.000444	-0.000089	-0.002479	0.001046	6202.596352	43786.239260	3910.331405	22656.493015
41.037500	-0.001708	-0.000411	-0.000504	0.000369	6191.545806	43819.586795	3916.415716	22687.247811
41.535000	-0.002454	-0.000602	-0.000919	0.000771	6182.973933	43763.899389	3914.536351	22668.967032
42.035000	-0.002965	-0.000958	-0.006913	0.001516	6173.622939	43660.580727	3899.177606	22635.157129
42.538500	0.001373	0.000636	0.000592	0.001387	6207.011392	43822.308531	3916.594153	22640.992044
43.036000	-0.000582	-0.000510	0.001132	0.000405	6199.714851	43806.944883	3920.105780	22685.633896
43.536000	-0.000660	0.000517	0.006727	0.000966	6194.920452	43850.769917	3931.799266	22660.112107
44.036500	-0.000057	0.000676	-0.000322	0.002632	6186.970682	43709.152402	3911.636692	22584.600856
44.536500	-0.001213	-0.000144	0.001205	0.000330	6195.543443	43848.398776	3920.448230	22689.036614
45.039500	0.005334	0.000515	0.005013	-0.003834	6276.733141	44304.889152	3939.037914	22879.313070
45.537000	0.000777	0.000815	0.003182	-0.001218	6222.142632	44085.057263	3928.624685	22759.563233
46.065500	-0.000067	-0.000123	-0.001138	0.002107	6190.826172	43683.511465	3910.972360	22608.386122
46.535000	0.000605	0.000775	-0.003188	-0.001212	6220.800797	44080.742828	3913.882779	22759.305081
47.037500	0.000684	-0.000557	-0.002282	-0.001878	6226.430248	44017.799413	3917.496792	22789.722852
47.535000	0.001019	0.000661	-0.000226	-0.000535	6218.809093	44005.859221	3919.138073	22728.389925
48.035500	-0.000355	0.000387	0.000952	0.002342	6186.911886	43709.277537	3915.226675	22597.729937
48.536000	0.000701	0.000670	0.002155	-0.000377	6215.223373	43991.857393	3924.281496	22721.201677
49.036000	0.000135	-0.000160	-0.000845	0.001220	6198.972242	43763.152754	3913.674801	22648.569537
49.539500	0.000314	-0.000589	0.003066	-0.000695	6214.703349	43903.021379	3927.138035	22735.684451
50.036500	-0.004159	-0.000599	-0.004202	0.002537	6157.187810	43598.671610	3903.007325	22588.915049
50.536500	0.000247	0.000461	0.001103	-0.000269	6211.000680	43961.957886	3921.595959	22716.309818
51.035000	-0.000770	0.000144	0.008552	-0.000503	6205.111835	43954.148236	3939.529281	22726.969219
51.535000	0.000371	0.000080	0.004783	-0.003180	6233.906735	44201.310699	3936.957716	22849.292693
52.035500	-0.001628	0.000819	-0.000425	0.006022	6150.138954	43405.751657	3903.670451	22431.841800
52.535500	0.003780	0.001059	-0.005654	0.011853	6147.015648	42888.474369	3878.856716	22171.827769
53.036000	0.173664	-0.038067	0.427485	1.603955	3065.007421	3904.217739	2983.628390	3428.757296
53.536000	0.077246	-0.030364	0.315308	1.561651	3050.813114	4018.090694	2973.714499	3479.096806
54.039000	0.068277	-0.038350	0.364343	1.660989	3027.203384	3788.849735	2967.502910	3368.204332
54.536500	0.044879	-0.027017	0.190579	1.452411	3071.525779	4327.944672	2971.724690	3634.213339
55.037000	0.008825	-0.023618	0.009841	-0.019486	6426.930092	43505.546630	3988.392425	23611.152817
55.534500	0.015746	-0.011736	0.009661	-0.048075	6723.694400	47464.466990	4060.823837	25017.921536
56.037500	0.027916	-0.002785	0.020578	-0.055550	6898.599826	49179.629299	4110.310429	25401.297180
56.535500	0.039912	0.001071	0.035580	-0.007844	6586.423688	44741.727777	4023.743053	23064.300145
57.035000	0.048031	0.007141	0.050745	0.059401	6122.793747	39253.615535	3898.665496	20177.119285
57.535500	0.064666	0.018023	0.064894	0.104356	5922.109659	36515.766972	3831.436413	18481.748481
58.036000	0.087287	0.029961	0.088665	0.153929	5742.899225	33731.272616	3778.687639	16804.880840
58.538500	0.113855	0.045803	0.116317	0.199901	5620.591369	31669.580754	3743.090871	15411.900629
59.036500	0.144408	0.064903	0.151070	0.246125	5525.725658	29931.964701	3721.553743	14152.318710
59.536500	0.168818	0.080486	0.167596	0.284147	5446.056308	28574.366398	3682.696601	13212.164238
60.036500	0.192694	0.090255	0.203971	0.341646	5259.649336	25909.624189	3646.342428	11937.954046
60.534500	0.206807	0.100197	0.219266	0.363714	5217.618010	25278.052580	3635.055411	11492.004468
61.035000	0.224339	0.108095	0.229864	0.403825	5102.424823	23683.350530	3587.874861	10737.235854
61.535500	0.237803	0.117866	0.250644	0.433365	5023.979765	22761.602074	3574.475559	10224.290609
62.035500	0.250301	0.126125	0.254024	0.470799	4907.909627	21475.821237	3524.885357	9622.453379
62.535500	0.262005	0.132548	0.270992	0.484745	4897.793642	21158.009475	3529.130875	9411.171472
63.039000	0.277780	0.141324	0.288008	0.503298	4885.332633	20753.159093	3526.967431	9140.404250
63.536000	0.288376	0.149168	0.298488	0.517110	4871.015051	20510.502449	3522.304703	8946.218426
64.037000	0.293578	0.152531	0.311716	0.534284	4818.614176	19961.501765	3516.829416	8713.212772
64.537000	0.300242	0.154282	0.311307	0.521468	4904.615319	20541.023750	3534.214566	8886.210613
65.037500	0.303319	0.159008	0.324370	0.516515	4941.207416	20937.021944	3560.360251	8954.450442
65.536500	0.302912	0.162641	0.325410	0.556878	4762.238836	19480.037692	3504.660796	8420.376475
66.042000	0.299713	0.166718	0.318174	0.556203	4751.698828	19661.665669	3495.847897	8428.905357
66.535000	0.305231	0.172545	0.328641	0.550581	4798.671443	20107.520489	3517.697352	8500.458719
67.035500	0.305519	0.174723	0.318916	0.542007	4836.913091	20537.116123	3516.108297	8611.402901
67.538500	0.308502	0.178256	0.323932	0.539627	4860.432551	20777.875781	3526.398826	8642.577713
68.036000	0.314576	0.181914	0.330947	0.538469	4892.611535	20976.439616	3537.976756	8657.809550
68.539000	0.314681	0.183865	0.318423	0.536651	4901.263400	21133.362863	3522.854976	8681.811365
69.037000	0.310229	0.183025	0.328785	0.534945	4888.924923	21169.604053	3539.928246	8704.421017
69.537000	0.313724	0.184907	0.322302	0.536787	4896.340885	21171.294733	3528.099753	8680.013444
70.037000	0.313418	0.185555	0.324667	0.542112	4871.188524	20976.368900	3523.947775	8610.024216
70.535000	0.315244	0.188022	0.327534	0.539481	4891.067126	21188.932988	3531.681629	8644.492674
71.035000	0.316124	0.188380	0.328715	0.534173	4919.012101	21428.205197	3540.936681	8714.686392
71.538000	0.317899	0.190079	0.329739	0.532791	4933.425387	21559.617219	3544.403293	8733.106955
72.038500	0.319058	0.191002	0.331513	0.532059	4942.108774	21630.600157	3548.034159	8742.881986
72.539000	0.316892	0.188881	0.323071	0.531848	4933.133581	21548.703743	3536.185371	8745.705413
73.036500	0.321859	0.192494	0.329353	0.529536	4966.758157	21803.879746	3548.562639	8776.715260
73.536500	0.321667	0.193430	0.330320	0.529678	4965.198035	21838.337733	3549.761905	8774.796419
74.037000	0.317317	0.191843	0.328923	0.534509	4922.913047	21561.544124	3540.752080	8710.213612
74.537000	0.319677	0.193008	0.333029	0.532953	4940.844115	21678.427337	3548.937848	8730.941480
75.034500	0.322521	0.193251	0.338734	0.529259	4971.133275	21848.766671	3562.766151	8780.437048
75.535000	0.320897	0.191740	0.331599	0.527772	4970.494029	21847.729848	3554.421173	8800.479019
76.035500	0.325729	0.195383	0.335041	0.529991	4982.722373	21909.734327	3556.219169	8770.593644
76.538500	0.319425	0.193712	0.327831	0.531640	4945.726609	21765.505252	3543.309444	8748.482998
77.035500	0.325484	0.194439	0.335251	0.526110	4999.864241	22038.212649	3562.269069	8822.955684
77.536500	0.328533	0.195649	0.335678	0.525742	5016.109740	22107.683510	3563.451810	8827.958455
78.036500	0.319208	0.193838	0.334776	0.529413	4955.014657	21867.611161	3556.680412	8778.368914
78.536500	0.319783	0.195572	0.332877	0.527770	4965.307277	22015.110981	3556.302570	8800.501611
79.036500	0.327360	0.196096	0.337363	0.524709	5015.436006	22172.961298	3567.510472	8841.975305
79.537000	0.324060	0.197564	0.332792	0.525598	4995.552019	22198.567775	3559.382629	8829.905814
80.035000	0.320100	0.197335	0.334459	0.531383	4950.024700	21934.122448	3553.318081	8751.919772
80.535000	0.321769	0.198347	0.332410	0.533017	4950.188242	21907.029291	3547.946248	8730.089479
81.038000	0.324910	0.196697	0.342742	0.529673	4980.370383	21981.014137	3568.131665	8774.865876
81.535500	0.321760	0.197444	0.343280	0.532032	4954.703730	21910.624666	3565.409015	8743.247286
82.036000	0.319441	0.195501	0.334836	0.538884	4912.686634	21530.895308	3542.965186	8652.349735
82.539000	0.325627	0.194952	0.340415	0.535449	4956.787235	21654.638287	3556.095058	8697.730482
83.036500	0.324443	0.196225	0.331750	0.538976	4935.067773	21557.922181	3538.401334	8651.137154
83.537000	0.325844	0.195293	0.329898	0.540679	4933.687647	21445.523400	3533.334392	8628.778223
84.037000	0.319921	0.194804	0.337124	0.540850	4905.960760	21417.430095	3543.429424	8626.533997
84.536000	0.324537	0.194445	0.340005	0.542874	4917.704161	21316.512659	3544.665958	8600.073634
85.035000	0.322884	0.193490	0.342242	0.542695	4911.018160	21283.750112	3548.168788	8602.411651
85.538000	0.325612	0.193148	0.337711	0.543297	4920.671781	21243.995084	3540.752528	8594.564366
86.035500	0.327308	0.193073	0.340140	0.544004	4925.178820	21211.112548	3543.231156	8585.360989
86.535000	0.326748	0.192653	0.336416	0.544621	4919.816866	21167.645928	3537.001992	8577.347448
87.036000	0.325190	0.191343	0.331171	0.545118	4910.486772	21092.086034	3528.857985	8570.894794
87.536000	0.323920	0.191232	0.344539	0.547072	4895.942900	21006.119669	3545.153641	8545.598461
88.036500	0.326910	0.190912	0.336175	0.547432	4907.798705	20977.878909	3532.658803	8540.952054
88.537000	0.327274	0.189919	0.335318	0.548766	4903.416917	20881.684272	3529.560858	8523.762570
89.037500	0.323382	0.189538	0.339682	0.550697	4877.319619	20786.575953	3533.002459	8498.979684
89.535000	0.324522	0.191015	0.342873	0.552716	4873.406816	20764.331244	3534.666720	8473.175616
90.037500	0.327555	0.191342	0.336467	0.554073	4880.868925	20722.210312	3523.723135	8455.901485
90.535500	0.326454	0.189221	0.339128	0.560605	4847.122458	20372.025710	3518.337859	8373.514737
91.035500	0.324942	0.187273	0.338895	0.554092	4869.169991	20555.908610	3527.099134	8455.670828
91.536000	0.327815	0.189902	0.344842	0.558101	4864.140853	20500.141920	3529.827654	8404.957746
92.036000	0.328402	0.190147	0.345111	0.565382	4834.768961	20218.437241	3520.011725	8314.045186
92.536500	0.324912	0.188802	0.334059	0.566033	4816.822181	20139.363217	3503.976634	8305.995038
93.037000	0.324424	0.189750	0.349849	0.561891	4832.645930	20341.735856	3531.546535	8357.440883
93.536500	0.328278	0.189105	0.343601	0.563329	4843.184258	20258.620940	3520.765310	8339.522876
94.034500	0.328208	0.189259	0.345328	0.564700	4836.893624	20210.242114	3521.261187	8322.495195
94.537500	0.326146	0.187172	0.344256	0.568383	4812.016073	19982.726130	3514.680553	8277.015632
95.035000	0.325268	0.187848	0.336564	0.565814	4819.304067	20110.323836	3507.671209	8308.703526
95.535500	0.327643	0.188221	0.342367	0.566965	4824.595959	20079.616737	3514.031180	8294.476321
96.035500	0.327496	0.188599	0.342502	0.567775	4820.455728	20062.621809	3513.105544	8284.497708
96.536000	0.325769	0.187628	0.346633	0.573827	4787.142129	19788.417715	3510.472750	8210.485946
97.036500	0.328619	0.187710	0.345839	0.568689	4821.361731	19991.827031	3516.440454	8273.256275
97.539000	0.328343	0.186510	0.336227	0.567970	4823.274184	19972.951120	3504.288359	8282.090296
