sample name	sample
index	814
start time	 03-31-2021  03:28:25 PM
880	0.222593
Peak Time (s)	92.537
Peak Height 	0.2226
calc peak height	90,93
Baseline Time (s)	9.537
Baseline Value 	-0.001965
subtract baseline	10,4
Abs	0.155420
Peak Time (s)	92.537
Peak Height 	0.1554
calc peak height	90,93
Baseline Time (s)	9.036
Baseline Value 	0.001173
subtract baseline	10,3
PK_550	0.067011
Peak Time (s)	90.036
Peak Height 	0.06701
calc peak height	90,93
Baseline Time (s)	11.536
Baseline Value 	2.9158E-4
subtract baseline	10,2
PK_880	0.152731
Peak Time (s)	91.537
Peak Height 	0.1527
calc peak height	90,93
Baseline Time (s)	11.536
Baseline Value 	-1.0259E-4
subtract baseline	10,1


Time (s)	A880-A510	A880-A775	A880-A975	A880	I510	I775	I975	I880	
0.036500	0.001341	0.000710	-0.000638	0.002656	6571.369822	38800.625684	4034.710755	21311.597288
0.537000	-0.001297	0.000051	-0.001165	0.003020	6547.741860	38716.740383	4032.820201	21296.356906
1.037000	-0.000670	-0.000311	-0.002774	0.003294	6550.511402	38664.740565	4028.840050	21284.898174
1.537500	-0.001055	-0.000397	-0.004597	0.001933	6558.179544	38769.059961	4027.863771	21341.845374
2.035000	0.000337	0.000590	0.000917	0.002431	6565.222818	38809.112098	4038.498042	21320.985511
2.535500	-0.000099	-0.000564	-0.000129	0.001845	6566.399579	38762.608138	4037.516290	21345.544569
3.035500	0.001730	-0.000059	0.000034	-0.001348	6606.234106	39066.924308	4044.691970	21479.917141
3.535500	-0.000051	0.000297	0.004035	0.000431	6577.953795	38949.491701	4049.473851	21404.930137
4.036000	0.000654	0.000371	-0.000523	0.000418	6583.641794	38956.736450	4039.721804	21405.495260
4.539000	0.000636	0.000627	0.001715	0.000303	6584.409503	38987.249712	4044.758088	21410.325971
5.037000	-0.000710	-0.001055	0.002451	-0.000377	6579.134163	38904.767467	4047.802085	21438.957759
5.537500	0.001632	-0.000158	0.001108	0.000144	6593.578427	38935.717036	4043.796836	21417.021074
6.034500	0.001149	-0.000713	-0.004043	0.000303	6588.473398	38876.958801	4032.480074	21410.311322
6.534500	-0.002009	-0.001146	-0.004444	0.005647	6521.664227	38405.183586	4020.391308	21186.862942
7.035000	0.000625	-0.000270	0.005877	-0.000428	6590.113412	38973.561344	4055.318718	21441.096768
7.535000	0.000576	0.000388	0.005416	0.000291	6584.027773	38968.587359	4052.761733	21410.825908
8.040500	0.001552	-0.000601	-0.002395	-0.000640	6599.173539	38963.837477	4037.985485	21450.052373
8.544000	-0.000040	-0.000612	0.002261	-0.000349	6584.214883	38938.863580	4047.333250	21437.774933
9.036000	0.001813	0.000737	0.000000	0.000762	6590.098590	38958.490063	4040.102572	21391.017274
9.537000	-0.000241	0.000023	-0.002400	0.000000	6579.857651	38962.501859	4036.610260	21423.074920
10.039500	-0.000051	-0.000067	-0.001169	0.000331	6578.737808	38927.726860	4038.528322	21409.134294
10.534500	0.000491	0.000191	-0.002100	0.000113	6584.760550	38966.936340	4037.008535	21418.297696
11.035000	0.000708	-0.000540	0.000544	-0.000206	6589.007602	38933.039301	4043.335680	21431.733421
11.535500	0.000000	0.000000	0.001835	-0.000491	6585.656967	39001.034522	4046.720475	21443.753037
12.035500	-0.001510	-0.000466	-0.001165	-0.000814	6576.261308	38989.225397	4040.981249	21457.380673
12.536000	-0.000256	-0.000479	-0.002068	-0.000492	6583.635964	38961.634116	4038.364911	21443.805768
13.035500	0.000550	-0.000280	0.005020	0.000490	6582.244227	38897.157768	4051.473214	21402.443102
13.536500	0.000634	0.000094	-0.004182	0.001726	6573.134593	38826.405563	4029.178146	21350.563158
14.036500	-0.002429	-0.000191	-0.002122	0.002143	6545.750255	38768.815477	4032.651144	21333.078312
14.539000	0.001253	-0.000119	-0.001575	0.002700	6570.326019	38728.998156	4032.629730	21309.750937
15.037000	-0.000853	-0.000493	-0.005249	0.000935	6567.639830	38843.110944	4028.595563	21383.768565
15.535000	-0.000773	-0.000060	-0.000502	0.001043	6567.413292	38869.727054	4038.430340	21379.191195
16.037500	0.001019	0.000243	0.001472	0.001341	6579.219788	38870.226441	4042.012148	21366.704216
16.535500	-0.000704	0.000363	-0.002264	0.001755	6562.339044	38845.971768	4033.171964	21349.308379
17.035500	0.001945	0.000094	0.002941	-0.003061	6621.649641	39221.518436	4054.661307	21552.422282
17.536000	0.000289	-0.000035	0.004123	0.001193	6574.612746	38859.533316	4048.021096	21372.921188
18.036500	-0.000336	0.000424	0.002143	0.002054	6562.892320	38826.511326	4041.922274	21336.790354
18.536500	-0.001786	-0.000135	-0.001615	0.002006	6551.869591	38784.578792	4034.016455	21338.820948
19.037000	0.001271	0.000219	0.001318	0.001932	6576.533203	38819.718101	4040.419478	21341.913624
19.537000	-0.000446	-0.000125	0.001244	0.001747	6564.441225	38806.620820	4040.654274	21349.651928
20.037000	-0.000733	-0.000666	-0.000534	0.001369	6565.158438	38793.246554	4037.669182	21365.523071
20.534500	-0.000741	0.000865	0.000887	0.003156	6551.040665	38772.341106	4036.889829	21290.686315
21.035000	-0.000364	-0.000203	0.001184	0.001715	6565.335123	38802.834648	4040.594766	21350.986519
21.535500	0.001491	-0.000014	0.004164	0.001534	6581.429432	38833.228213	4047.376010	21358.606600
22.035500	-0.001856	-0.001242	-0.003519	0.001329	6556.633603	38749.304332	4031.416642	21367.184211
22.536000	0.000203	-0.000861	0.001397	0.002006	6567.512257	38725.084028	4040.428274	21338.798837
23.036000	-0.000202	-0.000218	-0.001628	0.001902	6565.138626	38786.221956	4034.208939	21343.145398
23.536500	-0.000920	-0.000556	-0.003921	0.001829	6560.062006	38764.577562	4029.510458	21346.224181
24.036500	-0.002451	-0.000715	-0.001722	0.001269	6552.430870	38797.433639	4035.354567	21369.725365
24.536500	-0.002175	-0.000828	-0.002968	0.001381	6553.715441	38779.022325	4032.472483	21365.020515
25.034500	-0.001052	-0.000405	-0.000571	0.001353	6562.769243	38815.989625	4037.623497	21366.199705
25.534000	-0.000532	-0.000381	0.004009	0.001802	6563.331907	38781.083924	4046.464799	21347.350701
26.034500	-0.001733	-0.000250	-0.006727	0.001978	6552.499944	38777.470733	4023.293843	21339.982211
26.535500	0.000602	-0.000985	-0.002292	0.001377	6575.633179	38766.437341	4033.914429	21365.188391
27.036000	0.001331	0.000694	-0.002780	0.000286	6590.048242	38994.189056	4035.194083	21411.025013
27.536000	0.000627	0.000594	0.001164	-0.000082	6587.387894	39016.245294	4044.400007	21426.512656
28.036000	0.001972	0.000266	-0.002026	0.001743	6583.575488	38839.071755	4033.702786	21349.818336
28.539500	-0.000114	0.000387	-0.002647	0.001421	6569.626642	38875.437898	4033.068062	21363.333622
29.037000	0.000456	0.000143	0.001100	0.001724	6571.744634	38830.569668	4040.397840	21350.646484
29.537500	0.001761	0.000456	0.000250	0.001851	6581.055657	38845.829311	4038.312461	21345.315234
30.035000	-0.000644	0.000073	0.001285	0.001524	6564.639699	38841.175982	4041.220624	21359.009531
30.535000	-0.001110	-0.000492	-0.006055	0.002870	6550.386942	38684.589707	4022.830345	21302.615723
31.035000	-0.001653	-0.000459	-0.001066	0.002582	6548.384121	38710.850406	4033.959357	21314.666325
31.535000	-0.001048	-0.001075	0.000993	0.000947	6566.003669	38794.369621	4041.830542	21383.262098
32.036000	-0.000259	-0.000369	0.001324	0.001513	6567.759398	38805.767488	4041.325955	21359.468018
32.536000	-0.002891	-0.000507	-0.000944	0.005552	6515.541779	38464.717717	4027.937481	21190.794871
33.039500	0.000212	-0.000648	0.000081	0.000204	6581.827615	38890.414495	4041.466522	21414.471770
33.537000	-0.001479	-0.000680	-0.003493	0.001246	6560.250796	38802.211756	4031.647307	21370.674227
34.037500	0.000584	0.000122	-0.002194	0.002562	6566.132081	38760.013442	4031.610039	21315.501722
34.534500	0.000966	-0.000127	-0.005584	0.002582	6568.995993	38738.047842	4024.423307	21314.690598
35.034500	-0.000869	0.000116	0.001404	0.002745	6553.260686	38744.595558	4038.867536	21307.864129
35.535000	-0.001666	-0.000153	-0.001066	0.002090	6552.145636	38776.212991	4035.004680	21335.286114
36.035000	0.000469	-0.000172	-0.001670	0.002338	6566.996779	38754.311753	4033.195031	21324.884049
36.535500	-0.001026	0.000465	-0.002215	0.002492	6554.013028	38793.922749	4031.714388	21318.433832
37.035500	-0.002753	-0.000251	-0.003595	0.002085	6543.661957	38768.571212	4029.657946	21335.487564
37.539000	0.001470	-0.000177	-0.002171	0.002455	6573.967471	38744.275341	4031.886595	21319.977840
38.036500	-0.000574	-0.000815	-0.000597	0.001906	6562.174662	38737.025814	4036.391094	21342.985069
38.536500	-0.000579	0.000055	0.003098	0.002536	6557.179517	38756.707833	4042.933342	21316.600686
39.034000	-0.000108	-0.000380	0.002163	0.001835	6566.412474	38778.476703	4042.433781	21345.958842
39.537500	0.000174	0.000387	-0.000804	0.002988	6559.551073	38746.839184	4033.653795	21297.693087
40.035000	-0.000270	0.000054	-0.003085	0.002005	6563.794172	38800.136624	4030.905445	21338.841012
40.535000	-0.000653	0.000201	0.001597	0.002433	6557.412527	38777.110415	4039.944343	21320.918644
41.035500	0.000231	0.000187	-0.002383	0.002818	6561.339264	38744.403827	4030.670046	21304.803455
41.535500	0.000099	-0.000169	0.002478	0.002539	6562.490184	38738.084427	4041.600790	21316.463942
42.036000	-0.002708	-0.000626	-0.009201	0.001435	6549.106423	38791.106439	4019.251998	21362.734717
42.536500	-0.000248	0.000605	-0.003244	0.002640	6558.967856	38793.239834	4029.227205	21312.254911
43.036500	0.000971	0.000266	-0.004404	0.002922	6566.344587	38742.321097	4026.188166	21300.440771
43.537000	0.001596	0.000059	0.002457	-0.002286	6612.652857	39154.372903	4051.934973	21519.599596
44.034500	-0.002453	0.000010	0.000339	0.001275	6552.366047	38856.445568	4039.729911	21369.460775
44.535000	-0.001032	0.000539	-0.004610	0.004847	6535.519988	38607.281821	4021.718008	21220.117917
45.035500	-0.000043	0.000010	0.003484	0.001686	6568.100959	38822.772084	4045.586501	21352.229330
45.535500	-0.002768	-0.000480	-0.000646	0.001329	6549.472836	38811.844564	4037.516961	21367.218023
46.036000	0.001935	-0.000442	0.002407	0.001339	6586.487178	38814.035400	4044.017276	21366.763744
46.536000	-0.002705	-0.000507	-0.007097	0.003539	6532.665464	38628.722454	4019.252910	21274.676173
47.036500	-0.001247	-0.000572	-0.000148	0.002418	6552.861070	38715.008962	4036.258031	21321.541943
47.536500	-0.001666	-0.000991	-0.007378	0.002214	6551.170955	38697.413352	4021.434755	21330.070162
48.037000	0.002529	-0.000282	0.001805	0.001854	6587.119507	38784.980089	4041.625509	21345.174457
48.537500	-0.000984	-0.000802	0.000677	0.002013	6558.113584	38729.348622	4038.878140	21338.525616
49.037500	-0.002426	-0.001217	-0.000231	0.000812	6556.220894	38793.725580	4039.503017	21388.918941
49.535000	0.001440	0.000209	0.002143	-0.001688	6606.630608	39117.249999	4049.964100	21494.296495
50.035500	0.001721	-0.000341	-0.001221	-0.001537	6607.675696	39059.298295	4042.408167	21487.924755
50.535500	-0.004434	-0.003744	0.005912	0.000429	6543.464768	38618.348392	4053.537024	21405.018214
51.035500	-0.035263	0.003115	-0.014487	0.019759	6172.447957	37614.913876	3971.277377	20609.733100
51.539000	-0.043725	-0.004632	-0.027211	-0.111354	7161.365387	48929.643898	4240.372664	26767.615456
52.039000	-0.034039	-0.057286	-0.008010	-0.290977	9357.375620	64467.842584	4895.184256	38872.525351
52.536500	-0.022880	-0.064175	0.004196	-0.300530	9660.963581	64844.953258	4986.772820	39667.264503
53.037000	-0.007232	-0.050962	0.015757	-0.282983	9632.517405	64232.508911	4961.116539	38220.720166
53.537000	0.006483	-0.025313	0.027332	-0.243900	9264.246864	62372.648772	4847.658311	35201.337861
54.037500	0.029424	-0.000874	0.034862	-0.201112	8990.762929	59923.496382	4712.364674	32192.870794
54.535000	0.035202	0.002390	0.045519	-0.196640	9008.391470	59765.998693	4735.312712	31895.246778
55.035000	0.049032	0.011325	0.052335	-0.175462	8909.962817	58192.838642	4682.524794	30526.509449
55.535500	0.061648	0.024850	0.068888	-0.119252	8359.096128	53042.430884	4545.520694	27201.341319
56.041500	0.078120	0.036475	0.080840	-0.071108	7992.164506	49020.473762	4430.943141	24676.172003
56.536500	0.086949	0.044092	0.089952	-0.021418	7556.648814	44787.264109	4313.341644	22347.508022
57.036500	0.096588	0.051833	0.095548	0.020970	7235.989838	41596.298381	4215.805069	20561.082194
57.537000	0.104007	0.058771	0.109773	0.062082	6930.381911	38688.773202	4149.577345	18987.311213
58.037000	0.109926	0.062034	0.109159	0.092151	6725.466533	36562.855171	4078.839958	17926.995343
58.537000	0.114580	0.065552	0.117782	0.117619	6557.780423	34917.273586	4042.079987	17084.625924
59.037500	0.123169	0.069436	0.124590	0.133536	6500.626850	34049.764473	4022.788567	16582.683903
59.535000	0.129730	0.073776	0.125470	0.147635	6442.839070	33363.650975	3995.499595	16153.179734
60.035500	0.138204	0.079343	0.128539	0.165798	6370.011308	32500.674560	3965.341983	15620.045760
60.536000	0.129939	0.074268	0.131252	0.170261	6276.778300	31863.563202	3961.911124	15492.417776
61.036000	0.135335	0.076993	0.137726	0.165068	6354.151195	32391.445852	3985.039028	15641.047721
61.536500	0.143518	0.082738	0.132763	0.177568	6322.384525	31940.502164	3950.653025	15286.274452
62.036500	0.144499	0.082499	0.133913	0.183967	6282.951837	31504.123468	3940.583849	15108.566132
62.537000	0.145079	0.082369	0.135629	0.188695	6253.097175	31188.994642	3934.860235	14978.942120
63.090000	0.146635	0.082016	0.130791	0.187058	6276.051799	31271.914549	3928.822368	15023.654116
63.537500	0.146333	0.080911	0.135737	0.186983	6274.409807	31205.368856	3938.313403	15025.712443
64.038000	0.147335	0.081181	0.132446	0.188536	6270.444730	31122.697956	3929.156246	14983.294005
64.535000	0.146401	0.080735	0.139535	0.188463	6264.246686	31098.656200	3942.731955	14985.262360
65.041000	0.146346	0.079554	0.145231	0.188576	6263.034104	31015.562616	3953.473278	14982.180812
65.536000	0.150793	0.079570	0.140004	0.189014	6291.988100	30988.605086	3942.577409	14970.256070
66.556000	0.148705	0.079346	0.143962	0.190085	6269.152205	30905.724711	3948.112497	14941.098464
67.241500	0.149639	0.079379	0.139843	0.191701	6264.244809	30804.822491	3937.151250	14897.254805
67.414500	0.150638	0.079979	0.142796	0.192432	6266.172974	30796.524018	3941.379641	14877.475560
67.559000	0.147736	0.079375	0.147103	0.192656	6243.767328	30743.914674	3949.209874	14871.429656
68.037500	0.149317	0.078765	0.144975	0.193237	6250.916879	30668.383510	3944.006875	14855.731871
68.535000	0.149585	0.078695	0.144084	0.194376	6244.689240	30591.951662	3940.129887	14825.048243
69.035500	0.150826	0.078619	0.146134	0.193829	6257.488895	30621.692983	3945.093821	14839.779271
69.535500	0.150698	0.079556	0.138116	0.194696	6250.360589	30626.138303	3928.234070	14816.430717
70.036000	0.150344	0.078305	0.142785	0.194435	6249.694514	30563.642951	3937.546151	14823.462517
70.536000	0.150776	0.078902	0.141203	0.195121	6247.880334	30558.050265	3933.250145	14805.018819
71.036500	0.152359	0.078223	0.140138	0.194456	6263.996284	30557.156374	3932.494237	14822.899616
71.537000	0.151935	0.077998	0.143356	0.194410	6261.278523	30545.861506	3938.678921	14824.128320
72.037000	0.150819	0.077202	0.142637	0.194358	6253.648524	30498.993384	3937.410989	14825.535760
72.537000	0.150064	0.077889	0.132958	0.195231	6241.999395	30487.278138	3917.612193	14802.049170
73.037500	0.152196	0.076853	0.145889	0.195704	6253.870319	30392.563279	3941.039290	14789.364561
73.535000	0.151467	0.078070	0.140200	0.196856	6240.417138	30396.621329	3928.091695	14758.491336
74.035000	0.150612	0.077193	0.144246	0.197215	6231.768930	30319.249465	3935.043717	14748.889693
74.538500	0.152497	0.076190	0.141007	0.197096	6246.055631	30264.017428	3929.157004	14752.064520
75.035500	0.152723	0.076977	0.147823	0.199122	6233.222082	30186.878788	3938.213925	14698.016038
75.536000	0.151989	0.076894	0.135585	0.200389	6219.013150	30103.031170	3912.934902	14664.335059
76.036500	0.149360	0.075596	0.135584	0.200355	6200.681873	30024.809215	3912.994634	14665.242264
76.537000	0.152712	0.076630	0.139187	0.202442	6209.602915	29959.710872	3915.793025	14609.956867
77.036500	0.152845	0.076194	0.144352	0.202497	6210.155005	29929.500486	3925.300672	14608.527103
77.534500	0.155074	0.075655	0.141872	0.203155	6221.270919	29855.818719	3919.448971	14591.151299
78.035000	0.152144	0.074671	0.142650	0.203943	6195.026730	29747.160810	3919.429812	14570.382011
78.535000	0.152610	0.074663	0.144914	0.204254	6196.110109	29727.669239	3923.066531	14562.195356
79.038000	0.153826	0.075630	0.144894	0.205397	6196.621289	29716.908877	3920.898043	14532.155518
79.535500	0.151743	0.074233	0.146653	0.204994	6184.830802	29656.172851	3924.932745	14542.735899
80.036000	0.153376	0.072938	0.146556	0.205450	6193.091006	29549.658884	3923.900349	14530.772801
80.536500	0.153102	0.073186	0.146620	0.206179	6186.054254	29520.436158	3922.658702	14511.664324
81.036500	0.154976	0.074030	0.145795	0.207734	6188.291963	29477.353879	3918.231217	14471.014808
81.536500	0.153709	0.073100	0.139649	0.207263	6182.705892	29449.562169	3907.772165	14483.301000
82.037000	0.152084	0.071922	0.143420	0.207338	6170.833338	29373.917973	3914.569264	14481.364769
82.535000	0.152513	0.071450	0.141936	0.207475	6172.870399	29337.133706	3911.579731	14477.769445
83.035500	0.152684	0.071407	0.143839	0.209033	6163.204426	29240.883442	3912.215814	14437.166610
83.535000	0.153659	0.070969	0.142044	0.210134	6162.331131	29148.689030	3906.900856	14408.558820
84.035500	0.153459	0.072202	0.146011	0.211146	6153.916971	29161.924629	3912.324450	14382.323852
84.539000	0.154841	0.070059	0.150857	0.210868	6165.447273	29050.527863	3921.815417	14389.512941
85.036500	0.151911	0.070229	0.150689	0.211303	6142.112896	29034.779782	3920.694147	14378.260861
85.536000	0.155222	0.070340	0.145401	0.212815	6154.564567	28951.451199	3908.137993	14339.177731
86.039500	0.152262	0.068638	0.145934	0.212477	6136.428602	28870.596608	3909.735155	14347.905658
86.537000	0.155096	0.069734	0.147339	0.214285	6143.517826	28828.549926	3908.995927	14301.334738
87.036500	0.154670	0.069610	0.146931	0.215183	6134.379238	28768.254235	3906.605055	14278.278117
87.537000	0.150921	0.067690	0.141920	0.214796	6111.298426	28678.043693	3898.194717	14288.198469
88.035500	0.153579	0.068874	0.150163	0.216116	6120.469030	28670.070363	3910.820517	14254.367899
88.535500	0.151218	0.067846	0.149751	0.216605	6100.978581	28581.141807	3909.164071	14241.845726
89.036000	0.153122	0.067458	0.145581	0.217246	6109.602530	28520.994890	3900.389179	14225.467214
89.538500	0.151856	0.066485	0.146654	0.217225	6101.104425	28465.512070	3902.376819	14226.009929
90.036000	0.151796	0.067011	0.147511	0.218175	6094.227707	28440.850552	3902.206644	14201.774837
90.536000	0.150310	0.065612	0.148421	0.218133	6084.430703	28362.014823	3903.940931	14202.853439
91.036500	0.151499	0.065467	0.146737	0.219179	6085.397972	28292.984298	3898.980904	14176.216173
91.537000	0.152731	0.066122	0.152527	0.220623	6083.968091	28247.450292	3906.889805	14139.583532
92.037500	0.149204	0.064588	0.150770	0.220333	6062.117500	28175.693636	3904.212461	14146.933493
92.537000	0.152180	0.065739	0.155420	0.222593	6066.939320	28111.944112	3908.580593	14089.785232
93.037000	0.148794	0.063728	0.155073	0.221777	6049.679910	28043.435423	3909.440851	14110.388538
93.535000	0.148975	0.063782	0.146802	0.222445	6046.416581	28008.253304	3893.206510	14093.515230
94.035500	0.149696	0.064201	0.157151	0.223678	6042.995787	27961.771006	3909.764229	14062.453553
94.535500	0.150281	0.062552	0.148334	0.224014	6044.655219	27848.708005	3893.138069	14053.990820
95.036000	0.153135	0.063965	0.149863	0.225741	6052.203792	27830.857382	3892.783964	14010.670836
95.536500	0.151321	0.061941	0.156001	0.224811	6046.285154	27768.846200	3905.584829	14033.978299
96.037000	0.150370	0.061143	0.150455	0.225343	6036.388197	27693.622308	3894.564384	14020.649455
