sample name	sample
index	919
start time	 04-12-2021  11:28:12 AM


Wavelength (nm)	Absorbance
494.344910	NaN
494.563924	NaN
494.782919	NaN
495.001897	-0.228812
495.220856	0.042324
495.439797	0.020104
495.658719	-0.049829
495.877624	-0.075426
496.096510	-0.073609
496.315378	-0.028959
496.534227	0.059068
496.753059	-0.023536
496.971872	-0.022907
497.190667	0.168969
497.409444	0.175197
497.628203	0.174713
497.846943	0.177511
498.065665	0.177040
498.284369	0.177339
498.503055	0.175657
498.721723	0.177269
498.940372	0.177087
499.159003	0.176389
499.377616	0.175533
499.596210	0.176566
499.814787	0.176599
500.033345	0.177574
500.251885	0.177567
500.470406	0.178406
500.688910	0.178195
500.907395	0.178657
501.125862	0.179480
501.344311	0.179920
501.562742	0.180150
501.781154	0.180990
501.999548	0.180886
502.217924	0.180096
502.436282	0.179467
502.654621	0.179406
502.872942	0.178734
503.091245	0.179397
503.309530	0.180355
503.527797	0.179625
503.746045	0.178795
503.964275	0.179774
504.182487	0.180492
504.400681	0.181850
504.618856	0.180881
504.837013	0.182595
505.055152	0.182478
505.273273	0.182357
505.491376	0.182703
505.709460	0.183623
505.927526	0.182475
506.145574	0.183100
506.363604	0.182403
506.581615	0.183687
506.799608	0.182846
507.017583	0.182820
507.235540	0.183315
507.453478	0.183340
507.671399	0.183860
507.889301	0.184325
508.107185	0.183950
508.325050	0.184381
508.542898	0.185799
508.760727	0.186071
508.978538	0.186503
509.196330	0.186871
509.414105	0.187627
509.631861	0.186936
509.849599	0.187811
510.067319	0.188617
510.285021	0.188572
510.502704	0.188436
510.720369	0.188431
510.938016	0.188842
511.155645	0.189002
511.373255	0.189524
511.590848	0.189826
511.808422	0.189722
512.025977	0.189242
512.243515	0.189942
512.461034	0.189349
512.678536	0.189368
512.896018	0.188945
513.113483	0.188625
513.330930	0.189247
513.548358	0.189840
513.765768	0.190111
513.983160	0.191057
514.200533	0.191439
514.417889	0.192052
514.635226	0.192202
514.852545	0.191923
515.069845	0.192159
515.287128	0.191651
515.504392	0.190878
515.721638	0.191044
515.938866	0.191235
516.156075	0.191971
516.373267	0.191151
516.590440	0.192183
516.807594	0.193022
517.024731	0.193401
517.241850	0.194350
517.458950	0.195249
517.676032	0.194281
517.893095	0.193916
518.110141	0.193317
518.327168	0.194737
518.544177	0.194375
518.761168	0.194984
518.978141	0.195334
519.195095	0.194905
519.412031	0.194575
519.628949	0.196270
519.845849	0.196808
520.062731	0.197184
520.279594	0.196814
520.496439	0.197249
520.713266	0.197284
520.930074	0.196890
521.146865	0.197265
521.363637	0.197938
521.580391	0.198049
521.797127	0.198550
522.013844	0.198743
522.230543	0.199109
522.447224	0.199289
522.663887	0.199539
522.880532	0.200150
523.097158	0.200756
523.313766	0.201174
523.530356	0.201413
523.746928	0.201347
523.963481	0.202275
524.180017	0.202590
524.396534	0.202866
524.613032	0.203743
524.829513	0.204861
525.045975	0.205263
525.262420	0.205755
525.478845	0.205703
525.695253	0.206040
525.911643	0.205893
526.128014	0.206598
526.344367	0.207073
526.560702	0.206904
526.777018	0.206724
526.993316	0.207236
527.209597	0.207375
527.425858	0.208341
527.642102	0.209074
527.858328	0.209788
528.074535	0.209945
528.290724	0.210362
528.506894	0.211166
528.723047	0.211920
528.939181	0.211252
529.155297	0.211721
529.371395	0.212190
529.587475	0.212417
529.803536	0.212035
530.019579	0.212787
530.235604	0.213265
530.451611	0.213396
530.667600	0.213200
530.883570	0.213824
531.099522	0.214679
531.315456	0.214589
531.531372	0.214959
531.747269	0.215458
531.963148	0.215775
532.179009	0.216566
532.394852	0.216430
532.610676	0.217772
532.826482	0.219318
533.042271	0.219383
533.258040	0.219850
533.473792	0.220083
533.689525	0.220765
533.905240	0.220753
534.120937	0.220180
534.336616	0.221221
534.552277	0.221047
534.767919	0.221190
534.983543	0.221662
535.199149	0.221533
535.414736	0.221844
535.630306	0.222107
535.845857	0.222819
536.061390	0.223403
536.276904	0.223708
536.492401	0.224230
536.707879	0.224196
536.923339	0.224508
537.138781	0.224869
537.354204	0.225760
537.569610	0.225933
537.784997	0.226187
538.000366	0.226655
538.215716	0.226938
538.431049	0.227525
538.646363	0.227219
538.861659	0.227236
539.076937	0.227576
539.292196	0.227369
539.507438	0.227955
539.722661	0.228098
539.937866	0.229062
540.153052	0.229123
540.368221	0.229314
540.583371	0.230156
540.798503	0.231304
541.013617	0.231853
541.228712	0.232630
541.443789	0.232541
541.658848	0.233097
541.873889	0.233157
542.088912	0.233267
542.303916	0.233511
542.518902	0.233666
542.733870	0.233045
542.948820	0.233622
543.163752	0.234015
543.378665	0.234671
543.593560	0.235118
543.808437	0.235890
544.023295	0.236751
544.238136	0.236706
544.452958	0.237309
544.667762	0.238132
544.882548	0.238095
545.097315	0.238113
545.312064	0.238369
545.526795	0.238858
545.741508	0.238600
545.956203	0.238454
546.170879	0.239089
546.385537	0.238990
546.600177	0.239258
546.814799	0.240118
547.029402	0.240467
547.243988	0.241265
547.458555	0.241647
547.673103	0.242114
547.887634	0.243070
548.102146	0.243464
548.316640	0.244117
548.531116	0.244746
548.745574	0.245015
548.960013	0.245542
549.174435	0.245654
549.388838	0.245313
549.603222	0.245223
549.817589	0.244818
550.031937	0.244890
550.246267	0.245319
550.460579	0.245158
550.674873	0.245519
550.889148	0.245410
551.103405	0.245646
551.317644	0.246411
551.531865	0.247099
551.746068	0.247661
551.960252	0.247888
552.174418	0.248410
552.388566	0.248779
552.602696	0.248671
552.816807	0.249438
553.030900	0.249479
553.244975	0.249252
553.459032	0.248865
553.673070	0.249007
553.887091	0.249003
554.101093	0.249306
554.315077	0.249417
554.529042	0.249752
554.742990	0.249676
554.956919	0.249972
555.170830	0.250386
555.384722	0.250593
555.598597	0.250812
555.812453	0.251436
556.026291	0.251222
556.240111	0.251264
556.453913	0.251941
556.667696	0.252183
556.881461	0.252252
557.095208	0.252252
557.308937	0.253367
557.522647	0.253579
557.736339	0.253691
557.950013	0.254093
558.163669	0.254734
558.377307	0.254560
558.590926	0.254767
558.804527	0.255113
559.018110	0.255564
559.231675	0.255328
559.445221	0.255683
559.658749	0.255710
559.872259	0.255968
560.085751	0.256039
560.299225	0.256310
560.512680	0.256647
560.726117	0.256930
560.939536	0.257182
561.152937	0.257664
561.366319	0.258049
561.579683	0.258056
561.793029	0.258033
562.006357	0.257777
562.219667	0.257692
562.432958	0.257378
562.646231	0.257962
562.859486	0.258020
563.072723	0.257944
563.285941	0.257853
563.499141	0.258258
563.712323	0.258662
563.925487	0.259880
564.138632	0.260135
564.351760	0.260695
564.564869	0.260544
564.777960	0.260756
564.991032	0.261073
565.204087	0.261671
565.417123	0.262237
565.630141	0.262545
565.843140	0.262285
566.056122	0.262685
566.269085	0.262813
566.482030	0.263159
566.694957	0.263732
566.907866	0.264057
567.120756	0.264191
567.333628	0.264453
567.546482	0.264311
567.759318	0.264828
567.972135	0.264618
568.184935	0.265129
568.397716	0.265005
568.610478	0.264824
568.823223	0.264905
569.035949	0.264997
569.248657	0.264874
569.461347	0.265072
569.674019	0.265113
569.886672	0.265688
570.099308	0.265704
570.311925	0.266271
570.524523	0.266763
570.737104	0.266897
570.949666	0.266826
571.162210	0.267037
571.374736	0.267246
571.587244	0.267710
571.799733	0.267756
572.012205	0.267861
572.224658	0.267711
572.437092	0.267799
572.649509	0.268014
572.861907	0.268320
573.074287	0.268341
573.286649	0.268181
573.498993	0.267427
573.711318	0.267830
573.923625	0.268339
574.135914	0.268822
574.348185	0.268941
574.560438	0.269176
574.772672	0.269472
574.984888	0.269715
575.197086	0.270108
575.409266	0.270314
575.621427	0.270397
575.833570	0.270235
576.045695	0.270391
576.257802	0.270365
576.469890	0.270452
576.681961	0.270758
576.894013	0.271091
577.106046	0.271705
577.318062	0.272198
577.530059	0.272438
577.742039	0.272561
577.954000	0.272868
578.165942	0.273673
578.377867	0.274085
578.589773	0.274046
578.801661	0.274206
579.013531	0.273892
579.225382	0.273795
579.437216	0.274082
579.649031	0.274246
579.860828	0.273992
580.072606	0.273722
580.284367	0.273601
580.496109	0.274045
580.707833	0.274105
580.919539	0.274792
581.131227	0.275141
581.342896	0.275264
581.554547	0.275247
581.766180	0.275755
581.977795	0.276023
582.189391	0.276360
582.400969	0.276224
582.612529	0.276476
582.824071	0.276518
583.035595	0.276382
583.247100	0.276611
583.458587	0.277187
583.670056	0.277189
583.881506	0.277411
584.092939	0.277617
584.304353	0.277776
584.515749	0.278194
584.727127	0.278550
584.938486	0.279253
585.149828	0.279444
585.361151	0.279609
585.572456	0.280079
585.783742	0.280347
585.995011	0.280502
586.206261	0.280848
586.417493	0.280596
586.628706	0.280593
586.839902	0.280924
587.051079	0.281271
587.262238	0.281367
587.473379	0.281205
587.684502	0.281552
587.895606	0.281487
588.106692	0.281544
588.317760	0.282076
588.528810	0.282427
588.739841	0.282756
588.950855	0.282730
589.161850	0.283135
589.372827	0.284018
589.583785	0.284229
589.794726	0.284413
590.005648	0.285052
590.216552	0.285227
590.427437	0.285181
590.638305	0.285021
590.849154	0.285086
591.059985	0.285193
591.270798	0.285113
591.481592	0.284691
591.692369	0.285025
591.903127	0.285101
592.113867	0.285042
592.324588	0.285086
592.535292	0.285212
592.745977	0.285525
592.956644	0.285781
593.167293	0.285780
593.377923	0.285895
593.588536	0.286213
593.799130	0.286475
594.009706	0.286648
594.220263	0.286827
594.430803	0.287089
594.641324	0.287286
594.851827	0.287467
595.062312	0.287465
595.272778	0.287979
595.483227	0.287700
595.693657	0.287624
595.904069	0.288172
596.114462	0.288608
596.324838	0.288864
596.535195	0.288727
596.745534	0.288863
596.955855	0.288777
597.166157	0.288898
597.376441	0.289184
597.586707	0.289517
597.796955	0.289582
598.007185	0.289630
598.217396	0.289680
598.427589	0.290150
598.637764	0.290007
598.847921	0.290288
599.058060	0.290548
599.268180	0.291090
599.478282	0.291112
599.688366	0.290986
599.898431	0.291063
600.108479	0.291468
600.318508	0.291338
600.528519	0.291677
600.738511	0.291985
600.948486	0.291870
601.158442	0.292213
601.368380	0.292280
601.578300	0.292746
601.788202	0.292990
601.998085	0.293023
602.207950	0.293565
602.417797	0.293458
602.627626	0.293720
602.837436	0.294655
603.047228	0.294418
603.257002	0.294559
603.466758	0.294704
603.676496	0.295018
603.886215	0.295330
604.095916	0.295500
604.305599	0.295986
604.515264	0.295930
604.724910	0.295984
604.934538	0.295924
605.144148	0.296550
605.353740	0.296694
605.563314	0.297177
605.772869	0.297429
605.982406	0.297354
606.191925	0.297779
606.401425	0.298394
606.610908	0.298305
606.820372	0.298632
607.029818	0.298416
607.239246	0.298419
607.448655	0.298277
607.658047	0.298304
607.867420	0.298708
608.076775	0.298541
608.286111	0.298544
608.495430	0.298649
608.704730	0.298715
608.914012	0.298824
609.123275	0.299366
609.332521	0.299100
609.541748	0.298831
609.750957	0.298601
609.960148	0.298977
610.169321	0.299000
610.378475	0.298943
610.587611	0.299236
610.796729	0.299194
611.005829	0.299144
611.214910	0.299731
611.423974	0.300332
611.633019	0.300670
611.842045	0.300737
612.051054	0.300716
612.260044	0.300699
612.469017	0.300881
612.677970	0.301088
612.886906	0.301010
613.095824	0.300902
613.304723	0.301037
613.513604	0.301064
613.722467	0.301087
613.931311	0.301279
614.140138	0.301649
614.348946	0.301696
614.557736	0.302272
614.766507	0.302633
614.975261	0.302614
615.183996	0.302990
615.392713	0.303158
615.601412	0.303261
615.810092	0.303594
616.018754	0.303766
616.227399	0.304039
616.436024	0.303988
616.644632	0.303923
616.853222	0.304354
617.061793	0.304021
617.270346	0.304141
617.478880	0.304371
617.687397	0.304474
617.895895	0.304774
618.104375	0.304850
618.312837	0.305140
618.521281	0.305444
618.729706	0.305358
618.938113	0.305622
619.146502	0.305994
619.354873	0.306330
619.563226	0.306086
619.771560	0.305986
619.979876	0.306414
620.188174	0.306345
620.396453	0.306579
620.604715	0.307226
620.812958	0.307685
621.021183	0.307905
621.229390	0.308107
621.437578	0.308600
621.645748	0.308904
621.853900	0.308717
622.062034	0.308866
622.270150	0.308812
622.478247	0.308663
622.686326	0.308183
622.894387	0.308147
623.102430	0.307876
623.310454	0.307975
623.518461	0.308344
623.726449	0.308683
623.934418	0.308904
624.142370	0.309239
624.350303	0.309537
624.558218	0.310120
624.766115	0.310357
624.973994	0.310743
625.181855	0.310885
625.389697	0.311060
625.597521	0.311403
625.805327	0.311794
626.013114	0.311978
626.220883	0.312344
626.428634	0.312617
626.636367	0.312539
626.844082	0.312637
627.051778	0.313195
627.259457	0.312953
627.467117	0.313023
627.674758	0.312900
627.882382	0.313351
628.089987	0.313421
628.297574	0.313304
628.505143	0.313651
628.712694	0.314114
628.920226	0.314043
629.127740	0.314714
629.335236	0.314734
629.542714	0.315248
629.750174	0.314856
629.957615	0.315034
630.165038	0.315331
630.372443	0.315645
630.579829	0.315664
630.787198	0.315671
630.994548	0.315664
631.201880	0.316013
631.409194	0.315778
631.616489	0.316422
631.823766	0.316507
632.031025	0.317092
632.238266	0.317400
632.445489	0.317607
632.652693	0.317954
632.859879	0.317797
633.067047	0.317859
633.274197	0.318241
633.481329	0.318300
633.688442	0.318660
633.895537	0.318438
634.102614	0.318774
634.309672	0.318907
634.516713	0.319317
634.723735	0.320039
634.930739	0.320331
635.137724	0.320626
635.344692	0.320694
635.551641	0.320813
635.758572	0.320861
635.965485	0.320818
636.172379	0.321324
636.379256	0.321168
636.586114	0.320888
636.792954	0.321097
636.999775	0.321162
637.206579	0.321305
637.413364	0.321336
637.620131	0.321788
637.826880	0.321774
638.033610	0.321794
638.240323	0.322163
638.447017	0.322613
638.653692	0.322532
638.860350	0.322894
639.066990	0.323280
639.273611	0.323298
639.480214	0.323458
639.686798	0.323770
639.893365	0.323939
640.099913	0.324229
640.306443	0.324202
640.512955	0.324604
640.719449	0.324726
640.925924	0.324492
641.132381	0.324849
641.338820	0.324951
641.545241	0.325211
641.751644	0.325274
641.958028	0.325516
642.164394	0.325984
642.370742	0.326137
642.577071	0.326463
642.783383	0.327006
642.989676	0.327367
643.195951	0.327665
643.402207	0.327705
643.608446	0.327993
643.814666	0.327920
644.020868	0.327744
644.227052	0.327745
644.433218	0.327742
644.639365	0.328228
644.845494	0.328305
645.051605	0.328517
645.257698	0.328864
645.463772	0.329132
645.669828	0.329452
645.875866	0.330109
646.081886	0.330755
646.287888	0.330887
646.493871	0.330878
646.699836	0.331267
646.905783	0.331347
647.111712	0.331576
647.317622	0.331691
647.523514	0.332024
647.729388	0.332142
647.935244	0.332367
648.141082	0.332838
648.346901	0.333304
648.552702	0.333526
648.758485	0.333747
648.964250	0.334024
649.169996	0.334625
649.375724	0.334928
649.581434	0.335257
649.787126	0.335539
649.992800	0.335515
650.198455	0.335564
650.404092	0.335531
650.609711	0.335882
650.815311	0.336021
651.020894	0.335830
651.226458	0.335673
651.432004	0.335703
651.637532	0.335770
651.843041	0.335987
652.048532	0.336233
652.254006	0.336522
652.459460	0.336624
652.664897	0.336709
652.870315	0.336879
653.075716	0.337395
653.281097	0.337661
653.486461	0.337792
653.691807	0.338174
653.897134	0.338095
654.102443	0.338425
654.307734	0.338278
654.513006	0.338710
654.718261	0.338989
654.923497	0.339218
655.128715	0.339285
655.333915	0.339491
655.539096	0.339793
655.744259	0.339924
655.949404	0.340109
656.154531	0.340728
656.359640	0.340783
656.564730	0.341074
656.769802	0.341327
656.974856	0.341924
657.179892	0.342117
657.384909	0.342304
657.589908	0.342699
657.794889	0.342956
657.999852	0.343000
658.204797	0.343621
658.409723	0.343815
658.614631	0.343804
658.819521	0.343872
659.024393	0.344122
659.229246	0.344528
659.434081	0.345096
659.638898	0.345159
659.843697	0.345562
660.048478	0.345734
660.253240	0.345962
660.457984	0.346488
660.662710	0.346687
660.867417	0.347020
661.072107	0.347110
661.276778	0.347215
661.481431	0.347745
661.686066	0.348109
661.890682	0.348257
662.095281	0.348513
662.299861	0.348802
662.504422	0.349134
662.708966	0.349536
662.913491	0.349668
663.117999	0.349840
663.322488	0.350017
663.526958	0.350113
663.731411	0.350320
663.935845	0.350502
664.140261	0.350585
664.344659	0.350854
664.549038	0.350753
664.753400	0.350948
664.957743	0.351565
665.162068	0.351909
665.366375	0.352171
665.570663	0.352421
665.774933	0.352864
665.979185	0.352841
666.183419	0.353193
666.387635	0.353623
666.591832	0.353858
666.796011	0.353841
667.000172	0.353789
667.204315	0.354043
667.408439	0.354080
667.612545	0.354145
667.816634	0.354830
668.020703	0.354897
668.224755	0.355351
668.428788	0.355660
668.632803	0.355901
668.836800	0.356261
669.040779	0.356573
669.244739	0.357038
669.448681	0.357382
669.652605	0.357494
669.856511	0.357944
670.060399	0.357993
670.264268	0.358323
670.468119	0.358563
670.671952	0.358911
670.875767	0.359350
671.079563	0.359446
671.283341	0.359760
671.487101	0.360069
671.690843	0.360177
671.894567	0.360581
672.098272	0.360920
672.301959	0.361178
672.505628	0.361350
672.709278	0.361740
672.912911	0.362323
673.116525	0.362875
673.320121	0.363019
673.523699	0.363475
673.727258	0.363665
673.930799	0.363952
674.134322	0.364530
674.337827	0.364904
674.541314	0.365123
674.744782	0.365180
674.948232	0.365254
675.151664	0.365865
675.355078	0.365854
675.558474	0.366207
675.761851	0.366704
675.965210	0.367001
676.168551	0.367195
676.371873	0.367539
676.575178	0.367673
676.778464	0.367913
676.981732	0.367841
677.184981	0.368166
677.388213	0.368288
677.591426	0.368290
677.794621	0.368204
677.997798	0.368472
678.200956	0.368630
678.404097	0.369083
678.607219	0.369317
678.810323	0.369905
679.013408	0.370339
679.216476	0.370548
679.419525	0.370641
679.622556	0.370999
679.825569	0.371410
680.028563	0.371676
680.231540	0.372045
680.434498	0.372032
680.637438	0.371988
680.840359	0.371913
681.043263	0.372073
681.246148	0.372371
681.449015	0.372743
681.651864	0.372746
681.854694	0.372866
682.057506	0.373116
682.260301	0.373488
682.463076	0.373869
682.665834	0.373991
682.868573	0.374440
683.071295	0.375013
683.273998	0.375175
683.476682	0.375625
683.679349	0.375695
683.881997	0.375628
684.084627	0.375656
684.287239	0.375824
684.489833	0.376472
684.692408	0.376469
684.894965	0.376634
685.097504	0.377056
685.300025	0.377361
685.502527	0.378007
685.705012	0.378780
685.907478	0.379397
686.109925	0.379865
686.312355	0.379928
686.514766	0.380321
686.717159	0.380409
686.919534	0.380259
687.121891	0.380574
687.324230	0.380698
687.526550	0.380632
687.728852	0.380822
687.931136	0.380682
688.133401	0.381069
688.335649	0.381312
688.537878	0.381359
688.740089	0.381705
688.942281	0.381483
689.144456	0.381564
689.346612	0.381699
689.548750	0.381912
689.750870	0.382528
689.952971	0.382688
690.155055	0.382899
690.357120	0.383119
690.559167	0.383466
690.761195	0.383835
690.963206	0.384091
691.165198	0.384341
691.367172	0.384516
691.569128	0.384544
691.771065	0.384617
691.972984	0.385061
692.174885	0.385706
692.376768	0.385574
692.578633	0.385709
692.780479	0.386061
692.982308	0.386185
693.184118	0.386538
693.385909	0.386486
693.587683	0.386708
