sample name	sample
index	1400
start time	 05-10-2021  11:07:20 AM


Wavelength (nm)	Absorbance
494.344910	0.023501
494.563924	0.023501
494.782919	0.023501
495.001897	0.032516
495.220856	0.004172
495.439797	0.011046
495.658719	0.015602
495.877624	0.014188
496.096510	0.017014
496.315378	0.015006
496.534227	0.028558
496.753059	0.039302
496.971872	0.013087
497.190667	0.105679
497.409444	0.130408
497.628203	0.144120
497.846943	0.151040
498.065665	0.152564
498.284369	0.154836
498.503055	0.158283
498.721723	0.159565
498.940372	0.161289
499.159003	0.161969
499.377616	0.162065
499.596210	0.160610
499.814787	0.160934
500.033345	0.162434
500.251885	0.162684
500.470406	0.162314
500.688910	0.161753
500.907395	0.161657
501.125862	0.161598
501.344311	0.163121
501.562742	0.163509
501.781154	0.163837
501.999548	0.163473
502.217924	0.163344
502.436282	0.164229
502.654621	0.165228
502.872942	0.165640
503.091245	0.165789
503.309530	0.166215
503.527797	0.167568
503.746045	0.166910
503.964275	0.166526
504.182487	0.165593
504.400681	0.164314
504.618856	0.164808
504.837013	0.165497
505.055152	0.165263
505.273273	0.164876
505.491376	0.164629
505.709460	0.164905
505.927526	0.165606
506.145574	0.167948
506.363604	0.168774
506.581615	0.168308
506.799608	0.168293
507.017583	0.168471
507.235540	0.167838
507.453478	0.167472
507.671399	0.168451
507.889301	0.167301
508.107185	0.165817
508.325050	0.165895
508.542898	0.166242
508.760727	0.167121
508.978538	0.168505
509.196330	0.169524
509.414105	0.169448
509.631861	0.169424
509.849599	0.170910
510.067319	0.171888
510.285021	0.173024
510.502704	0.174159
510.720369	0.173039
510.938016	0.172379
511.155645	0.172948
511.373255	0.172824
511.590848	0.172661
511.808422	0.172835
512.025977	0.172830
512.243515	0.172228
512.461034	0.171289
512.678536	0.172672
512.896018	0.173104
513.113483	0.172942
513.330930	0.174106
513.548358	0.173643
513.765768	0.174056
513.983160	0.175299
514.200533	0.175287
514.417889	0.175338
514.635226	0.174819
514.852545	0.175017
515.069845	0.175173
515.287128	0.175217
515.504392	0.175746
515.721638	0.176120
515.938866	0.175537
516.156075	0.176556
516.373267	0.176470
516.590440	0.177076
516.807594	0.177062
517.024731	0.177325
517.241850	0.177246
517.458950	0.177710
517.676032	0.177830
517.893095	0.177937
518.110141	0.177315
518.327168	0.178855
518.544177	0.178835
518.761168	0.179306
518.978141	0.180265
519.195095	0.180377
519.412031	0.180661
519.628949	0.181047
519.845849	0.181307
520.062731	0.181310
520.279594	0.181787
520.496439	0.181218
520.713266	0.182224
520.930074	0.181679
521.146865	0.182608
521.363637	0.183444
521.580391	0.183400
521.797127	0.183271
522.013844	0.184493
522.230543	0.184242
522.447224	0.185102
522.663887	0.184724
522.880532	0.186104
523.097158	0.186273
523.313766	0.186420
523.530356	0.187011
523.746928	0.187911
523.963481	0.188583
524.180017	0.189217
524.396534	0.189843
524.613032	0.190297
524.829513	0.190000
525.045975	0.190498
525.262420	0.191430
525.478845	0.191969
525.695253	0.191945
525.911643	0.192052
526.128014	0.192498
526.344367	0.193650
526.560702	0.194626
526.777018	0.195139
526.993316	0.194849
527.209597	0.194732
527.425858	0.194607
527.642102	0.195515
527.858328	0.196088
528.074535	0.196397
528.290724	0.196206
528.506894	0.196015
528.723047	0.196553
528.939181	0.197334
529.155297	0.197913
529.371395	0.198563
529.587475	0.198919
529.803536	0.199228
530.019579	0.199412
530.235604	0.199736
530.451611	0.199847
530.667600	0.200595
530.883570	0.200997
531.099522	0.200545
531.315456	0.201396
531.531372	0.201557
531.747269	0.201614
531.963148	0.202098
532.179009	0.202094
532.394852	0.202966
532.610676	0.202976
532.826482	0.203675
533.042271	0.205016
533.258040	0.204631
533.473792	0.205372
533.689525	0.205919
533.905240	0.206107
534.120937	0.207164
534.336616	0.207620
534.552277	0.207698
534.767919	0.207961
534.983543	0.207837
535.199149	0.209291
535.414736	0.209660
535.630306	0.210214
535.845857	0.210462
536.061390	0.210875
536.276904	0.211417
536.492401	0.212074
536.707879	0.212844
536.923339	0.213545
537.138781	0.213434
537.354204	0.213715
537.569610	0.213307
537.784997	0.214128
538.000366	0.214382
538.215716	0.214346
538.431049	0.214730
538.646363	0.214832
538.861659	0.215198
539.076937	0.216270
539.292196	0.216373
539.507438	0.217532
539.722661	0.218448
539.937866	0.219236
540.153052	0.219845
540.368221	0.219774
540.583371	0.220157
540.798503	0.220671
541.013617	0.220059
541.228712	0.221160
541.443789	0.221018
541.658848	0.220707
541.873889	0.220699
542.088912	0.221768
542.303916	0.222629
542.518902	0.223173
542.733870	0.223377
542.948820	0.224465
543.163752	0.224370
543.378665	0.225029
543.593560	0.225234
543.808437	0.225403
544.023295	0.225222
544.238136	0.225389
544.452958	0.225566
544.667762	0.225435
544.882548	0.224862
545.097315	0.225613
545.312064	0.226142
545.526795	0.226642
545.741508	0.227136
545.956203	0.227109
546.170879	0.227345
546.385537	0.227881
546.600177	0.228282
546.814799	0.228357
547.029402	0.228445
547.243988	0.228628
547.458555	0.229152
547.673103	0.229398
547.887634	0.229761
548.102146	0.230002
548.316640	0.230106
548.531116	0.230854
548.745574	0.232004
548.960013	0.232252
549.174435	0.232565
549.388838	0.232530
549.603222	0.232691
549.817589	0.233591
550.031937	0.234265
550.246267	0.234851
550.460579	0.235173
550.674873	0.235200
550.889148	0.235197
551.103405	0.235370
551.317644	0.235962
551.531865	0.236544
551.746068	0.236327
551.960252	0.236285
552.174418	0.235782
552.388566	0.235983
552.602696	0.235829
552.816807	0.236526
553.030900	0.236703
553.244975	0.236621
553.459032	0.236822
553.673070	0.236966
553.887091	0.237023
554.101093	0.237140
554.315077	0.236787
554.529042	0.237351
554.742990	0.236981
554.956919	0.236984
555.170830	0.236884
555.384722	0.236872
555.598597	0.237053
555.812453	0.236958
556.026291	0.237724
556.240111	0.238380
556.453913	0.238447
556.667696	0.238722
556.881461	0.239456
557.095208	0.239943
557.308937	0.239906
557.522647	0.239971
557.736339	0.240601
557.950013	0.240376
558.163669	0.240195
558.377307	0.240299
558.590926	0.240862
558.804527	0.240455
559.018110	0.240903
559.231675	0.240962
559.445221	0.241126
559.658749	0.241376
559.872259	0.241680
560.085751	0.241944
560.299225	0.242330
560.512680	0.242093
560.726117	0.242395
560.939536	0.241985
561.152937	0.242013
561.366319	0.241827
561.579683	0.241719
561.793029	0.242017
562.006357	0.242264
562.219667	0.242009
562.432958	0.242126
562.646231	0.242335
562.859486	0.242901
563.072723	0.243520
563.285941	0.243634
563.499141	0.243892
563.712323	0.244015
563.925487	0.244173
564.138632	0.244598
564.351760	0.244897
564.564869	0.245098
564.777960	0.245130
564.991032	0.245092
565.204087	0.245891
565.417123	0.246094
565.630141	0.245780
565.843140	0.245914
566.056122	0.245879
566.269085	0.245827
566.482030	0.246194
566.694957	0.246352
566.907866	0.246663
567.120756	0.246457
567.333628	0.246348
567.546482	0.246780
567.759318	0.246476
567.972135	0.246831
568.184935	0.247032
568.397716	0.246943
568.610478	0.247332
568.823223	0.247617
569.035949	0.247852
569.248657	0.247869
569.461347	0.248312
569.674019	0.248913
569.886672	0.249231
570.099308	0.249556
570.311925	0.249428
570.524523	0.249337
570.737104	0.249142
570.949666	0.249064
571.162210	0.249979
571.374736	0.250239
571.587244	0.250354
571.799733	0.250289
572.012205	0.250903
572.224658	0.251565
572.437092	0.251797
572.649509	0.252167
572.861907	0.252598
573.074287	0.252355
573.286649	0.252268
573.498993	0.252657
573.711318	0.253051
573.923625	0.252385
574.135914	0.252236
574.348185	0.252047
574.560438	0.252345
574.772672	0.252508
574.984888	0.252856
575.197086	0.253343
575.409266	0.252799
575.621427	0.252658
575.833570	0.253421
576.045695	0.253588
576.257802	0.254177
576.469890	0.254185
576.681961	0.254282
576.894013	0.254156
577.106046	0.253815
577.318062	0.253821
577.530059	0.254106
577.742039	0.254090
577.954000	0.254106
578.165942	0.253909
578.377867	0.254224
578.589773	0.254629
578.801661	0.254899
579.013531	0.255272
579.225382	0.255982
579.437216	0.256375
579.649031	0.256549
579.860828	0.256849
580.072606	0.257120
580.284367	0.257147
580.496109	0.257169
580.707833	0.257473
580.919539	0.257413
581.131227	0.257683
581.342896	0.257675
581.554547	0.257483
581.766180	0.257673
581.977795	0.257957
582.189391	0.257949
582.400969	0.258092
582.612529	0.258426
582.824071	0.258691
583.035595	0.258880
583.247100	0.259253
583.458587	0.259639
583.670056	0.260048
583.881506	0.259784
584.092939	0.259764
584.304353	0.259424
584.515749	0.259115
584.727127	0.259851
584.938486	0.259834
585.149828	0.259917
585.361151	0.260189
585.572456	0.260221
585.783742	0.260675
585.995011	0.261256
586.206261	0.261897
586.417493	0.262275
586.628706	0.261947
586.839902	0.262087
587.051079	0.261908
587.262238	0.262042
587.473379	0.262282
587.684502	0.262557
587.895606	0.262413
588.106692	0.262263
588.317760	0.262339
588.528810	0.262740
588.739841	0.263337
588.950855	0.263718
589.161850	0.264117
589.372827	0.264119
589.583785	0.264548
589.794726	0.265241
590.005648	0.265782
590.216552	0.266244
590.427437	0.266434
590.638305	0.266478
590.849154	0.266534
591.059985	0.266538
591.270798	0.266591
591.481592	0.266366
591.692369	0.266468
591.903127	0.266877
592.113867	0.266803
592.324588	0.267222
592.535292	0.267184
592.745977	0.267334
592.956644	0.267780
593.167293	0.268411
593.377923	0.269187
593.588536	0.269092
593.799130	0.269135
594.009706	0.269638
594.220263	0.269571
594.430803	0.269802
594.641324	0.270518
594.851827	0.270548
595.062312	0.270740
595.272778	0.270431
595.483227	0.270791
595.693657	0.270841
595.904069	0.270798
596.114462	0.270961
596.324838	0.271337
596.535195	0.271057
596.745534	0.271146
596.955855	0.271361
597.166157	0.271456
597.376441	0.271754
597.586707	0.271868
597.796955	0.272189
598.007185	0.272537
598.217396	0.272346
598.427589	0.273033
598.637764	0.273184
598.847921	0.273225
599.058060	0.273703
599.268180	0.273966
599.478282	0.274364
599.688366	0.274577
599.898431	0.274526
600.108479	0.275222
600.318508	0.275142
600.528519	0.275732
600.738511	0.275670
600.948486	0.275909
601.158442	0.275834
601.368380	0.276214
601.578300	0.276383
601.788202	0.276607
601.998085	0.276714
602.207950	0.277105
602.417797	0.277013
602.627626	0.277513
602.837436	0.277696
603.047228	0.278033
603.257002	0.278246
603.466758	0.278665
603.676496	0.278950
603.886215	0.279378
604.095916	0.279545
604.305599	0.279935
604.515264	0.280118
604.724910	0.280142
604.934538	0.280106
605.144148	0.280108
605.353740	0.280002
605.563314	0.280016
605.772869	0.279858
605.982406	0.279988
606.191925	0.279986
606.401425	0.279923
606.610908	0.280179
606.820372	0.280375
607.029818	0.280694
607.239246	0.280924
607.448655	0.281434
607.658047	0.281551
607.867420	0.281377
608.076775	0.281677
608.286111	0.281941
608.495430	0.282347
608.704730	0.282855
608.914012	0.282947
609.123275	0.282665
609.332521	0.282782
609.541748	0.283004
609.750957	0.283185
609.960148	0.283334
610.169321	0.283547
610.378475	0.283139
610.587611	0.283478
610.796729	0.283811
611.005829	0.284449
611.214910	0.284608
611.423974	0.285179
611.633019	0.285434
611.842045	0.285510
612.051054	0.285544
612.260044	0.285837
612.469017	0.285816
612.677970	0.285924
612.886906	0.286000
613.095824	0.286254
613.304723	0.285986
613.513604	0.286597
613.722467	0.286912
613.931311	0.287379
614.140138	0.287713
614.348946	0.287643
614.557736	0.287772
614.766507	0.288134
614.975261	0.288062
615.183996	0.288460
615.392713	0.288175
615.601412	0.288542
615.810092	0.288561
616.018754	0.289033
616.227399	0.289071
616.436024	0.288825
616.644632	0.288737
616.853222	0.289076
617.061793	0.288874
617.270346	0.288961
617.478880	0.288607
617.687397	0.288739
617.895895	0.288919
618.104375	0.289232
618.312837	0.289702
618.521281	0.290203
618.729706	0.290182
618.938113	0.290572
619.146502	0.290953
619.354873	0.291375
619.563226	0.291718
619.771560	0.291502
619.979876	0.291951
620.188174	0.292404
620.396453	0.292105
620.604715	0.292312
620.812958	0.292280
621.021183	0.292366
621.229390	0.292816
621.437578	0.292830
621.645748	0.293217
621.853900	0.293475
622.062034	0.293255
622.270150	0.293453
622.478247	0.293672
622.686326	0.294512
622.894387	0.294706
623.102430	0.294558
623.310454	0.294661
623.518461	0.294861
623.726449	0.294558
623.934418	0.294822
624.142370	0.295057
624.350303	0.295331
624.558218	0.295032
624.766115	0.295167
624.973994	0.295417
625.181855	0.295748
625.389697	0.296060
625.597521	0.296418
625.805327	0.296996
626.013114	0.297358
626.220883	0.297524
626.428634	0.297833
626.636367	0.298142
626.844082	0.298232
627.051778	0.298657
627.259457	0.298641
627.467117	0.299298
627.674758	0.299529
627.882382	0.299852
628.089987	0.300410
628.297574	0.300710
628.505143	0.301098
628.712694	0.301233
628.920226	0.301135
629.127740	0.301262
629.335236	0.301270
629.542714	0.301329
629.750174	0.301552
629.957615	0.301162
630.165038	0.301497
630.372443	0.301653
630.579829	0.301854
630.787198	0.301905
630.994548	0.302455
631.201880	0.302522
631.409194	0.302646
631.616489	0.302723
631.823766	0.303081
632.031025	0.303116
632.238266	0.303236
632.445489	0.303571
632.652693	0.303910
632.859879	0.303823
633.067047	0.304091
633.274197	0.304349
633.481329	0.304545
633.688442	0.304691
633.895537	0.304903
634.102614	0.305125
634.309672	0.305083
634.516713	0.305564
634.723735	0.305849
634.930739	0.305921
635.137724	0.305933
635.344692	0.305890
635.551641	0.306418
635.758572	0.306429
635.965485	0.306788
636.172379	0.307177
636.379256	0.307214
636.586114	0.307192
636.792954	0.307092
636.999775	0.307656
637.206579	0.308050
637.413364	0.307870
637.620131	0.307983
637.826880	0.308074
638.033610	0.308145
638.240323	0.307984
638.447017	0.308189
638.653692	0.308747
638.860350	0.308457
639.066990	0.308694
639.273611	0.308927
639.480214	0.309028
639.686798	0.309194
639.893365	0.309384
640.099913	0.310010
640.306443	0.310431
640.512955	0.310549
640.719449	0.310711
640.925924	0.310898
641.132381	0.311299
641.338820	0.311595
641.545241	0.311481
641.751644	0.311739
641.958028	0.311751
642.164394	0.311775
642.370742	0.312028
642.577071	0.312413
642.783383	0.312518
642.989676	0.312582
643.195951	0.312855
643.402207	0.313460
643.608446	0.313590
643.814666	0.313895
644.020868	0.314000
644.227052	0.314190
644.433218	0.314215
644.639365	0.314120
644.845494	0.314353
645.051605	0.314606
645.257698	0.314407
645.463772	0.314845
645.669828	0.314781
645.875866	0.315103
646.081886	0.315099
646.287888	0.315187
646.493871	0.315547
646.699836	0.315476
646.905783	0.315426
647.111712	0.315730
647.317622	0.315665
647.523514	0.316096
647.729388	0.316100
647.935244	0.316390
648.141082	0.316866
648.346901	0.317195
648.552702	0.317663
648.758485	0.318253
648.964250	0.318512
649.169996	0.318613
649.375724	0.318724
649.581434	0.319201
649.787126	0.319448
649.992800	0.319553
650.198455	0.319811
650.404092	0.319898
650.609711	0.319766
650.815311	0.319738
651.020894	0.320298
651.226458	0.320602
651.432004	0.320909
651.637532	0.321068
651.843041	0.321544
652.048532	0.321731
652.254006	0.321868
652.459460	0.322175
652.664897	0.322822
652.870315	0.322930
653.075716	0.323236
653.281097	0.323395
653.486461	0.323912
653.691807	0.323975
653.897134	0.324283
654.102443	0.324675
654.307734	0.324991
654.513006	0.324977
654.718261	0.325146
654.923497	0.325148
655.128715	0.325221
655.333915	0.325104
655.539096	0.325364
655.744259	0.325420
655.949404	0.325590
656.154531	0.325569
656.359640	0.325654
656.564730	0.325668
656.769802	0.325781
656.974856	0.325952
657.179892	0.326242
657.384909	0.326212
657.589908	0.326425
657.794889	0.326401
657.999852	0.326913
658.204797	0.327271
658.409723	0.327559
658.614631	0.327972
658.819521	0.328116
659.024393	0.328314
659.229246	0.328686
659.434081	0.328759
659.638898	0.329135
659.843697	0.329072
660.048478	0.329045
660.253240	0.329169
660.457984	0.329052
660.662710	0.329266
660.867417	0.329284
661.072107	0.329343
661.276778	0.329747
661.481431	0.329924
661.686066	0.330078
661.890682	0.330615
662.095281	0.331094
662.299861	0.331690
662.504422	0.332049
662.708966	0.332256
662.913491	0.332468
663.117999	0.332423
663.322488	0.332678
663.526958	0.333263
663.731411	0.333282
663.935845	0.333395
664.140261	0.333488
664.344659	0.333664
664.549038	0.334100
664.753400	0.334225
664.957743	0.334881
665.162068	0.335314
665.366375	0.335535
665.570663	0.335909
665.774933	0.336193
665.979185	0.336506
666.183419	0.336922
666.387635	0.337301
666.591832	0.337812
666.796011	0.337945
667.000172	0.338053
667.204315	0.338315
667.408439	0.338791
667.612545	0.339090
667.816634	0.339288
668.020703	0.339527
668.224755	0.339708
668.428788	0.339606
668.632803	0.339877
668.836800	0.340084
669.040779	0.340314
669.244739	0.340084
669.448681	0.340225
669.652605	0.340360
669.856511	0.340494
670.060399	0.340558
670.264268	0.340978
670.468119	0.341159
670.671952	0.341297
670.875767	0.341279
671.079563	0.341768
671.283341	0.342066
671.487101	0.342396
671.690843	0.342471
671.894567	0.342553
672.098272	0.342764
672.301959	0.343055
672.505628	0.343307
672.709278	0.343711
672.912911	0.343761
673.116525	0.343862
673.320121	0.344157
673.523699	0.344435
673.727258	0.344863
673.930799	0.345189
674.134322	0.345452
674.337827	0.345830
674.541314	0.346153
674.744782	0.346352
674.948232	0.346525
675.151664	0.346778
675.355078	0.346966
675.558474	0.347259
675.761851	0.347502
675.965210	0.347546
676.168551	0.347850
676.371873	0.347946
676.575178	0.348309
676.778464	0.348659
676.981732	0.348584
677.184981	0.349085
677.388213	0.349465
677.591426	0.349766
677.794621	0.350134
677.997798	0.350324
678.200956	0.350704
678.404097	0.351054
678.607219	0.351379
678.810323	0.351961
679.013408	0.352417
679.216476	0.352269
679.419525	0.352211
679.622556	0.352510
679.825569	0.352531
680.028563	0.352350
680.231540	0.352362
680.434498	0.352696
680.637438	0.352739
680.840359	0.352501
681.043263	0.352818
681.246148	0.353281
681.449015	0.353397
681.651864	0.354028
681.854694	0.354480
682.057506	0.354768
682.260301	0.355052
682.463076	0.355654
682.665834	0.356355
682.868573	0.356828
683.071295	0.356980
683.273998	0.357102
683.476682	0.357235
683.679349	0.357527
683.881997	0.358108
684.084627	0.358387
684.287239	0.358402
684.489833	0.358005
684.692408	0.358194
684.894965	0.358494
685.097504	0.358840
685.300025	0.358895
685.502527	0.359238
685.705012	0.359237
685.907478	0.359256
686.109925	0.359574
686.312355	0.360161
686.514766	0.360341
686.717159	0.360702
686.919534	0.361023
687.121891	0.361193
687.324230	0.361277
687.526550	0.361671
687.728852	0.361958
687.931136	0.362051
688.133401	0.362177
688.335649	0.362266
688.537878	0.362169
688.740089	0.362196
688.942281	0.362301
689.144456	0.362336
689.346612	0.362272
689.548750	0.362304
689.750870	0.362443
689.952971	0.362283
690.155055	0.362498
690.357120	0.362805
690.559167	0.362964
690.761195	0.363318
690.963206	0.363855
691.165198	0.363973
691.367172	0.364342
691.569128	0.364373
691.771065	0.365321
691.972984	0.365697
692.174885	0.366172
692.376768	0.366559
692.578633	0.366714
692.780479	0.366694
692.982308	0.367052
693.184118	0.366960
693.385909	0.367236
