sample name	sample
index	855
start time	 04-08-2021  11:00:40 AM
880	0.400488
Peak Time (s)	102.537
Peak Height 	0.4005
calc peak height	100,103
Baseline Time (s)	9.536
Baseline Value 	-0.002043
subtract baseline	10,4
Abs	0.292572
Peak Time (s)	102.037
Peak Height 	0.2926
calc peak height	100,103
Baseline Time (s)	11.537
Baseline Value 	0.002469
subtract baseline	10,3
PK_550	0.149054
Peak Time (s)	102.537
Peak Height 	0.1491
calc peak height	100,103
Baseline Time (s)	9.536
Baseline Value 	2.5369E-4
subtract baseline	10,2
PK_880	0.267632
Peak Time (s)	101.537
Peak Height 	0.2676
calc peak height	100,103
Baseline Time (s)	11.537
Baseline Value 	0.001959
subtract baseline	10,1


Time (s)	A880-A510	A880-A775	A880-A975	A880	I510	I775	I975	I880	
0.036000	-0.004661	-0.000955	-0.001614	0.003307	6820.311541	42352.576586	3846.994941	22586.054771
0.536500	-0.002394	-0.000330	-0.003583	0.003947	6835.781870	42351.208979	3839.944353	22556.744090
1.036000	-0.002877	-0.000836	-0.004111	0.002661	6843.445023	42422.466321	3841.986904	22615.683108
1.537000	-0.004478	-0.001189	0.002762	0.004153	6814.025847	42254.155701	3856.606352	22547.337002
2.037000	-0.000826	-0.000329	-0.002498	0.000704	6881.879660	42648.355694	3851.667360	22705.721135
2.537500	0.001223	0.000232	-0.004217	0.000330	6905.275649	42734.399532	3848.009761	22722.934472
3.035500	-0.000981	-0.000085	-0.002894	-0.001745	6904.037720	42896.735177	3857.267447	22818.932915
3.535000	-0.003087	-0.000724	0.003799	0.004431	6824.584581	42271.213489	3858.681661	22534.624270
4.035500	-0.000546	-0.000616	0.001687	-0.000671	6897.850991	42748.454790	3866.896968	22769.187742
4.535500	-0.000512	-0.000491	-0.010496	-0.000341	6894.986388	42729.527683	3832.889634	22753.911897
5.036000	-0.000613	-0.000402	-0.000473	0.000103	6889.721473	42696.873847	3858.834417	22733.411134
5.536000	-0.001061	-0.000061	0.003241	0.000492	6881.654061	42692.577466	3867.976392	22715.495594
6.036500	-0.000891	-0.000662	-0.003615	-0.000327	6891.189546	42712.526145	3851.430327	22753.276805
6.537000	-0.001469	-0.000750	0.001768	0.000166	6880.864365	42659.049698	3864.815031	22730.508444
7.037000	-0.002810	0.000026	-0.001240	0.000403	6865.690487	42708.683447	3855.916631	22719.566589
7.537500	-0.001285	0.000226	-0.002875	0.000398	6880.405559	42727.611250	3851.474497	22719.830003
8.035000	-0.002156	0.000241	-0.002344	0.000337	6872.614241	42734.634604	3853.085569	22722.635382
8.535500	0.000314	0.000253	0.000446	0.000489	6894.944638	42721.641328	3860.296417	22715.602711
9.036000	-0.001370	-0.000411	0.000809	-0.000175	6885.103512	42721.679854	3863.114638	22746.250841
9.536000	0.000733	0.000000	-0.003284	0.000000	6903.730647	42743.430505	3851.442342	22738.180269
10.036000	0.002602	0.000713	0.000435	0.001117	6911.018690	42706.162433	3858.544554	22686.655040
10.536500	-0.001315	0.000331	-0.001539	0.000506	6879.066935	42727.330676	3854.819098	22714.826392
11.037000	-0.001827	-0.000830	-0.000411	-0.000180	6880.748849	42683.553616	3859.781157	22746.496238
11.537000	0.000000	-0.000295	0.000000	-0.000387	6900.378827	42751.860668	3861.474871	22756.042988
12.037000	-0.001257	-0.000972	-0.002869	-0.000042	6884.914525	42657.874464	3852.688120	22740.129103
12.535000	-0.000661	-0.000003	0.000954	-0.000030	6890.542197	42745.854637	3863.115464	22739.546138
13.035000	-0.000385	0.000079	-0.003350	-0.001823	6910.560624	42919.128788	3856.234225	22822.529987
13.538000	0.000168	-0.000664	0.003738	-0.000984	6907.791922	42772.886435	3873.433191	22783.657304
14.035500	-0.000488	0.000314	-0.000015	0.000586	6886.268761	42718.375967	3858.767162	22711.151683
14.536000	-0.000817	0.000284	-0.001191	0.002925	6860.620240	42500.718544	3849.178593	22603.554236
15.036000	-0.000519	0.000966	0.005389	0.000385	6887.901068	42797.010370	3874.213594	22720.392630
15.547000	-0.001168	-0.000058	0.000901	-0.000731	6892.424164	42805.482592	3864.897158	22771.975432
16.037000	0.000511	-0.000025	0.000131	0.000510	6896.642955	42694.101226	3859.374533	22714.628822
16.537000	-0.000787	-0.000289	-0.000265	-0.000929	6898.007221	42802.379427	3862.234308	22781.102135
17.037500	-0.001961	-0.000066	-0.001527	-0.000894	6886.337537	42819.838567	3858.680767	22779.503983
17.535000	-0.000438	-0.000649	0.002997	-0.000477	6897.020633	42727.618044	3869.978525	22760.234963
18.038500	-0.000786	0.000413	-0.003319	0.001087	6878.566329	42681.386895	3848.393388	22688.042782
18.535500	-0.001963	-0.000056	-0.001684	0.001325	6864.979153	42616.422146	3852.194119	22677.113705
19.035500	-0.000917	0.000229	0.000233	0.002091	6867.666479	42572.212661	3855.330898	22641.883577
19.536000	-0.001548	-0.000456	0.003705	0.001668	6865.664497	42548.143732	3866.011750	22661.312560
20.036500	-0.002633	-0.000374	0.000700	0.001066	6861.036358	42610.971423	3859.410975	22689.024401
20.537000	-0.001759	-0.000090	0.000572	0.001468	6865.559653	42600.122310	3857.959269	22670.496209
21.037000	-0.001564	0.000255	-0.000702	0.001780	6864.441194	42603.166332	3853.626976	22656.156051
21.534500	-0.000202	0.000328	0.000222	0.002152	6873.940413	42575.725509	3855.132475	22639.053377
22.034500	-0.001387	0.000801	-0.003999	0.002673	6857.576383	42571.345247	3842.259932	22615.146557
22.535000	-0.001294	0.000131	-0.002062	0.001460	6870.096189	42621.098272	3850.793796	22670.869780
23.035000	-0.002628	-0.000748	0.005541	0.001292	6858.914463	42555.879536	3872.123189	22678.626040
23.535000	-0.000039	0.000003	0.000289	0.001534	6881.456427	42602.562318	3857.005230	22667.456500
24.036000	-0.000717	-0.000053	-0.000035	0.001264	6877.537102	42622.276582	3856.859773	22679.922757
24.536000	-0.001969	0.000634	-0.001001	0.001889	6859.507216	42627.956775	3852.515913	22651.149193
25.036500	-0.000969	0.000933	-0.001216	0.002435	6863.865486	42605.260524	3850.444580	22626.083126
25.537000	-0.001118	0.000274	0.002237	0.001700	6869.489403	42612.241506	3861.887950	22659.859126
26.037500	-0.003810	-0.000753	-0.000234	0.000978	6850.605296	42584.203335	3857.096135	22693.081405
26.537500	-0.000633	0.000259	0.002491	0.001680	6874.336521	42612.743274	3862.640777	22660.766507
27.035000	0.000171	0.001206	-0.001147	0.002351	6875.619461	42637.984490	3850.859535	22629.904654
27.538000	-0.001522	0.000635	-0.001553	0.001857	6864.101264	42630.911954	3851.100184	22652.601092
28.038500	0.001446	0.000531	0.001825	-0.001177	6922.071706	42901.153342	3868.673394	22792.598138
28.534500	0.000048	-0.000116	0.001732	-0.000739	6904.247657	42800.824612	3867.208158	22772.310654
29.036000	-0.000760	-0.000141	0.002508	-0.000355	6892.721752	42763.080353	3868.290750	22754.560554
29.536000	-0.002079	-0.000196	-0.000184	0.003497	6843.081475	42404.575562	3850.364037	22577.360778
30.036500	-0.000899	0.000336	0.001794	-0.000325	6891.099030	42804.403892	3866.239781	22753.208067
30.535500	-0.000217	0.000033	0.001119	-0.000392	6898.328573	42782.552679	3864.562970	22756.270544
31.037500	0.000069	0.000009	-0.003163	-0.000719	6904.257538	42810.499334	3853.731102	22771.390305
31.552000	-0.000486	-0.000363	0.002124	-0.001132	6902.889517	42814.330587	3869.375509	22790.514546
32.040500	-0.000418	0.000788	-0.003549	0.003212	6861.696554	42520.670994	3842.020420	22590.433158
32.535000	-0.001281	-0.000749	0.002717	-0.000961	6893.550480	42763.027728	3870.542775	22782.614439
33.066000	-0.000298	-0.000028	-0.002144	-0.000585	6899.422773	42794.869448	3856.148569	22765.229036
33.541500	-0.001806	0.000410	0.002228	0.003445	6846.183881	42464.688585	3857.082313	22579.746354
34.038500	0.000399	0.000555	0.004342	0.001631	6884.742336	42644.365120	3867.871508	22663.008236
34.539000	-0.000733	0.000671	0.001143	0.000008	6889.478877	42804.582549	3863.531177	22737.806155
35.036500	0.000432	0.000578	0.003535	-0.000235	6903.090807	42818.414857	3870.796041	22749.015488
35.580500	-0.002647	-0.000353	-0.001650	0.003640	6836.303871	42377.164165	3845.994855	22570.804016
36.037000	-0.001426	0.000484	0.002611	0.002456	6859.279592	42562.170279	3860.841198	22625.113987
36.534500	-0.002041	-0.000322	0.003693	0.001792	6859.750256	42549.103999	3865.638796	22655.604132
37.034500	-0.002067	-0.000409	0.000151	0.001652	6860.836205	42553.966271	3856.304922	22662.034225
37.535500	-0.002654	-0.001194	-0.002182	0.001292	6858.657836	42514.977692	3850.923846	22678.594787
38.038500	-0.001046	0.000119	0.001950	0.002170	6865.660644	42554.822461	3859.809852	22638.218102
38.536000	-0.001835	-0.000424	0.002868	0.001489	6864.623610	42567.533129	3864.201274	22669.528093
39.036500	-0.003077	0.000324	0.000045	0.002310	6844.878016	42560.784930	3854.219319	22631.784695
39.542000	-0.001097	-0.000398	0.003168	0.001760	6869.112318	42545.086966	3864.283693	22657.100703
40.036500	-0.001627	-0.000296	0.000897	0.001638	6865.200750	42565.634257	3858.384362	22662.709597
40.537500	-0.002432	-0.000240	0.001323	0.001841	6855.533789	42552.180394	3858.995125	22653.365412
41.054000	-0.001101	0.000163	0.002131	0.002234	6864.530079	42553.107354	3860.131423	22635.310776
41.535500	-0.001046	0.000722	-0.000744	0.002350	6863.945429	42593.747960	3851.961131	22629.977059
42.038500	-0.001375	0.000957	0.001874	0.002664	6857.770559	42586.458076	3858.250405	22615.544402
42.535000	-0.000237	0.000083	0.000598	0.001904	6875.996497	42576.027819	3856.839565	22650.477853
43.036000	-0.002246	-0.000735	0.004121	0.001841	6857.309331	42506.712178	3866.680728	22653.342881
43.536000	-0.003841	0.000048	0.000705	0.002328	6837.421045	42533.876363	3855.973213	22630.977543
44.036000	-0.001826	-0.000369	-0.000079	0.001796	6861.769580	42544.349869	3855.281013	22655.400788
44.537000	-0.003171	0.000125	0.000205	0.001949	6847.439597	42575.746677	3855.641504	22648.396995
45.037000	-0.003215	-0.000140	-0.002341	0.002034	6846.207350	42543.603343	3848.478509	22644.481877
45.537500	-0.000227	-0.000775	0.003316	0.000062	6893.841051	42666.377284	3869.368968	22735.311811
46.035000	-0.001009	-0.000021	0.004261	0.000521	6881.875361	42693.561244	3870.715653	22714.145665
46.535000	-0.000982	-0.000227	0.000956	-0.000596	6892.913308	42777.439679	3864.678595	22765.722510
47.036500	-0.000611	0.000121	0.003269	-0.000439	6894.975914	42795.022031	3870.625108	22758.448292
47.535000	-0.000849	-0.000157	-0.000926	-0.000716	6895.356655	42794.979917	3859.838031	22771.281232
48.036000	-0.003245	0.000455	0.003711	0.002917	6837.486907	42517.191361	3862.591718	22603.925310
48.536500	-0.001480	0.000242	0.003408	-0.000144	6883.746410	42779.021355	3870.193405	22744.836962
49.036500	-0.000306	0.000710	0.004094	-0.000163	6895.253243	42823.977861	3872.144293	22745.694317
49.537000	-0.001233	-0.000148	0.005079	0.003189	6854.110133	42437.031642	3865.606486	22591.464261
50.037000	-0.001288	-0.000137	0.002213	0.002874	6856.594736	42466.838552	3858.600671	22605.897728
50.537000	-0.000187	0.000027	0.001533	-0.000082	6895.629291	42753.490282	3864.850578	22741.982672
51.035000	-0.000358	0.000361	-0.000595	0.000145	6891.776025	42763.329049	3858.386773	22731.485312
51.536000	0.000443	0.000680	-0.000577	0.000858	6892.633459	42727.018442	3856.484410	22698.600449
52.038500	-0.000122	0.000830	0.002934	0.001805	6878.047244	42653.654457	3863.511639	22654.986095
52.536500	0.002056	0.001046	0.004740	0.000459	6912.104984	42797.583201	3872.209963	22716.995564
53.035500	-0.001812	-0.002050	0.003784	-0.006484	6942.050854	43154.145522	3888.905478	23039.818938
53.536000	-0.047657	-0.019663	0.041233	0.264349	4745.092967	23531.951029	3381.974782	13595.209721
54.039500	-0.044408	-0.017332	0.010301	0.015254	6357.756678	39850.392607	3846.909371	22046.078656
54.537000	-0.045561	-0.018477	-0.003903	-0.080116	7244.330923	48846.586770	4088.858131	26800.671601
55.037500	-0.021211	-0.015570	-0.001426	-0.116763	7929.828975	53244.877187	4222.656700	28923.948063
55.537500	-0.019228	-0.011185	0.001160	-0.082338	7553.277329	49868.214977	4112.866743	26924.373339
56.040500	-0.014332	-0.011433	-0.003805	-0.109052	7919.814870	52830.667412	4186.989614	28462.159136
56.538500	-0.004678	-0.010138	-0.001186	-0.124626	8232.119519	54815.461144	4251.909263	29403.348025
57.051500	0.009468	-0.006452	0.001720	-0.133873	8538.356168	56390.036921	4296.813378	29978.302640
57.538000	0.012665	-0.002993	0.009728	-0.112193	8295.040886	54184.947344	4246.383196	28649.287352
58.036500	0.021040	-0.001805	0.014717	-0.120767	8517.773447	55354.853264	4296.405567	29166.983678
58.536500	0.028259	0.006301	0.026575	-0.072569	7993.780409	50713.533562	4165.815145	26385.235301
59.036500	0.047661	0.017432	0.039855	-0.049630	7950.812794	49426.212303	4132.899870	25165.856947
59.539000	0.048696	0.019868	0.040802	-0.028042	7708.032506	47411.259802	4064.979568	24075.709577
60.037500	0.048983	0.020363	0.045278	-0.015649	7570.314500	46203.551010	4039.769055	23473.927910
60.551000	0.052266	0.023054	0.050159	-0.005393	7492.726481	45452.807262	4022.918393	22988.769165
61.036500	0.054321	0.024471	0.055791	0.004937	7402.234605	44584.646985	4008.354322	22511.500781
61.536000	0.056977	0.026773	0.058540	0.017060	7300.812739	43648.639162	3979.767500	21965.729026
62.036000	0.059060	0.028217	0.063839	0.026544	7223.037066	42897.898820	3967.201276	21549.250464
62.536500	0.064662	0.029769	0.066359	0.037089	7171.833457	42074.547666	3943.443314	21096.714100
63.036500	0.064618	0.030577	0.070526	0.046368	7076.817051	41314.269438	3928.533848	20707.488252
63.536500	0.067642	0.033078	0.072240	0.056649	7004.268892	40629.115950	3903.944460	20285.870260
64.037000	0.070401	0.034629	0.082605	0.065530	6943.998337	39994.743668	3908.169459	19929.616298
64.537000	0.075063	0.037858	0.087010	0.074997	6897.277162	39463.132763	3893.812900	19557.740117
65.035000	0.076639	0.037696	0.085381	0.080202	6862.340445	39011.923259	3874.702483	19356.755082
65.535000	0.080580	0.040554	0.093882	0.087294	6832.232614	38659.772329	3878.616963	19086.714726
66.035000	0.085151	0.043908	0.098698	0.095653	6796.325071	38247.931113	3868.793082	18774.018959
66.537500	0.091619	0.046711	0.100932	0.100515	6811.516984	38079.988739	3861.558341	18594.936621
67.036000	0.095999	0.048629	0.106238	0.105693	6803.964606	37815.484598	3861.908762	18406.347746
67.535500	0.099824	0.051543	0.113894	0.111153	6788.544228	37610.454183	3867.954599	18209.960291
68.036000	0.100876	0.051660	0.114118	0.115445	6758.143554	37276.601168	3856.782088	18057.276710
68.537000	0.105686	0.055351	0.116952	0.119786	6762.523316	37224.942789	3852.667153	17904.375105
69.037000	0.108783	0.056150	0.117854	0.122680	6764.425393	37058.873450	3847.255506	17803.306061
69.542500	0.111183	0.058765	0.120091	0.127585	6741.045462	36878.319742	3840.042179	17633.523686
70.034500	0.113805	0.060207	0.129208	0.131842	6725.846928	36657.608024	3853.210729	17487.685104
70.543500	0.121572	0.063441	0.129797	0.136648	6753.404838	36535.059451	3841.776914	17324.807255
71.035500	0.124680	0.064522	0.129955	0.140375	6747.625235	36329.608421	3832.183611	17199.710648
71.538500	0.125196	0.066986	0.140875	0.145277	6706.937919	36141.504854	3848.404129	17036.798270
72.036000	0.128053	0.069014	0.140724	0.149784	6691.734345	35951.247347	3835.825356	16888.602416
72.536000	0.133426	0.071079	0.145542	0.154848	6694.569056	35722.526008	3835.164640	16723.942654
73.037000	0.136673	0.072614	0.150898	0.159004	6686.227180	35523.995993	3838.394442	16590.266207
73.539500	0.139166	0.073776	0.151923	0.163887	6664.333998	35244.153657	3828.055525	16434.789582
74.037500	0.145383	0.076115	0.152546	0.168385	6680.065501	35082.857545	3817.764978	16293.114426
74.537500	0.144454	0.078003	0.158304	0.172396	6635.026733	34925.017007	3822.393228	16168.006539
75.037500	0.148374	0.081091	0.164694	0.178369	6616.457801	34711.804502	3823.498507	15983.827158
75.538500	0.153201	0.082300	0.160507	0.183141	6616.959890	34450.404918	3799.936023	15838.502772
76.035500	0.155892	0.083708	0.168547	0.187364	6603.166582	34245.465433	3809.918667	15711.236146
76.536000	0.158452	0.084598	0.165414	0.191198	6591.724968	34032.501880	3791.770017	15596.749456
77.036000	0.160802	0.086650	0.172008	0.196391	6566.321365	33806.823079	3795.396442	15443.275777
77.536500	0.163335	0.087894	0.174978	0.200519	6552.138521	33601.070545	3792.396255	15322.573016
78.039500	0.167015	0.090157	0.176031	0.205532	6540.325849	33406.175438	3782.204584	15177.540082
78.537000	0.168132	0.092356	0.177623	0.210627	6505.304298	33202.241081	3773.267195	15031.849433
79.037000	0.172410	0.093356	0.182061	0.215178	6502.909965	32954.050309	3772.978537	14903.126998
79.535000	0.174427	0.095679	0.191179	0.220772	6471.696126	32727.147897	3781.969874	14746.755953
80.035500	0.176804	0.097089	0.187575	0.225737	6449.275756	32482.576982	3760.234857	14609.647246
80.538500	0.179247	0.098300	0.196434	0.229733	6435.890858	32292.278917	3772.516847	14500.430170
81.036000	0.181690	0.099147	0.191072	0.233443	6425.003854	32097.970685	3749.714558	14399.920597
81.536500	0.185402	0.101240	0.199625	0.238733	6411.487085	31882.522536	3757.860509	14258.097538
82.036500	0.188496	0.102592	0.199815	0.243405	6398.020120	31660.497742	3746.686638	14134.265548
82.539500	0.192581	0.104731	0.201235	0.248805	6386.835973	31444.016395	3736.861105	13992.783211
83.037000	0.192897	0.104989	0.203889	0.253915	6346.341004	31124.857151	3730.841105	13860.504252
83.537500	0.194165	0.105482	0.206583	0.256387	6336.247894	30995.761851	3731.386265	13797.087038
84.034500	0.198125	0.107795	0.209230	0.264063	6305.248290	30648.777278	3719.160994	13602.417607
84.535000	0.199940	0.109890	0.212967	0.267483	6291.942644	30563.665674	3719.926147	13516.765818
85.035000	0.203936	0.110763	0.217400	0.272221	6285.810413	30316.998094	3719.188571	13399.249798
85.535500	0.205445	0.111971	0.217450	0.276622	6261.998898	30114.823448	3708.724785	13291.217632
86.035500	0.205595	0.113521	0.221506	0.281880	6220.335765	29881.964738	3705.854716	13163.588898
86.536000	0.210181	0.113971	0.223354	0.285257	6230.148481	29699.458562	3702.211008	13082.411448
87.036500	0.207835	0.114830	0.224640	0.291636	6159.901718	29358.736150	3690.170338	12930.813327
87.536500	0.211930	0.116660	0.227320	0.294831	6167.084966	29275.145029	3688.960554	12855.713760
88.037000	0.212987	0.116877	0.231836	0.299203	6140.703866	29022.304662	3689.299321	12753.833110
88.537000	0.220267	0.120347	0.234610	0.304355	6157.612575	28920.633503	3683.730650	12635.095398
89.035000	0.217094	0.120585	0.232715	0.310261	6086.048335	28580.976809	3665.675471	12500.700898
89.535000	0.222683	0.121054	0.238185	0.311883	6117.133169	28512.379276	3674.541406	12464.101587
90.035000	0.221369	0.121441	0.241619	0.315067	6081.910279	28346.801158	3675.119634	12392.675346
90.536000	0.224375	0.122742	0.239055	0.318527	6078.374165	28219.694599	3661.267438	12315.634498
91.036000	0.223343	0.123113	0.246743	0.325508	6016.575506	27834.553100	3662.883690	12162.066396
91.536000	0.226168	0.125314	0.248397	0.327336	6024.207432	27856.187990	3662.486620	12122.268911
92.039000	0.230478	0.125553	0.246522	0.330648	6031.852896	27678.908342	3650.695464	12050.563193
92.536500	0.231558	0.129558	0.247735	0.336655	5994.255831	27564.169364	3639.925806	11921.918724
93.037500	0.231644	0.129117	0.248526	0.343371	5944.322760	27158.097642	3626.776173	11780.178838
93.540000	0.236964	0.130618	0.254187	0.343094	5986.419354	27258.363987	3639.954725	11785.973899
94.035000	0.239878	0.132142	0.254867	0.348285	5969.234551	27052.051348	3629.928290	11677.855641
94.537000	0.240254	0.133934	0.260268	0.351449	5948.297670	26975.271048	3634.887025	11612.566841
95.035500	0.239014	0.133129	0.260438	0.356932	5898.373937	26626.629505	3623.147424	11500.557623
95.536000	0.244417	0.136699	0.271762	0.359266	5921.071439	26694.800655	3643.096393	11453.319938
96.036000	0.246416	0.135837	0.262960	0.361404	5920.038951	26529.802271	3618.877790	11410.264002
96.539000	0.247880	0.138794	0.267836	0.365179	5902.934831	26484.914083	3621.284808	11334.731724
97.036500	0.248642	0.136750	0.264843	0.370997	5865.849193	26058.637735	3602.172136	11219.646732
