sample name	sample
index	1394
start time	 05-10-2021  10:47:41 AM


Wavelength (nm)	Absorbance
494.344910	-0.206343
494.563924	-0.206343
494.782919	-0.206343
495.001897	0.086869
495.220856	-0.078047
495.439797	-0.054538
495.658719	-0.020521
495.877624	0.021643
496.096510	0.023789
496.315378	0.012891
496.534227	0.007802
496.753059	0.020426
496.971872	-0.012629
497.190667	0.037596
497.409444	0.050293
497.628203	0.054704
497.846943	0.055282
498.065665	0.056162
498.284369	0.056112
498.503055	0.057087
498.721723	0.057178
498.940372	0.058245
499.159003	0.058850
499.377616	0.059343
499.596210	0.059436
499.814787	0.059219
500.033345	0.059193
500.251885	0.059621
500.470406	0.059625
500.688910	0.059127
500.907395	0.059696
501.125862	0.059612
501.344311	0.058332
501.562742	0.058043
501.781154	0.058476
501.999548	0.058304
502.217924	0.058850
502.436282	0.059439
502.654621	0.060473
502.872942	0.059695
503.091245	0.059482
503.309530	0.060485
503.527797	0.059961
503.746045	0.059036
503.964275	0.059271
504.182487	0.059625
504.400681	0.059286
504.618856	0.058850
504.837013	0.060387
505.055152	0.061581
505.273273	0.061455
505.491376	0.061661
505.709460	0.061596
505.927526	0.061935
506.145574	0.061071
506.363604	0.060198
506.581615	0.060690
506.799608	0.059955
507.017583	0.059165
507.235540	0.059247
507.453478	0.058702
507.671399	0.058878
507.889301	0.058469
508.107185	0.059455
508.325050	0.059744
508.542898	0.059071
508.760727	0.058282
508.978538	0.057500
509.196330	0.057346
509.414105	0.058357
509.631861	0.059256
509.849599	0.059864
510.067319	0.059286
510.285021	0.059822
510.502704	0.059732
510.720369	0.060540
510.938016	0.060439
511.155645	0.060238
511.373255	0.059343
511.590848	0.058959
511.808422	0.058371
512.025977	0.059133
512.243515	0.058677
512.461034	0.058621
512.678536	0.058456
512.896018	0.058974
513.113483	0.059864
513.330930	0.060540
513.548358	0.060913
513.765768	0.060885
513.983160	0.060765
514.200533	0.060827
514.417889	0.061395
514.635226	0.061402
514.852545	0.061563
515.069845	0.061900
515.287128	0.062186
515.504392	0.061748
515.721638	0.060966
515.938866	0.061077
516.156075	0.061509
516.373267	0.061611
516.590440	0.061405
516.807594	0.061148
517.024731	0.059901
517.241850	0.059320
517.458950	0.059162
517.676032	0.060130
517.893095	0.059866
518.110141	0.060150
518.327168	0.060173
518.544177	0.060155
518.761168	0.060604
518.978141	0.060725
519.195095	0.061086
519.412031	0.061398
519.628949	0.061200
519.845849	0.061061
520.062731	0.061002
520.279594	0.060935
520.496439	0.061222
520.713266	0.061529
520.930074	0.061949
521.146865	0.062357
521.363637	0.062078
521.580391	0.061714
521.797127	0.061199
522.013844	0.061270
522.230543	0.061581
522.447224	0.061307
522.663887	0.061691
522.880532	0.061516
523.097158	0.061414
523.313766	0.061977
523.530356	0.062817
523.746928	0.063210
523.963481	0.062678
524.180017	0.062691
524.396534	0.062893
524.613032	0.062283
524.829513	0.063111
525.045975	0.063299
525.262420	0.063659
525.478845	0.064217
525.695253	0.064685
525.911643	0.064960
526.128014	0.064507
526.344367	0.064980
526.560702	0.065074
526.777018	0.064057
526.993316	0.064165
527.209597	0.063914
527.425858	0.063863
527.642102	0.063599
527.858328	0.063911
528.074535	0.064289
528.290724	0.064482
528.506894	0.064621
528.723047	0.065104
528.939181	0.064705
529.155297	0.065503
529.371395	0.064723
529.587475	0.065214
529.803536	0.065395
530.019579	0.065356
530.235604	0.064890
530.451611	0.065452
530.667600	0.065808
530.883570	0.066491
531.099522	0.066092
531.315456	0.066706
531.531372	0.066812
531.747269	0.067229
531.963148	0.067705
532.179009	0.068346
532.394852	0.067734
532.610676	0.068215
532.826482	0.067845
533.042271	0.067991
533.258040	0.068380
533.473792	0.068332
533.689525	0.068035
533.905240	0.068152
534.120937	0.067719
534.336616	0.068045
534.552277	0.067398
534.767919	0.067580
534.983543	0.067820
535.199149	0.067726
535.414736	0.067903
535.630306	0.068035
535.845857	0.068184
536.061390	0.068537
536.276904	0.068192
536.492401	0.068735
536.707879	0.068827
536.923339	0.068657
537.138781	0.068502
537.354204	0.068638
537.569610	0.068693
537.784997	0.068292
538.000366	0.068412
538.215716	0.068975
538.431049	0.068736
538.646363	0.068619
538.861659	0.068806
539.076937	0.068978
539.292196	0.068663
539.507438	0.068637
539.722661	0.068687
539.937866	0.068604
540.153052	0.068418
540.368221	0.068471
540.583371	0.068444
540.798503	0.068430
541.013617	0.068217
541.228712	0.068536
541.443789	0.068834
541.658848	0.069353
541.873889	0.069667
542.088912	0.070041
542.303916	0.070095
542.518902	0.070624
542.733870	0.070339
542.948820	0.070533
543.163752	0.070592
543.378665	0.070565
543.593560	0.070200
543.808437	0.070206
544.023295	0.070022
544.238136	0.070178
544.452958	0.070068
544.667762	0.070229
544.882548	0.070138
545.097315	0.069966
545.312064	0.069957
545.526795	0.069952
545.741508	0.070062
545.956203	0.070398
546.170879	0.070845
546.385537	0.070648
546.600177	0.071168
546.814799	0.071676
547.029402	0.071875
547.243988	0.071785
547.458555	0.072228
547.673103	0.072172
547.887634	0.072411
548.102146	0.072080
548.316640	0.072438
548.531116	0.072084
548.745574	0.071858
548.960013	0.072063
549.174435	0.072206
549.388838	0.072271
549.603222	0.072060
549.817589	0.071640
550.031937	0.072196
550.246267	0.072321
550.460579	0.072657
550.674873	0.072646
550.889148	0.072811
551.103405	0.073279
551.317644	0.073288
551.531865	0.073662
551.746068	0.073937
551.960252	0.073639
552.174418	0.073589
552.388566	0.073497
552.602696	0.073838
552.816807	0.073492
553.030900	0.073155
553.244975	0.073473
553.459032	0.073478
553.673070	0.073595
553.887091	0.074060
554.101093	0.074227
554.315077	0.074262
554.529042	0.074085
554.742990	0.074273
554.956919	0.074256
555.170830	0.074364
555.384722	0.074340
555.598597	0.074410
555.812453	0.074345
556.026291	0.074393
556.240111	0.074534
556.453913	0.074934
556.667696	0.074947
556.881461	0.075434
557.095208	0.075379
557.308937	0.075465
557.522647	0.075432
557.736339	0.075106
557.950013	0.075019
558.163669	0.075167
558.377307	0.075257
558.590926	0.075198
558.804527	0.075076
559.018110	0.075018
559.231675	0.075072
559.445221	0.075238
559.658749	0.075480
559.872259	0.075553
560.085751	0.075383
560.299225	0.075297
560.512680	0.075464
560.726117	0.075488
560.939536	0.075457
561.152937	0.075565
561.366319	0.075527
561.579683	0.075475
561.793029	0.075961
562.006357	0.076109
562.219667	0.075955
562.432958	0.075922
562.646231	0.076300
562.859486	0.076550
563.072723	0.076688
563.285941	0.077028
563.499141	0.077399
563.712323	0.077270
563.925487	0.077232
564.138632	0.077434
564.351760	0.077728
564.564869	0.077812
564.777960	0.078068
564.991032	0.078183
565.204087	0.078256
565.417123	0.078451
565.630141	0.078637
565.843140	0.079124
566.056122	0.079653
566.269085	0.080145
566.482030	0.079797
566.694957	0.079601
566.907866	0.079745
567.120756	0.079684
567.333628	0.079481
567.546482	0.079233
567.759318	0.079055
567.972135	0.078652
568.184935	0.078525
568.397716	0.078681
568.610478	0.079015
568.823223	0.078949
569.035949	0.078860
569.248657	0.078608
569.461347	0.079165
569.674019	0.079338
569.886672	0.079555
570.099308	0.079457
570.311925	0.079491
570.524523	0.079155
570.737104	0.079542
570.949666	0.079744
571.162210	0.079905
571.374736	0.079290
571.587244	0.079363
571.799733	0.079148
572.012205	0.079396
572.224658	0.079695
572.437092	0.080110
572.649509	0.080102
572.861907	0.080115
573.074287	0.080231
573.286649	0.080698
573.498993	0.080984
573.711318	0.081384
573.923625	0.081210
574.135914	0.081206
574.348185	0.081317
574.560438	0.081265
574.772672	0.081754
574.984888	0.081957
575.197086	0.081977
575.409266	0.081939
575.621427	0.081993
575.833570	0.082386
576.045695	0.082398
576.257802	0.082362
576.469890	0.082128
576.681961	0.081880
576.894013	0.081849
577.106046	0.081942
577.318062	0.081839
577.530059	0.081728
577.742039	0.081262
577.954000	0.081223
578.165942	0.081084
578.377867	0.081446
578.589773	0.081838
578.801661	0.081846
579.013531	0.081726
579.225382	0.082017
579.437216	0.082101
579.649031	0.082701
579.860828	0.083116
580.072606	0.083428
580.284367	0.083646
580.496109	0.083374
580.707833	0.083777
580.919539	0.083848
581.131227	0.083864
581.342896	0.083589
581.554547	0.083164
581.766180	0.083107
581.977795	0.083290
582.189391	0.083506
582.400969	0.083415
582.612529	0.083486
582.824071	0.083733
583.035595	0.083621
583.247100	0.084244
583.458587	0.084581
583.670056	0.084730
583.881506	0.084483
584.092939	0.084436
584.304353	0.084675
584.515749	0.084400
584.727127	0.084719
584.938486	0.084858
585.149828	0.084811
585.361151	0.084853
585.572456	0.084873
585.783742	0.084947
585.995011	0.084493
586.206261	0.084393
586.417493	0.084706
586.628706	0.084847
586.839902	0.084957
587.051079	0.084812
587.262238	0.084754
587.473379	0.084836
587.684502	0.085104
587.895606	0.085438
588.106692	0.085695
588.317760	0.085819
588.528810	0.085555
588.739841	0.085599
588.950855	0.085602
589.161850	0.085875
589.372827	0.085781
589.583785	0.085596
589.794726	0.085661
590.005648	0.085614
590.216552	0.085687
590.427437	0.085456
590.638305	0.085441
590.849154	0.085797
591.059985	0.085849
591.270798	0.085986
591.481592	0.086101
591.692369	0.086122
591.903127	0.086605
592.113867	0.086449
592.324588	0.086779
592.535292	0.086780
592.745977	0.087049
592.956644	0.087501
593.167293	0.087509
593.377923	0.087676
593.588536	0.087956
593.799130	0.087701
594.009706	0.088103
594.220263	0.088281
594.430803	0.088380
594.641324	0.088400
594.851827	0.088183
595.062312	0.088236
595.272778	0.088335
595.483227	0.088322
595.693657	0.088557
595.904069	0.088233
596.114462	0.088300
596.324838	0.088256
596.535195	0.087908
596.745534	0.088024
596.955855	0.088263
597.166157	0.088119
597.376441	0.088081
597.586707	0.087987
597.796955	0.088366
598.007185	0.088284
598.217396	0.088648
598.427589	0.089095
598.637764	0.089033
598.847921	0.088873
599.058060	0.089100
599.268180	0.088755
599.478282	0.088908
599.688366	0.088740
599.898431	0.088627
600.108479	0.088586
600.318508	0.088495
600.528519	0.088736
600.738511	0.088606
600.948486	0.088713
601.158442	0.089448
601.368380	0.089558
601.578300	0.089796
601.788202	0.089648
601.998085	0.089615
602.207950	0.089814
602.417797	0.089880
602.627626	0.090378
602.837436	0.090377
603.047228	0.090246
603.257002	0.090244
603.466758	0.090238
603.676496	0.090699
603.886215	0.090954
604.095916	0.090765
604.305599	0.090721
604.515264	0.090737
604.724910	0.090999
604.934538	0.090887
605.144148	0.090941
605.353740	0.090944
605.563314	0.090968
605.772869	0.091202
605.982406	0.091118
606.191925	0.090905
606.401425	0.090887
606.610908	0.090662
606.820372	0.091190
607.029818	0.091336
607.239246	0.091352
607.448655	0.091525
607.658047	0.091397
607.867420	0.091729
608.076775	0.091833
608.286111	0.091833
608.495430	0.091778
608.704730	0.091446
608.914012	0.091416
609.123275	0.091400
609.332521	0.091581
609.541748	0.091602
609.750957	0.091690
609.960148	0.091877
610.169321	0.091806
610.378475	0.092074
610.587611	0.092077
610.796729	0.091934
611.005829	0.092275
611.214910	0.092184
611.423974	0.092043
611.633019	0.091784
611.842045	0.091881
612.051054	0.092014
612.260044	0.092125
612.469017	0.092325
612.677970	0.092410
612.886906	0.092513
613.095824	0.092379
613.304723	0.092756
613.513604	0.093023
613.722467	0.092983
613.931311	0.093149
614.140138	0.093096
614.348946	0.093110
614.557736	0.093099
614.766507	0.093033
614.975261	0.093454
615.183996	0.093408
615.392713	0.093433
615.601412	0.093474
615.810092	0.093543
616.018754	0.093308
616.227399	0.093563
616.436024	0.093719
616.644632	0.093863
616.853222	0.093523
617.061793	0.093440
617.270346	0.093582
617.478880	0.093607
617.687397	0.093575
617.895895	0.093653
618.104375	0.093645
618.312837	0.093704
618.521281	0.093482
618.729706	0.093964
618.938113	0.094017
619.146502	0.094047
619.354873	0.094147
619.563226	0.094211
619.771560	0.094442
619.979876	0.094557
620.188174	0.094529
620.396453	0.094860
620.604715	0.094626
620.812958	0.094759
621.021183	0.094765
621.229390	0.094731
621.437578	0.094774
621.645748	0.094946
621.853900	0.094852
622.062034	0.094995
622.270150	0.094781
622.478247	0.094781
622.686326	0.094566
622.894387	0.094746
623.102430	0.094930
623.310454	0.094963
623.518461	0.095071
623.726449	0.095091
623.934418	0.095204
624.142370	0.095320
624.350303	0.095460
624.558218	0.095603
624.766115	0.095694
624.973994	0.095696
625.181855	0.095799
625.389697	0.095809
625.597521	0.095762
625.805327	0.095927
626.013114	0.095862
626.220883	0.095893
626.428634	0.095827
626.636367	0.095727
626.844082	0.095944
627.051778	0.095913
627.259457	0.096053
627.467117	0.096353
627.674758	0.096236
627.882382	0.096237
628.089987	0.096308
628.297574	0.096523
628.505143	0.096586
628.712694	0.096198
628.920226	0.096345
629.127740	0.096351
629.335236	0.096054
629.542714	0.096236
629.750174	0.096290
629.957615	0.096402
630.165038	0.096412
630.372443	0.096411
630.579829	0.096878
630.787198	0.096755
630.994548	0.096837
631.201880	0.097034
631.409194	0.096897
631.616489	0.097166
631.823766	0.097128
632.031025	0.097265
632.238266	0.097393
632.445489	0.097396
632.652693	0.097713
632.859879	0.097592
633.067047	0.097829
633.274197	0.097922
633.481329	0.097935
633.688442	0.097750
633.895537	0.097986
634.102614	0.098100
634.309672	0.098294
634.516713	0.098283
634.723735	0.098454
634.930739	0.098495
635.137724	0.098540
635.344692	0.098598
635.551641	0.098883
635.758572	0.098951
635.965485	0.098791
636.172379	0.098644
636.379256	0.098542
636.586114	0.098599
636.792954	0.098449
636.999775	0.098539
637.206579	0.098611
637.413364	0.098787
637.620131	0.098832
637.826880	0.099260
638.033610	0.099490
638.240323	0.099648
638.447017	0.099659
638.653692	0.099651
638.860350	0.099598
639.066990	0.099744
639.273611	0.099605
639.480214	0.099574
639.686798	0.099604
639.893365	0.099557
640.099913	0.099721
640.306443	0.099848
640.512955	0.099932
640.719449	0.100145
640.925924	0.100107
641.132381	0.100429
641.338820	0.100377
641.545241	0.100224
641.751644	0.100213
641.958028	0.100254
642.164394	0.100290
642.370742	0.100453
642.577071	0.100434
642.783383	0.100688
642.989676	0.100572
643.195951	0.100745
643.402207	0.100968
643.608446	0.101181
643.814666	0.101273
644.020868	0.101383
644.227052	0.101656
644.433218	0.101772
644.639365	0.101788
644.845494	0.102146
645.051605	0.102263
645.257698	0.102319
645.463772	0.102408
645.669828	0.102359
645.875866	0.102269
646.081886	0.102168
646.287888	0.102380
646.493871	0.102366
646.699836	0.102282
646.905783	0.102297
647.111712	0.102338
647.317622	0.102235
647.523514	0.102400
647.729388	0.102599
647.935244	0.102574
648.141082	0.102597
648.346901	0.102850
648.552702	0.102945
648.758485	0.103139
648.964250	0.103065
649.169996	0.103357
649.375724	0.103337
649.581434	0.103423
649.787126	0.103540
649.992800	0.103530
650.198455	0.103538
650.404092	0.103583
650.609711	0.103418
650.815311	0.103590
651.020894	0.103568
651.226458	0.103828
651.432004	0.103897
651.637532	0.104198
651.843041	0.104249
652.048532	0.104197
652.254006	0.104256
652.459460	0.104674
652.664897	0.104855
652.870315	0.104753
653.075716	0.104589
653.281097	0.104568
653.486461	0.104358
653.691807	0.104487
653.897134	0.104580
654.102443	0.104614
654.307734	0.104491
654.513006	0.104548
654.718261	0.104828
654.923497	0.105033
655.128715	0.105148
655.333915	0.105389
655.539096	0.105414
655.744259	0.105448
655.949404	0.105556
656.154531	0.105556
656.359640	0.105548
656.564730	0.105677
656.769802	0.105716
656.974856	0.105625
657.179892	0.105742
657.384909	0.105760
657.589908	0.105773
657.794889	0.105856
657.999852	0.105796
658.204797	0.105572
658.409723	0.105398
658.614631	0.105360
658.819521	0.105559
659.024393	0.105496
659.229246	0.105589
659.434081	0.105723
659.638898	0.105468
659.843697	0.105526
660.048478	0.105934
660.253240	0.105860
660.457984	0.105832
660.662710	0.105884
660.867417	0.105884
661.072107	0.105902
661.276778	0.106033
661.481431	0.106412
661.686066	0.106624
661.890682	0.106554
662.095281	0.106775
662.299861	0.106972
662.504422	0.106991
662.708966	0.107266
662.913491	0.107588
663.117999	0.107422
663.322488	0.107370
663.526958	0.107449
663.731411	0.107604
663.935845	0.107724
664.140261	0.107932
664.344659	0.108256
664.549038	0.108219
664.753400	0.108191
664.957743	0.108410
665.162068	0.108600
665.366375	0.108750
665.570663	0.108877
665.774933	0.108993
665.979185	0.108907
666.183419	0.108793
666.387635	0.109014
666.591832	0.109136
666.796011	0.109279
667.000172	0.109279
667.204315	0.109287
667.408439	0.109327
667.612545	0.109318
667.816634	0.109422
668.020703	0.109552
668.224755	0.109644
668.428788	0.109622
668.632803	0.109709
668.836800	0.109861
669.040779	0.109970
669.244739	0.110054
669.448681	0.110293
669.652605	0.110571
669.856511	0.110667
670.060399	0.110549
670.264268	0.110685
670.468119	0.110857
670.671952	0.110909
670.875767	0.111016
671.079563	0.111085
671.283341	0.111187
671.487101	0.111143
671.690843	0.111195
671.894567	0.111222
672.098272	0.111389
672.301959	0.111493
672.505628	0.111545
672.709278	0.111605
672.912911	0.111709
673.116525	0.111618
673.320121	0.111775
673.523699	0.111868
673.727258	0.112148
673.930799	0.112197
674.134322	0.112282
674.337827	0.112420
674.541314	0.112452
674.744782	0.112524
674.948232	0.112657
675.151664	0.112592
675.355078	0.112655
675.558474	0.112708
675.761851	0.112915
675.965210	0.113057
676.168551	0.113182
676.371873	0.113250
676.575178	0.113578
676.778464	0.113726
676.981732	0.113803
677.184981	0.113970
677.388213	0.114159
677.591426	0.114233
677.794621	0.114341
677.997798	0.114434
678.200956	0.114641
678.404097	0.114339
678.607219	0.114395
678.810323	0.114600
679.013408	0.114499
679.216476	0.114439
679.419525	0.114206
679.622556	0.114225
679.825569	0.114174
680.028563	0.114071
680.231540	0.114275
680.434498	0.114455
680.637438	0.114595
680.840359	0.114956
681.043263	0.115090
681.246148	0.115239
681.449015	0.115069
681.651864	0.115269
681.854694	0.115582
682.057506	0.115650
682.260301	0.115623
682.463076	0.115742
682.665834	0.115646
682.868573	0.115993
683.071295	0.116243
683.273998	0.116631
683.476682	0.116767
683.679349	0.116598
683.881997	0.116798
684.084627	0.117060
684.287239	0.117056
684.489833	0.117087
684.692408	0.116920
684.894965	0.116879
685.097504	0.116798
685.300025	0.117072
685.502527	0.117220
685.705012	0.117114
685.907478	0.117136
686.109925	0.117136
686.312355	0.117270
686.514766	0.117225
686.717159	0.117484
686.919534	0.117587
687.121891	0.117333
687.324230	0.117557
687.526550	0.117618
687.728852	0.117448
687.931136	0.117497
688.133401	0.117422
688.335649	0.117454
688.537878	0.117270
688.740089	0.117158
688.942281	0.117204
689.144456	0.117078
689.346612	0.117234
689.548750	0.117372
689.750870	0.117610
689.952971	0.117801
690.155055	0.118077
690.357120	0.118253
690.559167	0.118393
690.761195	0.118496
690.963206	0.118532
691.165198	0.118537
691.367172	0.118571
691.569128	0.118465
691.771065	0.118532
691.972984	0.118300
692.174885	0.118225
692.376768	0.118352
692.578633	0.118313
692.780479	0.118348
692.982308	0.118403
693.184118	0.118495
693.385909	0.118392
