sample name	sample
index	1499
start time	 05-18-2021  02:25:48 PM


Wavelength (nm)	Absorbance
494.344910	-0.046922
494.563924	-0.046922
494.782919	-0.046922
495.001897	-0.319321
495.220856	0.004688
495.439797	-0.019629
495.658719	0.040881
495.877624	0.022218
496.096510	0.053842
496.315378	-0.023116
496.534227	-0.055386
496.753059	-0.048270
496.971872	-0.076718
497.190667	0.087341
497.409444	0.111408
497.628203	0.113083
497.846943	0.117071
498.065665	0.120066
498.284369	0.119937
498.503055	0.121074
498.721723	0.121730
498.940372	0.122284
499.159003	0.122098
499.377616	0.121544
499.596210	0.121442
499.814787	0.120897
500.033345	0.121012
500.251885	0.122187
500.470406	0.121203
500.688910	0.119867
500.907395	0.120191
501.125862	0.119990
501.344311	0.119596
501.562742	0.119896
501.781154	0.120121
501.999548	0.119635
502.217924	0.118806
502.436282	0.119305
502.654621	0.120760
502.872942	0.120451
503.091245	0.120657
503.309530	0.120533
503.527797	0.120964
503.746045	0.121190
503.964275	0.120452
504.182487	0.120629
504.400681	0.120345
504.618856	0.119350
504.837013	0.119934
505.055152	0.119739
505.273273	0.121175
505.491376	0.120656
505.709460	0.120819
505.927526	0.121076
506.145574	0.121373
506.363604	0.122336
506.581615	0.122456
506.799608	0.121936
507.017583	0.122135
507.235540	0.122428
507.453478	0.121863
507.671399	0.121234
507.889301	0.121417
508.107185	0.120709
508.325050	0.120268
508.542898	0.120833
508.760727	0.121417
508.978538	0.122356
509.196330	0.121407
509.414105	0.121646
509.631861	0.122016
509.849599	0.122416
510.067319	0.122308
510.285021	0.122934
510.502704	0.122881
510.720369	0.122160
510.938016	0.121463
511.155645	0.121595
511.373255	0.121889
511.590848	0.122819
511.808422	0.123120
512.025977	0.123915
512.243515	0.124488
512.461034	0.124075
512.678536	0.124698
512.896018	0.125848
513.113483	0.125619
513.330930	0.125859
513.548358	0.125732
513.765768	0.125111
513.983160	0.124706
514.200533	0.124159
514.417889	0.125038
514.635226	0.124640
514.852545	0.123579
515.069845	0.124715
515.287128	0.125491
515.504392	0.125204
515.721638	0.125362
515.938866	0.126243
516.156075	0.126129
516.373267	0.126838
516.590440	0.128130
516.807594	0.128749
517.024731	0.127702
517.241850	0.127540
517.458950	0.128112
517.676032	0.128157
517.893095	0.128452
518.110141	0.129345
518.327168	0.129234
518.544177	0.128683
518.761168	0.128812
518.978141	0.130059
519.195095	0.130293
519.412031	0.131018
519.628949	0.131227
519.845849	0.132057
520.062731	0.132228
520.279594	0.132673
520.496439	0.132328
520.713266	0.132672
520.930074	0.132562
521.146865	0.132942
521.363637	0.132599
521.580391	0.133294
521.797127	0.132763
522.013844	0.132999
522.230543	0.132926
522.447224	0.133108
522.663887	0.132756
522.880532	0.133566
523.097158	0.134010
523.313766	0.134670
523.530356	0.135126
523.746928	0.135333
523.963481	0.134613
524.180017	0.135075
524.396534	0.136107
524.613032	0.135944
524.829513	0.135427
525.045975	0.135516
525.262420	0.135431
525.478845	0.135894
525.695253	0.135919
525.911643	0.137086
526.128014	0.137656
526.344367	0.137044
526.560702	0.138545
526.777018	0.139062
526.993316	0.139592
527.209597	0.139595
527.425858	0.139633
527.642102	0.140373
527.858328	0.140635
528.074535	0.140204
528.290724	0.140727
528.506894	0.140762
528.723047	0.141291
528.939181	0.141343
529.155297	0.141737
529.371395	0.142113
529.587475	0.142780
529.803536	0.143401
530.019579	0.144104
530.235604	0.144501
530.451611	0.145104
530.667600	0.145620
530.883570	0.145659
531.099522	0.146438
531.315456	0.146467
531.531372	0.146082
531.747269	0.146234
531.963148	0.146141
532.179009	0.146516
532.394852	0.146506
532.610676	0.146566
532.826482	0.146914
533.042271	0.147000
533.258040	0.147429
533.473792	0.147604
533.689525	0.147475
533.905240	0.147960
534.120937	0.148376
534.336616	0.148604
534.552277	0.148677
534.767919	0.149093
534.983543	0.149415
535.199149	0.149565
535.414736	0.150175
535.630306	0.150501
535.845857	0.150822
536.061390	0.151177
536.276904	0.151191
536.492401	0.151939
536.707879	0.152048
536.923339	0.151372
537.138781	0.151953
537.354204	0.152338
537.569610	0.152838
537.784997	0.153341
538.000366	0.153419
538.215716	0.154018
538.431049	0.153800
538.646363	0.154175
538.861659	0.155240
539.076937	0.155332
539.292196	0.155329
539.507438	0.155117
539.722661	0.154629
539.937866	0.155506
540.153052	0.155342
540.368221	0.155609
540.583371	0.155376
540.798503	0.155399
541.013617	0.155492
541.228712	0.155859
541.443789	0.155786
541.658848	0.156237
541.873889	0.155847
542.088912	0.156534
542.303916	0.156773
542.518902	0.157597
542.733870	0.158220
542.948820	0.158350
543.163752	0.158621
543.378665	0.159428
543.593560	0.160029
543.808437	0.160364
544.023295	0.160844
544.238136	0.160805
544.452958	0.160974
544.667762	0.160760
544.882548	0.161046
545.097315	0.161311
545.312064	0.161495
545.526795	0.161289
545.741508	0.161959
545.956203	0.161805
546.170879	0.162404
546.385537	0.162355
546.600177	0.162604
546.814799	0.163079
547.029402	0.163315
547.243988	0.163841
547.458555	0.164290
547.673103	0.164424
547.887634	0.164658
548.102146	0.164645
548.316640	0.165521
548.531116	0.165873
548.745574	0.166104
548.960013	0.166312
549.174435	0.166238
549.388838	0.166296
549.603222	0.166257
549.817589	0.166373
550.031937	0.166848
550.246267	0.166537
550.460579	0.166884
550.674873	0.166716
550.889148	0.166783
551.103405	0.166814
551.317644	0.167170
551.531865	0.167449
551.746068	0.168141
551.960252	0.168340
552.174418	0.168645
552.388566	0.169092
552.602696	0.169531
552.816807	0.169602
553.030900	0.170056
553.244975	0.170415
553.459032	0.170593
553.673070	0.170372
553.887091	0.170048
554.101093	0.170072
554.315077	0.169610
554.529042	0.169162
554.742990	0.169610
554.956919	0.169517
555.170830	0.169507
555.384722	0.169392
555.598597	0.169377
555.812453	0.169399
556.026291	0.169233
556.240111	0.169103
556.453913	0.169626
556.667696	0.169403
556.881461	0.169471
557.095208	0.169617
557.308937	0.169760
557.522647	0.169739
557.736339	0.170253
557.950013	0.170597
558.163669	0.171218
558.377307	0.171419
558.590926	0.171812
558.804527	0.171964
559.018110	0.171947
559.231675	0.172166
559.445221	0.172063
559.658749	0.172789
559.872259	0.172869
560.085751	0.173229
560.299225	0.173443
560.512680	0.173667
560.726117	0.174209
560.939536	0.174826
561.152937	0.175066
561.366319	0.176124
561.579683	0.175417
561.793029	0.175839
562.006357	0.175327
562.219667	0.175861
562.432958	0.175784
562.646231	0.175972
562.859486	0.175464
563.072723	0.175575
563.285941	0.175253
563.499141	0.175740
563.712323	0.175856
563.925487	0.176528
564.138632	0.176480
564.351760	0.176404
564.564869	0.176297
564.777960	0.176555
564.991032	0.176826
565.204087	0.176602
565.417123	0.176992
565.630141	0.177128
565.843140	0.177048
566.056122	0.176891
566.269085	0.177361
566.482030	0.177529
566.694957	0.177654
566.907866	0.177449
567.120756	0.178026
567.333628	0.178089
567.546482	0.178474
567.759318	0.178590
567.972135	0.178806
568.184935	0.178589
568.397716	0.178784
568.610478	0.179145
568.823223	0.179423
569.035949	0.179681
569.248657	0.179674
569.461347	0.179343
569.674019	0.179324
569.886672	0.179436
570.099308	0.179811
570.311925	0.180251
570.524523	0.180452
570.737104	0.180592
570.949666	0.180555
571.162210	0.180786
571.374736	0.181021
571.587244	0.181819
571.799733	0.182169
572.012205	0.182369
572.224658	0.181842
572.437092	0.181793
572.649509	0.181642
572.861907	0.181534
573.074287	0.181272
573.286649	0.181221
573.498993	0.180796
573.711318	0.180838
573.923625	0.181217
574.135914	0.181601
574.348185	0.181614
574.560438	0.182152
574.772672	0.182780
574.984888	0.183059
575.197086	0.183568
575.409266	0.183853
575.621427	0.184215
575.833570	0.184568
576.045695	0.185004
576.257802	0.185576
576.469890	0.185873
576.681961	0.185863
576.894013	0.186185
577.106046	0.186243
577.318062	0.186296
577.530059	0.185984
577.742039	0.185932
577.954000	0.185886
578.165942	0.185839
578.377867	0.186073
578.589773	0.186467
578.801661	0.186112
579.013531	0.186244
579.225382	0.186333
579.437216	0.186934
579.649031	0.186704
579.860828	0.186828
580.072606	0.187175
580.284367	0.186897
580.496109	0.186565
580.707833	0.187136
580.919539	0.187460
581.131227	0.187521
581.342896	0.187427
581.554547	0.187674
581.766180	0.187562
581.977795	0.187319
582.189391	0.187315
582.400969	0.187278
582.612529	0.187532
582.824071	0.187463
583.035595	0.187605
583.247100	0.187588
583.458587	0.188006
583.670056	0.188127
583.881506	0.188460
584.092939	0.188776
584.304353	0.188874
584.515749	0.188874
584.727127	0.188785
584.938486	0.188894
585.149828	0.189078
585.361151	0.188887
585.572456	0.189025
585.783742	0.188582
585.995011	0.188996
586.206261	0.189005
586.417493	0.189110
586.628706	0.189484
586.839902	0.189585
587.051079	0.189845
587.262238	0.189899
587.473379	0.189521
587.684502	0.189674
587.895606	0.189401
588.106692	0.189886
588.317760	0.190150
588.528810	0.189987
588.739841	0.190192
588.950855	0.190009
589.161850	0.190304
589.372827	0.191206
589.583785	0.191684
589.794726	0.191939
590.005648	0.192049
590.216552	0.191906
590.427437	0.191960
590.638305	0.192108
590.849154	0.192176
591.059985	0.192004
591.270798	0.191718
591.481592	0.191710
591.692369	0.192079
591.903127	0.192081
592.113867	0.192426
592.324588	0.192781
592.535292	0.193118
592.745977	0.193550
592.956644	0.193600
593.167293	0.194201
593.377923	0.194612
593.588536	0.194666
593.799130	0.194752
594.009706	0.194871
594.220263	0.195053
594.430803	0.195195
594.641324	0.195270
594.851827	0.195411
595.062312	0.195173
595.272778	0.195511
595.483227	0.195492
595.693657	0.195997
595.904069	0.195980
596.114462	0.196196
596.324838	0.196342
596.535195	0.196741
596.745534	0.197149
596.955855	0.197548
597.166157	0.197259
597.376441	0.197711
597.586707	0.197781
597.796955	0.198072
598.007185	0.198179
598.217396	0.198222
598.427589	0.198339
598.637764	0.198791
598.847921	0.199021
599.058060	0.199652
599.268180	0.199864
599.478282	0.199660
599.688366	0.199993
599.898431	0.200165
600.108479	0.200277
600.318508	0.199866
600.528519	0.199799
600.738511	0.199917
600.948486	0.199583
601.158442	0.199333
601.368380	0.199711
601.578300	0.199503
601.788202	0.199671
601.998085	0.199960
602.207950	0.200328
602.417797	0.200367
602.627626	0.200383
602.837436	0.200631
603.047228	0.201178
603.257002	0.201349
603.466758	0.201723
603.676496	0.201887
603.886215	0.201436
604.095916	0.201713
604.305599	0.201953
604.515264	0.201956
604.724910	0.202280
604.934538	0.202023
605.144148	0.201928
605.353740	0.201895
605.563314	0.202067
605.772869	0.202909
605.982406	0.202782
606.191925	0.202669
606.401425	0.202729
606.610908	0.202742
606.820372	0.203072
607.029818	0.203615
607.239246	0.203937
607.448655	0.203723
607.658047	0.203596
607.867420	0.203856
608.076775	0.204239
608.286111	0.204611
608.495430	0.204597
608.704730	0.204645
608.914012	0.204700
609.123275	0.204906
609.332521	0.205227
609.541748	0.205251
609.750957	0.205408
609.960148	0.205355
610.169321	0.205451
610.378475	0.205650
610.587611	0.205866
610.796729	0.205948
611.005829	0.205811
611.214910	0.206002
611.423974	0.206390
611.633019	0.206818
611.842045	0.206848
612.051054	0.207085
612.260044	0.207383
612.469017	0.207323
612.677970	0.207203
612.886906	0.207353
613.095824	0.207410
613.304723	0.207387
613.513604	0.207186
613.722467	0.207361
613.931311	0.207100
614.140138	0.207380
614.348946	0.207761
614.557736	0.208109
614.766507	0.208417
614.975261	0.208712
615.183996	0.208771
615.392713	0.209230
615.601412	0.209524
615.810092	0.209864
616.018754	0.209691
616.227399	0.209416
616.436024	0.209514
616.644632	0.209704
616.853222	0.209698
617.061793	0.210003
617.270346	0.209561
617.478880	0.209703
617.687397	0.210036
617.895895	0.210395
618.104375	0.210964
618.312837	0.211156
618.521281	0.211160
618.729706	0.211417
618.938113	0.211694
619.146502	0.212178
619.354873	0.212246
619.563226	0.211933
619.771560	0.211990
619.979876	0.211839
620.188174	0.212219
620.396453	0.212141
620.604715	0.212508
620.812958	0.212603
621.021183	0.213152
621.229390	0.213295
621.437578	0.213978
621.645748	0.214305
621.853900	0.214449
622.062034	0.214683
622.270150	0.215336
622.478247	0.215456
622.686326	0.215585
622.894387	0.215549
623.102430	0.216096
623.310454	0.216140
623.518461	0.215965
623.726449	0.216392
623.934418	0.216087
624.142370	0.216015
624.350303	0.215933
624.558218	0.215712
624.766115	0.215863
624.973994	0.215735
625.181855	0.216113
625.389697	0.216461
625.597521	0.216583
625.805327	0.217012
626.013114	0.217234
626.220883	0.217279
626.428634	0.218006
626.636367	0.218299
626.844082	0.218756
627.051778	0.218680
627.259457	0.218661
627.467117	0.218647
627.674758	0.218688
627.882382	0.218544
628.089987	0.218884
628.297574	0.218719
628.505143	0.218447
628.712694	0.218178
628.920226	0.218259
629.127740	0.218608
629.335236	0.218813
629.542714	0.218940
629.750174	0.219027
629.957615	0.219042
630.165038	0.218977
630.372443	0.219263
630.579829	0.219490
630.787198	0.219582
630.994548	0.219732
631.201880	0.219756
631.409194	0.219763
631.616489	0.220224
631.823766	0.220239
632.031025	0.220851
632.238266	0.220978
632.445489	0.221263
632.652693	0.221223
632.859879	0.221056
633.067047	0.221037
633.274197	0.221368
633.481329	0.221377
633.688442	0.221348
633.895537	0.221321
634.102614	0.221487
634.309672	0.221530
634.516713	0.221865
634.723735	0.221964
634.930739	0.222262
635.137724	0.222307
635.344692	0.222223
635.551641	0.222562
635.758572	0.222728
635.965485	0.222786
636.172379	0.222682
636.379256	0.222732
636.586114	0.223174
636.792954	0.223412
636.999775	0.223439
637.206579	0.223873
637.413364	0.224029
637.620131	0.224032
637.826880	0.224173
638.033610	0.224503
638.240323	0.224717
638.447017	0.224527
638.653692	0.224752
638.860350	0.224920
639.066990	0.225011
639.273611	0.225315
639.480214	0.225425
639.686798	0.225682
639.893365	0.225672
640.099913	0.225940
640.306443	0.226389
640.512955	0.226650
640.719449	0.226886
640.925924	0.227115
641.132381	0.227234
641.338820	0.227592
641.545241	0.227657
641.751644	0.228080
641.958028	0.228290
642.164394	0.228256
642.370742	0.228321
642.577071	0.228514
642.783383	0.228621
642.989676	0.228773
643.195951	0.228671
643.402207	0.228763
643.608446	0.228833
643.814666	0.228864
644.020868	0.229166
644.227052	0.229320
644.433218	0.229730
644.639365	0.229882
644.845494	0.230064
645.051605	0.230508
645.257698	0.231122
645.463772	0.231186
645.669828	0.231339
645.875866	0.231395
646.081886	0.231531
646.287888	0.231719
646.493871	0.231736
646.699836	0.231859
646.905783	0.231625
647.111712	0.231505
647.317622	0.231861
647.523514	0.232066
647.729388	0.232584
647.935244	0.232897
648.141082	0.232967
648.346901	0.233393
648.552702	0.233840
648.758485	0.234465
648.964250	0.234652
649.169996	0.234704
649.375724	0.234813
649.581434	0.234787
649.787126	0.234834
649.992800	0.235086
650.198455	0.235389
650.404092	0.235246
650.609711	0.235275
650.815311	0.235330
651.020894	0.235651
651.226458	0.235824
651.432004	0.235846
651.637532	0.235988
651.843041	0.235598
652.048532	0.235378
652.254006	0.235752
652.459460	0.235786
652.664897	0.236182
652.870315	0.236234
653.075716	0.236570
653.281097	0.237001
653.486461	0.237291
653.691807	0.237868
653.897134	0.237948
654.102443	0.237935
654.307734	0.238306
654.513006	0.238365
654.718261	0.238717
654.923497	0.238765
655.128715	0.238658
655.333915	0.238558
655.539096	0.238648
655.744259	0.239304
655.949404	0.239494
656.154531	0.239669
656.359640	0.239776
656.564730	0.239999
656.769802	0.240540
656.974856	0.241008
657.179892	0.241270
657.384909	0.241705
657.589908	0.241700
657.794889	0.241863
657.999852	0.242346
658.204797	0.242643
658.409723	0.242875
658.614631	0.242742
658.819521	0.243019
659.024393	0.243026
659.229246	0.243134
659.434081	0.243393
659.638898	0.243926
659.843697	0.243597
660.048478	0.243615
660.253240	0.243704
660.457984	0.243869
660.662710	0.243968
660.867417	0.244263
661.072107	0.244378
661.276778	0.244362
661.481431	0.244334
661.686066	0.244467
661.890682	0.244800
662.095281	0.245027
662.299861	0.245146
662.504422	0.245428
662.708966	0.245892
662.913491	0.246128
663.117999	0.246459
663.322488	0.246553
663.526958	0.246860
663.731411	0.247261
663.935845	0.247331
664.140261	0.247662
664.344659	0.247661
664.549038	0.247561
664.753400	0.247716
664.957743	0.247959
665.162068	0.248020
665.366375	0.248378
665.570663	0.248264
665.774933	0.248563
665.979185	0.248692
666.183419	0.249049
666.387635	0.249596
666.591832	0.249634
666.796011	0.250060
667.000172	0.250413
667.204315	0.250569
667.408439	0.250980
667.612545	0.251115
667.816634	0.251232
668.020703	0.251124
668.224755	0.251099
668.428788	0.251292
668.632803	0.251323
668.836800	0.251616
669.040779	0.251767
669.244739	0.252033
669.448681	0.252062
669.652605	0.252323
669.856511	0.252756
670.060399	0.253094
670.264268	0.253169
670.468119	0.253240
670.671952	0.253537
670.875767	0.253931
671.079563	0.254136
671.283341	0.254572
671.487101	0.255204
671.690843	0.255459
671.894567	0.255735
672.098272	0.256341
672.301959	0.256536
672.505628	0.256507
672.709278	0.256599
672.912911	0.256784
673.116525	0.256866
673.320121	0.256576
673.523699	0.256616
673.727258	0.256702
673.930799	0.256626
674.134322	0.256814
674.337827	0.257170
674.541314	0.257530
674.744782	0.257626
674.948232	0.257827
675.151664	0.258122
675.355078	0.258363
675.558474	0.258373
675.761851	0.258515
675.965210	0.258914
676.168551	0.259006
676.371873	0.258982
676.575178	0.258979
676.778464	0.258989
676.981732	0.259043
677.184981	0.259264
677.388213	0.259765
677.591426	0.260005
677.794621	0.260111
677.997798	0.260424
678.200956	0.260589
678.404097	0.260947
678.607219	0.261339
678.810323	0.261719
679.013408	0.261879
679.216476	0.261849
679.419525	0.261994
679.622556	0.262173
679.825569	0.262395
680.028563	0.262491
680.231540	0.262536
680.434498	0.262700
680.637438	0.262897
680.840359	0.263103
681.043263	0.263501
681.246148	0.263705
681.449015	0.263866
681.651864	0.264039
681.854694	0.264432
682.057506	0.264788
682.260301	0.265065
682.463076	0.265367
682.665834	0.265619
682.868573	0.265860
683.071295	0.265884
683.273998	0.266078
683.476682	0.266126
683.679349	0.266183
683.881997	0.266076
684.084627	0.266137
684.287239	0.266119
684.489833	0.266087
684.692408	0.265927
684.894965	0.266530
685.097504	0.266487
685.300025	0.266619
685.502527	0.266828
685.705012	0.267009
685.907478	0.267191
686.109925	0.267070
686.312355	0.267302
686.514766	0.267561
686.717159	0.267464
686.919534	0.267494
687.121891	0.267581
687.324230	0.267651
687.526550	0.267961
687.728852	0.267986
687.931136	0.268316
688.133401	0.268460
688.335649	0.268565
688.537878	0.268656
688.740089	0.269097
688.942281	0.269331
689.144456	0.269419
689.346612	0.269712
689.548750	0.270067
689.750870	0.270095
689.952971	0.270111
690.155055	0.270010
690.357120	0.270029
690.559167	0.269962
690.761195	0.269851
690.963206	0.269923
691.165198	0.269727
691.367172	0.269604
691.569128	0.269858
691.771065	0.270008
691.972984	0.270295
692.174885	0.270564
692.376768	0.270784
692.578633	0.271090
692.780479	0.271345
692.982308	0.271454
693.184118	0.271757
693.385909	0.271862
