sample name	sample
index	1204
start time	 04-26-2021  12:55:26 PM


Wavelength (nm)	Absorbance
494.344910	NaN
494.563924	NaN
494.782919	NaN
495.001897	0.602060
495.220856	NaN
495.439797	NaN
495.658719	NaN
495.877624	NaN
496.096510	NaN
496.315378	0.162555
496.534227	0.355616
496.753059	0.184329
496.971872	0.301626
497.190667	0.151676
497.409444	0.145837
497.628203	0.143596
497.846943	0.143892
498.065665	0.143385
498.284369	0.145149
498.503055	0.143994
498.721723	0.143306
498.940372	0.142592
499.159003	0.143572
499.377616	0.143488
499.596210	0.144231
499.814787	0.142677
500.033345	0.142419
500.251885	0.142937
500.470406	0.142666
500.688910	0.142283
500.907395	0.142151
501.125862	0.141961
501.344311	0.142317
501.562742	0.142659
501.781154	0.144913
501.999548	0.144859
502.217924	0.144526
502.436282	0.145653
502.654621	0.147491
502.872942	0.147633
503.091245	0.147411
503.309530	0.147039
503.527797	0.146183
503.746045	0.145218
503.964275	0.146489
504.182487	0.146516
504.400681	0.145586
504.618856	0.143124
504.837013	0.142696
505.055152	0.143200
505.273273	0.142834
505.491376	0.142566
505.709460	0.141899
505.927526	0.141098
506.145574	0.140462
506.363604	0.141356
506.581615	0.144111
506.799608	0.144255
507.017583	0.144878
507.235540	0.146117
507.453478	0.147117
507.671399	0.147601
507.889301	0.146400
508.107185	0.147495
508.325050	0.147075
508.542898	0.145814
508.760727	0.145575
508.978538	0.143613
509.196330	0.143799
509.414105	0.142884
509.631861	0.142744
509.849599	0.143544
510.067319	0.142694
510.285021	0.142891
510.502704	0.142517
510.720369	0.141477
510.938016	0.143527
511.155645	0.143204
511.373255	0.143610
511.590848	0.144648
511.808422	0.144328
512.025977	0.144732
512.243515	0.145333
512.461034	0.146240
512.678536	0.146913
512.896018	0.146200
513.113483	0.145685
513.330930	0.146505
513.548358	0.146368
513.765768	0.146655
513.983160	0.147397
514.200533	0.146634
514.417889	0.146869
514.635226	0.148768
514.852545	0.149224
515.069845	0.149549
515.287128	0.149442
515.504392	0.150003
515.721638	0.150805
515.938866	0.150469
516.156075	0.151623
516.373267	0.151120
516.590440	0.151242
516.807594	0.150865
517.024731	0.151486
517.241850	0.152049
517.458950	0.151263
517.676032	0.150724
517.893095	0.151212
518.110141	0.151246
518.327168	0.151506
518.544177	0.150564
518.761168	0.150727
518.978141	0.150766
519.195095	0.151421
519.412031	0.151925
519.628949	0.153263
519.845849	0.153230
520.062731	0.153167
520.279594	0.153986
520.496439	0.154893
520.713266	0.154407
520.930074	0.154802
521.146865	0.154078
521.363637	0.154835
521.580391	0.154837
521.797127	0.154558
522.013844	0.155090
522.230543	0.154484
522.447224	0.155134
522.663887	0.155737
522.880532	0.155850
523.097158	0.155930
523.313766	0.155470
523.530356	0.155860
523.746928	0.156500
523.963481	0.156195
524.180017	0.156555
524.396534	0.155807
524.613032	0.156229
524.829513	0.156327
525.045975	0.156427
525.262420	0.157045
525.478845	0.157040
525.695253	0.156621
525.911643	0.156122
526.128014	0.155956
526.344367	0.156126
526.560702	0.156187
526.777018	0.156235
526.993316	0.156496
527.209597	0.156511
527.425858	0.156747
527.642102	0.157032
527.858328	0.157708
528.074535	0.157899
528.290724	0.157988
528.506894	0.158444
528.723047	0.158479
528.939181	0.159171
529.155297	0.159180
529.371395	0.159081
529.587475	0.160048
529.803536	0.160594
530.019579	0.161608
530.235604	0.162045
530.451611	0.162974
530.667600	0.163135
530.883570	0.163378
531.099522	0.164138
531.315456	0.164456
531.531372	0.164556
531.747269	0.165053
531.963148	0.165208
532.179009	0.166003
532.394852	0.165247
532.610676	0.165747
532.826482	0.165952
533.042271	0.166078
533.258040	0.166547
533.473792	0.166933
533.689525	0.166759
533.905240	0.166680
534.120937	0.166265
534.336616	0.166804
534.552277	0.166896
534.767919	0.167118
534.983543	0.167016
535.199149	0.166561
535.414736	0.166351
535.630306	0.166732
535.845857	0.167651
536.061390	0.168539
536.276904	0.169492
536.492401	0.170455
536.707879	0.170622
536.923339	0.171066
537.138781	0.172411
537.354204	0.172631
537.569610	0.172298
537.784997	0.172238
538.000366	0.172035
538.215716	0.171649
538.431049	0.171794
538.646363	0.172115
538.861659	0.172599
539.076937	0.172473
539.292196	0.173283
539.507438	0.174147
539.722661	0.174326
539.937866	0.174962
540.153052	0.175111
540.368221	0.174646
540.583371	0.175213
540.798503	0.175402
541.013617	0.175779
541.228712	0.175914
541.443789	0.175735
541.658848	0.175871
541.873889	0.175977
542.088912	0.176667
542.303916	0.177273
542.518902	0.177134
542.733870	0.176997
542.948820	0.176776
543.163752	0.176568
543.378665	0.177716
543.593560	0.178274
543.808437	0.178547
544.023295	0.178553
544.238136	0.178673
544.452958	0.179051
544.667762	0.179484
544.882548	0.179932
545.097315	0.181139
545.312064	0.181280
545.526795	0.181532
545.741508	0.181958
545.956203	0.181857
546.170879	0.182219
546.385537	0.181963
546.600177	0.182111
546.814799	0.182026
547.029402	0.180992
547.243988	0.180432
547.458555	0.180186
547.673103	0.179930
547.887634	0.180728
548.102146	0.180825
548.316640	0.181222
548.531116	0.181615
548.745574	0.181899
548.960013	0.182339
549.174435	0.183179
549.388838	0.183442
549.603222	0.183890
549.817589	0.183588
550.031937	0.183630
550.246267	0.183893
550.460579	0.184266
550.674873	0.184326
550.889148	0.184566
551.103405	0.184491
551.317644	0.184790
551.531865	0.184913
551.746068	0.185356
551.960252	0.185532
552.174418	0.185318
552.388566	0.184988
552.602696	0.185145
552.816807	0.185592
553.030900	0.185698
553.244975	0.185752
553.459032	0.185926
553.673070	0.185384
553.887091	0.185701
554.101093	0.185995
554.315077	0.186359
554.529042	0.186492
554.742990	0.186275
554.956919	0.186617
555.170830	0.186623
555.384722	0.186353
555.598597	0.186925
555.812453	0.186624
556.026291	0.186559
556.240111	0.186492
556.453913	0.186928
556.667696	0.187175
556.881461	0.187096
557.095208	0.187562
557.308937	0.187856
557.522647	0.187701
557.736339	0.187788
557.950013	0.187875
558.163669	0.188061
558.377307	0.187708
558.590926	0.187672
558.804527	0.188049
559.018110	0.188015
559.231675	0.188330
559.445221	0.188451
559.658749	0.188675
559.872259	0.188865
560.085751	0.189098
560.299225	0.189779
560.512680	0.190192
560.726117	0.189910
560.939536	0.189740
561.152937	0.189519
561.366319	0.190118
561.579683	0.190274
561.793029	0.190502
562.006357	0.190729
562.219667	0.190596
562.432958	0.190239
562.646231	0.190233
562.859486	0.190464
563.072723	0.190680
563.285941	0.190434
563.499141	0.190572
563.712323	0.190553
563.925487	0.190346
564.138632	0.190487
564.351760	0.190779
564.564869	0.190866
564.777960	0.191266
564.991032	0.191242
565.204087	0.191432
565.417123	0.191734
565.630141	0.191496
565.843140	0.191537
566.056122	0.191507
566.269085	0.191434
566.482030	0.191689
566.694957	0.191300
566.907866	0.191106
567.120756	0.191077
567.333628	0.190581
567.546482	0.191069
567.759318	0.191023
567.972135	0.190784
568.184935	0.190846
568.397716	0.190784
568.610478	0.191198
568.823223	0.191371
569.035949	0.191882
569.248657	0.192139
569.461347	0.192255
569.674019	0.192512
569.886672	0.193249
570.099308	0.193776
570.311925	0.194126
570.524523	0.193986
570.737104	0.194711
570.949666	0.194322
571.162210	0.194765
571.374736	0.194988
571.587244	0.195302
571.799733	0.195279
572.012205	0.195150
572.224658	0.195132
572.437092	0.195545
572.649509	0.195556
572.861907	0.195801
573.074287	0.195717
573.286649	0.195635
573.498993	0.195823
573.711318	0.195763
573.923625	0.196261
574.135914	0.195899
574.348185	0.195941
574.560438	0.196095
574.772672	0.196253
574.984888	0.196899
575.197086	0.197211
575.409266	0.197134
575.621427	0.197343
575.833570	0.197589
576.045695	0.198297
576.257802	0.198655
576.469890	0.198559
576.681961	0.198372
576.894013	0.198420
577.106046	0.198447
577.318062	0.198805
577.530059	0.198868
577.742039	0.198652
577.954000	0.199020
578.165942	0.198697
578.377867	0.198853
578.589773	0.199421
578.801661	0.199456
579.013531	0.199594
579.225382	0.199530
579.437216	0.199653
579.649031	0.199696
579.860828	0.199469
580.072606	0.199617
580.284367	0.199775
580.496109	0.199581
580.707833	0.199184
580.919539	0.199289
581.131227	0.199468
581.342896	0.199564
581.554547	0.199800
581.766180	0.199913
581.977795	0.200257
582.189391	0.200588
582.400969	0.201084
582.612529	0.201519
582.824071	0.201905
583.035595	0.201787
583.247100	0.202041
583.458587	0.202329
583.670056	0.202416
583.881506	0.202569
584.092939	0.202611
584.304353	0.202283
584.515749	0.202534
584.727127	0.202576
584.938486	0.202521
585.149828	0.202641
585.361151	0.202595
585.572456	0.203158
585.783742	0.203360
585.995011	0.202930
586.206261	0.203539
586.417493	0.203767
586.628706	0.203783
586.839902	0.204455
587.051079	0.204620
587.262238	0.204905
587.473379	0.204771
587.684502	0.204632
587.895606	0.205001
588.106692	0.204882
588.317760	0.205077
588.528810	0.205307
588.739841	0.205345
588.950855	0.205814
589.161850	0.205841
589.372827	0.206010
589.583785	0.206295
589.794726	0.206643
590.005648	0.206549
590.216552	0.206753
590.427437	0.206921
590.638305	0.207095
590.849154	0.206726
591.059985	0.206653
591.270798	0.206782
591.481592	0.207023
591.692369	0.207580
591.903127	0.208231
592.113867	0.208511
592.324588	0.208994
592.535292	0.209170
592.745977	0.209402
592.956644	0.209375
593.167293	0.209608
593.377923	0.209900
593.588536	0.209451
593.799130	0.209581
594.009706	0.209605
594.220263	0.209195
594.430803	0.209304
594.641324	0.209094
594.851827	0.209831
595.062312	0.209744
595.272778	0.209774
595.483227	0.210198
595.693657	0.210274
595.904069	0.210174
596.114462	0.210258
596.324838	0.210389
596.535195	0.210784
596.745534	0.210716
596.955855	0.210838
597.166157	0.211149
597.376441	0.211295
597.586707	0.210885
597.796955	0.210951
598.007185	0.211147
598.217396	0.211014
598.427589	0.211153
598.637764	0.210848
598.847921	0.210819
599.058060	0.210506
599.268180	0.210518
599.478282	0.211233
599.688366	0.211375
599.898431	0.211742
600.108479	0.212062
600.318508	0.212434
600.528519	0.212837
600.738511	0.213409
600.948486	0.213593
601.158442	0.213764
601.368380	0.213787
601.578300	0.214185
601.788202	0.214723
601.998085	0.215136
602.207950	0.215364
602.417797	0.215950
602.627626	0.215818
602.837436	0.215889
603.047228	0.215870
603.257002	0.215986
603.466758	0.215800
603.676496	0.215514
603.886215	0.215589
604.095916	0.215505
604.305599	0.215145
604.515264	0.215337
604.724910	0.215742
604.934538	0.215945
605.144148	0.216031
605.353740	0.216313
605.563314	0.216799
605.772869	0.216991
605.982406	0.217323
606.191925	0.217942
606.401425	0.217786
606.610908	0.217654
606.820372	0.217530
607.029818	0.217928
607.239246	0.217884
607.448655	0.217682
607.658047	0.217134
607.867420	0.216861
608.076775	0.216610
608.286111	0.216547
608.495430	0.216802
608.704730	0.217097
608.914012	0.216770
609.123275	0.216650
609.332521	0.216808
609.541748	0.217401
609.750957	0.217761
609.960148	0.217936
610.169321	0.218430
610.378475	0.218489
610.587611	0.218646
610.796729	0.218903
611.005829	0.219396
611.214910	0.219257
611.423974	0.219605
611.633019	0.219644
611.842045	0.219887
612.051054	0.220334
612.260044	0.220621
612.469017	0.220715
612.677970	0.220853
612.886906	0.221088
613.095824	0.221649
613.304723	0.221624
613.513604	0.221875
613.722467	0.221762
613.931311	0.221665
614.140138	0.222318
614.348946	0.222675
614.557736	0.222966
614.766507	0.223000
614.975261	0.222888
615.183996	0.222910
615.392713	0.223012
615.601412	0.223387
615.810092	0.223551
616.018754	0.223219
616.227399	0.223294
616.436024	0.223490
616.644632	0.223681
616.853222	0.223952
617.061793	0.224302
617.270346	0.224293
617.478880	0.224021
617.687397	0.224252
617.895895	0.224024
618.104375	0.224016
618.312837	0.224182
618.521281	0.224222
618.729706	0.224480
618.938113	0.224544
619.146502	0.224725
619.354873	0.224969
619.563226	0.224827
619.771560	0.225457
619.979876	0.225376
620.188174	0.225502
620.396453	0.225455
620.604715	0.225242
620.812958	0.224984
621.021183	0.225212
621.229390	0.225690
621.437578	0.226082
621.645748	0.226138
621.853900	0.226451
622.062034	0.226597
622.270150	0.227128
622.478247	0.227272
622.686326	0.227889
622.894387	0.227885
623.102430	0.227683
623.310454	0.227583
623.518461	0.227475
623.726449	0.227337
623.934418	0.227549
624.142370	0.227540
624.350303	0.227716
624.558218	0.227583
624.766115	0.227878
624.973994	0.228230
625.181855	0.228465
625.389697	0.228694
625.597521	0.229099
625.805327	0.229194
626.013114	0.229397
626.220883	0.229582
626.428634	0.229622
626.636367	0.229565
626.844082	0.229455
627.051778	0.229553
627.259457	0.229825
627.467117	0.229978
627.674758	0.229846
627.882382	0.229945
628.089987	0.230045
628.297574	0.230467
628.505143	0.230887
628.712694	0.231372
628.920226	0.231608
629.127740	0.231627
629.335236	0.231813
629.542714	0.232038
629.750174	0.232241
629.957615	0.232434
630.165038	0.232545
630.372443	0.232411
630.579829	0.232248
630.787198	0.232167
630.994548	0.232267
631.201880	0.232321
631.409194	0.232320
631.616489	0.232624
631.823766	0.232617
632.031025	0.232594
632.238266	0.232929
632.445489	0.233300
632.652693	0.233687
632.859879	0.233783
633.067047	0.234050
633.274197	0.234332
633.481329	0.234220
633.688442	0.234552
633.895537	0.234851
634.102614	0.235099
634.309672	0.235258
634.516713	0.235466
634.723735	0.235690
634.930739	0.235916
635.137724	0.236105
635.344692	0.236019
635.551641	0.236199
635.758572	0.236286
635.965485	0.236280
636.172379	0.236415
636.379256	0.236281
636.586114	0.236005
636.792954	0.235991
636.999775	0.235954
637.206579	0.236374
637.413364	0.236376
637.620131	0.236508
637.826880	0.236515
638.033610	0.236590
638.240323	0.237056
638.447017	0.237542
638.653692	0.237584
638.860350	0.237752
639.066990	0.237675
639.273611	0.237889
639.480214	0.237957
639.686798	0.238348
639.893365	0.238481
640.099913	0.238456
640.306443	0.238563
640.512955	0.238947
640.719449	0.239399
640.925924	0.239862
641.132381	0.240195
641.338820	0.240394
641.545241	0.240381
641.751644	0.240490
641.958028	0.240923
642.164394	0.241217
642.370742	0.241329
642.577071	0.241390
642.783383	0.241533
642.989676	0.241635
643.195951	0.241653
643.402207	0.241985
643.608446	0.242388
643.814666	0.242193
644.020868	0.242530
644.227052	0.242623
644.433218	0.242821
644.639365	0.242800
644.845494	0.242773
645.051605	0.243094
645.257698	0.243032
645.463772	0.242974
645.669828	0.243168
645.875866	0.243111
646.081886	0.243265
646.287888	0.243225
646.493871	0.243409
646.699836	0.243510
646.905783	0.243515
647.111712	0.243699
647.317622	0.244034
647.523514	0.244364
647.729388	0.244309
647.935244	0.244573
648.141082	0.244743
648.346901	0.244887
648.552702	0.245074
648.758485	0.245456
648.964250	0.245501
649.169996	0.245404
649.375724	0.245097
649.581434	0.245261
649.787126	0.245216
649.992800	0.245522
650.198455	0.245770
650.404092	0.246040
650.609711	0.246170
650.815311	0.246669
651.020894	0.247046
651.226458	0.247317
651.432004	0.247413
651.637532	0.247707
651.843041	0.247789
652.048532	0.247904
652.254006	0.247844
652.459460	0.247839
652.664897	0.247914
652.870315	0.247906
653.075716	0.248316
653.281097	0.248595
653.486461	0.248750
653.691807	0.248930
653.897134	0.249075
654.102443	0.249290
654.307734	0.249441
654.513006	0.249480
654.718261	0.249452
654.923497	0.249474
655.128715	0.249681
655.333915	0.249798
655.539096	0.249740
655.744259	0.249911
655.949404	0.250007
656.154531	0.250375
656.359640	0.250468
656.564730	0.250925
656.769802	0.251280
656.974856	0.251486
657.179892	0.251612
657.384909	0.252058
657.589908	0.252088
657.794889	0.252481
657.999852	0.252368
658.204797	0.252596
658.409723	0.252633
658.614631	0.252662
658.819521	0.252819
659.024393	0.253124
659.229246	0.253157
659.434081	0.253511
659.638898	0.253517
659.843697	0.253830
660.048478	0.254257
660.253240	0.254536
660.457984	0.254591
660.662710	0.254971
660.867417	0.255092
661.072107	0.255161
661.276778	0.255470
661.481431	0.255948
661.686066	0.256298
661.890682	0.256557
662.095281	0.256767
662.299861	0.257392
662.504422	0.257405
662.708966	0.257674
662.913491	0.257831
663.117999	0.257746
663.322488	0.257663
663.526958	0.257744
663.731411	0.257688
663.935845	0.257793
664.140261	0.257971
664.344659	0.258007
664.549038	0.258288
664.753400	0.258464
664.957743	0.258745
665.162068	0.258853
665.366375	0.258933
665.570663	0.259020
665.774933	0.259056
665.979185	0.258970
666.183419	0.259400
666.387635	0.259622
666.591832	0.260089
666.796011	0.260046
667.000172	0.260357
667.204315	0.260745
667.408439	0.261063
667.612545	0.261531
667.816634	0.261559
668.020703	0.261655
668.224755	0.261568
668.428788	0.261502
668.632803	0.261970
668.836800	0.262224
669.040779	0.262379
669.244739	0.262734
669.448681	0.262683
669.652605	0.263136
669.856511	0.263409
670.060399	0.263729
670.264268	0.264233
670.468119	0.264512
670.671952	0.264797
670.875767	0.265069
671.079563	0.265316
671.283341	0.265719
671.487101	0.265875
671.690843	0.265991
671.894567	0.266063
672.098272	0.266155
672.301959	0.266289
672.505628	0.266475
672.709278	0.266541
672.912911	0.266466
673.116525	0.266882
673.320121	0.267180
673.523699	0.267495
673.727258	0.267938
673.930799	0.268250
674.134322	0.268350
674.337827	0.268475
674.541314	0.268837
674.744782	0.269056
674.948232	0.268933
675.151664	0.269149
675.355078	0.269254
675.558474	0.269211
675.761851	0.269038
675.965210	0.269225
676.168551	0.269320
676.371873	0.269365
676.575178	0.269708
676.778464	0.269934
676.981732	0.269883
677.184981	0.270090
677.388213	0.270524
677.591426	0.271050
677.794621	0.271402
677.997798	0.271686
678.200956	0.271756
678.404097	0.271635
678.607219	0.271902
678.810323	0.271986
679.013408	0.271849
679.216476	0.272141
679.419525	0.272223
679.622556	0.272217
679.825569	0.272320
680.028563	0.272410
680.231540	0.272681
680.434498	0.272788
680.637438	0.273245
680.840359	0.273722
681.043263	0.273698
681.246148	0.273730
681.449015	0.273911
681.651864	0.274204
681.854694	0.274459
682.057506	0.274693
682.260301	0.274862
682.463076	0.274806
682.665834	0.274912
682.868573	0.274901
683.071295	0.275332
683.273998	0.275287
683.476682	0.275137
683.679349	0.275119
683.881997	0.275219
684.084627	0.275255
684.287239	0.275323
684.489833	0.275482
684.692408	0.275607
684.894965	0.275619
685.097504	0.275827
685.300025	0.276305
685.502527	0.276840
685.705012	0.277091
685.907478	0.277133
686.109925	0.277340
686.312355	0.277432
686.514766	0.277739
686.717159	0.277611
686.919534	0.277905
687.121891	0.278045
687.324230	0.278279
687.526550	0.278418
687.728852	0.278773
687.931136	0.279074
688.133401	0.279358
688.335649	0.279485
688.537878	0.280144
688.740089	0.280166
688.942281	0.280184
689.144456	0.280066
689.346612	0.280102
689.548750	0.280316
689.750870	0.280529
689.952971	0.280901
690.155055	0.280931
690.357120	0.280891
690.559167	0.281296
690.761195	0.281706
690.963206	0.282116
691.165198	0.282293
691.367172	0.282323
691.569128	0.282355
691.771065	0.282488
691.972984	0.282895
692.174885	0.283053
692.376768	0.283103
692.578633	0.282939
692.780479	0.282960
692.982308	0.283270
693.184118	0.283673
693.385909	0.284064
693.587683	0.284005
693.789438	0.283912
