sample name	sample
index	591
start time	 03-16-2021  04:28:16 PM
880	0.425595
Peak Time (s)	182.537
Peak Height 	0.4256
calc peak height	180,183
Baseline Time (s)	11.035
Baseline Value 	-0.001826
subtract baseline	10,4
Abs	0.277363
Peak Time (s)	180.035
Peak Height 	0.2774
calc peak height	180,183
Baseline Time (s)	10.04
Baseline Value 	0.00275
subtract baseline	10,3
PK_550	0.154037
Peak Time (s)	180.035
Peak Height 	0.154
calc peak height	180,183
Baseline Time (s)	10.04
Baseline Value 	7.7475E-4
subtract baseline	10,2
PK_880	0.263323
Peak Time (s)	180.035
Peak Height 	0.2633
calc peak height	180,183
Baseline Time (s)	8.536
Baseline Value 	5.0941E-4
subtract baseline	10,1


Time (s)	A880-A510	A880-A775	A880-A975	A880	I510	I775	I975	I880	
0.034000	0.001618	0.000499	-0.004558	0.001797	5600.466763	33804.205018	3638.549531	18307.284268
0.539500	-0.000330	0.000027	0.000839	0.003865	5575.318898	33623.920844	3644.674259	18233.897974
1.037500	-0.002787	-0.000870	-0.002206	0.002610	5567.836532	33649.242699	3641.374052	18278.380933
1.535000	-0.004759	-0.001083	-0.004886	0.005300	5539.016927	33444.327440	3631.557762	18183.176681
2.076500	-0.000784	-0.000160	0.006499	-0.000441	5599.431359	33916.770739	3663.293911	18387.082576
2.535000	0.001284	0.000668	0.005192	-0.000026	5609.847106	33946.242819	3660.045552	18372.237791
3.035500	0.000053	-0.000163	0.004345	-0.001283	5610.014501	33976.775271	3660.817917	18417.217471
3.541000	-0.000012	-0.000180	-0.003138	0.000330	5599.438128	33860.280537	3643.858016	18359.547553
4.038500	-0.002499	-0.001633	0.002689	-0.000461	5588.798413	33813.156450	3656.162712	18387.809205
4.536500	-0.003003	0.000159	0.004915	0.000582	5579.123448	33866.539603	3658.382943	18350.558709
5.037000	-0.001470	0.000156	-0.002093	0.000264	5590.699947	33888.943213	3645.909967	18361.887464
5.537000	-0.000050	-0.001000	-0.004523	-0.000404	5603.818830	33854.184034	3642.657632	18385.763755
6.036500	-0.000094	-0.000376	-0.000927	0.000260	5599.363077	33851.322752	3648.076939	18362.033595
6.535000	0.001733	0.001584	0.000754	0.001190	5605.012291	33924.855892	3649.472305	18328.882009
7.034500	0.000547	0.000247	0.003253	-0.000369	5607.361564	33940.669707	3657.047465	18384.511015
7.535500	0.001095	0.000544	-0.002198	0.000232	5607.027810	33918.971133	3645.774357	18363.035644
8.038500	-0.000713	0.001028	-0.002288	0.000415	5594.507757	33940.481895	3645.271336	18356.527878
8.536000	0.000000	-0.000293	-0.000118	-0.000339	5603.728956	33900.008594	3650.694706	18383.454402
9.038000	0.001904	0.000009	0.004337	0.000281	5611.823394	33877.283907	3657.862279	18361.300503
9.536500	-0.001662	-0.000962	-0.002985	-0.000380	5593.536634	33855.165614	3645.452321	18384.904980
10.040000	0.000406	0.000000	0.000000	0.000175	5603.047663	33884.200399	3649.957062	18365.076434
10.537500	-0.001016	0.001112	0.000776	0.004847	5564.937589	33631.193461	3642.745301	18199.151659
11.035000	-0.001826	0.000527	0.003656	0.000000	5590.127155	33934.351663	3657.111483	18371.325835
11.535000	0.001003	-0.000046	-0.000841	-0.000350	5610.124089	33918.410899	3649.370124	18383.848519
12.035500	0.001326	-0.000273	0.001616	-0.000592	5613.692911	33919.519244	3654.399574	18392.499826
12.535500	-0.000431	-0.000123	0.002727	0.004405	5571.331043	33575.128434	3647.168809	18214.799181
13.036000	-0.000792	-0.000332	0.002672	-0.000818	5601.760227	33931.446216	3656.801256	18400.582976
13.537000	0.000427	0.000470	0.003246	-0.000242	5605.805840	33947.587189	3656.796075	18379.977592
14.066000	0.001185	0.000057	-0.000195	-0.000561	5612.604542	33940.856202	3650.964205	18391.372435
14.537000	-0.001376	-0.000386	-0.000779	0.002791	5575.492964	33670.746998	3643.670111	18271.956134
15.037000	0.000527	-0.001253	-0.001857	0.001169	5597.555518	33724.241572	3644.673725	18329.620820
15.567500	0.001767	0.000441	0.006158	0.000517	5609.471750	33891.264256	3660.842636	18352.887461
16.035000	0.003845	0.000136	0.001502	-0.000361	5628.187968	33932.187652	3653.755452	18384.222810
16.535500	0.000829	0.000632	-0.001226	0.005231	5574.032006	33570.091807	3638.362520	18185.616370
17.035500	0.000669	0.000145	0.001694	-0.000123	5606.579873	33915.793882	3653.668230	18375.717665
17.536000	0.000703	-0.000533	0.001328	-0.000296	5607.885046	33879.745887	3653.307739	18381.897249
18.036000	0.002935	0.000470	0.006365	-0.002907	5638.607617	34138.719379	3667.712686	18475.495139
18.536500	-0.002771	-0.000228	-0.004065	0.003080	5565.017829	33661.455666	3637.101422	18261.706523
19.036500	0.000099	-0.000144	-0.001394	0.000949	5596.244465	33818.760049	3645.934978	18337.455045
19.539000	-0.001659	0.000085	0.002774	0.001575	5581.314614	33790.489991	3652.514718	18315.161362
20.037500	0.001352	0.001282	-0.001516	0.002031	5597.323051	33843.331862	3643.712336	18298.970942
20.537500	0.000028	-0.000586	0.001114	0.002526	5585.912367	33675.290445	3647.660779	18281.358677
21.035500	-0.001575	-0.000368	0.002067	0.001557	5581.948178	33759.561387	3651.231380	18315.803252
21.535500	-0.000498	-0.000954	0.003903	0.001071	5591.735449	33752.490847	3655.567804	18333.131259
22.035000	0.001487	-0.000128	0.004824	0.001412	5602.063743	33786.955755	3656.652719	18320.962021
22.536000	-0.001024	-0.000283	0.000180	0.002225	5581.223060	33718.185461	3646.488487	18292.059649
23.036500	-0.000051	-0.000442	0.001453	0.001153	5594.021578	33782.991145	3650.840610	18330.189854
23.537000	0.000192	0.000009	0.001244	0.001157	5595.524831	33814.875658	3650.444366	18330.056204
24.037000	0.001985	0.001118	0.002655	0.002349	5599.306603	33808.931225	3650.852264	18287.667277
24.537000	-0.000229	0.000396	0.001521	0.001922	5588.090983	33787.944092	3649.536907	18302.829779
25.035000	0.002943	0.000087	-0.002952	0.001972	5607.712166	33762.440247	3641.176008	18301.064439
25.535000	-0.000025	0.001152	0.003309	0.002012	5588.802415	33835.343096	3652.697889	18299.616054
26.035000	0.001197	0.000372	-0.007089	0.001183	5601.681766	33838.853015	3635.043309	18329.132943
26.535500	-0.000898	-0.000626	-0.002198	0.000876	5590.455079	33789.691609	3644.586727	18340.086500
27.035500	0.000302	0.000632	-0.004012	0.001816	5592.083334	33812.311266	3639.515653	18306.614523
27.535500	-0.000775	0.000280	0.007576	0.001774	5585.597240	33790.246257	3661.146700	18308.100746
28.037000	-0.000744	-0.000194	-0.003153	0.000023	5596.770665	33881.223119	3644.397169	18370.514168
28.536500	0.002513	0.001643	0.007217	0.000414	5614.833011	33984.567416	3663.035980	18356.553387
29.042500	0.001709	-0.000258	0.003702	-0.000766	5617.213708	33932.968712	3658.636743	18398.720325
29.550500	-0.000504	0.000183	-0.001956	0.000239	5596.924374	33892.739511	3646.211397	18362.804834
30.037500	0.001846	0.000394	0.003032	-0.000235	5614.718334	33941.650464	3656.381189	18379.723533
30.535000	0.002820	0.000031	0.002582	-0.000649	5623.510321	33945.271474	3656.315070	18394.534239
31.035500	0.000807	0.000928	0.006812	0.000312	5604.712036	33940.709973	3662.463088	18360.192512
31.552000	0.000662	0.000449	0.002636	-0.000099	5606.386883	33935.837904	3655.385837	18374.858232
32.036000	0.002394	0.000309	0.001761	0.003527	5594.467737	33667.823863	3647.004573	18245.854481
32.536500	0.001972	-0.000304	-0.005409	0.002362	5599.136193	33706.953435	3635.957378	18287.180393
33.096500	0.000059	0.000297	0.002357	0.004024	5576.752880	33631.782570	3647.187590	18228.257223
33.539500	0.000764	0.000208	0.001708	0.000099	5605.777875	33904.424617	3653.280696	18367.781042
34.037500	0.002324	0.001314	0.000696	0.000256	5614.638589	33972.297577	3651.101243	18362.185415
34.534000	-0.004619	0.000654	0.000909	0.006091	5535.013855	33510.993269	3640.702147	18155.283454
35.034500	0.002545	0.000277	-0.001035	0.000934	5611.752444	33849.860993	3646.629657	18338.012470
35.535000	-0.002584	0.000094	-0.001967	0.002625	5569.010427	33716.595655	3641.788043	18277.866225
36.035500	0.000816	0.000021	0.002147	0.002657	5590.029721	33709.068410	3649.334061	18276.700454
36.535500	-0.001452	-0.000049	0.004943	0.003513	5570.526921	33643.456946	3652.947179	18246.361910
37.036000	0.001429	0.000009	0.007923	0.002895	5592.377907	33691.365335	3659.687851	18268.262116
37.539000	-0.002085	-0.000228	0.000008	0.002061	5575.624588	33733.719710	3646.473683	18297.888223
38.036500	0.002876	0.000478	-0.001746	0.002851	5601.749950	33727.712764	3641.777973	18269.828442
38.537000	0.000479	0.001004	-0.001968	0.004568	5575.977068	33643.305718	3638.217511	18209.019488
39.037000	-0.000385	-0.000416	-0.002274	0.002071	5586.179222	33719.650810	3642.241919	18297.537030
39.534500	0.000415	0.000694	0.008328	0.003174	5584.283321	33720.105739	3659.924815	18258.358849
40.035000	0.000612	-0.000863	-0.002930	0.001770	5594.312545	33709.258383	3641.588192	18308.232082
40.535500	0.004821	0.002155	0.008172	0.004518	5603.499799	33728.461670	3657.107420	18210.788500
41.036000	0.001082	0.000895	0.002911	0.003158	5588.558585	33735.539810	3649.823465	18258.935583
41.535500	-0.001329	-0.000297	0.005323	0.002813	5575.650972	33675.445189	3654.964340	18271.181288
42.036500	-0.000987	-0.000006	0.002051	0.002766	5578.072481	33699.406396	3648.952603	18272.833376
42.536500	-0.002423	0.000615	0.003039	0.002661	5569.784806	33750.976407	3650.985619	18276.582385
43.039500	-0.000967	0.000160	-0.001391	0.003181	5575.612137	33681.763306	3641.823727	18258.132432
43.535000	0.000135	0.000865	-0.003244	0.003261	5581.990472	33726.113454	3638.272733	18255.279104
44.035000	0.001128	0.000908	0.004131	0.003584	5586.181544	33706.248217	3651.300424	18243.842507
44.535000	0.001043	0.001284	0.000825	0.004278	5581.311798	33683.715115	3643.885661	18219.290009
45.035500	0.003425	0.001205	0.000260	-0.000697	5627.652726	34032.776668	3652.064371	18396.231810
45.537500	0.003800	0.000387	0.003688	0.000199	5624.351055	33910.080657	3656.797728	18364.219316
46.036000	0.001091	0.000762	0.000320	0.000879	5602.923697	33888.319881	3649.242690	18339.947166
46.536000	0.000341	-0.000032	0.001249	0.006622	5562.349081	33425.312294	3640.349626	18136.596016
47.036500	0.000103	0.000761	0.002050	0.003642	5579.405817	33691.662609	3647.325833	18241.774014
47.537000	0.000845	-0.000234	-0.000302	0.000422	5604.257330	33849.910120	3648.937576	18356.276645
48.037000	0.000013	-0.000351	0.002484	0.000647	5597.607595	33825.560470	3653.706771	18348.234653
48.543000	-0.001024	-0.000140	0.000419	0.006271	5556.067389	33442.414981	3639.471776	18148.963335
49.038000	-0.000916	0.000563	-0.002509	0.004879	5565.364429	33590.150478	3636.657909	18198.052062
49.535500	-0.001555	0.000548	0.003378	0.003732	5568.521382	33670.232084	3649.624216	18238.597080
50.050000	0.002687	0.000729	0.000622	0.000749	5613.820434	33895.323770	3650.046315	18344.613576
50.535500	-0.000908	-0.000255	0.004774	0.005802	5559.687793	33467.341472	3648.372052	18165.477240
51.036000	0.002162	0.001033	0.006056	0.004328	5587.995279	33662.393868	3653.503993	18217.519912
51.536000	0.003361	0.000774	0.006744	-0.000948	5628.844408	34019.847480	3664.716475	18405.211511
52.037000	0.004010	0.000595	-0.002645	0.000738	5622.261473	33886.515546	3644.016624	18345.004592
52.539500	0.000054	0.000057	-0.002745	0.012768	5522.739115	33002.486136	3621.940051	17921.944325
53.037000	0.019103	-0.002299	0.024047	0.246353	4488.062689	20382.233803	3326.677423	11656.094111
53.534500	-0.016551	-0.019750	-0.003702	-0.031538	5697.557434	34749.714380	3703.749128	19539.681334
54.034500	-0.019273	-0.015639	-0.019799	-0.161608	6661.579428	46281.894548	3962.187835	25363.966672
54.535000	-0.003882	-0.023416	0.005145	-0.267981	7889.116855	57339.883735	4357.489025	31609.702327
55.035000	-0.003332	-0.014662	0.007417	-0.206239	7229.291732	51086.312736	4163.618806	27799.694192
55.536000	-0.008330	-0.012769	0.001492	-0.190386	7024.858925	49561.731006	4099.003358	26905.704729
56.038500	-0.012923	-0.010546	-0.008457	-0.202860	7100.976648	51168.036095	4106.331260	27606.378027
56.535000	-0.005048	-0.003699	-0.007377	-0.218892	7340.496916	53779.391690	4157.119007	28536.974560
57.036500	0.005284	-0.000085	0.000230	-0.216824	7426.416583	53960.847455	4173.993184	28415.024421
57.536000	0.014369	0.003608	0.006889	-0.206560	7414.053551	53193.965390	4162.985890	27818.102993
58.037000	0.014112	0.006536	0.005318	-0.170557	7049.948883	49505.540589	4053.548678	25832.533273
58.537000	0.016099	0.000227	0.012104	-0.120355	6610.554331	43818.288000	3938.338346	23324.708111
59.035000	0.016861	0.009898	0.011536	-0.100912	6453.012172	42907.866860	3888.995937	22428.748910
59.535000	0.028867	0.015319	0.023459	-0.087404	6440.625720	42169.562051	3885.180780	21829.415265
60.035500	0.029637	0.013134	0.022263	-0.033747	6031.065029	37430.722862	3761.470323	19624.731239
60.535500	0.034235	0.014757	0.031736	-0.007045	5874.131087	35492.783611	3725.729769	18625.009966
61.036000	0.037570	0.018314	0.036439	0.022949	5695.171055	33567.562004	3675.764564	17572.928364
61.536500	0.046964	0.021451	0.045635	0.044835	5615.022196	32271.561739	3651.772253	16849.854448
62.038500	0.049754	0.023402	0.047863	0.070335	5475.087974	30720.975606	3609.549407	16052.055974
62.537500	0.052824	0.027869	0.054249	0.095104	5348.048171	29450.056283	3577.761186	15320.704103
63.037500	0.054230	0.028141	0.052272	0.114696	5246.365775	28294.643832	3542.139252	14771.073853
63.539000	0.058420	0.032437	0.066541	0.111379	5287.823419	28743.773737	3571.048762	14862.376199
64.035000	0.060908	0.036833	0.067415	0.104464	5340.780040	29425.858245	3584.232427	15055.029745
64.538000	0.061852	0.036942	0.070694	0.104512	5345.882105	29429.629182	3589.771801	15053.684270
65.035500	0.061648	0.037636	0.064920	0.112445	5299.897066	28990.958813	3566.555986	14832.961463
65.537500	0.066083	0.038498	0.070578	0.111672	5329.229777	29089.415349	3577.357196	14854.290345
66.036000	0.070165	0.039748	0.073214	0.115898	5328.414685	28910.498982	3574.671503	14738.130661
66.542000	0.072667	0.039778	0.072762	0.119706	5321.029357	28685.161493	3567.525879	14634.451853
67.037500	0.069977	0.041293	0.070244	0.129071	5253.886235	28223.174727	3547.957592	14383.261707
67.537000	0.072554	0.042886	0.082155	0.126227	5283.847866	28483.245485	3572.336008	14458.962914
68.037500	0.077338	0.043933	0.076732	0.128996	5295.083003	28382.011201	3558.698399	14385.235356
68.535000	0.078650	0.043137	0.075701	0.136719	5259.521368	27886.888278	3544.406753	14182.087970
69.035000	0.077187	0.044500	0.071531	0.139256	5237.604866	27819.444629	3533.651744	14116.159808
69.535500	0.083961	0.046144	0.084100	0.134710	5300.165205	28177.248286	3561.431567	14234.592955
70.035500	0.082807	0.047474	0.081278	0.137554	5277.883377	28089.239310	3552.113857	14160.348099
70.536000	0.081116	0.047237	0.079383	0.145026	5227.582707	27645.999108	3536.972763	13967.590474
71.036500	0.084002	0.048087	0.081504	0.147091	5232.041177	27576.820450	3537.062016	13914.888102
71.539000	0.090329	0.050364	0.090822	0.144372	5281.796427	27862.453556	3556.581157	13984.336150
72.036500	0.091973	0.050161	0.091033	0.146413	5279.587425	27733.759114	3553.578783	13932.170566
72.537500	0.089754	0.051214	0.090837	0.155381	5218.269560	27285.115083	3538.732217	13705.869821
73.034500	0.087315	0.050440	0.084573	0.156478	5199.219143	27180.287712	3527.032568	13678.516933
73.535000	0.093915	0.052572	0.100659	0.152819	5254.929692	27506.256698	3558.870451	13770.046269
74.035500	0.097225	0.054893	0.094426	0.156424	5253.308947	27433.604266	3542.826340	13679.857147
74.536000	0.093597	0.053487	0.094417	0.163387	5195.856305	26965.271788	3531.673435	13507.772644
75.036000	0.097096	0.054964	0.096712	0.167223	5194.051266	26834.875019	3529.233504	13414.132190
75.538500	0.103664	0.057307	0.102913	0.163540	5249.593728	27169.364642	3545.038619	13504.001494
76.039500	0.102899	0.057703	0.102489	0.165871	5232.681709	27061.444909	3540.598430	13447.041570
76.536500	0.102689	0.057664	0.098086	0.173233	5191.813557	26653.080415	3521.941217	13269.065475
77.037000	0.110129	0.059565	0.105887	0.170933	5244.510932	26884.026209	3537.928523	13324.347411
77.537500	0.106987	0.061575	0.111784	0.173520	5213.376146	26852.161930	3543.248128	13262.189223
78.037500	0.110223	0.060089	0.114377	0.175393	5220.745170	26667.572823	3544.410592	13217.419624
78.534500	0.107524	0.061928	0.108422	0.183887	5160.896811	26306.094872	3521.445185	13016.829844
79.035500	0.112862	0.063833	0.114427	0.181416	5202.487611	26543.187414	3534.824639	13074.779422
79.537000	0.115026	0.063337	0.115697	0.183118	5204.976759	26423.781503	3534.136433	13034.829161
80.036000	0.115547	0.065127	0.113506	0.185945	5192.598657	26367.691500	3526.192209	12968.810845
80.536500	0.116502	0.065226	0.117704	0.194146	5154.143565	25933.807707	3519.918272	12779.705520
81.036500	0.114069	0.066027	0.118622	0.196749	5127.791913	25838.403707	3517.294859	12720.421686
81.537000	0.118389	0.066996	0.120085	0.192930	5170.534572	26092.779021	3525.551857	12807.513917
82.034000	0.122300	0.069036	0.128238	0.196392	5172.915466	26016.952982	3532.969167	12728.533226
82.534500	0.126523	0.070145	0.124091	0.199440	5179.160497	25913.951204	3521.625878	12659.518582
83.035000	0.122532	0.071101	0.119835	0.208345	5111.550861	25496.391381	3501.354805	12460.619904
83.535000	0.127549	0.070565	0.126540	0.203180	5164.763121	25738.609631	3519.609922	12575.487476
84.035500	0.128392	0.072778	0.123030	0.206758	5150.343808	25666.906039	3508.649812	12495.762741
84.536000	0.126744	0.074396	0.129940	0.209943	5125.090802	25584.866693	3514.387006	12425.348983
85.036000	0.128382	0.074143	0.125474	0.216727	5098.510883	25220.148100	3497.206665	12277.084429
85.539500	0.132127	0.074933	0.132261	0.213894	5132.545549	25407.205065	3511.870215	12338.718882
86.037000	0.132881	0.075304	0.135354	0.216312	5123.886965	25301.376027	3512.910805	12286.092825
86.537000	0.133609	0.076074	0.127269	0.222142	5097.543318	25041.752177	3491.771728	12160.390241
87.037500	0.131411	0.075618	0.134287	0.225336	5070.044747	24856.458567	3497.515308	12092.258883
87.535000	0.137455	0.077276	0.138204	0.223019	5112.837852	25058.347273	3506.983071	12141.632622
88.035000	0.137367	0.077959	0.137040	0.225185	5101.219207	24982.778627	3501.907556	12095.450618
88.535500	0.137363	0.079763	0.138174	0.234343	5054.605297	24611.933904	3489.837588	11902.734321
89.035500	0.139389	0.079872	0.131939	0.235700	5057.982958	24549.612448	3478.622250	11874.540926
89.536000	0.145877	0.082199	0.142290	0.233187	5103.835385	24792.330506	3497.743718	11926.848188
90.036500	0.147357	0.081722	0.137382	0.234570	5104.328284	24698.719781	3488.320659	11898.008024
90.536500	0.147219	0.084212	0.152247	0.238221	5084.909280	24640.503341	3505.213392	11822.352719
91.036500	0.141889	0.083718	0.153125	0.244941	5024.257292	24282.301097	3496.358870	11684.746932
91.534500	0.147785	0.083868	0.154761	0.241464	5071.287864	24461.617864	3504.101503	11755.679400
92.037500	0.152764	0.085137	0.144828	0.243456	5086.492623	24425.758414	3486.183811	11714.964337
92.537500	0.150574	0.085914	0.146650	0.245732	5063.800112	24351.543422	3485.510253	11668.673741
93.035500	0.152459	0.086616	0.154395	0.253922	5032.157852	23984.775022	3484.853134	11504.119288
93.538000	0.155700	0.087327	0.154845	0.250216	5067.047680	24200.381960	3491.029108	11578.196566
94.036000	0.157069	0.087857	0.160719	0.252333	5063.263042	24122.632421	3496.662332	11535.793319
94.541500	0.153410	0.087058	0.154001	0.259380	5009.816585	23742.558054	3476.254891	11396.152216
95.039000	0.155683	0.089363	0.150807	0.255283	5041.456028	24052.164562	3477.574826	11477.061043
95.539500	0.158616	0.090872	0.158596	0.258646	5039.313876	23962.057000	3484.079875	11410.605748
96.036000	0.160806	0.092011	0.165109	0.260684	5040.069232	23918.471524	3490.724149	11370.558145
96.538500	0.156733	0.090996	0.155083	0.267262	4987.458717	23554.055003	3466.410199	11242.618285
97.037500	0.164921	0.094057	0.170841	0.266079	5033.676915	23756.991281	3491.227015	11265.494451
97.535000	0.163848	0.093841	0.158460	0.266720	5025.148917	23715.830762	3472.065576	11253.086255
