sample name	sample
index	479
start time	 03-11-2021  12:55:25 PM


Wavelength (nm)	Absorbance
494.344910	0.193627
494.563924	0.193627
494.782919	0.193627
495.001897	0.063078
495.220856	-0.026284
495.439797	-0.038826
495.658719	-0.079278
495.877624	-0.156042
496.096510	-0.145934
496.315378	-0.104423
496.534227	-0.148269
496.753059	-0.134937
496.971872	-0.096702
497.190667	0.073934
497.409444	0.086632
497.628203	0.088319
497.846943	0.093312
498.065665	0.093900
498.284369	0.093129
498.503055	0.093016
498.721723	0.093574
498.940372	0.093939
499.159003	0.093342
499.377616	0.092330
499.596210	0.093227
499.814787	0.093437
500.033345	0.093674
500.251885	0.093513
500.470406	0.094208
500.688910	0.093699
500.907395	0.093723
501.125862	0.094310
501.344311	0.094566
501.562742	0.094807
501.781154	0.094277
501.999548	0.094327
502.217924	0.094011
502.436282	0.095415
502.654621	0.095145
502.872942	0.095441
503.091245	0.094518
503.309530	0.095031
503.527797	0.094954
503.746045	0.095032
503.964275	0.094270
504.182487	0.095033
504.400681	0.094125
504.618856	0.094854
504.837013	0.094945
505.055152	0.095387
505.273273	0.094602
505.491376	0.093833
505.709460	0.093436
505.927526	0.093152
506.145574	0.093254
506.363604	0.092133
506.581615	0.091878
506.799608	0.091342
507.017583	0.091064
507.235540	0.091451
507.453478	0.091943
507.671399	0.092347
507.889301	0.092562
508.107185	0.092071
508.325050	0.093255
508.542898	0.092556
508.760727	0.092728
508.978538	0.092774
509.196330	0.092449
509.414105	0.091978
509.631861	0.091746
509.849599	0.092172
510.067319	0.092983
510.285021	0.092342
510.502704	0.093253
510.720369	0.093321
510.938016	0.093286
511.155645	0.093262
511.373255	0.093873
511.590848	0.093294
511.808422	0.094100
512.025977	0.094359
512.243515	0.095033
512.461034	0.094785
512.678536	0.095446
512.896018	0.095733
513.113483	0.096412
513.330930	0.095324
513.548358	0.096436
513.765768	0.095957
513.983160	0.095816
514.200533	0.095449
514.417889	0.095725
514.635226	0.095008
514.852545	0.095262
515.069845	0.094918
515.287128	0.096688
515.504392	0.096743
515.721638	0.096705
515.938866	0.096140
516.156075	0.096252
516.373267	0.096131
516.590440	0.096343
516.807594	0.096611
517.024731	0.097375
517.241850	0.096806
517.458950	0.096857
517.676032	0.096610
517.893095	0.096896
518.110141	0.097022
518.327168	0.096858
518.544177	0.097100
518.761168	0.097357
518.978141	0.097122
519.195095	0.096440
519.412031	0.096325
519.628949	0.096069
519.845849	0.096019
520.062731	0.095922
520.279594	0.096447
520.496439	0.096506
520.713266	0.096120
520.930074	0.096106
521.146865	0.096400
521.363637	0.096327
521.580391	0.096936
521.797127	0.096653
522.013844	0.096789
522.230543	0.097061
522.447224	0.097132
522.663887	0.097357
522.880532	0.097898
523.097158	0.098392
523.313766	0.098663
523.530356	0.098835
523.746928	0.098715
523.963481	0.099572
524.180017	0.099434
524.396534	0.099458
524.613032	0.099346
524.829513	0.098896
525.045975	0.099215
525.262420	0.099349
525.478845	0.099613
525.695253	0.100428
525.911643	0.100254
526.128014	0.100484
526.344367	0.100697
526.560702	0.100858
526.777018	0.101425
526.993316	0.101028
527.209597	0.101060
527.425858	0.100367
527.642102	0.100626
527.858328	0.100046
528.074535	0.099765
528.290724	0.100075
528.506894	0.100115
528.723047	0.100058
528.939181	0.100516
529.155297	0.100858
529.371395	0.101248
529.587475	0.101220
529.803536	0.102049
530.019579	0.101961
530.235604	0.101835
530.451611	0.101927
530.667600	0.101914
530.883570	0.102219
531.099522	0.102038
531.315456	0.102461
531.531372	0.102841
531.747269	0.101999
531.963148	0.102806
532.179009	0.102481
532.394852	0.102573
532.610676	0.103135
532.826482	0.103003
533.042271	0.103142
533.258040	0.103013
533.473792	0.103132
533.689525	0.104218
533.905240	0.103941
534.120937	0.104348
534.336616	0.104737
534.552277	0.104314
534.767919	0.104146
534.983543	0.104627
535.199149	0.104561
535.414736	0.104564
535.630306	0.104591
535.845857	0.104959
536.061390	0.105423
536.276904	0.105594
536.492401	0.106020
536.707879	0.106214
536.923339	0.106083
537.138781	0.106531
537.354204	0.105992
537.569610	0.105503
537.784997	0.105264
538.000366	0.105406
538.215716	0.105818
538.431049	0.105966
538.646363	0.106186
538.861659	0.106398
539.076937	0.106268
539.292196	0.106778
539.507438	0.106529
539.722661	0.106770
539.937866	0.107018
540.153052	0.106716
540.368221	0.106654
540.583371	0.107093
540.798503	0.106871
541.013617	0.106945
541.228712	0.107142
541.443789	0.108292
541.658848	0.108369
541.873889	0.107580
542.088912	0.107788
542.303916	0.107939
542.518902	0.108001
542.733870	0.108106
542.948820	0.108017
543.163752	0.108046
543.378665	0.107775
543.593560	0.108182
543.808437	0.108794
544.023295	0.108563
544.238136	0.108282
544.452958	0.108294
544.667762	0.108646
544.882548	0.108988
545.097315	0.109268
545.312064	0.109510
545.526795	0.109362
545.741508	0.109788
545.956203	0.110004
546.170879	0.110607
546.385537	0.110683
546.600177	0.110940
546.814799	0.111553
547.029402	0.111574
547.243988	0.111677
547.458555	0.111914
547.673103	0.111968
547.887634	0.112702
548.102146	0.112655
548.316640	0.112991
548.531116	0.112855
548.745574	0.112725
548.960013	0.113253
549.174435	0.113297
549.388838	0.113217
549.603222	0.112976
549.817589	0.112173
550.031937	0.112544
550.246267	0.112624
550.460579	0.113006
550.674873	0.113093
550.889148	0.113223
551.103405	0.113433
551.317644	0.113463
551.531865	0.113923
551.746068	0.114305
551.960252	0.114550
552.174418	0.114319
552.388566	0.114271
552.602696	0.114501
552.816807	0.113895
553.030900	0.114215
553.244975	0.114496
553.459032	0.114282
553.673070	0.114504
553.887091	0.114374
554.101093	0.114551
554.315077	0.114830
554.529042	0.114681
554.742990	0.114980
554.956919	0.114609
555.170830	0.114634
555.384722	0.115199
555.598597	0.115260
555.812453	0.115402
556.026291	0.115487
556.240111	0.115492
556.453913	0.115757
556.667696	0.115784
556.881461	0.116097
557.095208	0.116218
557.308937	0.115934
557.522647	0.116206
557.736339	0.116322
557.950013	0.116584
558.163669	0.116499
558.377307	0.116680
558.590926	0.116634
558.804527	0.116826
559.018110	0.116779
559.231675	0.116806
559.445221	0.117060
559.658749	0.116704
559.872259	0.116842
560.085751	0.116929
560.299225	0.116978
560.512680	0.117361
560.726117	0.117353
560.939536	0.117244
561.152937	0.117704
561.366319	0.117800
561.579683	0.118454
561.793029	0.118577
562.006357	0.118429
562.219667	0.118256
562.432958	0.118248
562.646231	0.118311
562.859486	0.118894
563.072723	0.118720
563.285941	0.118468
563.499141	0.118384
563.712323	0.118333
563.925487	0.118837
564.138632	0.118934
564.351760	0.119076
564.564869	0.119202
564.777960	0.119181
564.991032	0.119284
565.204087	0.119524
565.417123	0.119444
565.630141	0.119744
565.843140	0.119688
566.056122	0.119753
566.269085	0.120126
566.482030	0.120226
566.694957	0.120335
566.907866	0.120403
567.120756	0.120531
567.333628	0.120360
567.546482	0.120075
567.759318	0.120014
567.972135	0.120138
568.184935	0.119974
568.397716	0.119898
568.610478	0.119993
568.823223	0.119986
569.035949	0.119818
569.248657	0.120515
569.461347	0.120837
569.674019	0.120942
569.886672	0.121245
570.099308	0.121647
570.311925	0.121957
570.524523	0.122042
570.737104	0.122269
570.949666	0.122543
571.162210	0.122506
571.374736	0.122475
571.587244	0.122622
571.799733	0.122497
572.012205	0.122155
572.224658	0.122052
572.437092	0.122238
572.649509	0.122194
572.861907	0.122350
573.074287	0.122164
573.286649	0.122348
573.498993	0.122541
573.711318	0.122729
573.923625	0.122894
574.135914	0.122827
574.348185	0.122648
574.560438	0.122542
574.772672	0.122531
574.984888	0.122848
575.197086	0.122796
575.409266	0.122863
575.621427	0.122792
575.833570	0.122850
576.045695	0.123043
576.257802	0.122814
576.469890	0.122968
576.681961	0.122660
576.894013	0.122267
577.106046	0.122383
577.318062	0.122563
577.530059	0.122595
577.742039	0.122381
577.954000	0.122530
578.165942	0.123029
578.377867	0.123417
578.589773	0.123989
578.801661	0.124187
579.013531	0.124084
579.225382	0.123990
579.437216	0.124186
579.649031	0.124654
579.860828	0.124693
580.072606	0.124839
580.284367	0.124997
580.496109	0.124881
580.707833	0.124845
580.919539	0.125394
581.131227	0.125503
581.342896	0.125778
581.554547	0.125957
581.766180	0.126328
581.977795	0.126404
582.189391	0.126216
582.400969	0.126494
582.612529	0.127255
582.824071	0.127055
583.035595	0.127120
583.247100	0.127289
583.458587	0.127486
583.670056	0.127722
583.881506	0.127968
584.092939	0.128369
584.304353	0.128445
584.515749	0.127966
584.727127	0.127872
584.938486	0.128084
585.149828	0.128229
585.361151	0.128078
585.572456	0.127954
585.783742	0.127768
585.995011	0.127547
586.206261	0.127350
586.417493	0.127788
586.628706	0.127951
586.839902	0.127804
587.051079	0.127578
587.262238	0.127702
587.473379	0.127644
587.684502	0.128094
587.895606	0.128679
588.106692	0.129207
588.317760	0.129053
588.528810	0.129428
588.739841	0.129749
588.950855	0.130009
589.161850	0.130195
589.372827	0.130386
589.583785	0.130088
589.794726	0.130031
590.005648	0.129687
590.216552	0.129729
590.427437	0.129657
590.638305	0.129748
590.849154	0.129707
591.059985	0.129459
591.270798	0.129635
591.481592	0.129591
591.692369	0.129286
591.903127	0.129546
592.113867	0.129698
592.324588	0.129288
592.535292	0.129633
592.745977	0.129809
592.956644	0.130027
593.167293	0.129637
593.377923	0.129572
593.588536	0.129784
593.799130	0.129881
594.009706	0.130274
594.220263	0.130822
594.430803	0.130754
594.641324	0.131083
594.851827	0.131102
595.062312	0.131287
595.272778	0.131663
595.483227	0.131716
595.693657	0.131724
595.904069	0.131687
596.114462	0.131690
596.324838	0.131746
596.535195	0.131426
596.745534	0.131614
596.955855	0.131698
597.166157	0.131873
597.376441	0.132103
597.586707	0.132348
597.796955	0.132258
598.007185	0.132751
598.217396	0.133019
598.427589	0.133236
598.637764	0.133339
598.847921	0.133433
599.058060	0.133385
599.268180	0.133527
599.478282	0.133578
599.688366	0.133674
599.898431	0.133698
600.108479	0.133567
600.318508	0.133632
600.528519	0.133694
600.738511	0.133939
600.948486	0.133851
601.158442	0.133754
601.368380	0.133555
601.578300	0.133891
601.788202	0.133858
601.998085	0.133867
602.207950	0.133946
602.417797	0.134214
602.627626	0.134313
602.837436	0.134549
603.047228	0.134669
603.257002	0.134781
603.466758	0.134977
603.676496	0.135080
603.886215	0.135324
604.095916	0.135277
604.305599	0.135008
604.515264	0.135105
604.724910	0.135375
604.934538	0.135456
605.144148	0.135596
605.353740	0.135398
605.563314	0.135290
605.772869	0.135402
605.982406	0.135616
606.191925	0.135924
606.401425	0.135754
606.610908	0.135706
606.820372	0.135745
607.029818	0.135871
607.239246	0.135904
607.448655	0.135955
607.658047	0.135884
607.867420	0.135694
608.076775	0.135877
608.286111	0.136162
608.495430	0.136285
608.704730	0.136525
608.914012	0.136379
609.123275	0.136375
609.332521	0.136312
609.541748	0.136136
609.750957	0.136370
609.960148	0.136372
610.169321	0.136572
610.378475	0.136737
610.587611	0.136510
610.796729	0.136726
611.005829	0.136597
611.214910	0.136737
611.423974	0.137089
611.633019	0.137245
611.842045	0.137186
612.051054	0.137136
612.260044	0.137461
612.469017	0.137701
612.677970	0.137651
612.886906	0.137986
613.095824	0.138394
613.304723	0.138540
613.513604	0.138577
613.722467	0.138559
613.931311	0.138574
614.140138	0.138390
614.348946	0.138285
614.557736	0.138606
614.766507	0.139024
614.975261	0.138950
615.183996	0.139027
615.392713	0.138967
615.601412	0.139169
615.810092	0.139244
616.018754	0.139352
616.227399	0.139476
616.436024	0.139346
616.644632	0.139219
616.853222	0.139397
617.061793	0.139602
617.270346	0.139753
617.478880	0.139788
617.687397	0.140064
617.895895	0.140034
618.104375	0.140230
618.312837	0.140339
618.521281	0.140461
618.729706	0.140361
618.938113	0.140201
619.146502	0.140220
619.354873	0.140455
619.563226	0.140353
619.771560	0.140681
619.979876	0.140962
620.188174	0.141266
620.396453	0.141340
620.604715	0.141655
620.812958	0.141826
621.021183	0.142041
621.229390	0.142029
621.437578	0.142225
621.645748	0.142008
621.853900	0.141799
622.062034	0.141776
622.270150	0.141705
622.478247	0.141456
622.686326	0.141460
622.894387	0.141616
623.102430	0.141593
623.310454	0.141594
623.518461	0.141742
623.726449	0.142083
623.934418	0.142184
624.142370	0.142398
624.350303	0.142643
624.558218	0.142615
624.766115	0.142570
624.973994	0.142647
625.181855	0.142733
625.389697	0.142658
625.597521	0.142598
625.805327	0.142599
626.013114	0.142319
626.220883	0.142381
626.428634	0.142412
626.636367	0.142485
626.844082	0.142561
627.051778	0.142583
627.259457	0.142803
627.467117	0.142962
627.674758	0.143059
627.882382	0.143515
628.089987	0.143461
628.297574	0.143564
628.505143	0.143509
628.712694	0.143733
628.920226	0.143751
629.127740	0.143885
629.335236	0.143807
629.542714	0.143859
629.750174	0.143705
629.957615	0.143914
630.165038	0.144275
630.372443	0.144627
630.579829	0.144658
630.787198	0.144867
630.994548	0.144799
631.201880	0.145055
631.409194	0.145276
631.616489	0.145395
631.823766	0.145295
632.031025	0.145162
632.238266	0.144960
632.445489	0.145047
632.652693	0.145114
632.859879	0.145348
633.067047	0.145229
633.274197	0.145331
633.481329	0.145514
633.688442	0.145801
633.895537	0.145807
634.102614	0.146000
634.309672	0.146098
634.516713	0.145948
634.723735	0.145929
634.930739	0.145936
635.137724	0.146144
635.344692	0.146309
635.551641	0.146366
635.758572	0.146536
635.965485	0.146767
636.172379	0.146958
636.379256	0.147282
636.586114	0.147452
636.792954	0.147720
636.999775	0.147685
637.206579	0.147662
637.413364	0.147690
637.620131	0.147652
637.826880	0.147479
638.033610	0.147493
638.240323	0.147713
638.447017	0.147934
638.653692	0.148188
638.860350	0.148124
639.066990	0.148346
639.273611	0.148589
639.480214	0.148519
639.686798	0.148750
639.893365	0.148963
640.099913	0.148916
640.306443	0.148947
640.512955	0.149062
640.719449	0.149254
640.925924	0.149187
641.132381	0.149127
641.338820	0.149620
641.545241	0.149668
641.751644	0.149476
641.958028	0.149613
642.164394	0.149513
642.370742	0.149553
642.577071	0.149669
642.783383	0.149725
642.989676	0.150075
643.195951	0.149990
643.402207	0.149969
643.608446	0.150000
643.814666	0.150122
644.020868	0.150145
644.227052	0.150184
644.433218	0.150073
644.639365	0.150154
644.845494	0.150067
645.051605	0.150143
645.257698	0.150381
645.463772	0.150741
645.669828	0.150620
645.875866	0.150959
646.081886	0.150663
646.287888	0.150819
646.493871	0.150916
646.699836	0.150840
646.905783	0.150972
647.111712	0.150988
647.317622	0.150803
647.523514	0.151012
647.729388	0.151009
647.935244	0.151367
648.141082	0.151393
648.346901	0.151381
648.552702	0.151545
648.758485	0.151611
648.964250	0.152045
649.169996	0.152260
649.375724	0.152361
649.581434	0.152433
649.787126	0.152373
649.992800	0.152504
650.198455	0.152774
650.404092	0.152724
650.609711	0.153089
650.815311	0.152965
651.020894	0.153038
651.226458	0.152801
651.432004	0.152722
651.637532	0.152858
651.843041	0.152946
652.048532	0.152957
652.254006	0.153103
652.459460	0.152893
652.664897	0.152858
652.870315	0.152917
653.075716	0.153256
653.281097	0.153305
653.486461	0.153533
653.691807	0.153631
653.897134	0.153782
654.102443	0.153938
654.307734	0.154192
654.513006	0.154362
654.718261	0.154417
654.923497	0.154361
655.128715	0.154570
655.333915	0.154527
655.539096	0.154777
655.744259	0.154864
655.949404	0.154833
656.154531	0.154677
656.359640	0.154548
656.564730	0.154672
656.769802	0.154976
656.974856	0.155011
657.179892	0.154893
657.384909	0.154769
657.589908	0.154603
657.794889	0.154918
657.999852	0.155023
658.204797	0.155358
658.409723	0.155644
658.614631	0.155715
658.819521	0.156006
659.024393	0.156361
659.229246	0.156659
659.434081	0.157087
659.638898	0.157096
659.843697	0.157397
660.048478	0.157324
660.253240	0.157286
660.457984	0.157293
660.662710	0.157308
660.867417	0.157241
661.072107	0.157341
661.276778	0.157108
661.481431	0.157175
661.686066	0.157174
661.890682	0.157400
662.095281	0.157349
662.299861	0.157413
662.504422	0.157366
662.708966	0.157560
662.913491	0.157416
663.117999	0.157725
663.322488	0.157982
663.526958	0.158096
663.731411	0.158136
663.935845	0.158335
664.140261	0.158420
664.344659	0.158620
664.549038	0.158696
664.753400	0.158984
664.957743	0.159128
665.162068	0.159035
665.366375	0.159225
665.570663	0.159507
665.774933	0.159501
665.979185	0.159794
666.183419	0.159914
666.387635	0.160094
666.591832	0.160165
666.796011	0.160457
667.000172	0.160538
667.204315	0.160500
667.408439	0.160265
667.612545	0.160308
667.816634	0.160278
668.020703	0.160087
668.224755	0.160167
668.428788	0.160041
668.632803	0.159873
668.836800	0.160083
669.040779	0.160322
669.244739	0.160524
669.448681	0.160722
669.652605	0.160819
669.856511	0.161178
670.060399	0.161214
670.264268	0.161436
670.468119	0.161588
670.671952	0.161578
670.875767	0.161370
671.079563	0.161441
671.283341	0.161626
671.487101	0.161682
671.690843	0.161873
671.894567	0.161971
672.098272	0.161973
672.301959	0.162290
672.505628	0.162419
672.709278	0.162743
672.912911	0.163028
673.116525	0.163286
673.320121	0.163448
673.523699	0.163514
673.727258	0.163909
673.930799	0.164156
674.134322	0.164054
674.337827	0.164216
674.541314	0.164383
674.744782	0.164569
674.948232	0.164384
675.151664	0.164444
675.355078	0.164609
675.558474	0.164297
675.761851	0.164258
675.965210	0.164274
676.168551	0.164269
676.371873	0.164255
676.575178	0.164235
676.778464	0.164649
676.981732	0.164725
677.184981	0.164740
677.388213	0.164833
677.591426	0.164976
677.794621	0.165374
677.997798	0.165465
678.200956	0.165486
678.404097	0.165449
678.607219	0.165141
678.810323	0.165227
679.013408	0.165295
679.216476	0.165597
679.419525	0.165653
679.622556	0.165326
679.825569	0.165474
680.028563	0.165814
680.231540	0.165919
680.434498	0.166171
680.637438	0.166323
680.840359	0.166353
681.043263	0.166411
681.246148	0.166726
681.449015	0.167046
681.651864	0.167029
681.854694	0.166834
682.057506	0.167159
682.260301	0.167226
682.463076	0.167315
682.665834	0.167362
682.868573	0.167538
683.071295	0.167685
683.273998	0.167695
683.476682	0.167998
683.679349	0.168076
683.881997	0.168090
684.084627	0.168222
684.287239	0.168381
684.489833	0.168534
684.692408	0.168574
684.894965	0.168345
685.097504	0.168569
685.300025	0.168516
685.502527	0.168648
685.705012	0.168702
685.907478	0.168877
686.109925	0.169017
686.312355	0.169160
686.514766	0.169099
686.717159	0.169562
686.919534	0.169797
687.121891	0.170065
687.324230	0.170365
687.526550	0.170381
687.728852	0.170498
687.931136	0.170533
688.133401	0.170615
688.335649	0.170836
688.537878	0.170790
688.740089	0.170643
688.942281	0.170588
689.144456	0.170534
689.346612	0.170431
689.548750	0.170431
689.750870	0.170413
689.952971	0.170430
690.155055	0.170487
690.357120	0.170165
690.559167	0.170133
690.761195	0.170242
690.963206	0.170321
691.165198	0.170678
691.367172	0.170867
691.569128	0.170752
691.771065	0.170873
691.972984	0.170857
692.174885	0.171402
692.376768	0.171534
692.578633	0.171415
692.780479	0.171696
692.982308	0.171866
693.184118	0.171960
693.385909	0.172315
