sample name	sample
index	409
start time	 03-08-2021  10:51:53 AM


Wavelength (nm)	Absorbance
494.344910	0.104212
494.563924	0.104212
494.782919	0.104212
495.001897	-0.172111
495.220856	-0.052062
495.439797	-0.063241
495.658719	-0.078071
495.877624	-0.080500
496.096510	-0.079886
496.315378	-0.049237
496.534227	-0.047013
496.753059	-0.019947
496.971872	-0.018695
497.190667	0.124076
497.409444	0.136653
497.628203	0.144289
497.846943	0.145459
498.065665	0.149104
498.284369	0.150747
498.503055	0.152070
498.721723	0.152179
498.940372	0.154835
499.159003	0.154366
499.377616	0.155781
499.596210	0.154814
499.814787	0.156274
500.033345	0.156410
500.251885	0.154968
500.470406	0.155307
500.688910	0.155781
500.907395	0.155464
501.125862	0.157094
501.344311	0.157175
501.562742	0.157769
501.781154	0.157186
501.999548	0.157099
502.217924	0.158116
502.436282	0.158809
502.654621	0.159358
502.872942	0.159071
503.091245	0.157046
503.309530	0.157077
503.527797	0.157743
503.746045	0.158615
503.964275	0.159336
504.182487	0.160295
504.400681	0.159855
504.618856	0.159438
504.837013	0.158078
505.055152	0.159145
505.273273	0.159138
505.491376	0.158629
505.709460	0.158319
505.927526	0.158305
506.145574	0.157938
506.363604	0.157159
506.581615	0.158318
506.799608	0.159654
507.017583	0.160080
507.235540	0.160539
507.453478	0.161720
507.671399	0.161960
507.889301	0.162563
508.107185	0.162454
508.325050	0.163693
508.542898	0.162842
508.760727	0.162647
508.978538	0.162691
509.196330	0.163013
509.414105	0.163526
509.631861	0.163875
509.849599	0.163196
510.067319	0.164088
510.285021	0.164304
510.502704	0.164982
510.720369	0.165844
510.938016	0.166097
511.155645	0.166957
511.373255	0.166741
511.590848	0.167366
511.808422	0.168071
512.025977	0.168019
512.243515	0.167350
512.461034	0.168038
512.678536	0.168223
512.896018	0.168321
513.113483	0.167987
513.330930	0.167931
513.548358	0.167918
513.765768	0.168557
513.983160	0.168721
514.200533	0.170140
514.417889	0.169653
514.635226	0.169339
514.852545	0.170342
515.069845	0.170523
515.287128	0.171007
515.504392	0.170764
515.721638	0.170040
515.938866	0.170730
516.156075	0.171043
516.373267	0.171570
516.590440	0.172206
516.807594	0.172175
517.024731	0.172479
517.241850	0.172509
517.458950	0.173095
517.676032	0.173686
517.893095	0.173769
518.110141	0.172743
518.327168	0.172615
518.544177	0.173391
518.761168	0.173467
518.978141	0.173813
519.195095	0.174360
519.412031	0.174279
519.628949	0.174726
519.845849	0.175092
520.062731	0.176459
520.279594	0.177751
520.496439	0.177522
520.713266	0.177941
520.930074	0.178232
521.146865	0.178472
521.363637	0.179507
521.580391	0.179703
521.797127	0.179716
522.013844	0.179416
522.230543	0.179279
522.447224	0.179550
522.663887	0.179533
522.880532	0.179439
523.097158	0.179587
523.313766	0.179898
523.530356	0.180348
523.746928	0.180820
523.963481	0.180661
524.180017	0.180969
524.396534	0.181321
524.613032	0.181676
524.829513	0.182269
525.045975	0.182243
525.262420	0.181692
525.478845	0.182321
525.695253	0.182955
525.911643	0.184094
526.128014	0.184166
526.344367	0.184864
526.560702	0.185315
526.777018	0.185088
526.993316	0.186079
527.209597	0.186740
527.425858	0.186997
527.642102	0.186809
527.858328	0.187161
528.074535	0.187845
528.290724	0.188100
528.506894	0.188666
528.723047	0.189796
528.939181	0.190186
529.155297	0.190693
529.371395	0.190848
529.587475	0.191550
529.803536	0.191881
530.019579	0.192025
530.235604	0.191992
530.451611	0.191994
530.667600	0.192399
530.883570	0.192565
531.099522	0.192651
531.315456	0.193483
531.531372	0.193301
531.747269	0.193437
531.963148	0.194328
532.179009	0.194611
532.394852	0.194699
532.610676	0.195241
532.826482	0.195409
533.042271	0.195366
533.258040	0.195243
533.473792	0.195690
533.689525	0.196337
533.905240	0.195867
534.120937	0.196098
534.336616	0.196724
534.552277	0.196435
534.767919	0.197047
534.983543	0.198219
535.199149	0.198571
535.414736	0.199230
535.630306	0.199487
535.845857	0.200157
536.061390	0.200900
536.276904	0.201832
536.492401	0.201838
536.707879	0.202044
536.923339	0.202035
537.138781	0.202159
537.354204	0.202183
537.569610	0.202623
537.784997	0.202785
538.000366	0.203205
538.215716	0.203537
538.431049	0.204092
538.646363	0.204483
538.861659	0.205289
539.076937	0.205786
539.292196	0.206556
539.507438	0.206897
539.722661	0.207050
539.937866	0.207364
540.153052	0.206567
540.368221	0.207139
540.583371	0.207605
540.798503	0.207587
541.013617	0.207939
541.228712	0.208210
541.443789	0.208083
541.658848	0.208429
541.873889	0.208903
542.088912	0.209691
542.303916	0.210016
542.518902	0.210507
542.733870	0.210978
542.948820	0.211500
543.163752	0.211777
543.378665	0.212764
543.593560	0.213219
543.808437	0.213981
544.023295	0.214799
544.238136	0.214930
544.452958	0.215073
544.667762	0.215607
544.882548	0.215528
545.097315	0.215647
545.312064	0.215689
545.526795	0.216066
545.741508	0.215623
545.956203	0.215337
546.170879	0.216047
546.385537	0.216459
546.600177	0.216658
546.814799	0.217027
547.029402	0.217418
547.243988	0.217207
547.458555	0.217410
547.673103	0.217733
547.887634	0.218154
548.102146	0.218143
548.316640	0.218385
548.531116	0.218847
548.745574	0.219192
548.960013	0.219303
549.174435	0.219740
549.388838	0.220003
549.603222	0.220362
549.817589	0.220557
550.031937	0.220607
550.246267	0.221093
550.460579	0.220568
550.674873	0.220541
550.889148	0.220723
551.103405	0.221242
551.317644	0.221381
551.531865	0.221212
551.746068	0.221634
551.960252	0.222074
552.174418	0.222164
552.388566	0.222179
552.602696	0.222423
552.816807	0.222945
553.030900	0.222599
553.244975	0.222788
553.459032	0.223504
553.673070	0.223874
553.887091	0.224093
554.101093	0.223917
554.315077	0.224245
554.529042	0.224490
554.742990	0.224661
554.956919	0.225236
555.170830	0.225760
555.384722	0.226048
555.598597	0.225791
555.812453	0.225924
556.026291	0.226352
556.240111	0.226903
556.453913	0.227109
556.667696	0.227338
556.881461	0.227798
557.095208	0.228122
557.308937	0.228027
557.522647	0.228194
557.736339	0.228322
557.950013	0.228548
558.163669	0.228782
558.377307	0.229803
558.590926	0.229627
558.804527	0.229800
559.018110	0.229932
559.231675	0.230288
559.445221	0.230698
559.658749	0.231108
559.872259	0.231350
560.085751	0.231431
560.299225	0.231187
560.512680	0.231934
560.726117	0.232264
560.939536	0.232361
561.152937	0.232840
561.366319	0.233377
561.579683	0.233581
561.793029	0.233304
562.006357	0.233517
562.219667	0.234231
562.432958	0.233871
562.646231	0.233764
562.859486	0.234397
563.072723	0.234267
563.285941	0.234522
563.499141	0.234757
563.712323	0.235109
563.925487	0.235585
564.138632	0.235387
564.351760	0.235765
564.564869	0.236005
564.777960	0.235579
564.991032	0.235769
565.204087	0.235861
565.417123	0.236190
565.630141	0.236734
565.843140	0.236931
566.056122	0.236615
566.269085	0.237218
566.482030	0.237504
566.694957	0.237649
566.907866	0.237731
567.120756	0.238099
567.333628	0.238201
567.546482	0.238417
567.759318	0.238810
567.972135	0.239645
568.184935	0.239535
568.397716	0.239711
568.610478	0.240471
568.823223	0.240763
569.035949	0.241099
569.248657	0.241314
569.461347	0.241235
569.674019	0.240945
569.886672	0.241003
570.099308	0.241242
570.311925	0.241181
570.524523	0.241202
570.737104	0.241575
570.949666	0.241220
571.162210	0.241281
571.374736	0.241358
571.587244	0.241772
571.799733	0.241865
572.012205	0.242092
572.224658	0.242564
572.437092	0.242950
572.649509	0.243310
572.861907	0.243963
573.074287	0.244227
573.286649	0.244732
573.498993	0.245204
573.711318	0.245740
573.923625	0.246289
574.135914	0.246626
574.348185	0.246515
574.560438	0.246778
574.772672	0.246642
574.984888	0.246755
575.197086	0.246963
575.409266	0.246749
575.621427	0.246811
575.833570	0.246824
576.045695	0.246518
576.257802	0.246409
576.469890	0.246301
576.681961	0.246438
576.894013	0.247052
577.106046	0.247374
577.318062	0.247691
577.530059	0.247827
577.742039	0.247773
577.954000	0.248451
578.165942	0.249043
578.377867	0.249496
578.589773	0.250119
578.801661	0.250144
579.013531	0.250290
579.225382	0.250421
579.437216	0.250568
579.649031	0.251129
579.860828	0.251363
580.072606	0.251633
580.284367	0.251679
580.496109	0.251619
580.707833	0.252023
580.919539	0.252342
581.131227	0.252673
581.342896	0.252770
581.554547	0.252981
581.766180	0.253451
581.977795	0.253427
582.189391	0.253529
582.400969	0.253580
582.612529	0.253749
582.824071	0.253795
583.035595	0.253891
583.247100	0.254047
583.458587	0.253908
583.670056	0.253859
583.881506	0.254203
584.092939	0.254546
584.304353	0.254405
584.515749	0.254678
584.727127	0.255152
584.938486	0.255715
585.149828	0.256124
585.361151	0.256536
585.572456	0.256396
585.783742	0.256869
585.995011	0.257308
586.206261	0.258369
586.417493	0.258311
586.628706	0.258320
586.839902	0.258435
587.051079	0.258862
587.262238	0.259215
587.473379	0.259788
587.684502	0.259773
587.895606	0.259766
588.106692	0.259835
588.317760	0.259609
588.528810	0.259769
588.739841	0.259913
588.950855	0.259489
589.161850	0.259448
589.372827	0.259576
589.583785	0.259651
589.794726	0.259875
590.005648	0.259800
590.216552	0.260525
590.427437	0.260757
590.638305	0.260976
590.849154	0.261519
591.059985	0.261723
591.270798	0.262032
591.481592	0.262210
591.692369	0.262769
591.903127	0.263075
592.113867	0.262893
592.324588	0.263316
592.535292	0.263266
592.745977	0.263517
592.956644	0.263603
593.167293	0.263820
593.377923	0.264029
593.588536	0.263660
593.799130	0.263805
594.009706	0.264462
594.220263	0.264362
594.430803	0.264797
594.641324	0.264877
594.851827	0.265167
595.062312	0.265162
595.272778	0.265458
595.483227	0.265999
595.693657	0.266237
595.904069	0.266105
596.114462	0.265973
596.324838	0.266080
596.535195	0.266381
596.745534	0.266588
596.955855	0.266823
597.166157	0.267106
597.376441	0.266945
597.586707	0.267158
597.796955	0.267195
598.007185	0.267769
598.217396	0.268055
598.427589	0.268281
598.637764	0.268410
598.847921	0.268666
599.058060	0.268605
599.268180	0.268863
599.478282	0.269059
599.688366	0.269438
599.898431	0.269325
600.108479	0.269772
600.318508	0.269658
600.528519	0.269795
600.738511	0.270098
600.948486	0.270361
601.158442	0.270545
601.368380	0.270563
601.578300	0.270724
601.788202	0.271198
601.998085	0.271002
602.207950	0.271404
602.417797	0.271795
602.627626	0.271719
602.837436	0.271827
603.047228	0.271976
603.257002	0.272098
603.466758	0.272183
603.676496	0.272289
603.886215	0.272378
604.095916	0.272417
604.305599	0.272627
604.515264	0.273044
604.724910	0.273459
604.934538	0.273601
605.144148	0.273870
605.353740	0.273986
605.563314	0.273960
605.772869	0.274135
605.982406	0.274608
606.191925	0.274818
606.401425	0.274743
606.610908	0.274673
606.820372	0.275197
607.029818	0.275473
607.239246	0.276029
607.448655	0.276434
607.658047	0.276950
607.867420	0.277186
608.076775	0.277350
608.286111	0.277610
608.495430	0.278325
608.704730	0.278218
608.914012	0.278733
609.123275	0.278740
609.332521	0.279097
609.541748	0.278987
609.750957	0.278822
609.960148	0.278635
610.169321	0.278654
610.378475	0.278351
610.587611	0.278877
610.796729	0.278672
611.005829	0.278881
611.214910	0.278902
611.423974	0.279154
611.633019	0.279715
611.842045	0.280469
612.051054	0.280653
612.260044	0.280956
612.469017	0.281007
612.677970	0.281395
612.886906	0.281746
613.095824	0.281843
613.304723	0.282067
613.513604	0.281956
613.722467	0.281713
613.931311	0.282368
614.140138	0.282603
614.348946	0.282909
614.557736	0.282625
614.766507	0.282396
614.975261	0.282629
615.183996	0.282564
615.392713	0.283020
615.601412	0.283032
615.810092	0.283028
616.018754	0.282926
616.227399	0.282548
616.436024	0.282878
616.644632	0.283064
616.853222	0.283520
617.061793	0.283788
617.270346	0.283641
617.478880	0.284202
617.687397	0.284366
617.895895	0.284625
618.104375	0.284996
618.312837	0.285194
618.521281	0.285253
618.729706	0.285044
618.938113	0.285204
619.146502	0.285738
619.354873	0.285632
619.563226	0.285531
619.771560	0.285543
619.979876	0.285692
620.188174	0.285840
620.396453	0.286247
620.604715	0.286381
620.812958	0.286451
621.021183	0.286142
621.229390	0.286655
621.437578	0.286934
621.645748	0.287407
621.853900	0.287464
622.062034	0.287423
622.270150	0.287583
622.478247	0.287877
622.686326	0.288067
622.894387	0.288169
623.102430	0.288258
623.310454	0.288269
623.518461	0.288321
623.726449	0.288924
623.934418	0.289289
624.142370	0.289448
624.350303	0.289557
624.558218	0.289661
624.766115	0.289857
624.973994	0.289770
625.181855	0.289988
625.389697	0.290272
625.597521	0.290120
625.805327	0.290215
626.013114	0.290476
626.220883	0.290597
626.428634	0.291043
626.636367	0.291430
626.844082	0.291547
627.051778	0.291936
627.259457	0.292123
627.467117	0.292428
627.674758	0.293017
627.882382	0.293112
628.089987	0.293362
628.297574	0.293581
628.505143	0.293838
628.712694	0.294457
628.920226	0.294665
629.127740	0.294870
629.335236	0.295192
629.542714	0.295193
629.750174	0.295401
629.957615	0.295430
630.165038	0.295617
630.372443	0.295627
630.579829	0.295246
630.787198	0.295440
630.994548	0.295481
631.201880	0.295212
631.409194	0.295276
631.616489	0.295537
631.823766	0.295846
632.031025	0.295873
632.238266	0.295872
632.445489	0.296426
632.652693	0.296295
632.859879	0.296565
633.067047	0.296641
633.274197	0.296691
633.481329	0.296851
633.688442	0.297030
633.895537	0.297213
634.102614	0.297363
634.309672	0.297132
634.516713	0.297507
634.723735	0.297236
634.930739	0.297672
635.137724	0.297730
635.344692	0.297505
635.551641	0.297654
635.758572	0.297840
635.965485	0.298267
636.172379	0.298950
636.379256	0.299024
636.586114	0.299469
636.792954	0.299971
636.999775	0.300228
637.206579	0.300820
637.413364	0.301170
637.620131	0.301485
637.826880	0.301736
638.033610	0.301762
638.240323	0.301847
638.447017	0.302246
638.653692	0.301894
638.860350	0.302365
639.066990	0.302343
639.273611	0.302451
639.480214	0.302245
639.686798	0.302233
639.893365	0.302327
640.099913	0.302500
640.306443	0.302306
640.512955	0.302693
640.719449	0.302536
640.925924	0.302818
641.132381	0.303113
641.338820	0.303423
641.545241	0.303507
641.751644	0.303615
641.958028	0.303994
642.164394	0.304437
642.370742	0.304881
642.577071	0.305342
642.783383	0.305399
642.989676	0.305478
643.195951	0.305612
643.402207	0.305979
643.608446	0.306228
643.814666	0.306178
644.020868	0.306374
644.227052	0.306315
644.433218	0.306422
644.639365	0.306893
644.845494	0.307218
645.051605	0.307320
645.257698	0.307527
645.463772	0.307644
645.669828	0.308018
645.875866	0.308053
646.081886	0.308539
646.287888	0.308681
646.493871	0.308701
646.699836	0.308473
646.905783	0.309034
647.111712	0.309184
647.317622	0.309404
647.523514	0.309661
647.729388	0.309874
647.935244	0.309760
648.141082	0.310261
648.346901	0.310392
648.552702	0.310853
648.758485	0.311050
648.964250	0.311316
649.169996	0.311700
649.375724	0.312001
649.581434	0.312272
649.787126	0.312700
649.992800	0.312480
650.198455	0.312844
650.404092	0.312976
650.609711	0.313020
650.815311	0.313037
651.020894	0.313219
651.226458	0.313179
651.432004	0.313422
651.637532	0.313386
651.843041	0.313771
652.048532	0.313828
652.254006	0.314158
652.459460	0.314515
652.664897	0.314711
652.870315	0.314670
653.075716	0.314905
653.281097	0.314988
653.486461	0.315285
653.691807	0.315339
653.897134	0.315639
654.102443	0.315717
654.307734	0.315748
654.513006	0.316024
654.718261	0.316342
654.923497	0.316494
655.128715	0.316944
655.333915	0.317207
655.539096	0.317540
655.744259	0.317781
655.949404	0.318391
656.154531	0.318825
656.359640	0.319068
656.564730	0.319530
656.769802	0.319676
656.974856	0.319702
657.179892	0.319875
657.384909	0.319860
657.589908	0.320281
657.794889	0.320212
657.999852	0.320237
658.204797	0.320218
658.409723	0.320356
658.614631	0.320788
658.819521	0.321076
659.024393	0.321275
659.229246	0.321847
659.434081	0.322019
659.638898	0.322207
659.843697	0.322349
660.048478	0.322773
660.253240	0.322733
660.457984	0.322939
660.662710	0.323115
660.867417	0.323301
661.072107	0.323184
661.276778	0.323307
661.481431	0.323545
661.686066	0.323767
661.890682	0.323911
662.095281	0.324247
662.299861	0.324321
662.504422	0.324394
662.708966	0.324276
662.913491	0.324573
663.117999	0.324632
663.322488	0.324624
663.526958	0.324935
663.731411	0.325355
663.935845	0.325292
664.140261	0.325498
664.344659	0.325742
664.549038	0.326267
664.753400	0.326753
664.957743	0.327039
665.162068	0.327451
665.366375	0.327864
665.570663	0.328154
665.774933	0.328743
665.979185	0.328899
666.183419	0.329294
666.387635	0.329540
666.591832	0.329652
666.796011	0.330150
667.000172	0.330411
667.204315	0.330588
667.408439	0.330540
667.612545	0.330747
667.816634	0.331135
668.020703	0.331378
668.224755	0.331654
668.428788	0.332041
668.632803	0.332284
668.836800	0.332749
669.040779	0.333038
669.244739	0.333353
669.448681	0.333702
669.652605	0.334032
669.856511	0.334367
670.060399	0.334821
670.264268	0.335145
670.468119	0.335092
670.671952	0.335172
670.875767	0.335181
671.079563	0.335278
671.283341	0.335411
671.487101	0.335835
671.690843	0.335806
671.894567	0.335921
672.098272	0.335903
672.301959	0.336226
672.505628	0.336189
672.709278	0.336353
672.912911	0.336730
673.116525	0.336799
673.320121	0.336975
673.523699	0.337488
673.727258	0.337586
673.930799	0.337907
674.134322	0.337966
674.337827	0.338387
674.541314	0.338649
674.744782	0.339074
674.948232	0.339393
675.151664	0.339366
675.355078	0.339676
675.558474	0.339935
675.761851	0.340015
675.965210	0.340340
676.168551	0.340482
676.371873	0.340644
676.575178	0.340683
676.778464	0.340948
676.981732	0.341149
677.184981	0.341091
677.388213	0.341378
677.591426	0.341505
677.794621	0.341875
677.997798	0.342394
678.200956	0.342665
678.404097	0.342916
678.607219	0.343067
678.810323	0.343312
679.013408	0.343305
679.216476	0.343440
679.419525	0.343619
679.622556	0.343505
679.825569	0.343466
680.028563	0.343582
680.231540	0.343678
680.434498	0.343985
680.637438	0.344331
680.840359	0.344802
681.043263	0.345174
681.246148	0.345548
681.449015	0.346005
681.651864	0.346266
681.854694	0.346829
682.057506	0.347378
682.260301	0.347541
682.463076	0.347598
682.665834	0.347766
682.868573	0.347952
683.071295	0.348185
683.273998	0.348435
683.476682	0.348527
683.679349	0.348659
683.881997	0.348589
684.084627	0.348963
684.287239	0.349210
684.489833	0.349561
684.692408	0.349712
684.894965	0.349806
685.097504	0.350178
685.300025	0.350517
685.502527	0.350677
685.705012	0.350901
685.907478	0.350957
686.109925	0.351261
686.312355	0.351303
686.514766	0.351421
686.717159	0.351877
686.919534	0.351735
687.121891	0.351844
687.324230	0.352051
687.526550	0.352385
687.728852	0.352500
687.931136	0.352700
688.133401	0.353100
688.335649	0.353255
688.537878	0.353385
688.740089	0.353585
688.942281	0.353887
689.144456	0.354191
689.346612	0.354539
689.548750	0.355041
689.750870	0.355391
689.952971	0.355228
690.155055	0.355697
690.357120	0.355641
690.559167	0.356005
690.761195	0.356081
690.963206	0.356203
691.165198	0.356219
691.367172	0.356099
691.569128	0.355745
691.771065	0.355969
691.972984	0.355998
692.174885	0.356343
692.376768	0.356631
692.578633	0.356880
692.780479	0.356832
692.982308	0.356992
693.184118	0.357169
693.385909	0.357483
