sample name	sample
index	975
start time	 04-14-2021  02:44:23 PM


Wavelength (nm)	Absorbance
494.344910	-0.091143
494.563924	-0.091143
494.782919	-0.091143
495.001897	-0.110739
495.220856	-0.058283
495.439797	-0.052628
495.658719	-0.042520
495.877624	-0.039386
496.096510	-0.020691
496.315378	-0.011509
496.534227	-0.010617
496.753059	-0.003247
496.971872	0.026300
497.190667	0.137699
497.409444	0.175213
497.628203	0.184689
497.846943	0.189193
498.065665	0.191613
498.284369	0.194426
498.503055	0.195678
498.721723	0.198047
498.940372	0.200374
499.159003	0.200608
499.377616	0.201982
499.596210	0.201857
499.814787	0.202733
500.033345	0.203801
500.251885	0.202808
500.470406	0.204946
500.688910	0.204319
500.907395	0.204138
501.125862	0.204997
501.344311	0.203334
501.562742	0.204674
501.781154	0.205114
501.999548	0.205723
502.217924	0.207162
502.436282	0.204998
502.654621	0.206659
502.872942	0.206017
503.091245	0.205753
503.309530	0.206936
503.527797	0.206509
503.746045	0.207028
503.964275	0.206137
504.182487	0.205833
504.400681	0.207472
504.618856	0.206229
504.837013	0.206139
505.055152	0.205502
505.273273	0.206432
505.491376	0.207154
505.709460	0.206724
505.927526	0.206503
506.145574	0.206531
506.363604	0.205663
506.581615	0.206075
506.799608	0.206985
507.017583	0.208530
507.235540	0.207748
507.453478	0.209016
507.671399	0.209501
507.889301	0.210726
508.107185	0.211165
508.325050	0.212497
508.542898	0.213851
508.760727	0.213469
508.978538	0.212447
509.196330	0.211942
509.414105	0.210757
509.631861	0.211145
509.849599	0.211141
510.067319	0.211874
510.285021	0.212389
510.502704	0.212022
510.720369	0.212455
510.938016	0.213039
511.155645	0.213145
511.373255	0.213451
511.590848	0.214143
511.808422	0.214903
512.025977	0.215105
512.243515	0.214505
512.461034	0.214975
512.678536	0.214638
512.896018	0.215756
513.113483	0.216425
513.330930	0.216695
513.548358	0.216705
513.765768	0.216438
513.983160	0.215208
514.200533	0.215594
514.417889	0.215043
514.635226	0.215460
514.852545	0.214655
515.069845	0.214225
515.287128	0.214376
515.504392	0.214880
515.721638	0.214802
515.938866	0.215784
516.156075	0.215248
516.373267	0.216063
516.590440	0.216517
516.807594	0.217255
517.024731	0.218404
517.241850	0.218810
517.458950	0.218639
517.676032	0.219030
517.893095	0.219129
518.110141	0.220018
518.327168	0.220596
518.544177	0.220996
518.761168	0.220705
518.978141	0.220785
519.195095	0.221475
519.412031	0.220864
519.628949	0.220521
519.845849	0.221225
520.062731	0.222334
520.279594	0.222097
520.496439	0.222362
520.713266	0.222806
520.930074	0.222344
521.146865	0.221766
521.363637	0.222383
521.580391	0.223203
521.797127	0.222795
522.013844	0.222386
522.230543	0.222814
522.447224	0.223300
522.663887	0.224092
522.880532	0.225222
523.097158	0.226174
523.313766	0.226951
523.530356	0.228376
523.746928	0.229739
523.963481	0.230217
524.180017	0.230137
524.396534	0.230433
524.613032	0.230469
524.829513	0.231032
525.045975	0.231259
525.262420	0.231046
525.478845	0.230508
525.695253	0.231216
525.911643	0.231136
526.128014	0.231668
526.344367	0.231775
526.560702	0.231543
526.777018	0.231493
526.993316	0.231335
527.209597	0.232130
527.425858	0.232122
527.642102	0.231078
527.858328	0.232032
528.074535	0.231741
528.290724	0.231909
528.506894	0.233542
528.723047	0.234040
528.939181	0.234450
529.155297	0.234949
529.371395	0.235683
529.587475	0.236622
529.803536	0.237174
530.019579	0.238086
530.235604	0.238622
530.451611	0.238412
530.667600	0.238969
530.883570	0.240091
531.099522	0.240230
531.315456	0.240947
531.531372	0.241403
531.747269	0.241611
531.963148	0.241557
532.179009	0.241749
532.394852	0.242325
532.610676	0.243057
532.826482	0.243198
533.042271	0.243571
533.258040	0.243831
533.473792	0.243354
533.689525	0.243791
533.905240	0.244796
534.120937	0.245300
534.336616	0.244898
534.552277	0.244780
534.767919	0.244778
534.983543	0.244927
535.199149	0.245572
535.414736	0.246015
535.630306	0.246303
535.845857	0.246397
536.061390	0.246923
536.276904	0.247952
536.492401	0.248168
536.707879	0.249188
536.923339	0.250015
537.138781	0.249478
537.354204	0.250132
537.569610	0.249932
537.784997	0.250208
538.000366	0.250635
538.215716	0.251008
538.431049	0.251977
538.646363	0.251618
538.861659	0.251530
539.076937	0.252228
539.292196	0.252783
539.507438	0.252762
539.722661	0.253619
539.937866	0.254018
540.153052	0.253517
540.368221	0.252940
540.583371	0.253401
540.798503	0.253903
541.013617	0.254122
541.228712	0.254651
541.443789	0.255429
541.658848	0.255139
541.873889	0.255181
542.088912	0.256289
542.303916	0.256812
542.518902	0.257361
542.733870	0.257749
542.948820	0.257702
543.163752	0.257073
543.378665	0.257390
543.593560	0.257610
543.808437	0.258385
544.023295	0.258709
544.238136	0.259204
544.452958	0.259257
544.667762	0.259668
544.882548	0.261112
545.097315	0.262041
545.312064	0.262635
545.526795	0.263350
545.741508	0.263533
545.956203	0.263690
546.170879	0.263755
546.385537	0.264300
546.600177	0.264554
546.814799	0.264292
547.029402	0.264341
547.243988	0.264597
547.458555	0.264375
547.673103	0.264230
547.887634	0.264661
548.102146	0.265205
548.316640	0.265109
548.531116	0.265448
548.745574	0.265705
548.960013	0.266290
549.174435	0.266672
549.388838	0.267639
549.603222	0.268167
549.817589	0.268236
550.031937	0.268424
550.246267	0.268957
550.460579	0.269154
550.674873	0.269360
550.889148	0.269449
551.103405	0.269754
551.317644	0.270130
551.531865	0.270068
551.746068	0.270529
551.960252	0.270680
552.174418	0.270680
552.388566	0.271127
552.602696	0.271040
552.816807	0.271751
553.030900	0.271576
553.244975	0.271708
553.459032	0.272214
553.673070	0.272422
553.887091	0.272764
554.101093	0.273005
554.315077	0.272772
554.529042	0.273613
554.742990	0.273666
554.956919	0.274314
555.170830	0.274350
555.384722	0.274696
555.598597	0.274905
555.812453	0.275727
556.026291	0.276162
556.240111	0.276612
556.453913	0.276661
556.667696	0.277152
556.881461	0.277166
557.095208	0.277961
557.308937	0.278203
557.522647	0.278608
557.736339	0.278617
557.950013	0.278933
558.163669	0.279225
558.377307	0.278962
558.590926	0.278832
558.804527	0.278842
559.018110	0.278855
559.231675	0.278835
559.445221	0.278936
559.658749	0.279004
559.872259	0.279313
560.085751	0.279676
560.299225	0.280686
560.512680	0.281039
560.726117	0.282128
560.939536	0.282096
561.152937	0.282974
561.366319	0.282891
561.579683	0.282588
561.793029	0.282827
562.006357	0.282931
562.219667	0.282510
562.432958	0.282669
562.646231	0.282349
562.859486	0.282550
563.072723	0.282666
563.285941	0.282757
563.499141	0.283460
563.712323	0.283155
563.925487	0.283307
564.138632	0.283717
564.351760	0.283863
564.564869	0.283376
564.777960	0.283350
564.991032	0.283141
565.204087	0.283648
565.417123	0.283474
565.630141	0.284116
565.843140	0.284782
566.056122	0.285144
566.269085	0.285243
566.482030	0.285679
566.694957	0.286042
566.907866	0.285790
567.120756	0.285571
567.333628	0.286319
567.546482	0.286196
567.759318	0.286275
567.972135	0.286301
568.184935	0.286647
568.397716	0.287021
568.610478	0.287038
568.823223	0.287992
569.035949	0.288304
569.248657	0.288034
569.461347	0.288132
569.674019	0.288130
569.886672	0.288424
570.099308	0.288608
570.311925	0.288826
570.524523	0.288971
570.737104	0.288987
570.949666	0.289577
571.162210	0.289604
571.374736	0.290204
571.587244	0.290301
571.799733	0.289936
572.012205	0.290062
572.224658	0.289640
572.437092	0.289966
572.649509	0.289798
572.861907	0.289740
573.074287	0.289933
573.286649	0.290160
573.498993	0.289994
573.711318	0.290483
573.923625	0.290967
574.135914	0.292039
574.348185	0.292495
574.560438	0.293168
574.772672	0.293845
574.984888	0.294323
575.197086	0.294285
575.409266	0.294422
575.621427	0.295120
575.833570	0.294936
576.045695	0.295010
576.257802	0.294774
576.469890	0.294851
576.681961	0.294422
576.894013	0.294867
577.106046	0.294845
577.318062	0.295613
577.530059	0.295511
577.742039	0.295757
577.954000	0.295528
578.165942	0.295673
578.377867	0.295781
578.589773	0.295756
578.801661	0.295840
579.013531	0.296346
579.225382	0.296089
579.437216	0.296099
579.649031	0.296413
579.860828	0.297039
580.072606	0.297194
580.284367	0.297356
580.496109	0.297843
580.707833	0.297832
580.919539	0.297978
581.131227	0.298332
581.342896	0.298565
581.554547	0.298588
581.766180	0.298402
581.977795	0.298264
582.189391	0.298550
582.400969	0.298431
582.612529	0.298204
582.824071	0.298501
583.035595	0.298425
583.247100	0.298587
583.458587	0.299013
583.670056	0.299435
583.881506	0.300015
584.092939	0.299740
584.304353	0.300188
584.515749	0.300777
584.727127	0.301145
584.938486	0.301401
585.149828	0.301956
585.361151	0.301954
585.572456	0.302314
585.783742	0.302601
585.995011	0.303698
586.206261	0.304058
586.417493	0.304317
586.628706	0.304163
586.839902	0.304534
587.051079	0.304759
587.262238	0.304732
587.473379	0.304918
587.684502	0.305478
587.895606	0.305122
588.106692	0.305324
588.317760	0.305607
588.528810	0.305984
588.739841	0.306502
588.950855	0.306001
589.161850	0.306561
589.372827	0.306325
589.583785	0.306614
589.794726	0.307047
590.005648	0.307205
590.216552	0.307555
590.427437	0.307931
590.638305	0.307831
590.849154	0.308695
591.059985	0.308651
591.270798	0.309106
591.481592	0.308713
591.692369	0.308713
591.903127	0.308982
592.113867	0.308853
592.324588	0.308581
592.535292	0.309047
592.745977	0.308971
592.956644	0.309203
593.167293	0.309176
593.377923	0.309477
593.588536	0.309651
593.799130	0.310075
594.009706	0.310819
594.220263	0.311029
594.430803	0.310978
594.641324	0.311003
594.851827	0.311350
595.062312	0.311589
595.272778	0.312122
595.483227	0.312066
595.693657	0.311933
595.904069	0.311391
596.114462	0.311880
596.324838	0.311930
596.535195	0.312316
596.745534	0.312176
596.955855	0.312599
597.166157	0.312701
597.376441	0.313309
597.586707	0.313353
597.796955	0.313922
598.007185	0.313800
598.217396	0.313974
598.427589	0.314133
598.637764	0.314133
598.847921	0.314230
599.058060	0.314328
599.268180	0.314412
599.478282	0.314786
599.688366	0.314098
599.898431	0.314169
600.108479	0.314641
600.318508	0.314579
600.528519	0.314935
600.738511	0.315421
600.948486	0.315288
601.158442	0.315512
601.368380	0.315763
601.578300	0.316400
601.788202	0.316548
601.998085	0.316443
602.207950	0.316926
602.417797	0.317391
602.627626	0.317233
602.837436	0.317720
603.047228	0.317793
603.257002	0.317893
603.466758	0.318300
603.676496	0.318946
603.886215	0.319101
604.095916	0.319022
604.305599	0.318817
604.515264	0.319029
604.724910	0.319124
604.934538	0.319161
605.144148	0.318900
605.353740	0.318759
605.563314	0.318811
605.772869	0.318968
605.982406	0.319246
606.191925	0.319725
606.401425	0.320004
606.610908	0.320368
606.820372	0.320616
607.029818	0.321302
607.239246	0.321414
607.448655	0.321057
607.658047	0.321188
607.867420	0.321665
608.076775	0.321618
608.286111	0.321418
608.495430	0.321451
608.704730	0.321542
608.914012	0.321225
609.123275	0.321384
609.332521	0.321909
609.541748	0.321966
609.750957	0.321795
609.960148	0.322049
610.169321	0.322313
610.378475	0.322394
610.587611	0.322282
610.796729	0.322517
611.005829	0.322907
611.214910	0.322922
611.423974	0.323512
611.633019	0.323639
611.842045	0.323665
612.051054	0.324064
612.260044	0.323901
612.469017	0.324685
612.677970	0.325005
612.886906	0.325334
613.095824	0.325521
613.304723	0.325557
613.513604	0.325607
613.722467	0.325739
613.931311	0.325414
614.140138	0.325655
614.348946	0.325085
614.557736	0.325217
614.766507	0.325239
614.975261	0.325621
615.183996	0.325815
615.392713	0.326137
615.601412	0.326485
615.810092	0.327039
616.018754	0.327432
616.227399	0.327607
616.436024	0.327513
616.644632	0.327603
616.853222	0.327877
617.061793	0.328118
617.270346	0.328325
617.478880	0.328484
617.687397	0.328842
617.895895	0.329097
618.104375	0.329389
618.312837	0.329926
618.521281	0.330428
618.729706	0.330275
618.938113	0.330340
619.146502	0.330369
619.354873	0.330602
619.563226	0.330548
619.771560	0.330565
619.979876	0.330906
620.188174	0.330860
620.396453	0.330772
620.604715	0.331027
620.812958	0.331083
621.021183	0.330867
621.229390	0.330820
621.437578	0.331312
621.645748	0.331487
621.853900	0.331617
622.062034	0.331891
622.270150	0.331879
622.478247	0.331768
622.686326	0.331804
622.894387	0.332440
623.102430	0.332662
623.310454	0.332437
623.518461	0.332561
623.726449	0.332895
623.934418	0.333265
624.142370	0.333740
624.350303	0.334048
624.558218	0.333894
624.766115	0.333963
624.973994	0.334253
625.181855	0.334460
625.389697	0.334308
625.597521	0.334384
625.805327	0.334171
626.013114	0.333915
626.220883	0.334386
626.428634	0.335068
626.636367	0.335167
626.844082	0.335295
627.051778	0.335290
627.259457	0.335732
627.467117	0.336129
627.674758	0.336450
627.882382	0.337021
628.089987	0.337006
628.297574	0.336891
628.505143	0.337031
628.712694	0.337169
628.920226	0.337188
629.127740	0.337192
629.335236	0.337052
629.542714	0.337302
629.750174	0.337490
629.957615	0.337697
630.165038	0.337994
630.372443	0.338269
630.579829	0.338489
630.787198	0.338732
630.994548	0.339198
631.201880	0.339428
631.409194	0.339609
631.616489	0.339562
631.823766	0.339738
632.031025	0.339860
632.238266	0.340282
632.445489	0.340506
632.652693	0.340904
632.859879	0.340704
633.067047	0.341054
633.274197	0.341058
633.481329	0.341051
633.688442	0.341052
633.895537	0.341243
634.102614	0.340956
634.309672	0.341225
634.516713	0.341250
634.723735	0.341461
634.930739	0.341459
635.137724	0.341666
635.344692	0.341735
635.551641	0.341837
635.758572	0.341926
635.965485	0.342127
636.172379	0.342050
636.379256	0.342137
636.586114	0.342838
636.792954	0.342977
636.999775	0.343122
637.206579	0.343498
637.413364	0.344380
637.620131	0.344683
637.826880	0.345211
638.033610	0.345547
638.240323	0.345745
638.447017	0.345607
638.653692	0.345519
638.860350	0.345652
639.066990	0.346148
639.273611	0.345710
639.480214	0.345996
639.686798	0.346196
639.893365	0.346395
640.099913	0.346721
640.306443	0.346772
640.512955	0.347148
640.719449	0.347835
640.925924	0.347651
641.132381	0.347995
641.338820	0.348388
641.545241	0.348375
641.751644	0.348450
641.958028	0.348584
642.164394	0.349216
642.370742	0.349514
642.577071	0.349401
642.783383	0.350156
642.989676	0.350411
643.195951	0.350451
643.402207	0.350712
643.608446	0.350808
643.814666	0.351122
644.020868	0.351064
644.227052	0.351293
644.433218	0.351468
644.639365	0.351466
644.845494	0.351395
645.051605	0.351692
645.257698	0.352087
645.463772	0.352536
645.669828	0.352791
645.875866	0.352774
646.081886	0.352908
646.287888	0.353204
646.493871	0.353164
646.699836	0.353698
646.905783	0.353836
647.111712	0.353900
647.317622	0.354119
647.523514	0.354263
647.729388	0.354485
647.935244	0.354418
648.141082	0.354422
648.346901	0.354766
648.552702	0.354250
648.758485	0.354155
648.964250	0.354313
649.169996	0.354288
649.375724	0.354362
649.581434	0.354730
649.787126	0.355317
649.992800	0.355384
650.198455	0.355495
650.404092	0.356139
650.609711	0.356566
650.815311	0.356668
651.020894	0.356915
651.226458	0.357507
651.432004	0.357802
651.637532	0.358041
651.843041	0.358379
652.048532	0.358784
652.254006	0.359386
652.459460	0.360067
652.664897	0.360557
652.870315	0.360887
653.075716	0.361058
653.281097	0.361103
653.486461	0.361459
653.691807	0.361828
653.897134	0.362220
654.102443	0.362071
654.307734	0.362000
654.513006	0.361816
654.718261	0.362000
654.923497	0.362296
655.128715	0.362658
655.333915	0.362716
655.539096	0.362860
655.744259	0.362804
655.949404	0.363026
656.154531	0.363192
656.359640	0.363652
656.564730	0.363790
656.769802	0.363675
656.974856	0.363797
657.179892	0.364022
657.384909	0.364259
657.589908	0.364478
657.794889	0.364960
657.999852	0.365329
658.204797	0.365477
658.409723	0.365760
658.614631	0.365935
658.819521	0.366504
659.024393	0.366404
659.229246	0.366819
659.434081	0.367060
659.638898	0.367070
659.843697	0.366946
660.048478	0.367475
660.253240	0.367715
660.457984	0.368167
660.662710	0.368375
660.867417	0.369094
661.072107	0.369220
661.276778	0.369429
661.481431	0.369552
661.686066	0.369891
661.890682	0.369961
662.095281	0.370450
662.299861	0.370611
662.504422	0.370907
662.708966	0.371305
662.913491	0.371515
663.117999	0.371703
663.322488	0.372001
663.526958	0.372405
663.731411	0.372642
663.935845	0.372548
664.140261	0.372824
664.344659	0.373028
664.549038	0.373176
664.753400	0.373607
664.957743	0.373854
665.162068	0.373984
665.366375	0.374124
665.570663	0.374319
665.774933	0.374733
665.979185	0.374790
666.183419	0.374973
666.387635	0.375007
666.591832	0.374897
666.796011	0.375313
667.000172	0.375645
667.204315	0.375608
667.408439	0.375774
667.612545	0.375800
667.816634	0.376306
668.020703	0.376150
668.224755	0.376196
668.428788	0.376519
668.632803	0.376518
668.836800	0.376840
669.040779	0.377227
669.244739	0.377552
669.448681	0.377910
669.652605	0.377984
669.856511	0.378251
670.060399	0.378720
670.264268	0.379041
670.468119	0.379225
670.671952	0.379604
670.875767	0.379556
671.079563	0.379895
671.283341	0.380111
671.487101	0.380361
671.690843	0.380728
671.894567	0.380941
672.098272	0.381110
672.301959	0.381763
672.505628	0.381909
672.709278	0.382322
672.912911	0.382576
673.116525	0.382926
673.320121	0.383023
673.523699	0.383516
673.727258	0.383357
673.930799	0.383717
674.134322	0.383791
674.337827	0.384112
674.541314	0.384356
674.744782	0.384449
674.948232	0.384660
675.151664	0.385223
675.355078	0.385315
675.558474	0.386046
675.761851	0.386102
675.965210	0.386194
676.168551	0.386366
676.371873	0.386915
676.575178	0.387201
676.778464	0.387593
676.981732	0.387676
677.184981	0.387868
677.388213	0.387861
677.591426	0.388431
677.794621	0.388913
677.997798	0.389041
678.200956	0.389287
678.404097	0.389316
678.607219	0.389651
678.810323	0.390087
679.013408	0.390308
679.216476	0.390477
679.419525	0.390568
679.622556	0.390931
679.825569	0.391369
680.028563	0.391364
680.231540	0.392041
680.434498	0.392156
680.637438	0.391842
680.840359	0.392193
681.043263	0.392604
681.246148	0.392898
681.449015	0.392708
681.651864	0.392861
681.854694	0.393409
682.057506	0.393467
682.260301	0.393658
682.463076	0.394179
682.665834	0.394610
682.868573	0.394864
683.071295	0.394917
683.273998	0.395531
683.476682	0.396127
683.679349	0.396201
683.881997	0.396516
684.084627	0.396704
684.287239	0.397127
684.489833	0.397286
684.692408	0.397439
684.894965	0.397973
685.097504	0.398043
685.300025	0.397827
685.502527	0.397905
685.705012	0.398066
685.907478	0.398333
686.109925	0.398265
686.312355	0.398357
686.514766	0.398869
686.717159	0.398774
686.919534	0.398887
687.121891	0.399302
687.324230	0.399550
687.526550	0.399720
687.728852	0.399828
687.931136	0.399998
688.133401	0.400151
688.335649	0.400260
688.537878	0.400640
688.740089	0.400985
688.942281	0.401108
689.144456	0.401387
689.346612	0.401824
689.548750	0.401915
689.750870	0.402324
689.952971	0.402428
690.155055	0.402658
690.357120	0.402632
690.559167	0.402749
690.761195	0.402982
690.963206	0.403156
691.165198	0.402942
691.367172	0.403368
691.569128	0.403562
691.771065	0.403707
691.972984	0.403687
692.174885	0.404065
692.376768	0.404266
692.578633	0.404752
692.780479	0.405040
692.982308	0.405338
693.184118	0.405454
693.385909	0.405448
