sample name	sample
index	489
start time	 03-11-2021  02:08:16 PM


Wavelength (nm)	Absorbance
494.344910	NaN
494.563924	NaN
494.782919	NaN
495.001897	-0.263922
495.220856	0.110819
495.439797	0.150363
495.658719	0.040106
495.877624	-0.118956
496.096510	-0.059642
496.315378	-0.308182
496.534227	-0.290526
496.753059	-0.318668
496.971872	-0.217073
497.190667	0.051358
497.409444	0.062992
497.628203	0.066467
497.846943	0.068878
498.065665	0.069651
498.284369	0.071545
498.503055	0.070040
498.721723	0.069908
498.940372	0.070911
499.159003	0.070963
499.377616	0.070047
499.596210	0.069963
499.814787	0.071724
500.033345	0.070657
500.251885	0.070882
500.470406	0.072423
500.688910	0.072109
500.907395	0.071204
501.125862	0.071885
501.344311	0.072597
501.562742	0.073948
501.781154	0.071764
501.999548	0.072562
502.217924	0.071871
502.436282	0.071969
502.654621	0.072271
502.872942	0.072191
503.091245	0.072528
503.309530	0.072298
503.527797	0.071372
503.746045	0.072346
503.964275	0.073028
504.182487	0.074089
504.400681	0.073304
504.618856	0.073937
504.837013	0.074289
505.055152	0.073564
505.273273	0.073408
505.491376	0.072429
505.709460	0.071777
505.927526	0.071194
506.145574	0.069742
506.363604	0.070142
506.581615	0.070040
506.799608	0.069616
507.017583	0.069467
507.235540	0.070383
507.453478	0.071067
507.671399	0.070566
507.889301	0.070507
508.107185	0.071973
508.325050	0.072288
508.542898	0.071959
508.760727	0.071881
508.978538	0.072374
509.196330	0.072062
509.414105	0.072660
509.631861	0.073759
509.849599	0.074357
510.067319	0.073302
510.285021	0.073388
510.502704	0.073258
510.720369	0.073769
510.938016	0.074402
511.155645	0.074215
511.373255	0.074172
511.590848	0.074036
511.808422	0.074181
512.025977	0.074373
512.243515	0.074058
512.461034	0.073888
512.678536	0.074099
512.896018	0.073512
513.113483	0.074538
513.330930	0.073816
513.548358	0.074209
513.765768	0.073909
513.983160	0.074064
514.200533	0.074520
514.417889	0.074371
514.635226	0.074036
514.852545	0.073681
515.069845	0.073465
515.287128	0.073590
515.504392	0.072624
515.721638	0.072777
515.938866	0.073269
516.156075	0.073241
516.373267	0.074153
516.590440	0.074464
516.807594	0.075341
517.024731	0.075286
517.241850	0.076120
517.458950	0.076665
517.676032	0.077165
517.893095	0.077527
518.110141	0.077787
518.327168	0.077541
518.544177	0.077498
518.761168	0.077310
518.978141	0.077080
519.195095	0.076292
519.412031	0.076114
519.628949	0.075026
519.845849	0.074198
520.062731	0.073762
520.279594	0.073756
520.496439	0.073464
520.713266	0.073585
520.930074	0.073943
521.146865	0.074470
521.363637	0.074164
521.580391	0.074701
521.797127	0.074827
522.013844	0.074741
522.230543	0.075358
522.447224	0.076044
522.663887	0.076038
522.880532	0.075549
523.097158	0.075621
523.313766	0.076604
523.530356	0.077023
523.746928	0.077298
523.963481	0.078354
524.180017	0.078228
524.396534	0.078313
524.613032	0.078662
524.829513	0.078913
525.045975	0.078814
525.262420	0.078600
525.478845	0.078803
525.695253	0.079021
525.911643	0.078240
526.128014	0.078982
526.344367	0.078992
526.560702	0.078660
526.777018	0.079256
526.993316	0.079584
527.209597	0.079726
527.425858	0.079026
527.642102	0.079862
527.858328	0.080509
528.074535	0.079985
528.290724	0.079956
528.506894	0.080444
528.723047	0.080374
528.939181	0.080678
529.155297	0.081046
529.371395	0.081806
529.587475	0.081245
529.803536	0.081093
530.019579	0.080944
530.235604	0.081111
530.451611	0.081601
530.667600	0.081004
530.883570	0.081342
531.099522	0.081227
531.315456	0.081129
531.531372	0.082009
531.747269	0.082532
531.963148	0.083039
532.179009	0.083932
532.394852	0.083880
532.610676	0.084550
532.826482	0.084505
533.042271	0.084665
533.258040	0.084691
533.473792	0.084455
533.689525	0.083911
533.905240	0.083897
534.120937	0.083442
534.336616	0.082744
534.552277	0.082723
534.767919	0.082607
534.983543	0.083062
535.199149	0.083406
535.414736	0.083298
535.630306	0.084150
535.845857	0.084356
536.061390	0.084413
536.276904	0.084713
536.492401	0.084944
536.707879	0.085277
536.923339	0.085557
537.138781	0.085907
537.354204	0.086026
537.569610	0.085947
537.784997	0.085972
538.000366	0.086168
538.215716	0.086816
538.431049	0.086796
538.646363	0.086404
538.861659	0.086047
539.076937	0.085988
539.292196	0.086523
539.507438	0.086613
539.722661	0.086825
539.937866	0.086908
540.153052	0.087208
540.368221	0.087475
540.583371	0.088020
540.798503	0.088207
541.013617	0.088474
541.228712	0.088437
541.443789	0.088498
541.658848	0.089089
541.873889	0.089424
542.088912	0.088858
542.303916	0.088822
542.518902	0.088861
542.733870	0.088900
542.948820	0.089027
543.163752	0.089009
543.378665	0.089278
543.593560	0.088826
543.808437	0.088328
544.023295	0.088757
544.238136	0.089143
544.452958	0.089255
544.667762	0.089855
544.882548	0.089814
545.097315	0.089671
545.312064	0.089602
545.526795	0.089997
545.741508	0.090325
545.956203	0.090374
546.170879	0.090692
546.385537	0.090860
546.600177	0.090739
546.814799	0.090563
547.029402	0.090639
547.243988	0.090983
547.458555	0.090814
547.673103	0.091106
547.887634	0.091062
548.102146	0.091038
548.316640	0.091404
548.531116	0.091475
548.745574	0.092157
548.960013	0.092233
549.174435	0.092550
549.388838	0.092939
549.603222	0.092983
549.817589	0.093179
550.031937	0.093012
550.246267	0.093019
550.460579	0.092842
550.674873	0.092665
550.889148	0.092774
551.103405	0.092281
551.317644	0.092137
551.531865	0.092567
551.746068	0.092589
551.960252	0.092985
552.174418	0.093116
552.388566	0.093662
552.602696	0.093696
552.816807	0.093777
553.030900	0.094220
553.244975	0.094516
553.459032	0.094230
553.673070	0.094528
553.887091	0.094459
554.101093	0.094136
554.315077	0.093832
554.529042	0.093642
554.742990	0.094039
554.956919	0.094112
555.170830	0.093946
555.384722	0.094189
555.598597	0.094155
555.812453	0.094261
556.026291	0.094719
556.240111	0.094776
556.453913	0.095008
556.667696	0.095182
556.881461	0.095062
557.095208	0.095546
557.308937	0.095454
557.522647	0.095701
557.736339	0.095981
557.950013	0.096226
558.163669	0.096290
558.377307	0.096613
558.590926	0.096261
558.804527	0.096333
559.018110	0.096267
559.231675	0.096581
559.445221	0.096565
559.658749	0.096271
559.872259	0.096077
560.085751	0.096572
560.299225	0.096637
560.512680	0.097172
560.726117	0.097488
560.939536	0.097353
561.152937	0.097554
561.366319	0.097675
561.579683	0.097806
561.793029	0.098115
562.006357	0.098304
562.219667	0.098422
562.432958	0.098113
562.646231	0.098161
562.859486	0.098285
563.072723	0.098258
563.285941	0.098293
563.499141	0.098378
563.712323	0.098590
563.925487	0.098346
564.138632	0.098004
564.351760	0.098197
564.564869	0.098268
564.777960	0.098445
564.991032	0.098271
565.204087	0.098376
565.417123	0.098797
565.630141	0.098594
565.843140	0.098802
566.056122	0.099455
566.269085	0.099827
566.482030	0.100076
566.694957	0.100101
566.907866	0.100780
567.120756	0.100805
567.333628	0.100668
567.546482	0.100579
567.759318	0.100548
567.972135	0.100558
568.184935	0.100693
568.397716	0.100730
568.610478	0.101234
568.823223	0.100896
569.035949	0.101072
569.248657	0.101025
569.461347	0.101311
569.674019	0.101519
569.886672	0.101552
570.099308	0.101536
570.311925	0.101466
570.524523	0.101394
570.737104	0.101505
570.949666	0.101544
571.162210	0.101620
571.374736	0.101868
571.587244	0.102008
571.799733	0.102144
572.012205	0.102158
572.224658	0.102201
572.437092	0.102406
572.649509	0.102443
572.861907	0.102551
573.074287	0.102833
573.286649	0.102647
573.498993	0.102533
573.711318	0.102475
573.923625	0.102817
574.135914	0.102988
574.348185	0.102981
574.560438	0.103054
574.772672	0.103345
574.984888	0.103714
575.197086	0.104190
575.409266	0.104437
575.621427	0.104624
575.833570	0.104268
576.045695	0.104130
576.257802	0.104037
576.469890	0.104133
576.681961	0.104028
576.894013	0.103387
577.106046	0.103037
577.318062	0.103151
577.530059	0.102983
577.742039	0.103462
577.954000	0.104008
578.165942	0.104136
578.377867	0.104337
578.589773	0.104348
578.801661	0.105099
579.013531	0.105621
579.225382	0.105529
579.437216	0.105785
579.649031	0.105781
579.860828	0.105668
580.072606	0.105677
580.284367	0.105940
580.496109	0.106155
580.707833	0.105776
580.919539	0.105736
581.131227	0.106102
581.342896	0.106226
581.554547	0.106247
581.766180	0.106400
581.977795	0.106752
582.189391	0.106661
582.400969	0.106755
582.612529	0.107126
582.824071	0.107037
583.035595	0.106993
583.247100	0.107241
583.458587	0.107144
583.670056	0.107014
583.881506	0.106741
584.092939	0.106840
584.304353	0.106863
584.515749	0.106958
584.727127	0.107132
584.938486	0.107302
585.149828	0.107345
585.361151	0.107722
585.572456	0.107893
585.783742	0.108057
585.995011	0.108142
586.206261	0.108208
586.417493	0.108244
586.628706	0.108202
586.839902	0.108270
587.051079	0.108335
587.262238	0.108468
587.473379	0.108599
587.684502	0.108796
587.895606	0.108706
588.106692	0.108926
588.317760	0.109261
588.528810	0.109634
588.739841	0.109838
588.950855	0.109620
589.161850	0.109682
589.372827	0.109834
589.583785	0.109903
589.794726	0.110230
590.005648	0.110400
590.216552	0.110218
590.427437	0.110114
590.638305	0.110244
590.849154	0.110462
591.059985	0.110539
591.270798	0.110554
591.481592	0.110581
591.692369	0.110718
591.903127	0.110700
592.113867	0.110770
592.324588	0.110589
592.535292	0.110413
592.745977	0.110708
592.956644	0.110516
593.167293	0.110465
593.377923	0.111078
593.588536	0.110953
593.799130	0.111381
594.009706	0.111794
594.220263	0.112630
594.430803	0.112741
594.641324	0.112749
594.851827	0.113246
595.062312	0.113583
595.272778	0.113505
595.483227	0.113758
595.693657	0.113691
595.904069	0.113638
596.114462	0.113214
596.324838	0.113481
596.535195	0.113480
596.745534	0.113699
596.955855	0.113806
597.166157	0.113503
597.376441	0.113282
597.586707	0.113313
597.796955	0.113491
598.007185	0.113535
598.217396	0.113578
598.427589	0.113755
598.637764	0.113612
598.847921	0.113486
599.058060	0.113754
599.268180	0.114245
599.478282	0.114391
599.688366	0.114359
599.898431	0.114576
600.108479	0.114959
600.318508	0.114995
600.528519	0.115091
600.738511	0.115520
600.948486	0.115746
601.158442	0.115782
601.368380	0.115981
601.578300	0.116077
601.788202	0.116417
601.998085	0.116300
602.207950	0.116672
602.417797	0.116644
602.627626	0.116658
602.837436	0.116990
603.047228	0.117038
603.257002	0.116915
603.466758	0.116811
603.676496	0.116815
603.886215	0.116817
604.095916	0.117085
604.305599	0.117163
604.515264	0.117359
604.724910	0.117380
604.934538	0.117658
605.144148	0.118040
605.353740	0.118488
605.563314	0.118513
605.772869	0.118677
605.982406	0.118738
606.191925	0.119200
606.401425	0.118976
606.610908	0.118934
606.820372	0.118700
607.029818	0.118925
607.239246	0.118689
607.448655	0.118817
607.658047	0.118703
607.867420	0.118709
608.076775	0.118443
608.286111	0.118533
608.495430	0.118678
608.704730	0.118988
608.914012	0.118624
609.123275	0.119127
609.332521	0.119020
609.541748	0.119277
609.750957	0.119163
609.960148	0.119377
610.169321	0.119545
610.378475	0.119513
610.587611	0.119518
610.796729	0.119633
611.005829	0.119565
611.214910	0.119903
611.423974	0.119931
611.633019	0.120058
611.842045	0.120142
612.051054	0.120174
612.260044	0.120020
612.469017	0.120145
612.677970	0.120272
612.886906	0.120493
613.095824	0.120390
613.304723	0.120420
613.513604	0.120492
613.722467	0.120723
613.931311	0.120934
614.140138	0.121158
614.348946	0.121095
614.557736	0.121236
614.766507	0.120865
614.975261	0.120972
615.183996	0.121030
615.392713	0.121268
615.601412	0.121253
615.810092	0.121327
616.018754	0.121411
616.227399	0.121437
616.436024	0.121714
616.644632	0.122134
616.853222	0.122378
617.061793	0.122682
617.270346	0.122749
617.478880	0.122791
617.687397	0.123236
617.895895	0.123564
618.104375	0.123844
618.312837	0.123505
618.521281	0.123610
618.729706	0.123541
618.938113	0.123592
619.146502	0.123697
619.354873	0.123726
619.563226	0.123412
619.771560	0.123433
619.979876	0.123399
620.188174	0.123553
620.396453	0.123677
620.604715	0.123791
620.812958	0.123693
621.021183	0.123521
621.229390	0.123793
621.437578	0.124025
621.645748	0.124051
621.853900	0.124480
622.062034	0.124998
622.270150	0.124892
622.478247	0.124882
622.686326	0.125073
622.894387	0.125478
623.102430	0.125568
623.310454	0.125412
623.518461	0.125326
623.726449	0.125397
623.934418	0.124938
624.142370	0.125222
624.350303	0.125207
624.558218	0.125416
624.766115	0.125247
624.973994	0.125147
625.181855	0.125280
625.389697	0.125538
625.597521	0.125344
625.805327	0.125621
626.013114	0.125507
626.220883	0.125404
626.428634	0.125398
626.636367	0.125440
626.844082	0.125543
627.051778	0.125923
627.259457	0.125959
627.467117	0.126185
627.674758	0.126330
627.882382	0.126698
628.089987	0.127128
628.297574	0.126991
628.505143	0.127159
628.712694	0.127174
628.920226	0.127182
629.127740	0.127337
629.335236	0.127524
629.542714	0.127752
629.750174	0.127771
629.957615	0.127872
630.165038	0.127884
630.372443	0.127950
630.579829	0.128239
630.787198	0.128185
630.994548	0.128171
631.201880	0.127975
631.409194	0.128005
631.616489	0.127847
631.823766	0.127874
632.031025	0.128341
632.238266	0.128283
632.445489	0.128058
632.652693	0.128053
632.859879	0.128108
633.067047	0.128308
633.274197	0.128172
633.481329	0.128358
633.688442	0.128516
633.895537	0.128474
634.102614	0.128638
634.309672	0.128815
634.516713	0.128868
634.723735	0.129032
634.930739	0.129102
635.137724	0.129303
635.344692	0.129387
635.551641	0.129495
635.758572	0.129726
635.965485	0.129958
636.172379	0.130257
636.379256	0.130350
636.586114	0.130324
636.792954	0.130532
636.999775	0.130581
637.206579	0.130713
637.413364	0.130774
637.620131	0.130590
637.826880	0.130678
638.033610	0.130627
638.240323	0.130755
638.447017	0.130753
638.653692	0.130812
638.860350	0.130910
639.066990	0.130987
639.273611	0.130899
639.480214	0.131209
639.686798	0.131085
639.893365	0.131050
640.099913	0.131213
640.306443	0.131437
640.512955	0.131463
640.719449	0.131655
640.925924	0.131666
641.132381	0.132014
641.338820	0.131903
641.545241	0.132096
641.751644	0.132110
641.958028	0.131974
642.164394	0.132326
642.370742	0.132378
642.577071	0.132346
642.783383	0.132434
642.989676	0.132490
643.195951	0.132668
643.402207	0.132907
643.608446	0.133096
643.814666	0.133465
644.020868	0.133440
644.227052	0.133568
644.433218	0.133733
644.639365	0.133930
644.845494	0.134019
645.051605	0.133941
645.257698	0.134134
645.463772	0.134132
645.669828	0.133990
645.875866	0.133931
646.081886	0.133945
646.287888	0.133927
646.493871	0.134069
646.699836	0.134028
646.905783	0.134312
647.111712	0.134211
647.317622	0.134451
647.523514	0.134491
647.729388	0.134608
647.935244	0.134649
648.141082	0.134773
648.346901	0.134730
648.552702	0.134804
648.758485	0.135077
648.964250	0.135070
649.169996	0.134968
649.375724	0.135364
649.581434	0.135318
649.787126	0.135553
649.992800	0.135591
650.198455	0.135437
650.404092	0.135457
650.609711	0.135279
650.815311	0.135443
651.020894	0.135794
651.226458	0.135758
651.432004	0.135840
651.637532	0.135615
651.843041	0.135709
652.048532	0.135756
652.254006	0.135993
652.459460	0.136151
652.664897	0.136312
652.870315	0.136199
653.075716	0.136300
653.281097	0.136452
653.486461	0.136738
653.691807	0.136870
653.897134	0.137089
654.102443	0.136944
654.307734	0.137054
654.513006	0.137162
654.718261	0.137286
654.923497	0.137415
655.128715	0.137597
655.333915	0.137752
655.539096	0.137829
655.744259	0.138062
655.949404	0.138322
656.154531	0.138220
656.359640	0.138061
656.564730	0.138281
656.769802	0.138396
656.974856	0.138328
657.179892	0.138336
657.384909	0.138428
657.589908	0.138615
657.794889	0.138682
657.999852	0.138920
658.204797	0.139292
658.409723	0.139443
658.614631	0.139584
658.819521	0.139804
659.024393	0.139874
659.229246	0.140047
659.434081	0.139884
659.638898	0.139804
659.843697	0.139878
660.048478	0.139980
660.253240	0.139979
660.457984	0.139931
660.662710	0.140005
660.867417	0.140022
661.072107	0.140008
661.276778	0.140337
661.481431	0.140710
661.686066	0.140819
661.890682	0.140703
662.095281	0.140910
662.299861	0.140992
662.504422	0.141035
662.708966	0.141196
662.913491	0.141460
663.117999	0.141453
663.322488	0.141390
663.526958	0.141526
663.731411	0.141624
663.935845	0.141713
664.140261	0.141855
664.344659	0.141921
664.549038	0.142280
664.753400	0.142309
664.957743	0.142619
665.162068	0.142865
665.366375	0.142897
665.570663	0.143065
665.774933	0.143198
665.979185	0.143428
666.183419	0.143583
666.387635	0.143471
666.591832	0.143433
666.796011	0.143376
667.000172	0.143496
667.204315	0.143545
667.408439	0.143521
667.612545	0.143524
667.816634	0.143508
668.020703	0.143677
668.224755	0.143884
668.428788	0.144217
668.632803	0.144502
668.836800	0.144539
669.040779	0.144852
669.244739	0.145125
669.448681	0.145350
669.652605	0.145454
669.856511	0.145379
670.060399	0.145316
670.264268	0.145277
670.468119	0.145238
670.671952	0.145278
670.875767	0.145324
671.079563	0.145278
671.283341	0.145216
671.487101	0.145357
671.690843	0.145530
671.894567	0.145704
672.098272	0.145711
672.301959	0.145805
672.505628	0.146101
672.709278	0.146110
672.912911	0.146449
673.116525	0.146663
673.320121	0.146499
673.523699	0.146862
673.727258	0.147045
673.930799	0.147198
674.134322	0.147240
674.337827	0.147154
674.541314	0.147444
674.744782	0.147411
674.948232	0.147494
675.151664	0.147908
675.355078	0.147911
675.558474	0.147838
675.761851	0.148029
675.965210	0.148155
676.168551	0.148341
676.371873	0.148304
676.575178	0.148494
676.778464	0.148678
676.981732	0.148673
677.184981	0.148783
677.388213	0.149037
677.591426	0.148849
677.794621	0.148858
677.997798	0.148888
678.200956	0.149100
678.404097	0.149199
678.607219	0.149181
678.810323	0.149165
679.013408	0.149188
679.216476	0.149388
679.419525	0.149707
679.622556	0.150079
679.825569	0.150304
680.028563	0.150410
680.231540	0.150538
680.434498	0.150698
680.637438	0.151043
680.840359	0.151250
681.043263	0.151333
681.246148	0.151584
681.449015	0.151470
681.651864	0.151702
681.854694	0.151651
682.057506	0.151811
682.260301	0.151908
682.463076	0.151896
682.665834	0.151993
682.868573	0.152074
683.071295	0.151930
683.273998	0.152184
683.476682	0.152130
683.679349	0.152252
683.881997	0.152300
684.084627	0.152215
684.287239	0.152387
684.489833	0.152446
684.692408	0.152688
684.894965	0.152892
685.097504	0.152971
685.300025	0.153199
685.502527	0.153327
685.705012	0.153325
685.907478	0.153557
686.109925	0.153452
686.312355	0.153530
686.514766	0.153458
686.717159	0.153653
686.919534	0.153657
687.121891	0.153753
687.324230	0.153872
687.526550	0.154114
687.728852	0.154357
687.931136	0.154682
688.133401	0.154991
688.335649	0.155023
688.537878	0.154986
688.740089	0.155116
688.942281	0.155169
689.144456	0.155253
689.346612	0.155231
689.548750	0.155000
689.750870	0.155191
689.952971	0.155166
690.155055	0.155454
690.357120	0.155590
690.559167	0.155734
690.761195	0.155757
690.963206	0.155792
691.165198	0.155805
691.367172	0.156086
691.569128	0.155870
691.771065	0.155742
691.972984	0.155601
692.174885	0.155861
692.376768	0.156010
692.578633	0.156189
692.780479	0.156290
692.982308	0.156512
693.184118	0.156630
693.385909	0.156812
693.587683	0.157163
