sample name	sample
index	888
start time	 04-08-2021  02:36:40 PM
880	0.452636
Peak Time (s)	122.07
Peak Height 	0.4526
calc peak height	120,123
Baseline Time (s)	11.04
Baseline Value 	-0.004565
subtract baseline	10,4
Abs	0.354907
Peak Time (s)	122.535
Peak Height 	0.3549
calc peak height	120,123
Baseline Time (s)	10.037
Baseline Value 	0.003375
subtract baseline	10,3
PK_550	0.182423
Peak Time (s)	121.038
Peak Height 	0.1824
calc peak height	120,123
Baseline Time (s)	8.537
Baseline Value 	3.9966E-4
subtract baseline	10,2
PK_880	0.324181
Peak Time (s)	121.038
Peak Height 	0.3242
calc peak height	120,123
Baseline Time (s)	8.537
Baseline Value 	0.001266
subtract baseline	10,1


Time (s)	A880-A510	A880-A775	A880-A975	A880	I510	I775	I975	I880	
0.034500	0.000129	-0.000872	-0.000276	0.001612	6876.078762	42385.421109	3937.192581	22762.788086
0.537500	-0.000459	0.000400	-0.000209	0.004353	6844.178195	42251.523797	3929.412593	22636.478387
1.037500	-0.001550	-0.000531	-0.006030	0.002961	6847.044824	42293.462007	3916.628943	22700.499859
1.535000	-0.000724	-0.000605	-0.000929	0.006414	6822.028089	41973.451005	3921.371164	22542.023952
2.035500	0.000047	-0.001101	-0.001923	0.000258	6888.332552	42488.313773	3936.339362	22825.501896
2.535500	-0.000087	0.000280	0.002076	0.001124	6878.696570	42535.469447	3945.511032	22785.360320
3.036000	0.002032	0.000500	-0.000316	-0.001384	6923.471299	42786.398434	3945.851985	22901.791721
3.535500	-0.002134	0.000076	-0.002181	0.003693	6834.498931	42282.106018	3925.612396	22666.807630
4.036500	0.002786	-0.000014	-0.001425	0.000331	6914.125592	42581.261615	3937.579891	22822.099507
4.536500	0.001926	0.000107	-0.000419	0.000616	6903.023118	42566.155324	3939.686081	22808.867096
5.037000	0.001542	-0.000125	0.000731	0.000347	6901.915578	42569.626461	3943.842483	22821.354044
5.537500	0.000643	0.000847	-0.001416	0.000492	6891.818417	42645.581206	3937.134725	22814.624466
6.034500	0.001978	-0.000539	-0.003604	0.000006	6909.445426	42562.944089	3932.177177	22837.184128
6.538000	0.001437	0.000020	-0.002031	0.000218	6902.147699	42594.745818	3936.139597	22827.341505
7.035500	0.000987	0.001157	-0.001091	0.001085	6889.424676	42619.632374	3936.354924	22787.182752
7.538500	0.000122	0.000034	-0.001061	0.000515	6886.577465	42568.808376	3938.106339	22813.585481
8.036000	-0.001606	-0.000904	0.000255	-0.000291	6877.694665	42556.723091	3944.318531	22850.963913
8.536500	0.000000	0.000000	-0.001357	0.000145	6888.966611	42599.643888	3938.322492	22830.726778
9.036500	0.001151	0.000503	0.001683	0.000261	6898.961990	42635.129544	3946.891972	22825.326102
9.536500	-0.000090	0.000306	0.001952	-0.000002	6889.513117	42641.254081	3948.457203	22837.549246
10.037000	-0.000198	-0.000268	0.000000	-0.000212	6890.504646	42607.830941	3943.338567	22847.294047
10.534500	0.001248	-0.000470	-0.005458	0.000148	6900.995296	42556.241263	3926.386929	22830.585307
11.040500	0.000239	-0.000191	0.000662	0.000000	6892.671207	42595.374864	3944.657900	22837.453317
11.535000	-0.001215	0.000238	-0.003620	-0.000050	6879.136947	42639.450754	3932.293335	22839.777921
12.035500	0.000446	-0.000904	-0.000948	0.000983	6885.186963	42440.023369	3937.067488	22791.893833
12.535000	0.003119	0.000677	-0.002320	0.000540	6915.327749	42625.489796	3934.359108	22812.393872
13.036000	0.001686	0.000184	0.002541	-0.000432	6910.858013	42669.559332	3951.462055	22857.494807
13.539000	0.001101	-0.000276	0.003926	-0.000840	6909.141910	42664.837283	3956.765738	22876.470840
14.036500	0.000788	0.000201	0.000032	0.002206	6876.700023	42429.194782	3936.359348	22735.354132
14.537000	-0.001356	0.000257	0.006181	0.002119	6856.949242	42442.286038	3954.679843	22739.347758
15.034500	0.001232	0.001027	0.001637	0.000225	6900.093147	42686.692121	3946.864327	22827.018288
15.538000	0.001058	0.000317	0.000501	-0.000148	6902.017902	42655.629722	3944.618979	22844.306648
16.035000	-0.001523	-0.000323	-0.001947	0.001823	6858.199374	42416.410889	3931.713610	22753.059347
16.535500	0.001923	0.000200	0.001047	0.000182	6907.202974	42614.624166	3945.255734	22829.009716
17.035500	0.003595	0.000950	0.002950	-0.002037	6945.083001	42888.221865	3957.421652	22932.185097
17.536000	0.000071	0.000487	0.000665	0.001619	6875.450533	42509.111500	3939.922443	22762.463846
18.036500	-0.000482	0.000458	-0.004954	0.001585	6870.467246	42509.602958	3923.691787	22764.058873
18.536500	0.000359	0.000192	-0.000590	0.002065	6873.929198	42441.293581	3934.958061	22741.860661
19.037000	0.002926	0.000881	0.001807	0.002125	6898.102530	42498.842670	3941.784836	22739.099681
19.537000	-0.000303	-0.000192	-0.002584	0.001414	6873.831122	42465.723230	3931.050639	22771.963761
20.037500	0.000048	0.000028	-0.000086	0.001903	6872.496303	42441.096119	3936.897003	22749.320718
20.537500	0.000370	-0.000361	-0.001625	0.001273	6881.659002	42463.103668	3934.248286	22778.460515
21.035500	-0.000529	-0.000489	-0.001250	0.000761	6877.932517	42498.255190	3936.834569	22802.163843
21.535500	-0.000280	0.001040	0.001651	0.001656	6871.717231	42556.388628	3942.701744	22760.763991
22.036000	-0.000205	0.000751	0.001795	0.002039	6868.769374	42494.831185	3942.002194	22743.077817
22.536000	-0.000238	-0.000091	-0.002621	0.001089	6877.572429	42504.652245	3931.884990	22786.973152
23.036500	0.000604	0.000198	0.001893	0.001385	6882.834330	42504.004377	3944.206124	22773.271186
23.536000	0.000001	0.000050	0.003604	0.001505	6875.876138	42479.511043	3948.885980	22767.731085
24.037000	0.002029	0.000793	0.002384	0.002229	6888.434234	42481.250594	3943.171560	22734.293639
24.537000	0.000399	0.000019	-0.000145	0.001045	6884.141085	42518.835221	3939.235735	22789.042668
25.040000	-0.000598	-0.000221	-0.002777	0.001109	6873.924850	42491.023370	3931.376117	22786.075997
25.535000	0.002529	-0.000303	-0.002799	0.001677	6898.598245	42431.501360	3929.663243	22759.797441
26.035500	0.001560	0.000998	-0.002065	0.001890	6887.182323	42531.178376	3931.177091	22749.960202
26.536000	0.000734	0.000157	0.000759	0.001220	6885.675069	42515.455857	3941.364837	22780.923697
27.036000	0.000412	0.000023	-0.002465	-0.001598	6909.810011	42762.096887	3940.178188	22911.735292
27.536000	0.001726	-0.000078	-0.001539	0.000529	6901.936033	42557.284075	3936.669282	22812.942330
28.036500	0.002918	0.000631	0.000502	-0.000096	6919.566401	42679.848267	3944.472921	22841.927992
28.537000	0.002363	0.000993	-0.000445	0.000565	6907.750568	42652.226902	3939.757002	22811.233509
29.037000	0.002188	0.000150	0.002568	0.000096	6910.603263	42617.894819	3949.982842	22832.991818
29.540000	0.003203	0.000864	-0.002769	0.001588	6905.979275	42546.465138	3930.005849	22763.892228
30.035000	0.001515	0.000293	-0.000611	0.000186	6903.216206	42622.816327	3940.384134	22828.836090
30.535500	0.000955	0.000903	0.000598	0.002589	6874.619434	42458.366860	3936.892803	22717.672380
31.035500	0.000155	0.000332	0.001917	0.001627	6876.189684	42494.251908	3943.569232	22762.115363
31.536000	0.000959	0.000047	-0.001533	0.000667	6893.187179	42556.079141	3936.284898	22806.533861
32.036000	0.000620	0.000551	-0.001808	0.000086	6895.521086	42655.664018	3937.175143	22833.464686
32.536000	0.001990	0.001528	0.000932	0.000678	6903.049798	42691.131930	3943.460820	22806.019604
33.036500	0.000967	0.000088	0.002933	-0.000301	6902.623601	42648.662929	3952.232612	22851.425379
33.537000	0.004667	0.001903	0.000553	-0.000157	6937.190594	42802.665934	3944.802306	22844.757436
34.037500	0.000163	0.000547	0.000203	0.001856	6874.063045	42492.920795	3937.880116	22751.531133
34.535000	-0.000270	0.000333	-0.000142	0.001808	6870.356423	42477.711524	3937.012783	22753.727410
35.035000	0.002250	0.000797	-0.002883	0.002292	6889.963525	42475.834259	3927.634807	22731.378828
35.534500	-0.000110	0.000233	-0.002367	0.001717	6872.771063	42476.871907	3930.799025	22757.932774
36.035500	0.001725	0.000998	0.000622	0.002224	6885.550461	42500.526373	3938.028653	22734.516207
36.536000	0.000886	0.000308	0.002735	0.001157	6887.756696	42535.094517	3947.353060	22783.850574
37.036000	0.001158	0.000206	-0.000647	0.001413	6887.908825	42502.232379	3936.693622	22771.995794
37.536500	0.000973	0.000971	0.003174	0.002279	6877.782958	42493.012495	3945.344540	22731.998760
38.037000	0.002286	0.001450	0.000350	0.002683	6886.538037	42499.869221	3935.898036	22713.352619
38.537000	0.001628	-0.000043	-0.001278	0.001470	6891.891690	42474.168079	3934.685326	22769.338563
39.037500	0.000908	0.000498	-0.004240	0.001928	6880.531155	42481.832269	3924.761296	22748.172301
39.535000	-0.000146	0.000065	-0.001402	0.001386	6875.598561	42491.813933	3934.568875	22773.230608
40.035000	-0.000172	0.000178	-0.000318	0.001427	6874.963810	42498.410336	3937.610772	22771.354630
40.535500	0.001200	0.000624	0.001476	0.002238	6880.360646	42465.010615	3940.486091	22733.874043
41.035500	0.000602	-0.000269	0.000243	0.001519	6881.517842	42449.062784	3938.980885	22767.071178
41.536000	0.001775	0.000420	-0.002256	0.001959	6888.591600	42471.841817	3930.419444	22746.753817
42.036500	0.000932	0.000378	-0.000906	0.001941	6880.641286	42469.620073	3934.397271	22747.594270
42.536500	-0.000241	-0.000309	-0.000315	0.001259	6875.913639	42469.230147	3938.110849	22779.127524
43.037000	-0.001072	0.000384	0.001940	0.002006	6860.757299	42464.273153	3942.522256	22744.585669
43.537500	-0.001022	-0.000343	-0.000491	0.000985	6871.041619	42491.240388	3938.398388	22791.821337
44.035000	0.002407	0.001187	0.002942	0.001196	6902.070572	42612.152902	3947.845632	22782.035897
44.538000	0.000841	-0.000348	-0.002438	-0.000723	6905.487018	42647.411138	3937.699423	22871.033166
45.035000	0.001373	0.001024	0.003561	0.000329	6900.455558	42676.830795	3952.228034	22822.198560
45.610000	0.000348	0.000274	0.002416	0.000492	6888.975850	42592.927605	3948.370652	22814.641131
46.229500	0.001067	0.000743	0.002282	0.000306	6897.717144	42653.128117	3948.523166	22823.268798
46.536500	0.002312	0.000264	-0.000314	0.000279	6910.035214	42611.576683	3940.979782	22824.518169
47.045000	0.002989	0.001073	0.004062	0.000460	6914.845473	42669.246714	3953.320695	22816.108106
47.561000	-0.000987	0.000775	0.001492	0.003261	6849.557984	42385.214437	3937.539541	22686.683857
48.440500	0.001569	0.000237	0.004038	0.000004	6905.500605	42634.312302	3954.597716	22837.257885
48.540000	0.001262	0.000367	0.001992	0.000146	6901.149005	42633.218184	3948.138266	22830.663340
49.037000	0.002773	0.000737	-0.000097	0.000322	6914.089771	42651.088911	3941.486779	22822.496450
49.538000	0.003074	0.000823	0.001556	0.000793	6912.439430	42615.648008	3944.953546	22800.668771
50.035500	-0.000003	0.000393	0.002673	0.001018	6880.530167	42555.588103	3947.579283	22790.286922
50.536000	0.003508	0.001241	0.005174	0.000031	6924.059013	42724.197737	3957.881914	22835.992604
51.036000	0.002883	0.001203	0.005173	0.012459	6798.948364	41592.382862	3921.537879	22267.556122
51.536500	-0.029183	-0.008043	0.032466	0.138563	5547.239680	31183.919727	3666.759026	17332.539327
52.036500	-0.055012	-0.015701	0.003308	0.034837	6106.931756	38230.790780	3853.563182	21284.075166
52.539500	-0.049217	-0.019982	-0.018637	-0.119963	7632.011674	52939.709315	4277.278246	29248.843291
53.036500	-0.030748	-0.034253	-0.019892	-0.203249	8934.620105	61589.211656	4611.534571	34864.338271
53.537500	-0.013845	-0.012948	-0.011446	-0.136543	8258.946035	55745.911402	4367.730718	30282.560642
54.035000	-0.007661	-0.013794	-0.011706	-0.152596	8551.087639	57635.480488	4430.624049	31321.781144
54.538000	0.007048	-0.005005	-0.002733	-0.128409	8424.736986	55722.627671	4370.000251	29770.526811
55.035500	0.019454	0.000145	0.007157	-0.115287	8415.295771	54758.575891	4357.389322	28964.364151
55.536000	0.031011	0.006471	0.017884	-0.091099	8251.437136	52661.799140	4305.878356	27540.788541
56.036000	0.050062	0.018843	0.037700	-0.041632	7875.825882	48573.219346	4197.889029	24864.944999
56.536500	0.063681	0.025884	0.057045	0.006639	7478.754759	44420.398497	4099.406367	22531.716043
57.037000	0.073452	0.032553	0.071915	0.036780	7259.718741	42226.562058	4050.001592	21201.028183
57.537000	0.091906	0.041582	0.092809	0.069479	7112.532296	40131.070881	4012.985118	19858.119974
58.034500	0.109155	0.052379	0.115833	0.101849	6961.481419	38318.186843	3984.379517	18624.656519
58.535000	0.121858	0.060618	0.131991	0.135608	6759.727490	36286.720454	3932.158241	17432.544120
59.035000	0.127562	0.065659	0.142941	0.156070	6624.023125	35115.691723	3904.801344	16753.804535
59.535000	0.138302	0.073947	0.156668	0.175070	6550.067220	34326.441314	3889.895425	16151.579657
60.035500	0.149626	0.080925	0.172910	0.190805	6511.142500	33695.584170	3891.321585	15672.397153
60.536500	0.145708	0.078881	0.173655	0.198121	6413.776870	33035.157148	3872.974134	15455.445648
61.036000	0.151357	0.083195	0.182977	0.210569	6356.072196	32472.684271	3864.344630	15094.622741
61.536500	0.157561	0.085945	0.187128	0.217596	6349.138362	32181.080840	3856.454733	14895.427470
62.035500	0.163448	0.088600	0.186906	0.221942	6362.126708	32066.615223	3844.037581	14773.861275
62.542500	0.168297	0.090671	0.196645	0.229317	6340.879542	31710.408879	3850.450140	14570.311349
63.035000	0.172771	0.093926	0.197589	0.237774	6307.623058	31365.277183	3830.194629	14341.101147
63.535000	0.176479	0.096014	0.203281	0.243371	6291.951785	31134.749861	3830.448876	14191.843869
64.035000	0.179942	0.098514	0.204524	0.248730	6276.303139	30948.289220	3819.498302	14050.723975
64.535500	0.185832	0.102771	0.212894	0.256032	6264.691066	30751.097569	3822.330036	13861.237977
65.041000	0.188807	0.103453	0.216734	0.264566	6219.322842	30248.870121	3809.936776	13643.745505
65.536000	0.195159	0.106640	0.221805	0.268630	6237.928830	30193.323487	3812.582119	13541.674924
66.041000	0.197466	0.107736	0.224810	0.275528	6200.704996	29828.768629	3802.382651	13370.597879
66.539000	0.204367	0.111612	0.224725	0.281998	6204.180337	29667.296735	3785.412301	13212.582116
67.037000	0.205031	0.111654	0.230180	0.289136	6152.305119	29230.624958	3781.096534	13040.967083
67.537500	0.208652	0.113951	0.237195	0.293392	6147.269261	29111.346818	3788.181084	12939.992310
68.035000	0.211957	0.115628	0.237967	0.299436	6125.574504	28847.238280	3774.682545	12798.248209
68.535000	0.219237	0.118516	0.244117	0.306225	6129.457860	28613.647582	3773.059080	12641.392686
69.035000	0.217445	0.119630	0.248620	0.313897	6055.495285	28225.594355	3765.034916	12467.047292
69.535000	0.222885	0.119871	0.247759	0.315349	6086.466529	28154.571189	3759.215594	12434.396965
70.036000	0.228040	0.123533	0.251941	0.322444	6071.365082	27954.352911	3751.932397	12276.426355
70.536000	0.227650	0.125245	0.253947	0.324571	6051.877302	27930.268875	3751.632240	12229.567773
71.039000	0.228833	0.126577	0.259694	0.331160	6010.390112	27626.941647	3749.534846	12085.849573
71.537000	0.235840	0.129050	0.261506	0.331402	6062.376993	27755.157632	3753.444592	12080.600625
72.036000	0.238024	0.131214	0.267387	0.335939	6044.210444	27618.821411	3756.807371	11982.974909
72.537500	0.241467	0.131613	0.269940	0.336619	6065.565864	27602.712537	3761.505870	11968.428549
73.037500	0.239689	0.132210	0.267080	0.342202	6008.972287	27318.640635	3740.480920	11849.839106
73.535000	0.243738	0.134168	0.273373	0.340863	6050.300332	27506.077107	3759.468723	11878.142207
74.041000	0.243659	0.134270	0.274916	0.344334	6023.010908	27314.561931	3754.639951	11804.954537
74.535500	0.250234	0.136692	0.273961	0.344964	6068.830923	27416.264566	3750.686103	11791.731635
75.035000	0.251711	0.139577	0.274884	0.348108	6055.918765	27401.530146	3745.171896	11726.041469
75.539000	0.252021	0.139631	0.283147	0.348642	6054.194558	27374.283729	3764.486898	11714.947794
76.036000	0.255149	0.141102	0.278704	0.352087	6051.745134	27262.485629	3744.778286	11643.597295
76.537000	0.258013	0.142735	0.282856	0.352479	6070.880682	27332.706477	3754.125741	11635.503620
77.034500	0.258617	0.142868	0.284878	0.357373	6037.729685	27064.334517	3746.978843	11535.210987
77.535000	0.259444	0.144101	0.287075	0.354573	6065.735730	27291.445268	3759.448135	11592.452137
78.038000	0.263504	0.145863	0.292980	0.356591	6081.609183	27276.993509	3769.245421	11551.156217
78.535500	0.266727	0.147686	0.294709	0.357762	6097.634519	27313.915619	3770.661219	11527.300715
79.035500	0.264183	0.148399	0.292037	0.363479	6033.587232	27032.177725	3749.594268	11411.658840
79.535500	0.267458	0.148526	0.290504	0.359485	6089.880356	27263.968996	3755.733128	11492.288099
80.036000	0.266837	0.149777	0.293701	0.362412	6062.281239	27169.363873	3756.406170	11433.112795
80.536500	0.270477	0.150556	0.301804	0.361666	6096.431126	27255.423128	3778.780197	11448.163727
81.036500	0.270297	0.150848	0.296325	0.368404	6042.727054	26893.917070	3748.010704	11313.247630
81.537000	0.275947	0.153748	0.301206	0.365631	6108.218550	27211.753460	3767.187016	11368.510916
82.037000	0.274945	0.154437	0.306883	0.367488	6085.850553	27145.993441	3776.885805	11331.471708
82.535000	0.276364	0.154248	0.301141	0.366969	6100.998839	27164.565724	3763.646092	11341.810297
83.035000	0.274903	0.155411	0.301693	0.374187	6033.676760	26826.117682	3746.980787	11199.113546
83.535500	0.282417	0.156476	0.306952	0.371163	6115.598345	27054.201223	3767.729697	11258.618261
84.035000	0.281348	0.158050	0.303501	0.371943	6101.071914	27098.691850	3757.080330	11243.217671
84.535000	0.283517	0.158022	0.307067	0.374068	6101.425234	26978.140624	3760.696013	11201.455504
85.035500	0.284137	0.158108	0.308502	0.380171	6058.729859	26644.408020	3749.029794	11082.614912
85.536500	0.286127	0.159086	0.309504	0.376101	6105.950257	26924.079481	3761.712331	11161.678052
86.039000	0.287637	0.160123	0.312494	0.379434	6091.668053	26796.470716	3760.848303	11096.868437
86.536500	0.288028	0.160736	0.314389	0.379618	6093.292504	26820.259583	3765.157082	11093.313661
87.034500	0.287225	0.161605	0.312748	0.386594	6033.019677	26483.759924	3743.632950	10959.326179
87.537000	0.291110	0.161223	0.316500	0.382502	6094.838494	26687.617925	3763.209275	11037.655716
88.037500	0.292236	0.163274	0.319787	0.386083	6075.694942	26603.327354	3762.470047	10969.076066
88.535500	0.292107	0.163261	0.319382	0.385985	6075.454521	26608.014723	3761.696322	10970.934807
89.036000	0.296973	0.164290	0.319111	0.388411	6094.478554	26531.307061	3754.934616	10924.785408
89.539000	0.294859	0.164712	0.319594	0.389248	6071.482921	26508.540681	3754.051360	10908.919923
90.036000	0.297523	0.165529	0.322067	0.391328	6076.019951	26439.492760	3755.032218	10869.622168
90.536500	0.297810	0.165397	0.323517	0.392504	6069.115762	26368.162157	3755.716517	10847.489295
91.038500	0.299453	0.167049	0.324468	0.395365	6059.669706	26302.397287	3750.950265	10793.888593
91.537000	0.298007	0.166946	0.324232	0.395943	6044.048038	26265.443024	3748.925065	10783.111848
92.034500	0.298278	0.168092	0.322395	0.398428	6027.031718	26192.985838	3738.236933	10736.908245
92.535500	0.302730	0.168444	0.328234	0.400288	6046.958641	26111.626037	3748.073741	10702.490112
93.035500	0.299897	0.168143	0.325992	0.407205	5972.615225	25726.093183	3725.566651	10575.807620
93.535500	0.301569	0.168308	0.326806	0.401701	6027.169568	26028.323876	3741.039076	10676.442663
94.038500	0.304855	0.169112	0.331175	0.403842	6035.959331	25956.694279	3746.551631	10637.147558
94.536000	0.304678	0.169038	0.326745	0.404863	6026.760169	25898.151414	3733.118297	10618.470134
95.043000	0.301580	0.170232	0.327044	0.412583	5944.876629	25552.482170	3715.097977	10478.693250
95.537000	0.305162	0.170301	0.330343	0.407535	6010.034914	25823.076424	3735.387004	10569.809093
96.039500	0.305022	0.170213	0.330112	0.408210	6003.832128	25782.565165	3733.168717	10557.577409
96.537500	0.306776	0.170545	0.329317	0.409811	6004.989372	25715.270822	3727.316190	10528.600409
97.034500	0.303959	0.171900	0.334185	0.417569	5925.448089	25378.752596	3720.298497	10389.728104
97.535000	0.307769	0.171037	0.331178	0.412640	5991.041910	25591.872175	3724.958455	10477.666928
