sample name	sample
index	71
start time	 02-11-2021  03:43:11 PM
880	0.432653
Peak Time (s)	91.535
Peak Height 	0.4327
calc peak height	90,93
Baseline Time (s)	10.035
Baseline Value 	-0.003663
subtract baseline	10,4
Abs	0.315976
Peak Time (s)	90.037
Peak Height 	0.316
calc peak height	90,93
Baseline Time (s)	11.036
Baseline Value 	-0.002386
subtract baseline	10,3
PK_550	0.154426
Peak Time (s)	91.535
Peak Height 	0.1544
calc peak height	90,93
Baseline Time (s)	10.035
Baseline Value 	5.4737E-4
subtract baseline	10,2
PK_880	0.301135
Peak Time (s)	91.535
Peak Height 	0.3011
calc peak height	90,93
Baseline Time (s)	9.537
Baseline Value 	0.003386
subtract baseline	10,1


Time (s)	A880-A510	A880-A775	A880-A975	A880	I510	I775	I975	I880	
0.034500	0.000658	-0.000241	0.004217	0.000760	4518.553139	19499.067357	3301.493437	10745.887191
0.535000	-0.002893	-0.000688	0.004574	0.003361	4496.279760	19383.273520	3299.534958	10699.219625
1.035000	-0.005887	-0.000577	-0.004456	0.004727	4480.679980	19335.796879	3290.586965	10674.809646
1.535500	-0.001895	-0.002085	0.006586	-0.000710	4514.611037	19484.845472	3304.869746	10772.401459
2.039000	-0.003961	0.000269	0.014126	0.001094	4500.593068	19505.779265	3309.969291	10739.873892
2.539500	-0.002135	-0.000120	0.011424	0.000468	4509.456994	19514.831020	3308.115626	10751.140652
3.036000	-0.001634	-0.000505	0.007009	0.003225	4501.300498	19395.327238	3301.779771	10701.637745
3.537000	-0.001776	-0.000907	-0.006848	-0.000313	4513.599596	19514.604536	3292.846358	10765.231563
4.039500	0.000096	-0.000266	0.005861	-0.000018	4519.340858	19527.842076	3303.619992	10759.906690
4.537500	-0.004429	-0.000205	0.011212	0.000310	4501.733514	19517.621000	3308.067686	10753.985799
5.037000	-0.000590	0.000813	-0.000263	0.004720	4499.676294	19388.619505	3294.175830	10674.937156
5.535000	0.003460	0.000511	0.006973	0.000462	4529.898802	19539.166114	3304.177030	10751.253574
6.036000	-0.003223	-0.000304	-0.013739	-0.000150	4507.756799	19531.404546	3286.859719	10762.287539
6.536000	-0.000165	0.001217	0.002940	0.001409	4513.197658	19529.992793	3299.811601	10734.225535
7.036000	-0.001119	-0.000156	0.006535	0.000130	4514.375259	19526.352465	3304.083335	10757.235138
7.536000	0.001839	0.001129	-0.001939	0.000830	4522.611895	19548.748000	3296.082616	10744.636139
8.036500	-0.000593	0.000830	0.007983	0.000021	4516.688069	19568.274947	3305.459163	10759.211918
8.536000	-0.004171	0.000246	0.006655	-0.000330	4504.974165	19559.307438	3304.594756	10765.525872
9.037500	-0.002670	-0.000458	-0.005918	-0.000328	4510.407020	19532.340167	3293.655905	10765.504212
9.537500	0.000000	0.000781	-0.003750	0.000935	4515.518719	19531.430694	3294.432108	10742.740517
10.035000	0.001118	0.000000	-0.002965	0.000000	4523.009238	19537.300109	3295.912441	10759.581549
10.535000	0.001822	0.000421	0.005784	0.000037	4525.449373	19551.994685	3303.503610	10758.916074
11.035500	-0.004417	-0.000979	0.000000	0.003795	4489.252939	19355.797468	3295.197329	10691.446669
11.536000	0.000658	-0.000268	0.002078	-0.000378	4522.710564	19541.499004	3300.618444	10766.401519
12.039000	0.000694	-0.000107	0.012071	-0.000015	4521.514929	19533.773234	3309.123303	10759.848935
12.536500	-0.001066	0.000629	0.005580	0.000389	4513.628401	19546.459934	3303.014876	10752.567797
13.037000	-0.002039	0.000354	0.009814	0.004843	4494.023226	19366.603790	3302.822082	10672.748669
13.534500	0.001072	-0.000117	0.010657	-0.000530	4524.782260	19553.108010	3308.321864	10769.151371
14.037500	0.003581	0.001171	0.007208	0.000259	4531.089645	19572.196581	3304.563582	10754.918087
14.537500	-0.006239	0.000107	0.015992	0.002175	4488.530884	19458.456287	3310.672611	10720.460338
15.035500	-0.001481	0.000623	0.005153	0.005619	4493.239065	19347.448604	3298.074903	10658.920034
15.535000	0.001061	-0.000246	-0.001457	-0.000497	4524.619657	19546.892286	3297.646125	10768.544852
16.036000	-0.001059	-0.000217	-0.011830	-0.001124	4519.162000	19572.019004	3289.294314	10779.873309
16.536000	-0.000641	0.001273	0.010859	0.000236	4515.732164	19576.979990	3307.819601	10755.329832
17.036500	-0.001847	-0.000012	0.008443	0.003914	4498.048928	19387.897827	3302.432741	10689.318405
17.536500	0.003205	0.000966	0.012905	-0.002758	4540.824790	19680.264503	3312.331089	10809.470386
18.037000	-0.000622	0.000485	0.012328	-0.000190	4517.347178	19563.085627	3309.509253	10762.999671
18.537500	-0.003293	0.000123	0.004833	0.000721	4504.353496	19514.447723	3302.067981	10746.595169
19.034000	-0.001202	0.000094	0.006391	0.002396	4505.856896	19449.554843	3301.965645	10716.500974
19.534500	-0.002382	0.000821	0.011749	0.001672	4504.206308	19504.802060	3307.333949	10729.494602
20.037500	0.000988	0.000496	0.003874	0.001289	4517.825847	19507.006648	3300.730695	10736.370251
20.535500	-0.002513	0.000122	0.008294	0.001042	4506.013175	19502.176364	3304.830981	10740.821493
21.035500	-0.001061	-0.000401	0.003824	0.002897	4504.553946	19411.706360	3299.284842	10707.515292
21.538500	-0.002177	0.001786	0.004292	0.001764	4504.613187	19538.121727	3300.680810	10727.830752
22.036000	0.000904	0.000700	0.003875	0.000923	4518.856211	19528.771727	3301.052111	10742.952194
22.536500	-0.000237	0.001152	0.010284	0.001693	4511.902020	19516.654562	3306.015443	10729.118984
23.037000	-0.000908	0.001374	0.003932	0.001788	4509.121659	19521.467195	3300.345485	10727.399638
23.534500	-0.001432	0.000743	0.007039	0.001317	4508.929657	19515.391272	3303.482351	10735.874102
24.035000	-0.000675	0.001515	0.007796	0.001838	4509.782398	19524.938204	3303.689415	10726.502782
24.535000	-0.001421	0.000475	-0.005067	0.001200	4509.392170	19509.592756	3293.075061	10737.965248
25.035500	-0.000263	0.000540	0.009838	0.001387	4512.920131	19504.989232	3305.891556	10734.619286
25.535500	-0.000441	-0.000191	0.006692	0.000480	4515.570055	19511.683579	3303.913315	10750.928944
26.041500	0.001626	0.002213	0.007059	0.002325	4516.377586	19533.031835	3302.613744	10717.777207
26.536000	-0.002647	0.000593	-0.003825	0.000423	4507.765644	19543.797030	3294.807472	10751.950661
27.038500	0.001766	0.000332	0.001155	0.002448	4516.437865	19456.591857	3297.357915	10715.560865
27.537000	-0.002345	-0.000295	0.002070	0.000448	4508.770859	19508.899166	3299.890560	10751.500659
28.040000	0.002320	0.001565	-0.001684	-0.002020	4534.832285	19674.866917	3298.770632	10796.081021
28.534500	-0.002332	0.001853	-0.002920	0.000733	4507.783529	19580.156435	3295.319719	10746.366979
29.048500	-0.002423	0.000443	0.001602	0.005907	4488.831238	19329.764682	3294.758481	10653.790776
29.535000	0.000570	0.000720	0.007649	-0.001019	4524.732506	19603.923805	3306.083816	10777.979551
30.035000	0.001134	0.000593	0.003290	-0.000290	4524.126759	19571.074155	3301.601178	10764.809080
30.535500	0.000172	0.001506	0.007994	0.000115	4519.132849	19590.543643	3305.384627	10757.500027
31.039000	0.002028	-0.000754	0.007473	0.005681	4505.657089	19293.156875	3300.038650	10657.812707
31.536500	0.001650	0.001471	-0.004917	0.001786	4518.430606	19525.273545	3292.702555	10727.443585
32.039500	-0.001280	-0.000434	0.008452	0.000767	4511.477701	19491.475530	3305.213402	10745.770327
32.534000	-0.000100	0.000612	-0.000540	-0.000213	4519.336313	19568.867956	3298.195124	10763.418299
33.034500	-0.004542	0.000670	-0.004400	0.005663	4482.136985	19347.530618	3289.839853	10658.131952
33.534500	-0.002581	0.001170	0.003240	0.000136	4509.046014	19576.873751	3301.184347	10757.125645
34.038000	-0.000400	0.001070	0.011271	0.000267	4516.495673	19568.023157	3308.159280	10754.772888
34.538000	0.000290	0.001106	0.006263	-0.001763	4526.432256	19647.356350	3305.514987	10791.440151
35.038500	0.001173	0.001376	0.019190	0.002386	4514.508366	19498.755728	3313.360248	10716.683292
35.541500	-0.001930	0.000768	0.007079	0.001627	4506.004232	19504.494789	3303.244405	10730.294927
36.036000	-0.005545	0.000617	-0.005114	0.001270	4494.262166	19512.351773	3292.975582	10736.718496
36.539000	0.000395	0.000067	0.005858	0.001310	4515.589423	19489.825061	3302.449800	10735.989522
37.039500	0.000678	0.000645	0.003531	0.002065	4513.876580	19483.131903	3299.754726	10722.443433
37.534000	-0.001545	0.001092	-0.001699	0.001958	4506.197469	19504.199895	3295.316190	10724.347625
38.037500	0.001176	0.001954	-0.001220	0.002275	4514.924830	19525.029647	3295.456310	10718.673880
38.536000	0.000742	0.001090	0.009080	0.002052	4514.154305	19500.585422	3304.633005	10722.672074
39.035000	-0.002037	0.001642	0.012612	0.003880	4497.491996	19451.996023	3306.140467	10689.937946
39.535500	0.000005	-0.000485	0.001750	0.000855	4515.824903	19486.145603	3299.257265	10744.172115
40.035500	0.000223	0.000623	-0.004954	0.001836	4513.052595	19490.995919	3292.627571	10726.539541
40.535500	0.002250	0.002129	-0.010443	0.002511	4517.971701	19522.705235	3287.393983	10714.432902
41.038500	-0.003921	0.000919	0.010391	0.003624	4491.644456	19434.234903	3304.402651	10694.511796
41.537000	0.001690	-0.000020	-0.004267	0.001080	4521.153704	19495.319546	3293.863658	10740.135145
42.039000	-0.000181	0.000416	0.005376	0.001172	4513.999162	19508.447607	3302.148146	10738.482094
42.537000	-0.002276	-0.000231	0.005295	0.000751	4507.922614	19499.810899	3302.446650	10746.059312
43.037500	-0.005812	-0.000774	-0.000367	0.001604	4492.102522	19446.632386	3296.770909	10730.704777
43.535000	-0.001091	0.001206	0.013009	0.001484	4509.561789	19526.678963	3308.622692	10732.866762
44.038000	-0.002067	0.000780	-0.001759	0.001687	4505.289243	19502.675879	3295.498088	10729.217860
44.535500	-0.002271	0.000913	0.005126	0.000965	4507.164244	19535.324881	3302.110052	10742.197863
45.038000	-0.002721	-0.000064	0.002511	0.001824	4502.434719	19465.316914	3299.076349	10726.766050
45.540500	0.001195	0.001351	0.001880	0.000056	4523.083598	19586.863874	3300.066898	10758.566447
46.055000	-0.003850	-0.000718	0.012997	-0.001306	4509.674490	19559.794796	3311.109135	10783.171498
46.536000	0.001140	0.001244	0.009295	0.000085	4522.780378	19581.676807	3306.564287	10758.056039
47.037000	-0.000870	0.000268	0.000391	0.003637	4502.569505	19408.993614	3295.670587	10694.269225
47.537500	0.000109	0.002182	-0.003835	0.000432	4517.747386	19604.324333	3294.791239	10751.790813
48.037500	0.000860	-0.000143	0.001778	-0.000738	4524.766796	19560.056034	3300.671411	10772.905971
48.535500	-0.000269	-0.000957	0.002620	0.000950	4514.487466	19464.569343	3299.932940	10742.477462
49.035500	-0.002363	-0.000183	0.004032	0.003825	4496.514894	19384.801326	3298.659586	10690.916679
49.536500	0.002256	0.000551	-0.000875	-0.000406	4528.663047	19573.902679	3298.072132	10766.899714
50.035500	-0.000083	0.001148	0.002089	-0.000683	4521.116647	19607.444216	3300.894708	10771.912169
50.536500	0.000793	0.000081	0.000429	0.000486	4520.047399	19521.848789	3298.429610	10750.828296
51.035500	-0.006762	0.000033	0.008074	0.004114	4479.746506	19382.033393	3301.933869	10685.748675
51.537000	0.003592	0.001373	0.004847	-0.001358	4537.083680	19642.017121	3303.907445	10784.110194
52.037000	0.001391	0.001390	0.008434	-0.000995	4527.651656	19628.708792	3306.758131	10777.536522
52.535000	-0.031097	-0.022418	0.017460	0.311541	3654.504208	10631.060028	3112.922392	6750.548906
53.035000	-0.019211	-0.013030	0.001651	-0.005719	4470.470267	19260.176908	3304.935038	10863.385193
53.535000	0.016125	-0.002446	0.015538	-0.138414	5195.941633	25640.049676	3458.957945	13698.899657
54.035500	0.001265	-0.008690	0.013899	-0.119558	5027.044621	24365.123958	3434.174265	13241.298375
54.535500	-0.007246	-0.011008	0.010990	-0.088161	4843.354718	22764.554415	3395.218626	12522.072100
55.036000	-0.012479	-0.012088	0.006032	-0.095078	4850.766183	23032.822205	3397.360277	12676.081757
55.536500	-0.008043	-0.011809	0.014801	-0.101313	4898.425576	23336.516489	3414.096141	12817.027939
56.036000	-0.007510	-0.009021	0.017997	-0.086768	4836.087278	22791.689632	3401.384306	12491.353613
56.537000	-0.001526	-0.005158	0.022770	-0.060006	4747.266148	21771.953009	3377.681926	11919.877604
57.037500	-0.000024	-0.004898	0.030278	-0.058037	4745.312340	21697.923669	3383.539118	11879.189793
57.534500	0.011578	-0.007190	0.026421	-0.053165	4773.589440	21391.006816	3374.341164	11779.345963
58.035000	0.016578	-0.003321	0.039003	-0.026084	4682.437368	20430.576869	3359.464611	11244.310952
58.535500	0.018060	-0.003453	0.044460	0.002939	4575.050222	19294.767464	3336.321524	10706.765078
59.038500	0.020250	-0.004452	0.037418	0.020211	4519.065604	18620.852137	3313.723752	10403.501122
59.536000	0.032202	-0.005163	0.043894	0.042722	4481.014228	17804.247790	3299.498069	10025.928750
60.036000	0.047899	0.001172	0.062276	0.060317	4474.271506	17423.732850	3300.184554	9744.139295
60.536500	0.053011	0.002387	0.072488	0.083431	4411.763144	16711.390238	3289.093636	9390.904138
61.036500	0.072025	0.007161	0.086917	0.117356	4361.915204	15817.142628	3272.947568	8905.327423
61.537000	0.086948	0.016230	0.100504	0.144503	4322.304546	15291.985797	3262.136890	8543.170320
62.034500	0.099298	0.022136	0.119178	0.175247	4264.768503	14605.216905	3252.794685	8159.470856
62.535000	0.122181	0.034294	0.130184	0.206178	4240.347980	14111.579966	3237.928202	7799.889950
63.035000	0.146441	0.048901	0.162491	0.241368	4207.902043	13594.319213	3235.833200	7420.759402
63.535500	0.172642	0.059753	0.172274	0.267893	4206.950782	13216.560066	3223.937986	7154.612534
64.035500	0.186798	0.069244	0.190185	0.285610	4196.562605	13023.703358	3224.073148	6985.690226
64.538500	0.196811	0.075219	0.206461	0.300117	4183.576137	12827.483015	3225.309235	6852.416831
65.049500	0.198821	0.081222	0.226069	0.307600	4167.938362	12793.838407	3233.916946	6785.387987
65.536500	0.211513	0.089338	0.225667	0.318107	4174.154785	12739.687450	3226.161006	6693.197874
66.047500	0.219762	0.096051	0.230381	0.327077	4172.100728	12688.895606	3223.188464	6616.245669
66.537500	0.224254	0.098992	0.240261	0.333312	4167.143380	12615.206258	3225.732831	6563.685487
67.037500	0.231851	0.103702	0.235765	0.345185	4155.070178	12456.892078	3214.471583	6465.660092
67.535000	0.236198	0.107375	0.253087	0.344687	4168.761013	12548.764076	3226.751628	6469.715682
68.035000	0.243547	0.111827	0.254039	0.349626	4175.624588	12537.980386	3223.959779	6429.672983
68.538500	0.247542	0.114324	0.256181	0.359725	4158.308655	12371.392910	3218.465178	6349.206551
69.035500	0.251823	0.121117	0.261604	0.362306	4163.107846	12463.342692	3220.416221	6328.937833
69.536000	0.251352	0.123698	0.265352	0.366017	4151.338110	12438.595737	3220.442368	6300.010737
70.036000	0.258655	0.127480	0.273138	0.371117	4157.522468	12409.796793	3222.297996	6260.649934
70.537000	0.261920	0.130003	0.275489	0.379877	4142.151251	12274.719724	3217.888689	6194.119407
71.037000	0.261085	0.130960	0.281352	0.384058	4128.284324	12205.653621	3219.038896	6162.831733
71.534500	0.266446	0.132246	0.280699	0.380366	4153.426606	12312.519538	3221.130059	6190.443796
72.034000	0.271694	0.136487	0.287945	0.384945	4155.306153	12305.217551	3222.977268	6156.236767
72.534500	0.268661	0.135772	0.280767	0.390891	4130.330279	12162.637406	3213.997051	6112.349521
73.035000	0.270708	0.138160	0.283394	0.395359	4123.683409	12118.547252	3212.757883	6079.760952
73.535500	0.272072	0.136450	0.291104	0.390413	4141.083436	12187.213120	3221.376870	6115.850275
74.035500	0.272612	0.138706	0.283226	0.392662	4136.345807	12187.364861	3214.460842	6099.393225
74.536000	0.276252	0.142358	0.287875	0.402444	4119.472969	12057.722456	3211.016160	6028.774947
75.036500	0.278910	0.142011	0.299069	0.398193	4138.469234	12140.090296	3221.505422	6059.270209
75.536500	0.279057	0.140150	0.285392	0.398811	4137.165444	12087.695682	3211.784014	6054.814575
76.037000	0.276730	0.141443	0.292330	0.399999	4127.472988	12089.905103	3215.655822	6046.279017
76.537500	0.280657	0.144474	0.286291	0.409938	4111.075558	11945.453315	3205.022084	5975.738741
77.034500	0.281182	0.145950	0.296300	0.407174	4120.016709	12033.835260	3213.490880	5995.192004
77.535000	0.281433	0.146069	0.276917	0.407019	4121.127214	12039.601092	3200.836522	5996.290639
78.041000	0.283658	0.146390	0.301414	0.408473	4123.234978	12015.888965	3216.070105	5986.039852
78.536000	0.282733	0.146117	0.280210	0.414468	4104.448155	11885.767607	3198.173603	5944.122046
79.036000	0.283480	0.147118	0.301605	0.416047	4102.209607	11873.880132	3211.100989	5933.183437
79.536000	0.287631	0.147590	0.306461	0.412436	4123.259732	11958.290620	3216.806029	5958.262289
80.037000	0.289185	0.149773	0.293659	0.414566	4121.688889	11959.395797	3206.818496	5943.445924
80.537000	0.283223	0.150726	0.273269	0.421993	4085.653526	11825.883742	3189.102618	5892.324228
81.040000	0.284908	0.147438	0.298128	0.420551	4093.972131	11788.210034	3205.823299	5902.186764
81.540000	0.287680	0.145512	0.304616	0.413098	4121.587157	11901.574813	3215.105325	5953.653726
82.035000	0.290655	0.149859	0.290447	0.418724	4114.363197	11875.199874	3202.013771	5914.720699
82.535500	0.288810	0.148012	0.287533	0.423110	4097.562692	11747.831491	3197.334449	5884.718071
83.035000	0.285495	0.149120	0.299525	0.424626	4084.696682	11739.557023	3204.074139	5874.413531
83.536000	0.287457	0.146946	0.302162	0.419209	4104.404874	11805.538070	3209.367752	5911.388759
84.036000	0.298236	0.150575	0.303053	0.422464	4124.841790	11813.159579	3207.803416	5889.112398
84.536500	0.294230	0.150798	0.302128	0.428970	4096.382374	11685.673201	3202.942265	5845.095686
85.036500	0.288636	0.150927	0.298667	0.429247	4080.787238	11682.700829	3200.528637	5843.238268
85.537500	0.297794	0.151021	0.315048	0.423887	4119.742146	11793.235180	3214.863850	5879.432875
86.037000	0.288992	0.149473	0.293719	0.422971	4098.419385	11780.360741	3201.383937	5885.661158
86.535000	0.295389	0.151860	0.303445	0.426554	4105.983227	11756.028376	3205.373847	5861.363682
87.034500	0.289673	0.149723	0.299840	0.423279	4099.420253	11779.161593	3205.158228	5883.563276
87.538000	0.292329	0.148442	0.297710	0.424795	4102.480464	11722.397904	3202.784931	5873.266587
88.035500	0.290337	0.150793	0.308645	0.426773	4091.858388	11729.967208	3208.651814	5859.891024
88.536000	0.293474	0.149489	0.317828	0.426148	4101.922939	11716.230538	3215.214942	5864.112060
89.041500	0.298954	0.149028	0.304780	0.426424	4115.992490	11701.340092	3206.334583	5862.247119
89.536500	0.295180	0.150800	0.305848	0.428748	4099.523220	11690.193851	3205.510973	5846.588018
90.037000	0.291409	0.149550	0.315976	0.426897	4094.383061	11702.308489	3213.459844	5859.049067
90.537500	0.298626	0.150920	0.313138	0.428093	4110.574309	11705.840344	3210.758384	5850.994199
91.035000	0.298293	0.151536	0.314146	0.429729	4105.253118	11685.265074	3210.340192	5840.004692
91.535000	0.301135	0.154426	0.313726	0.432653	4105.030632	11684.571795	3208.122508	5820.467745
92.038000	0.295418	0.151012	0.303466	0.429297	4098.689897	11683.418442	3203.599676	5842.905488
92.535500	0.300549	0.152553	0.308058	0.431856	4105.601941	11662.926779	3204.923587	5825.779771
93.036000	0.301956	0.150023	0.308002	0.430751	4112.393380	11634.344634	3205.609470	5833.160206
93.536000	0.299838	0.151640	0.311340	0.432680	4101.471642	11628.111753	3206.533677	5820.293217
94.041500	0.298604	0.153296	0.315522	0.433169	4096.850469	11651.484858	3208.969322	5817.034041
94.536500	0.296661	0.149876	0.303441	0.437271	4080.788375	11501.844079	3198.447078	5789.884802
95.037000	0.302205	0.153128	0.313427	0.433743	4104.976776	11636.604483	3207.206787	5813.218494
95.562000	0.302480	0.149503	0.306166	0.432566	4108.898424	11587.707116	3203.229270	5821.048212
96.059500	0.300096	0.147508	0.304603	0.431781	4104.584375	11563.640714	3202.724907	5826.284496
96.535500	0.303480	0.153372	0.306983	0.441581	4087.429118	11485.826044	3197.957295	5761.632415
97.035000	0.301303	0.150154	0.304549	0.440409	4084.763976	11445.642876	3197.154720	5769.288232
97.535500	0.305947	0.150967	0.313906	0.434511	4113.019731	11578.129405	3207.016782	5808.125965
98.035500	0.306000	0.150406	0.314412	0.435870	4109.482679	11540.022649	3206.456370	5799.131706
