sample name	sample
index	765
start time	 03-31-2021  12:40:05 PM
880	-0.018474
Peak Time (s)	91.035
Peak Height 	-0.01847
calc peak height	90,93
Baseline Time (s)	11.036
Baseline Value 	-0.00237
subtract baseline	10,4
Abs	-0.005881
Peak Time (s)	91.535
Peak Height 	-0.005881
calc peak height	90,93
Baseline Time (s)	11.537
Baseline Value 	0.002966
subtract baseline	10,3
PK_550	0.005578
Peak Time (s)	90.041
Peak Height 	0.005578
calc peak height	90,93
Baseline Time (s)	11.537
Baseline Value 	3.2302E-4
subtract baseline	10,2
PK_880	-0.002027
Peak Time (s)	92.036
Peak Height 	-0.002027
calc peak height	90,93
Baseline Time (s)	10.536
Baseline Value 	0.001212
subtract baseline	10,1


Time (s)	A880-A510	A880-A775	A880-A975	A880	I510	I775	I975	I880	
0.035000	0.000060	-0.000327	-0.002503	0.001488	6739.807138	40702.307248	4015.472611	22223.785922
0.538000	-0.005573	-0.001714	-0.003646	0.003403	6676.369700	40417.417042	4008.554173	22139.429400
1.036000	-0.002213	-0.000771	-0.002989	0.002891	6708.783719	40542.752702	4011.194714	22161.973207
1.536000	-0.001462	-0.000269	-0.000163	0.000955	6731.434036	40753.558544	4022.015755	22247.328884
2.036500	0.002875	-0.000363	-0.002807	0.000878	6768.967809	40752.119947	4016.168564	22250.754438
2.536000	-0.001707	-0.000436	-0.001333	0.002805	6713.766661	40579.099838	4015.139989	22165.759937
3.037500	0.002660	0.000544	-0.002834	-0.001582	6788.194663	41045.225129	4021.710572	22359.788830
3.534500	-0.000274	0.000515	-0.001793	0.000143	6748.389880	40892.273120	4020.149833	22283.272436
4.038000	0.002303	0.000072	-0.000735	-0.000227	6773.513189	40885.900748	4023.410207	22299.643609
4.535000	-0.001794	0.000706	-0.001186	0.000455	6732.858778	40881.755394	4020.824372	22269.471113
5.035500	-0.001763	-0.000369	-0.002966	-0.000101	6737.824970	40836.611515	4018.033057	22294.069665
5.535500	0.002103	-0.000138	0.003637	-0.000166	6771.279878	40862.230149	4033.324409	22296.930065
6.036000	-0.000459	-0.000659	0.003684	-0.000437	6751.747679	40840.522694	4034.060488	22308.950254
6.535500	0.001659	-0.000172	-0.002430	-0.000139	6767.261982	40857.007285	4019.340132	22295.772438
7.036500	-0.000657	-0.000433	-0.005361	0.000323	6743.606796	40794.150370	4011.636333	22275.275049
7.537000	0.000103	-0.000566	-0.000978	-0.000459	6756.715254	40850.571576	4023.384525	22309.919813
8.037500	0.000932	-0.000038	0.004226	-0.000115	6760.854348	40866.547405	4034.571306	22294.697600
8.537500	0.000417	0.000141	-0.004542	0.000273	6753.160464	40848.434262	4013.604367	22277.519275
9.035000	-0.000424	-0.000310	-0.001639	0.000234	6746.346594	40812.637124	4020.292587	22279.238262
9.535000	-0.000441	0.000591	0.000565	0.000205	6746.452032	40893.518668	4025.400326	22280.532000
10.038000	0.000940	-0.000729	0.000497	-0.000697	6765.891342	40857.123063	4027.314256	22320.508825
10.535500	0.000000	-0.000270	-0.009155	-0.000486	6756.071511	40878.652466	4004.910621	22311.129416
11.036000	-0.000475	0.000505	0.000004	0.000000	6747.901923	40903.793339	4024.583188	22289.596648
11.536500	0.002509	0.000000	0.000000	-0.000143	6774.568257	40872.354050	4024.903778	22295.952082
12.036500	0.001715	0.000239	0.000947	-0.000003	6766.577774	40880.919035	4026.752416	22289.708486
12.537000	-0.001613	0.000043	0.000416	0.000020	6738.073297	40861.859999	4025.483124	22288.719344
13.037000	-0.002291	-0.001172	0.001953	-0.000830	6739.529512	40830.139843	4030.970358	22326.394040
13.540000	-0.000463	-0.000259	-0.005025	0.000236	6745.992829	40816.856746	4012.595106	22279.138277
14.038000	0.000622	-0.000114	-0.001410	0.002643	6734.788475	40620.907768	4015.332939	22172.886038
14.538000	-0.002844	-0.000031	0.001475	0.002182	6709.438678	40667.928271	4022.956487	22193.196175
15.035500	0.000238	-0.000419	-0.000223	0.000532	6749.434672	40777.181901	4022.845596	22266.022760
15.536000	-0.000787	0.000129	0.000451	-0.000005	6745.291674	40871.554166	4025.621971	22289.831970
16.036500	-0.000891	0.000087	0.004998	0.000347	6741.420423	40837.334347	4035.289654	22274.243075
16.536000	-0.002603	-0.000242	-0.005048	-0.000265	6732.098283	40861.806733	4013.676113	22301.321413
17.036500	0.001395	-0.000359	-0.000278	-0.003090	6790.284394	41098.106276	4031.038507	22426.960491
17.539000	-0.000595	-0.000257	-0.005290	0.000606	6741.739404	40784.946178	4011.159925	22262.791981
18.037000	-0.002458	0.000835	-0.000730	0.001933	6714.779237	40764.480717	4018.493318	22204.158521
18.535000	-0.002332	-0.001715	0.002366	0.000404	6728.741572	40676.039060	4029.079425	22271.703096
19.035500	-0.001418	0.000130	-0.004532	0.001415	6727.918970	40748.223929	4011.041667	22227.001839
19.541000	-0.002462	-0.000348	-0.001352	0.001064	6722.069603	40737.262937	4019.054556	22242.515893
20.036000	0.000282	-0.000222	-0.003154	0.001369	6742.704598	40721.740590	4014.266356	22229.036824
20.536000	-0.001636	-0.000790	0.000476	0.000957	6729.950251	40708.274515	4023.474983	22247.253294
21.036500	-0.002313	-0.000549	-0.006620	0.001211	6722.087044	40707.090180	4006.794720	22236.023891
21.539500	-0.000261	-0.000518	0.000729	0.000905	6742.037288	40736.343137	4024.172141	22249.565046
22.039500	-0.000313	-0.000488	-0.006576	0.001252	6738.649350	40708.798933	4006.801261	22234.215024
22.537500	0.000560	-0.000099	-0.001540	0.001200	6746.494276	40747.042268	4018.316980	22236.490352
23.034500	-0.002619	-0.000316	0.004021	0.001056	6720.813047	40740.752220	4031.393059	22242.886517
23.535000	-0.002142	0.000319	-0.004642	0.001845	6718.180466	40727.397565	4009.824739	22208.056158
24.038000	0.000716	-0.000476	0.002158	0.001096	6748.709454	40723.420357	4027.011776	22241.106857
24.538000	-0.000888	-0.000175	-0.001605	0.001044	6735.537210	40753.945338	4018.525095	22243.397796
25.036000	0.000706	-0.000357	-0.000350	0.001480	6745.358425	40700.447487	4020.391240	22224.135909
25.536000	-0.001512	-0.000726	-0.000685	0.000810	6732.244532	40726.578913	4021.156013	22253.769539
26.039500	0.000336	-0.000546	0.004211	0.000872	6747.384122	40736.746741	4032.255572	22251.017250
26.536500	-0.000183	-0.000930	-0.001072	0.000197	6748.698930	40761.947068	4021.671049	22280.852239
27.037000	-0.000683	-0.000866	-0.002510	-0.001808	6761.518645	40941.877920	4022.968881	22369.855191
27.537000	0.000981	0.000195	-0.000086	-0.000879	6767.789813	40953.362470	4026.392149	22328.557377
28.037000	0.000667	-0.000496	0.003371	0.000402	6754.192063	40781.875257	4031.401683	22271.804829
28.534500	0.000728	-0.000479	-0.004520	-0.000068	6758.708638	40824.088457	4014.427064	22292.602033
29.035500	0.000560	-0.000935	-0.000485	-0.000378	6759.930855	40811.511530	4024.331265	22306.364044
29.538500	0.000538	-0.000318	-0.002282	-0.000059	6757.015954	40837.340206	4019.495435	22292.218326
30.036000	0.000046	-0.000287	-0.004853	0.000042	6751.974711	40831.258956	4013.423966	22287.748134
30.536000	-0.001429	-0.000966	-0.003811	0.001519	6726.942758	40644.327986	4012.436877	22222.418664
31.036500	-0.002952	-0.000392	-0.002883	0.001949	6710.486285	40656.756707	4013.564999	22203.442150
31.543500	-0.000583	-0.000236	0.003670	0.000566	6742.172765	40790.189532	4031.712288	22264.530703
32.037000	0.000898	-0.000154	0.002545	0.000418	6756.025512	40810.195175	4029.461088	22271.103259
32.543000	-0.005327	-0.000632	-0.000500	0.005427	6661.585307	40336.532549	4011.087644	22050.668927
33.035000	-0.000046	-0.000274	-0.006888	0.000052	6751.104727	40831.564396	4008.803171	22287.310009
33.541000	0.002729	-0.000156	0.001131	0.000218	6773.359282	40827.376744	4026.670220	22279.958453
34.035500	-0.000443	-0.000080	-0.001763	-0.000688	6754.020566	40912.745942	4022.115302	22320.095278
34.535500	-0.000765	-0.001317	-0.001620	0.001066	6736.400327	40653.187553	4018.441625	22242.453265
35.036000	0.000043	-0.000086	0.002811	0.001774	6737.244470	40698.454846	4026.953318	22211.177024
35.536500	-0.003558	-0.001229	-0.001944	0.001249	6711.268372	40644.921325	4017.286374	22234.325328
36.036500	0.000001	-0.000449	-0.000966	0.001675	6737.727042	40675.639630	4018.543427	22215.545842
36.536500	-0.003509	-0.000623	0.002637	0.002298	6702.879805	40606.711773	4025.353074	22188.076425
37.037000	-0.001327	-0.000542	-0.005473	0.002059	6723.251700	40634.305581	4007.468587	22198.609606
37.534500	-0.001968	-0.000092	0.003448	0.001674	6721.089883	40706.653287	4028.648306	22215.602154
38.035000	-0.000391	0.000562	0.002119	0.002384	6728.411326	40701.790228	4023.970258	22184.298807
38.535500	-0.000633	-0.000952	-0.002858	0.001045	6737.690332	40686.546588	4015.672463	22243.363716
39.036000	-0.001810	-0.000724	-0.004283	0.001115	6727.142517	40700.276190	4012.283761	22240.254009
39.536000	0.000499	-0.000702	0.001937	0.001384	6744.419566	40678.914917	4025.842858	22228.401282
40.039000	-0.002471	0.000400	0.000554	0.002510	6709.811465	40676.781759	4020.104011	22178.719784
40.536000	-0.000472	-0.000749	-0.001037	0.001351	6736.457838	40677.590505	4019.118419	22229.822171
41.037000	-0.000790	-0.000020	0.003305	0.001719	6730.663314	40708.954665	4028.215397	22213.609885
41.539500	-0.000862	-0.000607	-0.007841	0.001405	6732.708626	40685.305160	4003.615647	22227.473714
42.037500	-0.000471	-0.000671	0.000029	0.002068	6730.401943	40622.431875	4019.914969	22198.211640
42.534500	-0.001874	-0.000388	-0.000124	0.001455	6723.732296	40699.939878	4020.963752	22225.260352
43.037500	-0.000240	-0.000724	-0.003663	0.001536	6736.862790	40663.839680	4012.734847	22221.672093
43.535000	0.000363	0.000569	-0.005194	0.002489	6733.892354	40693.235625	4007.127187	22179.640012
44.035500	0.002120	-0.000630	-0.001607	-0.001158	6779.923590	40905.882404	4023.547109	22340.970331
44.535500	-0.000949	-0.000355	0.001873	-0.000770	6750.412218	40895.961477	4030.649458	22323.739245
45.036000	0.002045	-0.000035	-0.000114	0.000173	6767.893916	40841.844908	4023.918031	22281.949491
45.536500	-0.000908	-0.000477	0.002383	-0.000266	6746.475945	40841.471443	4030.662610	22301.364429
46.037000	-0.000710	0.000035	-0.004078	-0.000246	6747.993773	40884.314128	4015.833929	22300.487490
46.537000	0.000043	0.000402	0.003664	0.000781	6745.663374	40826.928809	4031.203570	22255.038486
47.037500	-0.001674	-0.000203	-0.001304	0.000233	6735.755843	40821.993660	4021.059168	22279.272945
47.538500	-0.003621	-0.000570	-0.002748	0.001922	6705.087275	40643.704910	4013.931790	22204.625585
48.038500	-0.003074	-0.000939	-0.009353	0.001398	6714.093547	40657.149489	4000.245638	22227.765227
48.536000	-0.003596	0.000059	-0.006728	0.005728	6673.479058	40369.988063	3996.443701	22037.520445
49.036000	-0.000024	-0.000152	0.000096	0.000531	6747.221568	40800.483063	4023.579264	22266.082106
49.536000	-0.000057	0.000771	0.000748	0.001038	6742.631819	40836.678769	4023.909700	22243.662264
50.036500	0.002016	-0.000896	-0.003047	-0.003769	6801.477780	41110.628418	4026.231373	22457.305894
50.539500	-0.001875	-0.000179	0.000430	0.001921	6719.789007	40677.587356	4021.164654	22204.665347
51.037000	-0.004160	-0.003590	0.004867	-0.003438	6745.800334	40846.611489	4043.783840	22442.489018
51.536500	-0.036520	-0.007652	0.006346	0.244844	4990.540075	24205.994366	3604.120098	13998.756497
52.035000	-0.045001	-0.012136	-0.004224	-0.041028	6718.298849	43458.307699	4112.573420	24195.733567
52.535000	-0.054880	-0.027387	-0.018831	-0.183722	8027.699163	57227.008620	4484.078174	32420.536415
53.035500	-0.035737	-0.065790	-0.004165	-0.276340	9486.212605	64425.648226	4891.655123	39401.929448
53.536000	-0.021514	-0.072690	-0.002626	-0.287349	9870.755524	65008.847453	4946.241123	40335.194853
54.036000	-0.017184	-0.049942	-0.001069	-0.254665	9440.186755	63608.247969	4813.678709	37632.261990
54.536000	-0.026674	-0.028161	-0.010704	-0.205783	8637.526095	59946.856230	4588.778570	33950.986181
55.037000	-0.017752	-0.022936	-0.009614	-0.198632	8660.331455	59695.310264	4567.170142	33446.371408
55.539000	-0.013894	-0.015467	-0.013069	-0.175282	8414.445600	57662.720167	4475.138978	31855.326327
56.037500	-0.017855	-0.015229	-0.009386	-0.168594	8284.697473	56858.071503	4465.168504	31415.114535
56.534500	-0.010348	-0.016096	-0.011844	-0.182889	8553.784253	58546.605692	4504.834073	32364.270995
57.037500	-0.004291	-0.026123	-0.009674	-0.215881	9070.817468	61558.284847	4629.247006	34677.906812
57.535000	-0.004639	-0.012430	-0.010276	-0.168493	8444.936248	57193.125223	4461.896115	31408.504951
58.035500	-0.009520	-0.009510	-0.011541	-0.141554	8064.360778	54281.930401	4371.833861	29702.926107
58.535500	-0.012625	-0.009995	-0.015102	-0.129057	7887.705947	52774.329849	4323.112335	28946.957064
59.036000	-0.012222	-0.007311	-0.014107	-0.110081	7685.512381	50944.819898	4270.647640	27839.807791
59.536000	-0.017795	-0.009764	-0.013332	-0.106893	7593.102518	50327.248286	4263.771651	27658.525296
60.036500	-0.019693	-0.007937	-0.007797	-0.105130	7555.038543	50334.241903	4274.538295	27558.833791
60.539500	-0.017470	-0.008725	-0.017677	-0.102601	7551.865384	49974.618531	4239.468063	27416.504953
61.037000	-0.021318	-0.008796	-0.017871	-0.095053	7435.471720	49159.171236	4218.092021	26996.681933
61.534500	-0.019231	-0.007086	-0.017396	-0.082717	7333.381407	48045.622801	4186.071346	26326.085410
62.035500	-0.015677	-0.003723	-0.009860	-0.067110	7216.365937	46795.783225	4164.777344	25504.522465
62.535000	-0.012670	-0.005047	-0.012102	-0.103995	7616.415056	50525.503971	4259.041599	27494.865950
63.035500	-0.014319	-0.006491	-0.014994	-0.122524	7797.078840	52428.944274	4304.114237	28560.305213
63.536000	-0.009238	-0.006059	-0.013708	-0.125342	7884.070226	52799.675234	4316.216584	28726.402140
64.035500	-0.010176	-0.006362	-0.019586	-0.127298	7895.380957	52989.162008	4304.648743	28842.253676
64.536500	-0.007674	-0.005811	-0.018406	-0.126437	7913.696473	52953.539388	4305.585860	28791.207844
65.037000	-0.007278	-0.005032	-0.019634	-0.124640	7898.051336	52836.759741	4296.727430	28684.878657
65.536500	-0.007165	-0.005007	-0.015668	-0.123211	7883.405188	52676.188220	4304.153158	28600.670197
66.037500	-0.006458	-0.004580	-0.019652	-0.120628	7862.614112	52430.590496	4285.022911	28449.163430
66.537500	-0.008704	-0.004597	-0.020834	-0.115292	7779.472187	51826.129074	4266.325331	28139.048251
67.035000	-0.008458	-0.004613	-0.019268	-0.113775	7765.662673	51654.403182	4266.461406	28051.539226
67.537500	-0.008291	-0.003985	-0.019394	-0.109399	7720.257294	51237.065851	4253.705693	27800.896631
68.035500	-0.006538	-0.003789	-0.020391	-0.104823	7690.059145	50753.905111	4238.101858	27541.517369
68.536000	-0.008260	-0.003100	-0.017631	-0.098764	7607.801780	50168.070006	4228.953789	27202.178044
69.036500	-0.009156	-0.003806	-0.014601	-0.096784	7577.780265	49877.839839	4231.857735	27092.348376
69.536500	-0.008994	-0.003054	-0.020122	-0.092307	7533.089678	49478.190130	4204.497309	26845.784359
70.037000	-0.007062	-0.001486	-0.019291	-0.087377	7502.297195	49120.416978	4193.456121	26577.156018
70.537000	-0.008095	-0.002539	-0.014603	-0.084487	7462.338455	48704.294727	4198.287149	26421.124734
71.040500	-0.008636	-0.001907	-0.015682	-0.081561	7427.320017	48464.068440	4187.558598	26264.236934
71.535000	-0.008967	-0.002174	-0.022414	-0.078577	7394.094463	48125.640502	4161.940635	26105.275014
72.035000	-0.010293	-0.001711	-0.013293	-0.075396	7349.334408	47844.690900	4177.534331	25937.044712
72.535500	-0.008910	-0.001642	-0.018936	-0.072889	7338.234404	47594.038716	4156.192545	25805.287533
73.036000	-0.007051	-0.001195	-0.016916	-0.070477	7332.796362	47393.136662	4155.176605	25679.273494
73.535500	-0.006419	0.000066	-0.015923	-0.066767	7302.603943	47143.966763	4148.155160	25486.780788
74.036500	-0.005948	-0.000883	-0.015067	-0.064895	7288.924670	46858.706443	4145.541146	25390.255753
74.536500	-0.003928	0.000834	-0.013214	-0.061202	7272.665979	46660.002074	4140.824177	25201.115204
75.034500	-0.004007	0.001239	-0.010947	-0.058357	7244.384778	46415.943234	4139.346547	25056.503218
75.535000	-0.002279	0.000808	-0.012841	-0.055910	7237.459097	46129.672587	4128.308596	24932.845579
76.038000	-0.002773	0.001835	-0.012256	-0.052498	7200.033528	45893.927967	4121.178068	24761.588110
76.535000	-0.002680	0.002021	-0.012326	-0.050055	7177.689544	45672.089392	4114.881270	24639.844890
77.035500	-0.004936	0.003354	-0.014992	-0.046901	7126.678727	45493.840907	4100.432532	24483.589715
77.536000	-0.002312	0.002484	-0.014878	-0.045024	7133.686031	45226.458108	4096.095729	24391.163828
78.036000	-0.004172	0.001851	-0.011869	-0.043612	7103.103039	45028.534323	4100.024410	24321.908989
78.539500	-0.002302	0.003042	-0.011696	-0.039874	7085.742441	44783.349505	4091.273188	24139.621465
79.036500	-0.000593	0.003083	-0.011660	-0.038616	7089.925163	44666.630960	4088.292004	24078.631521
79.537000	-0.000783	0.004114	-0.010453	-0.036030	7064.240031	44518.021293	4084.935233	23953.793456
80.037500	-0.000871	0.003805	-0.015593	-0.034361	7048.054464	44329.744379	4068.515982	23873.594349
80.540000	-0.002079	0.003286	-0.017364	-0.032983	7024.371610	44150.003335	4061.012345	23807.651568
81.035500	0.000081	0.004549	-0.009982	-0.030595	7022.280693	44043.709207	4072.938664	23693.785473
81.535000	0.000007	0.004268	-0.010047	-0.029216	7009.055632	43887.492331	4069.476923	23628.385974
82.035500	0.000267	0.004502	-0.008968	-0.028333	7003.385468	43826.531907	4069.945981	23586.561026
82.539000	0.000256	0.004659	-0.010152	-0.026591	6987.488694	43678.143726	4062.960307	23504.370137
83.036000	-0.002353	0.004995	-0.011560	-0.023991	6940.637228	43467.029367	4053.467154	23382.258279
83.536500	-0.000306	0.005074	-0.008895	-0.023845	6957.671781	43460.823860	4059.421706	23375.435842
84.036500	-0.002066	0.004488	-0.013575	-0.022836	6932.888748	43312.811451	4046.020615	23328.270050
84.537000	-0.001326	0.004150	-0.011866	-0.021241	6925.272139	43134.230993	4046.288082	23253.960069
85.037500	-0.001400	0.004502	-0.011316	-0.019707	6910.975902	43025.258304	4043.985878	23182.689705
85.535000	-0.001871	0.004975	-0.010287	-0.020068	6910.003544	43102.106977	4047.239934	23199.459203
86.035500	-0.000948	0.005072	-0.011336	-0.019674	6914.691813	43074.731487	4043.862955	23181.182066
86.535000	-0.001533	0.004884	-0.012820	-0.019707	6909.798548	43060.536536	4040.481241	23182.727847
87.036000	-0.003292	0.003787	-0.015103	-0.018782	6886.060208	42874.778055	4033.038609	23139.855672
87.536500	-0.001518	0.005227	-0.009352	-0.018715	6901.143225	43000.813604	4046.260592	23136.790607
88.036000	-0.003381	0.004787	-0.009516	-0.019112	6888.187686	42996.769599	4046.804926	23155.124811
88.537000	-0.002145	0.005243	-0.015496	-0.019100	6899.003196	43037.653297	4032.867005	23154.608293
89.037000	-0.001889	0.004556	-0.007134	-0.019284	6902.894507	42991.405742	4052.803133	23163.094825
89.537500	-0.003255	0.005692	-0.012390	-0.018521	6884.098099	43025.694300	4038.722458	23127.820115
90.040500	-0.002711	0.005578	-0.012653	-0.019228	6895.130019	43080.313955	4039.753580	23160.539143
90.535500	-0.003122	0.004525	-0.009369	-0.019780	6896.376297	43034.161890	4048.716067	23186.105269
91.035000	-0.002593	0.005191	-0.010416	-0.018474	6889.517564	42975.358684	4043.210656	23125.649073
91.535500	-0.002971	0.004873	-0.005881	-0.020310	6902.391678	43114.936207	4058.188409	23210.660654
92.036000	-0.002027	0.004641	-0.012558	-0.020855	6915.602756	43143.823152	4043.767607	23235.987674
92.536000	-0.006129	0.004161	-0.006690	-0.021323	6883.462509	43142.741284	4058.671737	23257.761838
93.036500	-0.001982	0.003774	-0.013270	-0.021863	6924.972328	43156.881631	4044.458155	23282.910749
93.537500	-0.001782	0.004213	-0.009146	-0.022127	6929.097885	43221.724120	4054.763488	23295.185990
94.034000	-0.003811	0.004068	-0.009633	-0.022638	6915.588033	43255.620170	4054.820965	23319.033129
94.537500	-0.001770	0.003920	-0.007666	-0.022815	6935.340988	43258.280713	4059.894741	23327.294985
95.035000	-0.005603	0.002907	-0.007666	-0.024588	6916.989602	43328.586668	4064.109085	23410.230343
95.535000	-0.003682	0.003562	-0.008965	-0.024410	6932.512058	43372.871758	4060.596632	23401.890308
