sample name	sample
index	1086
start time	 04-22-2021  11:31:52 AM


Wavelength (nm)	Absorbance
494.344910	0.349960
494.563924	0.349960
494.782919	0.349960
495.001897	-0.041131
495.220856	0.039743
495.439797	-0.055720
495.658719	-0.098289
495.877624	-0.157379
496.096510	-0.139475
496.315378	-0.118692
496.534227	-0.149495
496.753059	-0.167229
496.971872	-0.123825
497.190667	0.139497
497.409444	0.175865
497.628203	0.180897
497.846943	0.184532
498.065665	0.186451
498.284369	0.188370
498.503055	0.191696
498.721723	0.191761
498.940372	0.190691
499.159003	0.191989
499.377616	0.192658
499.596210	0.193054
499.814787	0.193648
500.033345	0.193930
500.251885	0.194192
500.470406	0.192935
500.688910	0.193076
500.907395	0.193403
501.125862	0.193138
501.344311	0.191474
501.562742	0.191863
501.781154	0.192084
501.999548	0.191370
502.217924	0.190621
502.436282	0.190835
502.654621	0.189560
502.872942	0.189039
503.091245	0.190083
503.309530	0.191817
503.527797	0.192429
503.746045	0.192245
503.964275	0.193636
504.182487	0.193927
504.400681	0.194388
504.618856	0.195783
504.837013	0.196908
505.055152	0.195748
505.273273	0.195135
505.491376	0.194944
505.709460	0.195703
505.927526	0.195007
506.145574	0.195100
506.363604	0.195801
506.581615	0.197115
506.799608	0.197629
507.017583	0.199465
507.235540	0.200818
507.453478	0.200675
507.671399	0.200038
507.889301	0.200661
508.107185	0.199855
508.325050	0.198915
508.542898	0.198301
508.760727	0.198693
508.978538	0.197870
509.196330	0.197235
509.414105	0.196433
509.631861	0.196653
509.849599	0.197264
510.067319	0.197959
510.285021	0.199685
510.502704	0.200743
510.720369	0.199554
510.938016	0.200235
511.155645	0.200829
511.373255	0.202068
511.590848	0.202191
511.808422	0.201996
512.025977	0.203138
512.243515	0.202021
512.461034	0.201562
512.678536	0.202279
512.896018	0.201941
513.113483	0.202594
513.330930	0.203006
513.548358	0.202760
513.765768	0.201612
513.983160	0.200986
514.200533	0.202208
514.417889	0.203728
514.635226	0.204362
514.852545	0.204496
515.069845	0.204978
515.287128	0.205852
515.504392	0.207839
515.721638	0.208469
515.938866	0.209769
516.156075	0.208376
516.373267	0.208126
516.590440	0.208308
516.807594	0.208244
517.024731	0.207398
517.241850	0.207137
517.458950	0.207048
517.676032	0.208019
517.893095	0.207672
518.110141	0.209281
518.327168	0.208245
518.544177	0.208474
518.761168	0.209188
518.978141	0.209245
519.195095	0.209034
519.412031	0.208732
519.628949	0.208857
519.845849	0.208472
520.062731	0.208243
520.279594	0.208935
520.496439	0.208815
520.713266	0.209074
520.930074	0.210007
521.146865	0.210475
521.363637	0.210455
521.580391	0.210272
521.797127	0.211740
522.013844	0.211995
522.230543	0.212246
522.447224	0.212760
522.663887	0.212461
522.880532	0.213161
523.097158	0.213845
523.313766	0.214521
523.530356	0.215159
523.746928	0.215499
523.963481	0.216422
524.180017	0.216870
524.396534	0.218203
524.613032	0.218146
524.829513	0.217922
525.045975	0.217698
525.262420	0.217643
525.478845	0.217600
525.695253	0.217223
525.911643	0.217325
526.128014	0.217724
526.344367	0.217238
526.560702	0.217969
526.777018	0.218981
526.993316	0.219594
527.209597	0.220445
527.425858	0.220669
527.642102	0.221763
527.858328	0.221541
528.074535	0.221988
528.290724	0.221866
528.506894	0.221926
528.723047	0.221837
528.939181	0.221690
529.155297	0.221047
529.371395	0.222336
529.587475	0.222275
529.803536	0.222717
530.019579	0.222230
530.235604	0.222173
530.451611	0.223022
530.667600	0.222920
530.883570	0.223810
531.099522	0.224639
531.315456	0.223647
531.531372	0.223420
531.747269	0.223495
531.963148	0.224170
532.179009	0.224523
532.394852	0.224584
532.610676	0.224157
532.826482	0.224818
533.042271	0.225005
533.258040	0.225308
533.473792	0.226177
533.689525	0.226317
533.905240	0.226322
534.120937	0.227629
534.336616	0.227892
534.552277	0.228892
534.767919	0.228607
534.983543	0.228920
535.199149	0.229667
535.414736	0.229293
535.630306	0.229472
535.845857	0.229722
536.061390	0.229036
536.276904	0.230182
536.492401	0.230293
536.707879	0.230882
536.923339	0.231634
537.138781	0.232100
537.354204	0.232590
537.569610	0.233557
537.784997	0.233795
538.000366	0.234575
538.215716	0.233654
538.431049	0.233696
538.646363	0.233697
538.861659	0.233625
539.076937	0.233917
539.292196	0.234332
539.507438	0.234279
539.722661	0.234907
539.937866	0.235286
540.153052	0.236179
540.368221	0.236917
540.583371	0.236849
540.798503	0.236945
541.013617	0.237128
541.228712	0.237796
541.443789	0.238209
541.658848	0.238553
541.873889	0.238891
542.088912	0.239158
542.303916	0.239451
542.518902	0.239928
542.733870	0.240685
542.948820	0.241457
543.163752	0.241538
543.378665	0.241832
543.593560	0.242272
543.808437	0.242603
544.023295	0.242689
544.238136	0.242817
544.452958	0.243327
544.667762	0.242946
544.882548	0.242367
545.097315	0.242589
545.312064	0.242936
545.526795	0.242696
545.741508	0.242960
545.956203	0.243931
546.170879	0.244599
546.385537	0.244494
546.600177	0.245661
546.814799	0.246427
547.029402	0.246934
547.243988	0.247536
547.458555	0.247842
547.673103	0.247895
547.887634	0.247346
548.102146	0.247308
548.316640	0.247800
548.531116	0.247845
548.745574	0.248122
548.960013	0.248234
549.174435	0.247689
549.388838	0.248185
549.603222	0.248305
549.817589	0.248805
550.031937	0.248696
550.246267	0.249119
550.460579	0.249239
550.674873	0.249642
550.889148	0.249598
551.103405	0.250314
551.317644	0.250641
551.531865	0.251342
551.746068	0.251659
551.960252	0.252177
552.174418	0.252106
552.388566	0.252076
552.602696	0.252088
552.816807	0.252528
553.030900	0.252700
553.244975	0.253339
553.459032	0.253279
553.673070	0.253575
553.887091	0.253891
554.101093	0.254063
554.315077	0.254509
554.529042	0.254696
554.742990	0.254586
554.956919	0.255074
555.170830	0.254134
555.384722	0.254842
555.598597	0.254811
555.812453	0.255228
556.026291	0.255782
556.240111	0.256119
556.453913	0.255871
556.667696	0.256623
556.881461	0.256586
557.095208	0.257910
557.308937	0.257297
557.522647	0.257241
557.736339	0.256623
557.950013	0.256643
558.163669	0.256199
558.377307	0.256641
558.590926	0.256244
558.804527	0.256415
559.018110	0.256229
559.231675	0.256773
559.445221	0.257223
559.658749	0.257858
559.872259	0.257678
560.085751	0.258504
560.299225	0.258171
560.512680	0.258418
560.726117	0.258013
560.939536	0.257909
561.152937	0.257856
561.366319	0.257745
561.579683	0.257940
561.793029	0.258593
562.006357	0.258676
562.219667	0.258972
562.432958	0.259188
562.646231	0.259930
562.859486	0.260060
563.072723	0.260522
563.285941	0.261181
563.499141	0.261283
563.712323	0.261153
563.925487	0.261010
564.138632	0.261435
564.351760	0.261760
564.564869	0.261844
564.777960	0.262330
564.991032	0.262368
565.204087	0.262106
565.417123	0.262436
565.630141	0.262728
565.843140	0.263202
566.056122	0.263394
566.269085	0.263077
566.482030	0.262703
566.694957	0.262898
566.907866	0.262971
567.120756	0.263083
567.333628	0.263291
567.546482	0.263217
567.759318	0.263016
567.972135	0.263210
568.184935	0.263810
568.397716	0.264205
568.610478	0.263761
568.823223	0.263622
569.035949	0.264202
569.248657	0.264352
569.461347	0.264644
569.674019	0.265265
569.886672	0.265853
570.099308	0.266223
570.311925	0.267001
570.524523	0.267758
570.737104	0.268474
570.949666	0.268566
571.162210	0.268449
571.374736	0.268829
571.587244	0.268788
571.799733	0.268448
572.012205	0.268358
572.224658	0.268157
572.437092	0.267952
572.649509	0.267897
572.861907	0.267674
573.074287	0.268173
573.286649	0.268053
573.498993	0.268126
573.711318	0.268696
573.923625	0.269035
574.135914	0.268936
574.348185	0.269482
574.560438	0.270016
574.772672	0.270482
574.984888	0.270450
575.197086	0.271092
575.409266	0.271557
575.621427	0.271309
575.833570	0.271481
576.045695	0.271955
576.257802	0.272349
576.469890	0.271620
576.681961	0.271702
576.894013	0.271920
577.106046	0.271525
577.318062	0.271462
577.530059	0.271928
577.742039	0.271576
577.954000	0.271700
578.165942	0.271520
578.377867	0.272215
578.589773	0.272526
578.801661	0.272635
579.013531	0.273070
579.225382	0.273326
579.437216	0.273230
579.649031	0.274061
579.860828	0.274151
580.072606	0.274055
580.284367	0.274028
580.496109	0.273975
580.707833	0.274321
580.919539	0.274090
581.131227	0.273970
581.342896	0.274385
581.554547	0.274337
581.766180	0.274323
581.977795	0.274573
582.189391	0.274634
582.400969	0.275372
582.612529	0.275087
582.824071	0.275457
583.035595	0.276102
583.247100	0.276027
583.458587	0.276234
583.670056	0.276793
583.881506	0.277053
584.092939	0.277099
584.304353	0.276671
584.515749	0.276779
584.727127	0.277390
584.938486	0.277013
585.149828	0.277461
585.361151	0.277520
585.572456	0.277712
585.783742	0.277630
585.995011	0.277830
586.206261	0.277852
586.417493	0.278739
586.628706	0.278387
586.839902	0.279191
587.051079	0.279189
587.262238	0.279242
587.473379	0.279218
587.684502	0.279606
587.895606	0.279776
588.106692	0.280119
588.317760	0.279773
588.528810	0.279837
588.739841	0.279349
588.950855	0.279586
589.161850	0.279622
589.372827	0.279633
589.583785	0.279803
589.794726	0.280540
590.005648	0.280499
590.216552	0.280570
590.427437	0.280850
590.638305	0.281124
590.849154	0.281016
591.059985	0.281210
591.270798	0.281042
591.481592	0.281093
591.692369	0.281024
591.903127	0.281778
592.113867	0.282114
592.324588	0.281987
592.535292	0.282132
592.745977	0.282455
592.956644	0.282837
593.167293	0.283014
593.377923	0.283344
593.588536	0.283370
593.799130	0.283110
594.009706	0.282938
594.220263	0.283072
594.430803	0.283071
594.641324	0.283322
594.851827	0.283461
595.062312	0.283786
595.272778	0.283985
595.483227	0.284216
595.693657	0.284522
595.904069	0.284948
596.114462	0.285493
596.324838	0.285905
596.535195	0.286159
596.745534	0.286247
596.955855	0.286662
597.166157	0.286683
597.376441	0.286790
597.586707	0.286739
597.796955	0.287224
598.007185	0.287493
598.217396	0.287292
598.427589	0.287270
598.637764	0.287195
598.847921	0.287442
599.058060	0.287619
599.268180	0.287740
599.478282	0.288137
599.688366	0.287720
599.898431	0.287719
600.108479	0.288238
600.318508	0.288511
600.528519	0.288939
600.738511	0.289303
600.948486	0.289161
601.158442	0.289664
601.368380	0.289768
601.578300	0.290071
601.788202	0.290333
601.998085	0.290484
602.207950	0.290540
602.417797	0.290511
602.627626	0.290420
602.837436	0.290667
603.047228	0.290561
603.257002	0.290574
603.466758	0.290777
603.676496	0.290764
603.886215	0.290482
604.095916	0.290547
604.305599	0.290670
604.515264	0.290833
604.724910	0.291228
604.934538	0.291260
605.144148	0.291375
605.353740	0.291607
605.563314	0.291777
605.772869	0.292269
605.982406	0.292165
606.191925	0.292427
606.401425	0.292341
606.610908	0.292636
606.820372	0.293155
607.029818	0.293000
607.239246	0.293187
607.448655	0.293800
607.658047	0.294163
607.867420	0.294276
608.076775	0.294232
608.286111	0.294628
608.495430	0.294214
608.704730	0.293995
608.914012	0.294469
609.123275	0.294308
609.332521	0.293844
609.541748	0.293497
609.750957	0.294080
609.960148	0.294474
610.169321	0.294077
610.378475	0.294243
610.587611	0.294390
610.796729	0.294527
611.005829	0.294322
611.214910	0.295010
611.423974	0.295124
611.633019	0.295070
611.842045	0.294857
612.051054	0.295157
612.260044	0.295360
612.469017	0.295323
612.677970	0.295387
612.886906	0.296044
613.095824	0.295421
613.304723	0.295438
613.513604	0.295533
613.722467	0.295698
613.931311	0.295799
614.140138	0.295876
614.348946	0.295822
614.557736	0.295748
614.766507	0.295666
614.975261	0.295884
615.183996	0.295956
615.392713	0.296125
615.601412	0.296307
615.810092	0.296320
616.018754	0.296612
616.227399	0.296804
616.436024	0.296983
616.644632	0.297220
616.853222	0.297505
617.061793	0.297849
617.270346	0.297906
617.478880	0.298087
617.687397	0.298409
617.895895	0.298349
618.104375	0.298690
618.312837	0.299036
618.521281	0.299207
618.729706	0.299398
618.938113	0.299830
619.146502	0.299866
619.354873	0.299910
619.563226	0.300032
619.771560	0.300451
619.979876	0.300698
620.188174	0.300455
620.396453	0.300112
620.604715	0.300086
620.812958	0.299874
621.021183	0.299951
621.229390	0.300151
621.437578	0.300470
621.645748	0.300330
621.853900	0.300379
622.062034	0.300452
622.270150	0.301020
622.478247	0.301394
622.686326	0.301676
622.894387	0.301842
623.102430	0.302317
623.310454	0.302291
623.518461	0.302721
623.726449	0.302620
623.934418	0.303119
624.142370	0.302995
624.350303	0.303112
624.558218	0.303158
624.766115	0.303394
624.973994	0.303045
625.181855	0.303132
625.389697	0.302832
625.597521	0.303040
625.805327	0.303016
626.013114	0.303397
626.220883	0.303430
626.428634	0.303631
626.636367	0.303660
626.844082	0.303764
627.051778	0.303874
627.259457	0.304308
627.467117	0.304739
627.674758	0.305000
627.882382	0.304924
628.089987	0.304866
628.297574	0.305064
628.505143	0.304946
628.712694	0.305268
628.920226	0.305615
629.127740	0.305697
629.335236	0.305548
629.542714	0.305346
629.750174	0.305640
629.957615	0.305906
630.165038	0.306073
630.372443	0.306618
630.579829	0.306755
630.787198	0.306754
630.994548	0.307008
631.201880	0.307251
631.409194	0.307727
631.616489	0.307661
631.823766	0.307834
632.031025	0.307879
632.238266	0.307934
632.445489	0.308192
632.652693	0.308280
632.859879	0.308418
633.067047	0.308720
633.274197	0.308586
633.481329	0.308955
633.688442	0.309522
633.895537	0.309739
634.102614	0.310124
634.309672	0.310216
634.516713	0.310421
634.723735	0.310187
634.930739	0.310267
635.137724	0.310664
635.344692	0.310820
635.551641	0.310625
635.758572	0.310891
635.965485	0.310939
636.172379	0.310902
636.379256	0.310758
636.586114	0.311076
636.792954	0.311413
636.999775	0.311541
637.206579	0.311462
637.413364	0.311665
637.620131	0.311573
637.826880	0.311597
638.033610	0.311923
638.240323	0.312451
638.447017	0.312886
638.653692	0.312838
638.860350	0.313102
639.066990	0.313545
639.273611	0.313450
639.480214	0.313841
639.686798	0.314273
639.893365	0.314457
640.099913	0.314705
640.306443	0.314805
640.512955	0.314903
640.719449	0.314941
640.925924	0.315231
641.132381	0.315700
641.338820	0.315908
641.545241	0.315873
641.751644	0.316093
641.958028	0.316210
642.164394	0.316371
642.370742	0.316856
642.577071	0.317503
642.783383	0.317655
642.989676	0.318053
643.195951	0.318020
643.402207	0.318318
643.608446	0.318506
643.814666	0.318481
644.020868	0.318592
644.227052	0.318654
644.433218	0.318553
644.639365	0.318729
644.845494	0.318578
645.051605	0.319054
645.257698	0.319098
645.463772	0.319295
645.669828	0.319698
645.875866	0.320101
646.081886	0.320258
646.287888	0.320052
646.493871	0.319804
646.699836	0.319834
646.905783	0.319808
647.111712	0.320003
647.317622	0.320097
647.523514	0.320070
647.729388	0.320018
647.935244	0.320014
648.141082	0.320393
648.346901	0.320807
648.552702	0.321475
648.758485	0.321562
648.964250	0.321970
649.169996	0.322093
649.375724	0.322362
649.581434	0.322754
649.787126	0.323243
649.992800	0.323272
650.198455	0.323559
650.404092	0.323326
650.609711	0.323488
650.815311	0.323534
651.020894	0.323786
651.226458	0.324076
651.432004	0.324262
651.637532	0.324270
651.843041	0.325052
652.048532	0.325471
652.254006	0.325784
652.459460	0.325899
652.664897	0.325949
652.870315	0.326286
653.075716	0.326491
653.281097	0.326624
653.486461	0.326541
653.691807	0.326338
653.897134	0.326439
654.102443	0.326634
654.307734	0.327186
654.513006	0.327498
654.718261	0.327585
654.923497	0.327568
655.128715	0.327674
655.333915	0.327862
655.539096	0.328252
655.744259	0.328355
655.949404	0.328475
656.154531	0.328349
656.359640	0.328375
656.564730	0.328710
656.769802	0.329156
656.974856	0.329177
657.179892	0.329457
657.384909	0.329344
657.589908	0.329622
657.794889	0.330019
657.999852	0.330275
658.204797	0.330488
658.409723	0.330343
658.614631	0.330433
658.819521	0.330837
659.024393	0.331478
659.229246	0.331853
659.434081	0.331934
659.638898	0.331789
659.843697	0.331897
660.048478	0.332156
660.253240	0.332214
660.457984	0.332464
660.662710	0.332661
660.867417	0.332350
661.072107	0.332562
661.276778	0.332526
661.481431	0.332848
661.686066	0.333080
661.890682	0.333300
662.095281	0.333990
662.299861	0.334093
662.504422	0.334459
662.708966	0.335013
662.913491	0.335257
663.117999	0.335719
663.322488	0.336185
663.526958	0.336632
663.731411	0.336836
663.935845	0.336830
664.140261	0.337264
664.344659	0.337598
664.549038	0.337611
664.753400	0.337688
664.957743	0.337819
665.162068	0.337850
665.366375	0.337916
665.570663	0.338329
665.774933	0.338864
665.979185	0.338770
666.183419	0.338564
666.387635	0.338894
666.591832	0.339314
666.796011	0.339710
667.000172	0.340003
667.204315	0.340300
667.408439	0.340644
667.612545	0.340590
667.816634	0.340986
668.020703	0.341326
668.224755	0.341612
668.428788	0.341565
668.632803	0.341665
668.836800	0.341719
669.040779	0.342304
669.244739	0.342506
669.448681	0.342937
669.652605	0.343237
669.856511	0.343260
670.060399	0.343313
670.264268	0.343502
670.468119	0.343902
670.671952	0.344490
670.875767	0.344230
671.079563	0.344325
671.283341	0.344367
671.487101	0.344592
671.690843	0.344981
671.894567	0.345152
672.098272	0.345684
672.301959	0.345798
672.505628	0.345714
672.709278	0.345987
672.912911	0.346117
673.116525	0.346129
673.320121	0.346262
673.523699	0.346592
673.727258	0.347140
673.930799	0.347138
674.134322	0.347734
674.337827	0.348012
674.541314	0.348720
674.744782	0.349128
674.948232	0.349527
675.151664	0.349732
675.355078	0.350030
675.558474	0.350029
675.761851	0.350672
675.965210	0.350551
676.168551	0.351147
676.371873	0.351088
676.575178	0.351040
676.778464	0.351337
676.981732	0.351524
677.184981	0.351579
677.388213	0.351919
677.591426	0.351707
677.794621	0.352033
677.997798	0.351928
678.200956	0.352156
678.404097	0.352357
678.607219	0.352539
678.810323	0.352820
679.013408	0.353085
679.216476	0.353297
679.419525	0.353782
679.622556	0.353880
679.825569	0.354053
680.028563	0.354079
680.231540	0.354718
680.434498	0.354920
680.637438	0.355185
680.840359	0.355194
681.043263	0.355347
681.246148	0.355437
681.449015	0.355464
681.651864	0.355666
681.854694	0.356000
682.057506	0.355609
682.260301	0.355968
682.463076	0.355943
682.665834	0.356429
682.868573	0.356625
683.071295	0.356792
683.273998	0.357047
683.476682	0.357183
683.679349	0.356750
683.881997	0.357286
684.084627	0.357479
684.287239	0.357707
684.489833	0.357667
684.692408	0.357903
684.894965	0.358220
685.097504	0.358621
685.300025	0.358887
685.502527	0.359530
685.705012	0.359647
685.907478	0.359593
686.109925	0.359854
686.312355	0.360072
686.514766	0.360137
686.717159	0.360071
686.919534	0.360138
687.121891	0.360314
687.324230	0.360470
687.526550	0.360369
687.728852	0.360213
687.931136	0.360449
688.133401	0.360795
688.335649	0.360883
688.537878	0.360948
688.740089	0.361134
688.942281	0.361298
689.144456	0.361464
689.346612	0.361799
689.548750	0.362257
689.750870	0.362550
689.952971	0.362372
690.155055	0.362726
690.357120	0.363380
690.559167	0.363452
690.761195	0.363739
690.963206	0.363956
691.165198	0.364227
691.367172	0.364589
691.569128	0.364595
691.771065	0.364985
691.972984	0.365232
692.174885	0.365106
692.376768	0.365440
692.578633	0.365490
692.780479	0.365566
692.982308	0.365559
693.184118	0.365576
693.385909	0.365750
