sample name	sample
index	544
start time	 03-15-2021  10:52:06 AM


Wavelength (nm)	Absorbance
494.344910	NaN
494.563924	NaN
494.782919	NaN
495.001897	0.068335
495.220856	0.101593
495.439797	0.002429
495.658719	-0.150046
495.877624	-0.237669
496.096510	-0.264226
496.315378	-0.172440
496.534227	-0.196153
496.753059	-0.105012
496.971872	-0.155648
497.190667	0.039305
497.409444	0.054245
497.628203	0.057929
497.846943	0.058450
498.065665	0.058710
498.284369	0.057493
498.503055	0.056603
498.721723	0.057647
498.940372	0.058870
499.159003	0.058725
499.377616	0.057495
499.596210	0.058131
499.814787	0.058058
500.033345	0.058994
500.251885	0.058973
500.470406	0.060491
500.688910	0.060249
500.907395	0.060184
501.125862	0.061185
501.344311	0.062958
501.562742	0.061918
501.781154	0.062844
501.999548	0.062601
502.217924	0.063551
502.436282	0.062990
502.654621	0.062191
502.872942	0.062168
503.091245	0.061402
503.309530	0.060441
503.527797	0.061516
503.746045	0.060923
503.964275	0.060915
504.182487	0.060442
504.400681	0.060951
504.618856	0.061750
504.837013	0.061677
505.055152	0.062908
505.273273	0.063866
505.491376	0.063392
505.709460	0.063813
505.927526	0.064546
506.145574	0.064507
506.363604	0.064470
506.581615	0.063944
506.799608	0.063591
507.017583	0.063565
507.235540	0.063518
507.453478	0.063268
507.671399	0.063082
507.889301	0.062774
508.107185	0.062665
508.325050	0.063003
508.542898	0.062855
508.760727	0.062566
508.978538	0.062163
509.196330	0.062283
509.414105	0.062865
509.631861	0.063260
509.849599	0.063729
510.067319	0.064324
510.285021	0.064308
510.502704	0.064545
510.720369	0.065046
510.938016	0.064834
511.155645	0.064630
511.373255	0.064753
511.590848	0.064781
511.808422	0.064254
512.025977	0.062888
512.243515	0.063262
512.461034	0.063694
512.678536	0.063866
512.896018	0.063839
513.113483	0.063737
513.330930	0.063554
513.548358	0.063666
513.765768	0.064107
513.983160	0.065062
514.200533	0.064906
514.417889	0.065163
514.635226	0.065732
514.852545	0.066228
515.069845	0.066046
515.287128	0.066147
515.504392	0.066286
515.721638	0.066387
515.938866	0.067071
516.156075	0.067663
516.373267	0.067546
516.590440	0.067403
516.807594	0.067691
517.024731	0.068570
517.241850	0.069233
517.458950	0.069043
517.676032	0.069112
517.893095	0.069426
518.110141	0.069370
518.327168	0.069277
518.544177	0.069375
518.761168	0.069292
518.978141	0.068853
519.195095	0.068244
519.412031	0.068368
519.628949	0.068580
519.845849	0.068016
520.062731	0.068249
520.279594	0.068360
520.496439	0.068727
520.713266	0.069090
520.930074	0.069753
521.146865	0.070485
521.363637	0.070757
521.580391	0.070920
521.797127	0.071661
522.013844	0.071657
522.230543	0.072613
522.447224	0.072455
522.663887	0.072605
522.880532	0.072560
523.097158	0.072620
523.313766	0.072517
523.530356	0.072100
523.746928	0.071594
523.963481	0.071555
524.180017	0.071468
524.396534	0.071568
524.613032	0.071755
524.829513	0.071928
525.045975	0.072546
525.262420	0.073482
525.478845	0.074153
525.695253	0.074965
525.911643	0.075292
526.128014	0.075681
526.344367	0.076200
526.560702	0.076338
526.777018	0.075918
526.993316	0.075495
527.209597	0.075702
527.425858	0.075839
527.642102	0.075740
527.858328	0.075048
528.074535	0.074848
528.290724	0.074871
528.506894	0.074936
528.723047	0.075075
528.939181	0.075793
529.155297	0.075541
529.371395	0.075574
529.587475	0.075908
529.803536	0.076744
530.019579	0.076934
530.235604	0.076446
530.451611	0.076542
530.667600	0.077230
530.883570	0.076694
531.099522	0.077059
531.315456	0.077189
531.531372	0.077337
531.747269	0.078335
531.963148	0.078269
532.179009	0.078876
532.394852	0.079097
532.610676	0.079490
532.826482	0.079626
533.042271	0.079727
533.258040	0.079762
533.473792	0.079443
533.689525	0.078497
533.905240	0.079148
534.120937	0.079370
534.336616	0.079483
534.552277	0.079148
534.767919	0.079254
534.983543	0.079329
535.199149	0.079564
535.414736	0.080086
535.630306	0.080487
535.845857	0.079804
536.061390	0.079919
536.276904	0.080567
536.492401	0.081237
536.707879	0.081647
536.923339	0.081389
537.138781	0.081436
537.354204	0.081708
537.569610	0.082172
537.784997	0.082611
538.000366	0.082574
538.215716	0.082090
538.431049	0.082258
538.646363	0.082700
538.861659	0.083132
539.076937	0.083132
539.292196	0.083228
539.507438	0.083290
539.722661	0.083625
539.937866	0.084478
540.153052	0.084866
540.368221	0.084608
540.583371	0.084843
540.798503	0.085216
541.013617	0.085381
541.228712	0.085452
541.443789	0.085475
541.658848	0.085235
541.873889	0.084657
542.088912	0.084958
542.303916	0.085084
542.518902	0.084795
542.733870	0.085028
542.948820	0.085498
543.163752	0.085881
543.378665	0.086026
543.593560	0.086210
543.808437	0.086434
544.023295	0.086417
544.238136	0.087019
544.452958	0.087523
544.667762	0.087399
544.882548	0.087352
545.097315	0.088068
545.312064	0.088465
545.526795	0.088622
545.741508	0.088858
545.956203	0.089285
546.170879	0.089279
546.385537	0.089549
546.600177	0.089891
546.814799	0.090360
547.029402	0.089607
547.243988	0.089308
547.458555	0.089607
547.673103	0.089740
547.887634	0.089889
548.102146	0.089277
548.316640	0.089404
548.531116	0.089631
548.745574	0.089777
548.960013	0.090057
549.174435	0.090380
549.388838	0.090340
549.603222	0.090392
549.817589	0.090442
550.031937	0.091316
550.246267	0.090994
550.460579	0.091267
550.674873	0.090921
550.889148	0.090800
551.103405	0.091063
551.317644	0.091069
551.531865	0.091084
551.746068	0.090743
551.960252	0.090849
552.174418	0.091126
552.388566	0.090417
552.602696	0.090413
552.816807	0.090754
553.030900	0.090897
553.244975	0.091223
553.459032	0.091619
553.673070	0.091931
553.887091	0.091913
554.101093	0.092265
554.315077	0.092808
554.529042	0.093235
554.742990	0.093246
554.956919	0.093064
555.170830	0.093128
555.384722	0.093270
555.598597	0.093747
555.812453	0.093929
556.026291	0.094032
556.240111	0.094135
556.453913	0.094292
556.667696	0.094405
556.881461	0.094443
557.095208	0.094959
557.308937	0.094840
557.522647	0.094657
557.736339	0.094528
557.950013	0.094548
558.163669	0.094800
558.377307	0.094928
558.590926	0.095187
558.804527	0.095188
559.018110	0.094946
559.231675	0.095306
559.445221	0.095220
559.658749	0.095673
559.872259	0.095357
560.085751	0.094865
560.299225	0.094872
560.512680	0.094859
560.726117	0.095017
560.939536	0.095376
561.152937	0.095371
561.366319	0.094966
561.579683	0.094544
561.793029	0.094697
562.006357	0.095244
562.219667	0.095235
562.432958	0.095227
562.646231	0.095116
562.859486	0.094890
563.072723	0.094794
563.285941	0.095167
563.499141	0.095273
563.712323	0.095499
563.925487	0.094917
564.138632	0.095224
564.351760	0.095318
564.564869	0.095605
564.777960	0.095962
564.991032	0.096160
565.204087	0.096332
565.417123	0.096562
565.630141	0.096921
565.843140	0.097530
566.056122	0.097381
566.269085	0.097483
566.482030	0.097783
566.694957	0.097668
566.907866	0.097482
567.120756	0.097674
567.333628	0.097616
567.546482	0.097381
567.759318	0.097511
567.972135	0.097501
568.184935	0.097516
568.397716	0.097592
568.610478	0.097799
568.823223	0.098176
569.035949	0.098265
569.248657	0.098390
569.461347	0.098265
569.674019	0.098437
569.886672	0.098882
570.099308	0.099021
570.311925	0.099185
570.524523	0.099487
570.737104	0.099489
570.949666	0.099683
571.162210	0.100015
571.374736	0.100576
571.587244	0.101057
571.799733	0.101311
572.012205	0.101204
572.224658	0.101355
572.437092	0.101285
572.649509	0.101494
572.861907	0.101625
573.074287	0.101669
573.286649	0.101545
573.498993	0.101034
573.711318	0.100627
573.923625	0.100769
574.135914	0.100477
574.348185	0.100267
574.560438	0.100291
574.772672	0.100153
574.984888	0.099967
575.197086	0.100241
575.409266	0.100438
575.621427	0.100537
575.833570	0.100766
576.045695	0.100941
576.257802	0.100982
576.469890	0.100778
576.681961	0.100645
576.894013	0.101068
577.106046	0.100888
577.318062	0.101072
577.530059	0.101114
577.742039	0.101421
577.954000	0.101632
578.165942	0.101908
578.377867	0.102219
578.589773	0.102626
578.801661	0.102438
579.013531	0.102147
579.225382	0.102229
579.437216	0.102416
579.649031	0.102242
579.860828	0.102203
580.072606	0.102316
580.284367	0.102535
580.496109	0.102221
580.707833	0.102475
580.919539	0.102989
581.131227	0.102810
581.342896	0.103122
581.554547	0.103390
581.766180	0.103771
581.977795	0.103785
582.189391	0.103977
582.400969	0.104534
582.612529	0.104770
582.824071	0.104992
583.035595	0.105223
583.247100	0.105245
583.458587	0.105311
583.670056	0.104844
583.881506	0.105025
584.092939	0.104904
584.304353	0.105021
584.515749	0.104833
584.727127	0.104545
584.938486	0.104136
585.149828	0.104060
585.361151	0.104022
585.572456	0.104146
585.783742	0.104379
585.995011	0.104330
586.206261	0.104273
586.417493	0.104143
586.628706	0.104612
586.839902	0.105040
587.051079	0.105094
587.262238	0.105474
587.473379	0.105657
587.684502	0.105544
587.895606	0.105950
588.106692	0.106083
588.317760	0.106119
588.528810	0.106073
588.739841	0.106394
588.950855	0.106678
589.161850	0.106453
589.372827	0.106486
589.583785	0.106671
589.794726	0.106382
590.005648	0.106684
590.216552	0.106441
590.427437	0.106364
590.638305	0.106322
590.849154	0.106079
591.059985	0.106060
591.270798	0.106349
591.481592	0.106147
591.692369	0.106360
591.903127	0.106251
592.113867	0.107066
592.324588	0.107171
592.535292	0.107380
592.745977	0.107627
592.956644	0.107653
593.167293	0.107346
593.377923	0.107469
593.588536	0.107620
593.799130	0.107608
594.009706	0.107396
594.220263	0.107658
594.430803	0.107944
594.641324	0.107954
594.851827	0.108225
595.062312	0.108701
595.272778	0.108993
595.483227	0.109002
595.693657	0.109256
595.904069	0.109621
596.114462	0.109319
596.324838	0.109006
596.535195	0.109060
596.745534	0.109265
596.955855	0.109344
597.166157	0.109412
597.376441	0.109595
597.586707	0.109496
597.796955	0.109365
598.007185	0.109642
598.217396	0.109975
598.427589	0.110330
598.637764	0.110214
598.847921	0.110072
599.058060	0.110087
599.268180	0.110277
599.478282	0.110406
599.688366	0.110662
599.898431	0.110776
600.108479	0.110580
600.318508	0.110559
600.528519	0.110652
600.738511	0.110777
600.948486	0.110930
601.158442	0.110958
601.368380	0.110758
601.578300	0.110842
601.788202	0.110811
601.998085	0.111084
602.207950	0.110976
602.417797	0.111109
602.627626	0.111556
602.837436	0.111834
603.047228	0.111687
603.257002	0.111687
603.466758	0.111592
603.676496	0.111742
603.886215	0.111648
604.095916	0.112067
604.305599	0.112351
604.515264	0.112092
604.724910	0.111698
604.934538	0.111788
605.144148	0.111907
605.353740	0.112099
605.563314	0.112358
605.772869	0.112367
605.982406	0.112444
606.191925	0.112298
606.401425	0.112219
606.610908	0.112901
606.820372	0.113176
607.029818	0.113600
607.239246	0.113565
607.448655	0.113528
607.658047	0.113976
607.867420	0.113945
608.076775	0.114080
608.286111	0.114322
608.495430	0.113894
608.704730	0.114017
608.914012	0.114203
609.123275	0.114401
609.332521	0.114590
609.541748	0.114246
609.750957	0.114238
609.960148	0.114300
610.169321	0.114334
610.378475	0.114669
610.587611	0.114624
610.796729	0.114476
611.005829	0.114307
611.214910	0.114232
611.423974	0.114469
611.633019	0.114619
611.842045	0.114837
612.051054	0.115097
612.260044	0.114946
612.469017	0.114872
612.677970	0.115077
612.886906	0.115075
613.095824	0.115425
613.304723	0.115580
613.513604	0.115614
613.722467	0.115392
613.931311	0.115496
614.140138	0.115622
614.348946	0.115836
614.557736	0.115707
614.766507	0.116075
614.975261	0.115898
615.183996	0.115937
615.392713	0.116124
615.601412	0.116371
615.810092	0.116351
616.018754	0.116473
616.227399	0.116803
616.436024	0.116913
616.644632	0.116971
616.853222	0.116970
617.061793	0.116888
617.270346	0.116714
617.478880	0.116605
617.687397	0.116417
617.895895	0.116328
618.104375	0.116111
618.312837	0.116174
618.521281	0.116060
618.729706	0.116102
618.938113	0.116141
619.146502	0.116280
619.354873	0.116600
619.563226	0.116934
619.771560	0.117377
619.979876	0.117424
620.188174	0.117605
620.396453	0.117847
620.604715	0.117827
620.812958	0.118214
621.021183	0.118057
621.229390	0.118193
621.437578	0.118140
621.645748	0.117700
621.853900	0.117621
622.062034	0.117483
622.270150	0.117418
622.478247	0.117709
622.686326	0.117480
622.894387	0.117933
623.102430	0.117816
623.310454	0.118097
623.518461	0.118420
623.726449	0.118930
623.934418	0.119021
624.142370	0.119405
624.350303	0.119398
624.558218	0.119627
624.766115	0.119480
624.973994	0.119724
625.181855	0.119605
625.389697	0.119796
625.597521	0.119757
625.805327	0.120182
626.013114	0.120001
626.220883	0.120053
626.428634	0.119954
626.636367	0.120267
626.844082	0.120144
627.051778	0.120286
627.259457	0.120392
627.467117	0.120330
627.674758	0.120359
627.882382	0.120620
628.089987	0.120796
628.297574	0.121022
628.505143	0.120971
628.712694	0.121067
628.920226	0.120817
629.127740	0.120894
629.335236	0.121066
629.542714	0.121142
629.750174	0.121136
629.957615	0.121237
630.165038	0.121316
630.372443	0.121386
630.579829	0.121565
630.787198	0.122202
630.994548	0.122068
631.201880	0.121885
631.409194	0.122137
631.616489	0.122397
631.823766	0.122528
632.031025	0.122764
632.238266	0.122762
632.445489	0.123074
632.652693	0.122993
632.859879	0.123213
633.067047	0.123847
633.274197	0.123679
633.481329	0.123866
633.688442	0.124053
633.895537	0.124258
634.102614	0.124435
634.309672	0.124408
634.516713	0.124433
634.723735	0.124579
634.930739	0.124083
635.137724	0.124044
635.344692	0.123892
635.551641	0.123608
635.758572	0.123469
635.965485	0.123586
636.172379	0.123512
636.379256	0.123562
636.586114	0.123526
636.792954	0.123960
636.999775	0.124279
637.206579	0.124384
637.413364	0.124704
637.620131	0.125063
637.826880	0.125127
638.033610	0.125281
638.240323	0.125615
638.447017	0.125943
638.653692	0.125939
638.860350	0.126050
639.066990	0.126201
639.273611	0.126340
639.480214	0.126343
639.686798	0.126710
639.893365	0.126840
640.099913	0.126818
640.306443	0.126798
640.512955	0.126883
640.719449	0.126736
640.925924	0.127035
641.132381	0.127243
641.338820	0.127504
641.545241	0.127466
641.751644	0.127715
641.958028	0.128003
642.164394	0.128014
642.370742	0.128291
642.577071	0.128591
642.783383	0.128666
642.989676	0.128632
643.195951	0.128577
643.402207	0.128510
643.608446	0.128613
643.814666	0.128548
644.020868	0.128731
644.227052	0.128664
644.433218	0.128770
644.639365	0.128586
644.845494	0.128458
645.051605	0.128526
645.257698	0.128820
645.463772	0.128771
645.669828	0.129043
645.875866	0.129098
646.081886	0.129243
646.287888	0.129096
646.493871	0.129349
646.699836	0.129675
646.905783	0.129649
647.111712	0.129629
647.317622	0.129962
647.523514	0.129992
647.729388	0.130128
647.935244	0.130179
648.141082	0.130493
648.346901	0.130638
648.552702	0.130825
648.758485	0.131004
648.964250	0.130964
649.169996	0.130861
649.375724	0.130787
649.581434	0.130779
649.787126	0.131020
649.992800	0.131185
650.198455	0.131390
650.404092	0.131536
650.609711	0.131483
650.815311	0.131772
651.020894	0.131798
651.226458	0.132215
651.432004	0.132549
651.637532	0.132728
651.843041	0.132972
652.048532	0.132921
652.254006	0.132951
652.459460	0.133289
652.664897	0.133462
652.870315	0.133824
653.075716	0.133985
653.281097	0.134176
653.486461	0.134489
653.691807	0.134533
653.897134	0.134732
654.102443	0.134802
654.307734	0.134857
654.513006	0.134954
654.718261	0.134967
654.923497	0.134833
655.128715	0.134716
655.333915	0.134564
655.539096	0.134627
655.744259	0.134726
655.949404	0.134860
656.154531	0.135035
656.359640	0.135139
656.564730	0.134994
656.769802	0.135246
656.974856	0.135433
657.179892	0.135583
657.384909	0.135618
657.589908	0.135768
657.794889	0.135849
657.999852	0.135879
658.204797	0.135888
658.409723	0.136133
658.614631	0.136073
658.819521	0.136156
659.024393	0.136144
659.229246	0.136470
659.434081	0.136626
659.638898	0.136840
659.843697	0.136880
660.048478	0.137345
660.253240	0.137463
660.457984	0.137673
660.662710	0.137953
660.867417	0.138234
661.072107	0.138233
661.276778	0.138275
661.481431	0.138271
661.686066	0.138602
661.890682	0.138772
662.095281	0.139003
662.299861	0.139181
662.504422	0.139281
662.708966	0.139410
662.913491	0.139364
663.117999	0.139489
663.322488	0.139762
663.526958	0.139945
663.731411	0.139866
663.935845	0.139931
664.140261	0.139969
664.344659	0.140028
664.549038	0.140128
664.753400	0.140435
664.957743	0.140667
665.162068	0.140881
665.366375	0.140943
665.570663	0.141159
665.774933	0.141406
665.979185	0.141480
666.183419	0.141596
666.387635	0.141591
666.591832	0.141864
666.796011	0.141880
667.000172	0.141873
667.204315	0.141940
667.408439	0.141997
667.612545	0.141906
667.816634	0.142263
668.020703	0.142414
668.224755	0.142680
668.428788	0.142656
668.632803	0.142981
668.836800	0.143324
669.040779	0.143406
669.244739	0.143753
669.448681	0.144120
669.652605	0.144079
669.856511	0.144166
670.060399	0.144305
670.264268	0.144466
670.468119	0.144372
670.671952	0.144321
670.875767	0.144266
671.079563	0.144037
671.283341	0.143877
671.487101	0.144049
671.690843	0.144275
671.894567	0.144314
672.098272	0.144449
672.301959	0.144664
672.505628	0.144758
672.709278	0.144949
672.912911	0.145144
673.116525	0.145284
673.320121	0.145442
673.523699	0.145747
673.727258	0.145974
673.930799	0.146010
674.134322	0.145994
674.337827	0.146092
674.541314	0.146118
674.744782	0.146396
674.948232	0.146854
675.151664	0.146912
675.355078	0.146858
675.558474	0.146898
675.761851	0.147169
675.965210	0.147316
676.168551	0.147370
676.371873	0.147877
676.575178	0.147888
676.778464	0.147769
676.981732	0.147915
677.184981	0.147981
677.388213	0.148051
677.591426	0.148099
677.794621	0.148291
677.997798	0.148531
678.200956	0.148398
678.404097	0.148552
678.607219	0.148732
678.810323	0.148673
679.013408	0.148617
679.216476	0.148682
679.419525	0.148800
679.622556	0.148937
679.825569	0.149034
680.028563	0.149125
680.231540	0.149267
680.434498	0.149320
680.637438	0.149642
680.840359	0.149872
681.043263	0.150099
681.246148	0.150178
681.449015	0.150108
681.651864	0.150428
681.854694	0.150681
682.057506	0.150855
682.260301	0.151196
682.463076	0.151296
682.665834	0.151337
682.868573	0.151503
683.071295	0.151443
683.273998	0.151774
683.476682	0.151628
683.679349	0.151584
683.881997	0.151388
684.084627	0.151360
684.287239	0.151195
684.489833	0.151374
684.692408	0.151159
684.894965	0.151271
685.097504	0.151223
685.300025	0.151378
685.502527	0.151600
685.705012	0.151809
685.907478	0.151945
686.109925	0.152185
686.312355	0.152406
686.514766	0.152700
686.717159	0.153063
686.919534	0.153217
687.121891	0.153261
687.324230	0.153522
687.526550	0.153615
687.728852	0.153706
687.931136	0.153986
688.133401	0.153720
688.335649	0.153834
688.537878	0.153909
688.740089	0.153884
688.942281	0.153981
689.144456	0.153784
689.346612	0.153874
689.548750	0.153891
689.750870	0.153963
689.952971	0.154272
690.155055	0.154265
690.357120	0.154220
690.559167	0.154443
690.761195	0.154433
690.963206	0.154590
691.165198	0.154578
691.367172	0.154549
691.569128	0.154425
691.771065	0.154457
691.972984	0.154523
692.174885	0.154644
692.376768	0.154811
692.578633	0.155267
692.780479	0.155346
692.982308	0.155550
693.184118	0.155644
693.385909	0.155742
693.587683	0.155911
