sample name	sample
index	359
start time	 03-04-2021  10:43:37 AM


Wavelength (nm)	Absorbance
494.344910	-0.098542
494.563924	-0.098542
494.782919	-0.098542
495.001897	-0.208264
495.220856	-0.064606
495.439797	-0.063835
495.658719	-0.072693
495.877624	-0.067967
496.096510	-0.034006
496.315378	-0.051216
496.534227	-0.070710
496.753059	-0.045547
496.971872	-0.035397
497.190667	0.566656
497.409444	0.878732
497.628203	1.024525
497.846943	1.097231
498.065665	1.131738
498.284369	1.168522
498.503055	1.201645
498.721723	1.223637
498.940372	1.261109
499.159003	1.268097
499.377616	1.259320
499.596210	1.262578
499.814787	1.265841
500.033345	1.273257
500.251885	1.267331
500.470406	1.273908
500.688910	1.281229
500.907395	1.265869
501.125862	1.265652
501.344311	1.267360
501.562742	1.270533
501.781154	1.278553
501.999548	1.284316
502.217924	1.284061
502.436282	1.283898
502.654621	1.276072
502.872942	1.279919
503.091245	1.292957
503.309530	1.298403
503.527797	1.293621
503.746045	1.292383
503.964275	1.296173
504.182487	1.302601
504.400681	1.301782
504.618856	1.311683
504.837013	1.309243
505.055152	1.297943
505.273273	1.297816
505.491376	1.296954
505.709460	1.295152
505.927526	1.290950
506.145574	1.287770
506.363604	1.290644
506.581615	1.287924
506.799608	1.292964
507.017583	1.305475
507.235540	1.306018
507.453478	1.311715
507.671399	1.312272
507.889301	1.322002
508.107185	1.331300
508.325050	1.329240
508.542898	1.339142
508.760727	1.345689
508.978538	1.336777
509.196330	1.344702
509.414105	1.347893
509.631861	1.353964
509.849599	1.347792
510.067319	1.354209
510.285021	1.354931
510.502704	1.356327
510.720369	1.353364
510.938016	1.363298
511.155645	1.362930
511.373255	1.358882
511.590848	1.360060
511.808422	1.358372
512.025977	1.358224
512.243515	1.366646
512.461034	1.366546
512.678536	1.378781
512.896018	1.369452
513.113483	1.372968
513.330930	1.378520
513.548358	1.375518
513.765768	1.391250
513.983160	1.393074
514.200533	1.397430
514.417889	1.396947
514.635226	1.392445
514.852545	1.405209
515.069845	1.413186
515.287128	1.420423
515.504392	1.423900
515.721638	1.417682
515.938866	1.415263
516.156075	1.413714
516.373267	1.423094
516.590440	1.431178
516.807594	1.426942
517.024731	1.422407
517.241850	1.421057
517.458950	1.424800
517.676032	1.435574
517.893095	1.444613
518.110141	1.455265
518.327168	1.458120
518.544177	1.453254
518.761168	1.461496
518.978141	1.457743
519.195095	1.456803
519.412031	1.464377
519.628949	1.463707
519.845849	1.464873
520.062731	1.457810
520.279594	1.459628
520.496439	1.457821
520.713266	1.457351
520.930074	1.466839
521.146865	1.470710
521.363637	1.472349
521.580391	1.463989
521.797127	1.460310
522.013844	1.466934
522.230543	1.470606
522.447224	1.481544
522.663887	1.491493
522.880532	1.488130
523.097158	1.490500
523.313766	1.481049
523.530356	1.492591
523.746928	1.499844
523.963481	1.503016
524.180017	1.501296
524.396534	1.493629
524.613032	1.493292
524.829513	1.500306
525.045975	1.500917
525.262420	1.512756
525.478845	1.517989
525.695253	1.518424
525.911643	1.517488
526.128014	1.521741
526.344367	1.525340
526.560702	1.528142
526.777018	1.531856
526.993316	1.533082
527.209597	1.538070
527.425858	1.531851
527.642102	1.540668
527.858328	1.544108
528.074535	1.537492
528.290724	1.544490
528.506894	1.540747
528.723047	1.535464
528.939181	1.539344
529.155297	1.534083
529.371395	1.541904
529.587475	1.534381
529.803536	1.540462
530.019579	1.546032
530.235604	1.552461
530.451611	1.553222
530.667600	1.561459
530.883570	1.567114
531.099522	1.585107
531.315456	1.589120
531.531372	1.601107
531.747269	1.605802
531.963148	1.599898
532.179009	1.601650
532.394852	1.610688
532.610676	1.612732
532.826482	1.611923
533.042271	1.603335
533.258040	1.607096
533.473792	1.606903
533.689525	1.607467
533.905240	1.616823
534.120937	1.615654
534.336616	1.611290
534.552277	1.620060
534.767919	1.630088
534.983543	1.634677
535.199149	1.637871
535.414736	1.639816
535.630306	1.641819
535.845857	1.650900
536.061390	1.660605
536.276904	1.666944
536.492401	1.668641
536.707879	1.669033
536.923339	1.668118
537.138781	1.664323
537.354204	1.671590
537.569610	1.681351
537.784997	1.679159
538.000366	1.673336
538.215716	1.692613
538.431049	1.696931
538.646363	1.690496
538.861659	1.689462
539.076937	1.694951
539.292196	1.702789
539.507438	1.698999
539.722661	1.704804
539.937866	1.712281
540.153052	1.700240
540.368221	1.699507
540.583371	1.712014
540.798503	1.715285
541.013617	1.719969
541.228712	1.714163
541.443789	1.717887
541.658848	1.722350
541.873889	1.727177
542.088912	1.729264
542.303916	1.732342
542.518902	1.722877
542.733870	1.736055
542.948820	1.738579
543.163752	1.735137
543.378665	1.737014
543.593560	1.736919
543.808437	1.730098
544.023295	1.729011
544.238136	1.733770
544.452958	1.747446
544.667762	1.745678
544.882548	1.743334
545.097315	1.755225
545.312064	1.751148
545.526795	1.754296
545.741508	1.764447
545.956203	1.776669
546.170879	1.776098
546.385537	1.778049
546.600177	1.776603
546.814799	1.780226
547.029402	1.772375
547.243988	1.784067
547.458555	1.791775
547.673103	1.790206
547.887634	1.791870
548.102146	1.797077
548.316640	1.796126
548.531116	1.801180
548.745574	1.806050
548.960013	1.814829
549.174435	1.812363
549.388838	1.810713
549.603222	1.816754
549.817589	1.811885
550.031937	1.813269
550.246267	1.819796
550.460579	1.828810
550.674873	1.824168
550.889148	1.826578
551.103405	1.826278
551.317644	1.830610
551.531865	1.826657
551.746068	1.829379
551.960252	1.824899
552.174418	1.817644
552.388566	1.814941
552.602696	1.819821
552.816807	1.822732
553.030900	1.828161
553.244975	1.824900
553.459032	1.834337
553.673070	1.838070
553.887091	1.838313
554.101093	1.841068
554.315077	1.837319
554.529042	1.835212
554.742990	1.840581
554.956919	1.840899
555.170830	1.831508
555.384722	1.821784
555.598597	1.817403
555.812453	1.822803
556.026291	1.826929
556.240111	1.833443
556.453913	1.830363
556.667696	1.828011
556.881461	1.830819
557.095208	1.839705
557.308937	1.845164
557.522647	1.850165
557.736339	1.851011
557.950013	1.852415
558.163669	1.849831
558.377307	1.859362
558.590926	1.853763
558.804527	1.852187
559.018110	1.853787
559.231675	1.859676
559.445221	1.868866
559.658749	1.869476
559.872259	1.872222
560.085751	1.876131
560.299225	1.874932
560.512680	1.872552
560.726117	1.878357
560.939536	1.878721
561.152937	1.877778
561.366319	1.876204
561.579683	1.880702
561.793029	1.880457
562.006357	1.880459
562.219667	1.887792
562.432958	1.894605
562.646231	1.893677
562.859486	1.893015
563.072723	1.889169
563.285941	1.882550
563.499141	1.880632
563.712323	1.877681
563.925487	1.878504
564.138632	1.868309
564.351760	1.867454
564.564869	1.865931
564.777960	1.874142
564.991032	1.883611
565.204087	1.890749
565.417123	1.891837
565.630141	1.896251
565.843140	1.892211
566.056122	1.910642
566.269085	1.912944
566.482030	1.914269
566.694957	1.912958
566.907866	1.913036
567.120756	1.915083
567.333628	1.913956
567.546482	1.924937
567.759318	1.938850
567.972135	1.928240
568.184935	1.942261
568.397716	1.950592
568.610478	1.951147
568.823223	1.946548
569.035949	1.951467
569.248657	1.960751
569.461347	1.964622
569.674019	1.962878
569.886672	1.973838
570.099308	1.961858
570.311925	1.963795
570.524523	1.975584
570.737104	1.981541
570.949666	1.982153
571.162210	1.984714
571.374736	1.978434
571.587244	1.983135
571.799733	1.981416
572.012205	1.989711
572.224658	1.995633
572.437092	1.989090
572.649509	1.989456
572.861907	1.981802
573.074287	1.979440
573.286649	1.982309
573.498993	1.981635
573.711318	1.987917
573.923625	1.991932
574.135914	1.987505
574.348185	1.990639
574.560438	1.987065
574.772672	2.000387
574.984888	2.002609
575.197086	2.003205
575.409266	1.999617
575.621427	1.990751
575.833570	1.999770
576.045695	2.000525
576.257802	1.995257
576.469890	2.004374
576.681961	1.999354
576.894013	2.002416
577.106046	2.002159
577.318062	2.001799
577.530059	2.015204
577.742039	2.003558
577.954000	2.000672
578.165942	2.001452
578.377867	1.995205
578.589773	2.003543
578.801661	2.006276
579.013531	2.000669
579.225382	2.006249
579.437216	2.012149
579.649031	2.015183
579.860828	2.007467
580.072606	2.020151
580.284367	2.027979
580.496109	2.026795
580.707833	2.028181
580.919539	2.036546
581.131227	2.042066
581.342896	2.029613
581.554547	2.033344
581.766180	2.045214
581.977795	2.039836
582.189391	2.044902
582.400969	2.047450
582.612529	2.048193
582.824071	2.053974
583.035595	2.050536
583.247100	2.054114
583.458587	2.053452
583.670056	2.058574
583.881506	2.065852
584.092939	2.070807
584.304353	2.073012
584.515749	2.082989
584.727127	2.080125
584.938486	2.090346
585.149828	2.096582
585.361151	2.093699
585.572456	2.083020
585.783742	2.082983
585.995011	2.078959
586.206261	2.073278
586.417493	2.067975
586.628706	2.064362
586.839902	2.058010
587.051079	2.066490
587.262238	2.080414
587.473379	2.096906
587.684502	2.102734
587.895606	2.108282
588.106692	2.119127
588.317760	2.116146
588.528810	2.121953
588.739841	2.131386
588.950855	2.121321
589.161850	2.110398
589.372827	2.111940
589.583785	2.107081
589.794726	2.106204
590.005648	2.104885
590.216552	2.106536
590.427437	2.114754
590.638305	2.114461
590.849154	2.113190
591.059985	2.123375
591.270798	2.118868
591.481592	2.124946
591.692369	2.129053
591.903127	2.129521
592.113867	2.134475
592.324588	2.129847
592.535292	2.118892
592.745977	2.117802
592.956644	2.129734
593.167293	2.135550
593.377923	2.123879
593.588536	2.128861
593.799130	2.131310
594.009706	2.135334
594.220263	2.148196
594.430803	2.156185
594.641324	2.154835
594.851827	2.150418
595.062312	2.143019
595.272778	2.162039
595.483227	2.159412
595.693657	2.160323
595.904069	2.156021
596.114462	2.150954
596.324838	2.162214
596.535195	2.176933
596.745534	2.173486
596.955855	2.186791
597.166157	2.180108
597.376441	2.179668
597.586707	2.179656
597.796955	2.173880
598.007185	2.178719
598.217396	2.178311
598.427589	2.179697
598.637764	2.179060
598.847921	2.174733
599.058060	2.184170
599.268180	2.183327
599.478282	2.184292
599.688366	2.203638
599.898431	2.192967
600.108479	2.191383
600.318508	2.197500
600.528519	2.204342
600.738511	2.202839
600.948486	2.193290
601.158442	2.194939
601.368380	2.197910
601.578300	2.192157
601.788202	2.203398
601.998085	2.203855
602.207950	2.194009
602.417797	2.194592
602.627626	2.188721
602.837436	2.195931
603.047228	2.207141
603.257002	2.205029
603.466758	2.200300
603.676496	2.204878
603.886215	2.203802
604.095916	2.209615
604.305599	2.209235
604.515264	2.216271
604.724910	2.209744
604.934538	2.201903
605.144148	2.203906
605.353740	2.209733
605.563314	2.213531
605.772869	2.222236
605.982406	2.230204
606.191925	2.222832
606.401425	2.235284
606.610908	2.239763
606.820372	2.240644
607.029818	2.231812
607.239246	2.225990
607.448655	2.230676
607.658047	2.232314
607.867420	2.225752
608.076775	2.230972
608.286111	2.223974
608.495430	2.228716
608.704730	2.241670
608.914012	2.261522
609.123275	2.279049
609.332521	2.271377
609.541748	2.276143
609.750957	2.280643
609.960148	2.283406
610.169321	2.278437
610.378475	2.281718
610.587611	2.280662
610.796729	2.285420
611.005829	2.280891
611.214910	2.285408
611.423974	2.283972
611.633019	2.280473
611.842045	2.292599
612.051054	2.301528
612.260044	2.291099
612.469017	2.285585
612.677970	2.269650
612.886906	2.272049
613.095824	2.259316
613.304723	2.263315
613.513604	2.267431
613.722467	2.265774
613.931311	2.275821
614.140138	2.279706
614.348946	2.289567
614.557736	2.296584
614.766507	2.294003
614.975261	2.304783
615.183996	2.298207
615.392713	2.307934
615.601412	2.305302
615.810092	2.303902
616.018754	2.320269
616.227399	2.320257
616.436024	2.336218
616.644632	2.334419
616.853222	2.334260
617.061793	2.332720
617.270346	2.319102
617.478880	2.320435
617.687397	2.323798
617.895895	2.324792
618.104375	2.328252
618.312837	2.325091
618.521281	2.334726
618.729706	2.333093
618.938113	2.333253
619.146502	2.338741
619.354873	2.333885
619.563226	2.328505
619.771560	2.314384
619.979876	2.308493
620.188174	2.298407
620.396453	2.289953
620.604715	2.294851
620.812958	2.301570
621.021183	2.304363
621.229390	2.314314
621.437578	2.311381
621.645748	2.318332
621.853900	2.328924
622.062034	2.336072
622.270150	2.347317
622.478247	2.351903
622.686326	2.352233
622.894387	2.357138
623.102430	2.355377
623.310454	2.355650
623.518461	2.361038
623.726449	2.353123
623.934418	2.351673
624.142370	2.340368
624.350303	2.339369
624.558218	2.334305
624.766115	2.329687
624.973994	2.334323
625.181855	2.343023
625.389697	2.337455
625.597521	2.335648
625.805327	2.333992
626.013114	2.345755
626.220883	2.339730
626.428634	2.342184
626.636367	2.349173
626.844082	2.342343
627.051778	2.338430
627.259457	2.347718
627.467117	2.347530
627.674758	2.355038
627.882382	2.350748
628.089987	2.357343
628.297574	2.354476
628.505143	2.350791
628.712694	2.358125
628.920226	2.360924
629.127740	2.354486
629.335236	2.359134
629.542714	2.360231
629.750174	2.368223
629.957615	2.366068
630.165038	2.376719
630.372443	2.376057
630.579829	2.375258
630.787198	2.377184
630.994548	2.375342
631.201880	2.368002
631.409194	2.357551
631.616489	2.353395
631.823766	2.359774
632.031025	2.365865
632.238266	2.376952
632.445489	2.370918
632.652693	2.368083
632.859879	2.375891
633.067047	2.379331
633.274197	2.392896
633.481329	2.395284
633.688442	2.391138
633.895537	2.385942
634.102614	2.374160
634.309672	2.382264
634.516713	2.389887
634.723735	2.395126
634.930739	2.402070
635.137724	2.402750
635.344692	2.416440
635.551641	2.424138
635.758572	2.422506
635.965485	2.432832
636.172379	2.426972
636.379256	2.424553
636.586114	2.424123
636.792954	2.417013
636.999775	2.410991
637.206579	2.398513
637.413364	2.394864
637.620131	2.389765
637.826880	2.385359
638.033610	2.382978
638.240323	2.390658
638.447017	2.383165
638.653692	2.386726
638.860350	2.374215
639.066990	2.379780
639.273611	2.381170
639.480214	2.391534
639.686798	2.395498
639.893365	2.399971
640.099913	2.399913
640.306443	2.397844
640.512955	2.398010
640.719449	2.423995
640.925924	2.417736
641.132381	2.414534
641.338820	2.410730
641.545241	2.414644
641.751644	2.418989
641.958028	2.417921
642.164394	2.430539
642.370742	2.436347
642.577071	2.435529
642.783383	2.442266
642.989676	2.445400
643.195951	2.462245
643.402207	2.452651
643.608446	2.453553
643.814666	2.446612
644.020868	2.449196
644.227052	2.449834
644.433218	2.440321
644.639365	2.431519
644.845494	2.436729
645.051605	2.427603
645.257698	2.431078
645.463772	2.427519
645.669828	2.440655
645.875866	2.447644
646.081886	2.454214
646.287888	2.462143
646.493871	2.479010
646.699836	2.479042
646.905783	2.475985
647.111712	2.476620
647.317622	2.490161
647.523514	2.486749
647.729388	2.473021
647.935244	2.470967
648.141082	2.475948
648.346901	2.466235
648.552702	2.463899
648.758485	2.474139
648.964250	2.479547
649.169996	2.484213
649.375724	2.472156
649.581434	2.472328
649.787126	2.484476
649.992800	2.480188
650.198455	2.479621
650.404092	2.486144
650.609711	2.481814
650.815311	2.482463
651.020894	2.471202
651.226458	2.470288
651.432004	2.475388
651.637532	2.472332
651.843041	2.473428
652.048532	2.471298
652.254006	2.466750
652.459460	2.464206
652.664897	2.470138
652.870315	2.468218
653.075716	2.472596
653.281097	2.467888
653.486461	2.459820
653.691807	2.460065
653.897134	2.461697
654.102443	2.464168
654.307734	2.458932
654.513006	2.448816
654.718261	2.452514
654.923497	2.455616
655.128715	2.461064
655.333915	2.462686
655.539096	2.469737
655.744259	2.485355
655.949404	2.490047
656.154531	2.503333
656.359640	2.514404
656.564730	2.523039
656.769802	2.514316
656.974856	2.519669
657.179892	2.519167
657.384909	2.507437
657.589908	2.501269
657.794889	2.491859
657.999852	2.495021
658.204797	2.491789
658.409723	2.483568
658.614631	2.500123
658.819521	2.491206
659.024393	2.492654
659.229246	2.494656
659.434081	2.490744
659.638898	2.506075
659.843697	2.501255
660.048478	2.498590
660.253240	2.503957
660.457984	2.507611
660.662710	2.513389
660.867417	2.509282
661.072107	2.518756
661.276778	2.524606
661.481431	2.523783
661.686066	2.523779
661.890682	2.535877
662.095281	2.529411
662.299861	2.517291
662.504422	2.512944
662.708966	2.519187
662.913491	2.513201
663.117999	2.516384
663.322488	2.512345
663.526958	2.505918
663.731411	2.501366
663.935845	2.508414
664.140261	2.512379
664.344659	2.523148
664.549038	2.525008
664.753400	2.534858
664.957743	2.529238
665.162068	2.528756
665.366375	2.532798
665.570663	2.529971
665.774933	2.534451
665.979185	2.531016
666.183419	2.527965
666.387635	2.520595
666.591832	2.505236
666.796011	2.509455
667.000172	2.506770
667.204315	2.510613
667.408439	2.512531
667.612545	2.503017
667.816634	2.517687
668.020703	2.518963
668.224755	2.532310
668.428788	2.538842
668.632803	2.533249
668.836800	2.533045
669.040779	2.531121
669.244739	2.537286
669.448681	2.550533
669.652605	2.543782
669.856511	2.544829
670.060399	2.536748
670.264268	2.539442
670.468119	2.550115
670.671952	2.555616
670.875767	2.547266
671.079563	2.542157
671.283341	2.543146
671.487101	2.553601
671.690843	2.550341
671.894567	2.545053
672.098272	2.551826
672.301959	2.547866
672.505628	2.552456
672.709278	2.572314
672.912911	2.580160
673.116525	2.583228
673.320121	2.568251
673.523699	2.564246
673.727258	2.575723
673.930799	2.573356
674.134322	2.571112
674.337827	2.565840
674.541314	2.549598
674.744782	2.551049
674.948232	2.545404
675.151664	2.555748
675.355078	2.566700
675.558474	2.562429
675.761851	2.555083
675.965210	2.552990
676.168551	2.555935
676.371873	2.572956
676.575178	2.566855
676.778464	2.565040
676.981732	2.555524
677.184981	2.552355
677.388213	2.558766
677.591426	2.560308
677.794621	2.559079
677.997798	2.555700
678.200956	2.549800
678.404097	2.554621
678.607219	2.555879
678.810323	2.558625
679.013408	2.561601
679.216476	2.555542
679.419525	2.569321
679.622556	2.571615
679.825569	2.591164
680.028563	2.583700
680.231540	2.584945
680.434498	2.580162
680.637438	2.592271
680.840359	2.588478
681.043263	2.591868
681.246148	2.583300
681.449015	2.592214
681.651864	2.583840
681.854694	2.591088
682.057506	2.577801
682.260301	2.583521
682.463076	2.574349
682.665834	2.574981
682.868573	2.585748
683.071295	2.590920
683.273998	2.586166
683.476682	2.574801
683.679349	2.576600
683.881997	2.587980
684.084627	2.585554
684.287239	2.584191
684.489833	2.587635
684.692408	2.588517
684.894965	2.586744
685.097504	2.592082
685.300025	2.593996
685.502527	2.596448
685.705012	2.593205
685.907478	2.594433
686.109925	2.596995
686.312355	2.598679
686.514766	2.589312
686.717159	2.594871
686.919534	2.590325
687.121891	2.600366
687.324230	2.604669
687.526550	2.617253
687.728852	2.625112
687.931136	2.622261
688.133401	2.627464
688.335649	2.621955
688.537878	2.612126
688.740089	2.629462
688.942281	2.618998
689.144456	2.604596
689.346612	2.591278
689.548750	2.586403
689.750870	2.585055
689.952971	2.570470
690.155055	2.579215
690.357120	2.584463
690.559167	2.566938
690.761195	2.577499
690.963206	2.578312
691.165198	2.585482
691.367172	2.583856
691.569128	2.601425
691.771065	2.608940
691.972984	2.599008
692.174885	2.598603
692.376768	2.599141
692.578633	2.598617
692.780479	2.609772
692.982308	2.614081
693.184118	2.625469
693.385909	2.632686
