sample name	sample
index	169
start time	 02-18-2021  10:20:01 AM
880	0.439375
Peak Time (s)	91.035
Peak Height 	0.4394
calc peak height	90,93
Baseline Time (s)	8.538
Baseline Value 	-0.001642
subtract baseline	10,4
Abs	0.290744
Peak Time (s)	92.035
Peak Height 	0.2907
calc peak height	90,93
Baseline Time (s)	9.535
Baseline Value 	0.002823
subtract baseline	10,3
PK_550	0.140090
Peak Time (s)	91.035
Peak Height 	0.1401
calc peak height	90,93
Baseline Time (s)	10.035
Baseline Value 	5.4987E-4
subtract baseline	10,2
PK_880	0.272973
Peak Time (s)	91.035
Peak Height 	0.273
calc peak height	90,93
Baseline Time (s)	9.037
Baseline Value 	0.001038
subtract baseline	10,1


Time (s)	A880-A510	A880-A775	A880-A975	A880	I510	I775	I975	I880	
0.035000	-0.000416	-0.000863	0.000787	-0.000594	6669.878022	43827.787031	3792.260111	22976.452737
0.538500	-0.001902	-0.001257	-0.002220	0.003023	6623.388276	43449.820772	3774.950994	22808.065840
1.035500	-0.002720	-0.001163	-0.000272	0.001949	6625.710868	43559.518728	3782.814588	22857.922943
1.536000	-0.001906	-0.000309	-0.004010	0.003790	6616.417138	43466.825057	3768.339254	22772.538661
2.036000	0.001240	0.000744	0.003727	-0.000738	6686.406138	43993.824180	3800.408610	22983.162403
2.536500	-0.000368	-0.000581	0.005183	-0.001468	6678.334279	43937.408229	3806.222527	23017.345549
3.039000	0.001167	-0.000988	-0.003782	-0.002358	6700.671247	43983.245863	3784.898918	23059.070086
3.537000	-0.000336	-0.000434	-0.000953	0.000291	6662.508406	43784.691733	3785.370678	22935.130199
4.037000	-0.000792	0.000340	-0.001004	0.000773	6653.936780	43812.308191	3783.974710	22912.640626
4.534500	-0.000386	0.000172	-0.000256	0.000415	6660.920122	43830.292518	3786.871598	22929.356493
5.035500	-0.001539	-0.001129	-0.002669	-0.000309	6656.993484	43775.607420	3782.450724	22963.121279
5.535000	-0.000777	0.000187	-0.002899	0.000759	6654.205167	43799.178427	3779.068855	22913.321383
6.035000	0.000075	-0.000312	-0.001091	0.000106	6667.971893	43813.775224	3785.492242	22943.772546
6.535500	-0.000471	-0.000426	-0.004734	-0.000009	6664.026727	43813.787346	3776.295114	22949.135348
7.041500	0.001140	-0.000411	0.000000	0.000051	6678.231559	43809.533665	3788.495374	22946.303527
7.536000	0.001004	-0.000097	-0.003190	-0.000114	6678.502169	43854.845618	3780.585113	22954.022217
8.037000	-0.000398	-0.000589	-0.004276	-0.000134	6665.832260	43810.212753	3777.809857	22954.967893
8.538000	0.000759	-0.000045	0.000485	0.000000	6675.208947	43848.987501	3789.903046	22948.699147
9.037000	0.000000	-0.000535	-0.001232	0.000006	6668.190575	43801.980859	3785.383072	22948.402195
9.535000	-0.000035	0.000361	0.000000	-0.000188	6669.653757	43905.312503	3789.123779	22957.483745
10.035000	-0.000281	0.000000	0.000445	-0.000065	6666.267746	43859.402542	3789.969767	22951.723031
10.535500	-0.000427	-0.000377	-0.001112	-0.000301	6667.094745	43846.085094	3786.501503	22962.747586
11.036000	0.001981	0.000470	-0.001981	0.000515	6681.706900	43849.077956	3782.098805	22924.695139
11.539500	0.000207	0.000390	0.001105	0.000402	6666.462169	43852.105553	3790.474957	22929.918821
12.036500	0.001624	0.000577	0.004382	0.001447	6669.871599	43770.921498	3796.358744	22881.245567
12.536000	-0.000445	0.000736	0.002523	0.000923	6655.738558	43835.593166	3792.839681	22905.678107
13.037500	0.003350	0.000600	0.005597	-0.001631	6714.140386	44065.125760	3807.762815	23024.983892
13.534500	-0.000259	0.000641	-0.001536	-0.000543	6670.850578	43965.583401	3786.025455	22974.053298
14.034500	0.000014	0.000404	0.003950	-0.000863	6676.295439	43973.491160	3801.336191	22989.048880
14.535500	0.000653	0.000132	0.000106	0.002974	6647.044301	43584.944314	3781.125160	22810.331299
15.059500	0.000761	0.000338	0.002590	-0.000145	6676.558144	43899.130104	3795.833569	22955.491988
15.560000	-0.000348	-0.000004	-0.000929	-0.000107	6666.040418	43863.048417	3786.474821	22953.699153
16.041000	0.003333	0.000078	-0.000718	-0.000627	6704.685338	43920.033721	3788.389354	22977.981255
16.536500	-0.000473	0.000634	0.002875	-0.000575	6669.183586	43967.946650	3797.722694	22975.554803
17.036500	-0.001130	-0.000409	0.001614	0.001093	6647.936371	43711.219073	3789.998238	22897.716517
17.535000	0.000575	0.000123	-0.001630	-0.000449	6677.639102	43907.456244	3785.533262	22969.653342
18.035000	0.002293	0.000356	-0.000565	-0.001268	6701.002284	44007.429490	3790.476988	23007.993629
18.537500	0.001497	0.001431	0.001062	0.002703	6657.215723	43732.988035	3784.330467	22822.916972
19.034500	-0.000384	-0.000724	-0.000272	0.001462	6651.373816	43646.695722	3784.086893	22880.545861
19.535000	0.001155	0.000210	0.003607	0.002321	6657.580604	43653.799166	3792.010442	22840.625982
20.035000	0.002370	0.001335	0.004673	0.002690	6665.312879	43725.041786	3793.845861	22823.491123
20.535500	0.000809	-0.000139	-0.000729	0.001882	6658.429441	43662.244198	3781.796015	22861.016374
21.036000	0.001069	0.000013	0.003447	0.001962	6660.074644	43669.093142	3792.533586	22857.315918
21.536000	0.001279	0.000432	-0.000950	0.001915	6662.428117	43713.063252	3781.134404	22859.507110
22.037000	0.000404	0.000546	0.000796	0.002898	6645.470642	43631.083342	3783.124212	22813.853920
22.534000	-0.000981	0.000719	0.000651	0.002625	6635.360438	43673.156977	3783.461327	22826.535643
23.034000	0.001389	0.000255	0.007635	0.002445	6658.591452	43646.371824	3802.334710	22834.878748
23.537000	0.001035	0.000874	0.001495	0.003433	6646.340033	43611.532682	3783.553437	22789.050245
24.034500	0.000710	0.000162	-0.002803	0.002586	6651.100735	43624.284385	3774.571121	22828.316418
24.538000	0.000228	0.000507	0.008245	0.002810	6644.669879	43635.770857	3802.986785	22817.955474
25.035000	0.000677	0.001145	0.003616	0.003524	6642.250051	43628.466874	3788.871477	22784.836281
25.535500	0.001367	0.001170	-0.000019	0.003230	6651.221341	43658.591913	3780.133269	22798.483652
26.042500	0.000476	0.000155	0.003359	0.002804	6646.986197	43603.169243	3790.088249	22818.242717
26.536000	0.002346	0.000918	0.004094	0.002995	6662.308005	43656.976820	3791.518094	22809.356776
27.034500	-0.000062	0.000713	0.001412	0.003386	6636.786909	43600.810059	3783.459382	22791.229047
27.534000	0.001989	0.000711	0.000646	0.003083	6658.247717	43629.209482	3782.251922	22805.300765
28.034000	-0.000373	-0.000099	0.001750	-0.000057	6665.353196	43849.269266	3793.382965	22951.365437
28.534500	0.003355	0.000258	0.007034	0.000486	6694.622219	43831.692150	3805.949344	22926.045518
29.036000	0.001355	0.001231	-0.000247	0.006324	6622.994095	43373.717289	3771.512698	22655.628314
29.535000	0.000839	-0.000007	0.000761	0.000145	6674.603990	43838.799824	3790.247907	22941.912934
30.035000	0.003588	0.000957	0.005653	0.001262	6689.607558	43824.324684	3800.213492	22889.849199
30.535500	0.001965	0.001142	0.005871	0.001461	6672.863577	43823.026951	3800.264806	22880.606114
31.036000	-0.000355	-0.000187	0.001284	0.005159	6618.068369	43350.055847	3778.505207	22709.311891
31.539000	0.002619	0.000199	0.003624	0.000620	6686.605254	43813.372865	3796.541760	22919.778100
32.036500	0.001883	-0.000427	-0.003202	0.003968	6649.193915	43439.035838	3769.964217	22764.305623
32.550000	0.002180	0.000634	0.003958	0.000634	6682.436761	43853.247389	3797.388661	22919.120928
33.037500	0.000082	0.000272	-0.003122	0.005514	6618.803468	43359.702132	3766.184004	22692.910306
33.534500	0.004072	0.000905	-0.001756	0.001853	6688.619883	43763.480752	3779.195307	22862.359536
34.035000	0.003317	0.000914	0.002599	0.001691	6683.170823	43779.739793	3791.016519	22869.932637
34.535500	0.003057	0.000266	0.003752	0.001128	6685.960226	43771.640925	3795.538662	22896.101730
35.035500	-0.001001	0.000346	0.000898	0.005061	6613.114183	43409.113058	3777.756890	22713.829216
35.536000	-0.000592	-0.000020	0.003591	0.003688	6629.234876	43503.545200	3788.375376	22777.256900
36.036000	0.001790	0.000598	0.004044	0.004342	6644.941626	43500.106967	3787.847878	22746.995304
36.534000	0.001874	0.001466	0.002499	0.004972	6639.976422	43522.548773	3782.156506	22717.933748
37.034000	-0.000606	-0.000126	0.002275	0.005188	6615.526600	43353.007034	3781.007951	22707.947490
37.534000	0.001830	0.000573	0.001223	0.003961	6648.772510	43533.581158	3781.465287	22764.619636
38.035000	0.001820	0.000537	0.000551	0.004402	6644.663061	43488.771321	3778.565473	22744.220094
38.538000	-0.001057	0.000289	0.001541	0.004176	6620.605839	43486.737993	3781.733736	22754.681748
39.039000	-0.000110	-0.000291	0.005760	0.003689	6633.605104	43478.003818	3794.078625	22777.207867
39.541000	0.000546	0.000211	-0.000269	0.004760	6629.836375	43424.616343	3775.504417	22727.706762
40.041500	0.000784	0.000224	0.005138	0.004354	6635.686187	43463.967383	3790.689010	22746.463870
40.536000	0.000192	0.000671	0.000309	0.004824	6626.043140	43461.690578	3776.839000	22724.727697
41.037000	0.000518	0.000133	-0.000548	0.004146	6635.161223	43474.989349	3776.376639	22756.097040
41.534000	-0.000552	0.000492	0.000214	0.004778	6619.726121	43449.321111	3776.712169	22726.869770
42.034500	0.001020	-0.000111	0.000740	0.003989	6641.147403	43466.734987	3780.132958	22763.325264
42.534500	0.001526	0.000464	0.006252	0.004446	6641.586693	43477.779494	3793.380331	22742.202889
43.035000	0.000175	0.001249	0.002559	0.004806	6626.054208	43517.668446	3782.745544	22725.575672
43.535500	0.000808	-0.000311	0.001756	0.004191	6637.376550	43428.985802	3782.255829	22753.979965
44.035500	0.001595	0.000864	0.003445	0.005340	6634.098398	43431.525035	3783.666446	22700.963098
44.538500	0.001172	0.000554	0.007473	0.004480	6638.059918	43483.039181	3796.513289	22740.642428
45.037000	0.003595	0.000431	0.006947	0.000959	6692.461786	43803.318673	3804.456463	22903.973617
45.536500	0.002052	0.000514	0.001655	0.002244	6666.484353	43689.680918	3787.084378	22844.196759
46.037000	0.002562	0.000879	0.007363	0.003896	6656.050375	43568.475140	3797.767777	22767.635967
46.538000	0.003810	0.001207	0.007714	0.002435	6680.859742	43737.063900	3802.570625	22835.325022
47.040500	0.001912	0.000336	-0.002765	0.001158	6675.165566	43775.517259	3778.378686	22894.720007
47.540500	0.000833	0.001354	0.004212	0.003497	6643.923663	43650.848730	3790.509075	22786.129057
48.035000	0.002027	0.001282	0.002792	0.003600	6653.863359	43634.284250	3786.511865	22781.335801
48.560500	0.003448	0.001299	0.008807	0.002724	6674.883790	43718.558415	3804.709350	22821.942662
49.035000	-0.000319	0.000853	-0.000117	0.006028	6610.537285	43366.048100	3772.614673	22669.264136
49.535500	0.002142	0.001080	0.005506	0.005757	6635.277431	43412.723118	3787.972970	22681.744707
50.069000	0.001301	0.000595	0.007647	0.002292	6659.180252	43692.839181	3802.773558	22841.996035
50.536500	0.002070	0.000963	0.005660	0.002364	6665.552213	43720.800447	3797.313678	22838.641022
51.036500	0.001664	0.001135	0.001416	0.007949	6611.090265	43212.908261	3771.608269	22580.993794
51.537000	0.000961	0.000859	0.002047	0.002726	6652.118994	43676.792306	3786.849513	22821.844662
52.034000	0.002615	0.001032	0.005468	0.004089	6654.766101	43564.750474	3792.254930	22758.711378
52.535000	0.004562	0.000703	0.009170	0.001370	6697.594187	43790.185614	3809.290106	22884.864720
53.035000	-0.001286	-0.000601	0.004515	0.004450	6616.050725	43377.633688	3788.801004	22742.015698
53.535500	-0.015982	-0.005780	0.007647	0.253128	4830.920587	25379.885441	3296.412896	13993.838289
54.036000	-0.026056	-0.019296	0.000715	0.004983	6393.859681	41616.620817	3777.481676	22717.394614
54.536500	-0.007347	-0.022793	0.012503	-0.137915	8063.470092	56339.595709	4260.463939	30526.538656
55.036500	-0.004620	-0.011062	0.013893	-0.053588	7143.050563	48085.161305	3980.263533	25611.199830
55.536500	0.014220	0.001445	0.026069	-0.066491	7480.701205	50818.833550	4059.422154	26302.877486
56.033500	0.053144	0.018138	0.052532	-0.056386	7809.376356	51554.028382	4113.573437	25759.435903
56.534500	0.084096	0.035015	0.082079	-0.003716	7559.681752	47690.496806	4037.617782	23122.924401
57.035000	0.113338	0.053472	0.112459	0.044931	7346.886219	44670.274126	3980.408231	20956.067397
57.535000	0.140990	0.069512	0.137465	0.099281	7069.244810	41127.961288	3893.397342	18805.611826
58.035000	0.159600	0.080310	0.161891	0.140568	6846.447821	38523.850369	3845.995682	17342.733473
58.535500	0.176340	0.089135	0.177956	0.178603	6647.575788	36194.776221	3786.933293	16112.799230
59.035500	0.187776	0.098088	0.186572	0.228650	6310.932881	33172.219460	3683.361828	14650.132431
59.536000	0.196590	0.103029	0.207955	0.267229	6071.089927	30902.362706	3643.190088	13632.216111
60.036500	0.211074	0.109969	0.218610	0.301580	5919.909797	29178.369193	3590.379929	12798.917052
60.536000	0.212571	0.113475	0.223190	0.355092	5555.358773	26300.406586	3490.036683	11625.268415
61.034000	0.217301	0.117690	0.237374	0.386334	5385.684516	24877.414735	3457.627424	11004.000575
61.534000	0.231732	0.122600	0.253227	0.398433	5400.198842	24513.634107	3464.652621	10775.169628
62.034500	0.237055	0.128070	0.256600	0.420767	5296.098148	23683.436810	3429.791553	10369.121612
62.534500	0.242954	0.130937	0.267600	0.435240	5245.155317	23130.588429	3423.570875	10116.936489
63.035000	0.250316	0.134454	0.267349	0.441122	5253.880306	23019.750597	3412.704149	10016.827075
63.535500	0.253362	0.136593	0.270924	0.433880	5315.334391	23463.034195	3431.974156	10140.280109
64.036000	0.257856	0.139091	0.272697	0.432723	5349.714323	23638.405267	3437.275360	10160.193753
64.536500	0.251576	0.139493	0.273414	0.436441	5289.188722	23479.254142	3431.845379	10096.387570
65.036000	0.254212	0.139728	0.277885	0.437601	5298.039999	23435.072837	3437.838629	10076.590966
65.558500	0.250883	0.139345	0.267173	0.435410	5291.212987	23521.495668	3422.506169	10114.023993
66.037500	0.252853	0.140560	0.271643	0.435103	5304.889740	23594.563735	3431.065579	10119.295020
66.537500	0.255317	0.141787	0.277236	0.434848	5321.307724	23665.889192	3441.671894	10123.653252
67.035500	0.254502	0.140250	0.271792	0.432919	5328.066257	23684.826517	3435.279389	10156.815789
67.535000	0.253543	0.139921	0.276913	0.432631	5323.996236	23682.867293	3445.137456	10161.787727
68.035500	0.255561	0.141411	0.273904	0.430427	5349.721191	23861.912091	3443.661858	10199.866402
68.535500	0.256599	0.141673	0.272450	0.428935	5365.261582	23947.527861	3443.731952	10225.769102
69.039500	0.256632	0.141423	0.274437	0.432935	5340.937455	23740.779080	3440.055573	10156.548312
69.536500	0.257145	0.140790	0.270911	0.428927	5368.678473	23904.811154	3440.933940	10225.911834
70.036500	0.258052	0.144572	0.273365	0.430275	5365.963083	24023.869053	3442.954785	10202.516233
70.534000	0.261641	0.143205	0.279668	0.428624	5398.436245	24037.807910	3457.636289	10231.176156
71.034500	0.259516	0.142674	0.278888	0.427789	5390.401492	24052.721299	3457.738022	10245.715687
71.535000	0.259116	0.143821	0.281528	0.431066	5367.640599	23948.331626	3456.553026	10188.807470
72.038000	0.261519	0.143190	0.281647	0.428825	5396.421615	24027.159573	3460.953692	10227.676516
72.537500	0.261244	0.144519	0.279866	0.430412	5384.848574	24014.555399	3454.679892	10200.136255
73.035500	0.262100	0.143398	0.273740	0.432723	5375.839339	23846.928939	3439.172386	10160.202628
73.536000	0.263297	0.144364	0.279509	0.432584	5384.112389	23900.725309	3449.999589	10162.596476
74.036000	0.264407	0.144266	0.285366	0.430644	5403.094671	23990.763328	3464.516030	10196.115347
74.536500	0.262049	0.144651	0.277260	0.431153	5385.245769	23984.706815	3448.491456	10187.304582
75.034000	0.262612	0.145083	0.278845	0.434186	5369.960128	23857.716858	3445.830036	10135.027970
75.536500	0.261815	0.143455	0.278249	0.430068	5390.528471	23979.286286	3452.321417	10206.099710
76.037500	0.264184	0.143930	0.280248	0.430846	5400.440004	23964.446232	3454.582600	10192.613844
76.534500	0.265807	0.144171	0.277615	0.431086	5409.084408	23964.465019	3449.268847	10188.455978
77.035000	0.266177	0.144156	0.278962	0.431410	5409.376906	23947.941188	3451.157680	10182.869493
77.535500	0.263158	0.146220	0.283745	0.435408	5365.791487	23853.561817	3452.609919	10114.057530
78.038500	0.265788	0.144067	0.284428	0.432441	5400.496626	23893.255706	3459.394537	10165.063958
78.538500	0.265387	0.143472	0.283386	0.431781	5402.113716	23896.421695	3458.681233	10176.451583
79.038500	0.265771	0.144535	0.282682	0.433147	5395.989489	23881.620533	3454.830616	10152.890779
79.536500	0.266472	0.142364	0.277152	0.433736	5396.686247	23747.581277	3443.552396	10142.762691
80.036500	0.265491	0.143114	0.277896	0.432582	5397.764784	23839.954767	3447.033812	10162.634709
80.537000	0.268244	0.144313	0.280392	0.434642	5402.091087	23798.122210	3447.834940	10127.197953
81.037000	0.266969	0.144205	0.274878	0.435557	5388.446547	23748.519754	3436.091121	10111.511899
81.534500	0.266097	0.141889	0.278928	0.435674	5382.306905	23630.984974	3443.253513	10109.501911
82.035000	0.266772	0.140965	0.283171	0.433069	5402.720748	23712.131126	3455.883066	10154.233009
82.536500	0.270326	0.143961	0.283318	0.435176	5411.769955	23755.140071	3452.247931	10118.033528
83.036000	0.267557	0.141359	0.277137	0.436236	5387.878647	23578.495162	3438.961035	10099.883329
83.536000	0.267162	0.142898	0.283143	0.438308	5372.597156	23552.899892	3446.151382	10064.544396
84.036500	0.269360	0.142541	0.285589	0.436000	5400.578990	23646.707658	3454.930542	10103.924149
84.537000	0.267252	0.142038	0.281718	0.434937	5394.065128	23673.739822	3449.734153	10122.136525
85.037000	0.269533	0.142441	0.283430	0.437841	5390.186812	23553.403911	3447.538244	10072.502014
85.534000	0.267461	0.140674	0.284108	0.438342	5374.233811	23444.841639	3447.863051	10063.965646
86.038000	0.272086	0.142202	0.285344	0.437723	5406.842253	23547.544970	3451.285182	10074.504784
86.535000	0.268866	0.140344	0.281138	0.436005	5397.467691	23540.881825	3446.701345	10103.848017
87.035500	0.268365	0.141031	0.285935	0.438047	5381.659209	23476.008134	3451.779475	10068.999610
87.535500	0.270080	0.140832	0.289148	0.439878	5380.938735	23379.207506	3454.338268	10037.883546
88.035500	0.272354	0.140829	0.285678	0.438090	5406.224647	23464.290106	3451.223195	10068.256736
88.536000	0.268917	0.140134	0.277706	0.436864	5392.435687	23489.670665	3438.854723	10089.167617
89.040000	0.269169	0.139967	0.286346	0.439209	5379.440078	23369.865600	3450.390049	10049.232937
89.534000	0.273186	0.142082	0.285480	0.440027	5399.322533	23431.642313	3447.288954	10035.363150
90.034500	0.267087	0.139520	0.283916	0.437665	5376.106984	23422.091756	3448.756445	10075.491941
90.534500	0.271729	0.139011	0.279609	0.438622	5398.998414	23352.359437	3439.118214	10059.213328
91.035000	0.272973	0.140090	0.281967	0.439375	5402.066926	23367.851278	3442.043953	10046.420639
91.535500	0.268732	0.139214	0.286697	0.438713	5379.803181	23357.646573	3451.955813	10057.657948
92.035500	0.271577	0.138646	0.290744	0.439141	5394.818607	23310.381273	3458.678152	10050.387098
92.535500	0.272561	0.138190	0.286949	0.439213	5400.501123	23285.335524	3451.495999	10049.160410
93.036500	0.271532	0.139166	0.285072	0.441734	5378.437778	23212.326199	3443.409108	10006.488181
93.536500	0.272754	0.139481	0.288356	0.441505	5387.433279	23237.967758	3449.862774	10010.349814
94.037000	0.272263	0.137972	0.288084	0.440266	5392.088889	23225.243742	3451.650252	10031.316763
94.540500	0.274764	0.138109	0.286437	0.441225	5401.698586	23186.497339	3446.846577	10015.089018
95.034500	0.269677	0.136014	0.276820	0.440856	5372.401498	23105.292483	3430.028225	10021.330025
95.587000	0.268468	0.135395	0.285787	0.443078	5351.295147	22972.321673	3442.259056	9983.833048
96.035000	0.270908	0.135660	0.289924	0.439975	5385.476161	23130.049271	3455.598918	10036.247641
96.538000	0.271282	0.137195	0.288375	0.441769	5376.678986	23117.879243	3449.411601	10005.898602
97.035500	0.271225	0.136540	0.289225	0.441773	5376.297997	23086.949449	3450.973458	10005.830650
97.536000	0.268754	0.135428	0.284032	0.443977	5347.535756	22931.994454	3437.422469	9968.714133
98.036500	0.271631	0.135559	0.287790	0.441656	5379.535535	23046.446119	3448.542460	10007.806047
