sample name	sample
index	612
start time	 03-19-2021  01:59:51 PM


Wavelength (nm)	Absorbance
494.344910	-0.144919
494.563924	-0.144919
494.782919	-0.144919
495.001897	-0.067545
495.220856	0.023692
495.439797	0.059950
495.658719	0.069617
495.877624	0.174535
496.096510	0.111937
496.315378	0.035329
496.534227	-0.013471
496.753059	-0.024465
496.971872	-0.037345
497.190667	0.036723
497.409444	0.045137
497.628203	0.051827
497.846943	0.052708
498.065665	0.054660
498.284369	0.055409
498.503055	0.057177
498.721723	0.056517
498.940372	0.057060
499.159003	0.056917
499.377616	0.057464
499.596210	0.057864
499.814787	0.057271
500.033345	0.057286
500.251885	0.057549
500.470406	0.056447
500.688910	0.056669
500.907395	0.056466
501.125862	0.056111
501.344311	0.055484
501.562742	0.054772
501.781154	0.055312
501.999548	0.054574
502.217924	0.054247
502.436282	0.054021
502.654621	0.054249
502.872942	0.054843
503.091245	0.055337
503.309530	0.055524
503.527797	0.055936
503.746045	0.056052
503.964275	0.055931
504.182487	0.055512
504.400681	0.054994
504.618856	0.054837
504.837013	0.053905
505.055152	0.053600
505.273273	0.054970
505.491376	0.054722
505.709460	0.055428
505.927526	0.055764
506.145574	0.056339
506.363604	0.057418
506.581615	0.058136
506.799608	0.057797
507.017583	0.058096
507.235540	0.056983
507.453478	0.056977
507.671399	0.056659
507.889301	0.057539
508.107185	0.057338
508.325050	0.056866
508.542898	0.056370
508.760727	0.056510
508.978538	0.056366
509.196330	0.056783
509.414105	0.055954
509.631861	0.055447
509.849599	0.055617
510.067319	0.056058
510.285021	0.056812
510.502704	0.056832
510.720369	0.057043
510.938016	0.057111
511.155645	0.056811
511.373255	0.057472
511.590848	0.057638
511.808422	0.057190
512.025977	0.057453
512.243515	0.057656
512.461034	0.057246
512.678536	0.057416
512.896018	0.057281
513.113483	0.058288
513.330930	0.058132
513.548358	0.057585
513.765768	0.057296
513.983160	0.056432
514.200533	0.056219
514.417889	0.056637
514.635226	0.056518
514.852545	0.056847
515.069845	0.056027
515.287128	0.055763
515.504392	0.056476
515.721638	0.057126
515.938866	0.056940
516.156075	0.056107
516.373267	0.056040
516.590440	0.056079
516.807594	0.055926
517.024731	0.056284
517.241850	0.056757
517.458950	0.056931
517.676032	0.056239
517.893095	0.056051
518.110141	0.057017
518.327168	0.057370
518.544177	0.056820
518.761168	0.057680
518.978141	0.057515
519.195095	0.058221
519.412031	0.058231
519.628949	0.058600
519.845849	0.059653
520.062731	0.059847
520.279594	0.059853
520.496439	0.059801
520.713266	0.059165
520.930074	0.058534
521.146865	0.058779
521.363637	0.058428
521.580391	0.058670
521.797127	0.057883
522.013844	0.057319
522.230543	0.057914
522.447224	0.058380
522.663887	0.057957
522.880532	0.058156
523.097158	0.057578
523.313766	0.057750
523.530356	0.057459
523.746928	0.058311
523.963481	0.058449
524.180017	0.058309
524.396534	0.058845
524.613032	0.059422
524.829513	0.059791
525.045975	0.060329
525.262420	0.060455
525.478845	0.060472
525.695253	0.060304
525.911643	0.060694
526.128014	0.061042
526.344367	0.061579
526.560702	0.061679
526.777018	0.061861
526.993316	0.061323
527.209597	0.061725
527.425858	0.062137
527.642102	0.062465
527.858328	0.061982
528.074535	0.061534
528.290724	0.061050
528.506894	0.060616
528.723047	0.060573
528.939181	0.060703
529.155297	0.060648
529.371395	0.060704
529.587475	0.060477
529.803536	0.060656
530.019579	0.060552
530.235604	0.060830
530.451611	0.061157
530.667600	0.061207
530.883570	0.061331
531.099522	0.061201
531.315456	0.061549
531.531372	0.062063
531.747269	0.062419
531.963148	0.062535
532.179009	0.062227
532.394852	0.062272
532.610676	0.062645
532.826482	0.062884
533.042271	0.062814
533.258040	0.062371
533.473792	0.062323
533.689525	0.062745
533.905240	0.063068
534.120937	0.063486
534.336616	0.064154
534.552277	0.064169
534.767919	0.064263
534.983543	0.064880
535.199149	0.065333
535.414736	0.065538
535.630306	0.064923
535.845857	0.064920
536.061390	0.064470
536.276904	0.064296
536.492401	0.064249
536.707879	0.064815
536.923339	0.064863
537.138781	0.064776
537.354204	0.064201
537.569610	0.064639
537.784997	0.064561
538.000366	0.065034
538.215716	0.065351
538.431049	0.065873
538.646363	0.065215
538.861659	0.065190
539.076937	0.065157
539.292196	0.065864
539.507438	0.065799
539.722661	0.065958
539.937866	0.066189
540.153052	0.065684
540.368221	0.065812
540.583371	0.066165
540.798503	0.065954
541.013617	0.066098
541.228712	0.065980
541.443789	0.065873
541.658848	0.066211
541.873889	0.065968
542.088912	0.066194
542.303916	0.065707
542.518902	0.065750
542.733870	0.066202
542.948820	0.066351
543.163752	0.066183
543.378665	0.066443
543.593560	0.066161
543.808437	0.066493
544.023295	0.066587
544.238136	0.066853
544.452958	0.067003
544.667762	0.066489
544.882548	0.066356
545.097315	0.066281
545.312064	0.066005
545.526795	0.066096
545.741508	0.066144
545.956203	0.066555
546.170879	0.067026
546.385537	0.066777
546.600177	0.067408
546.814799	0.067653
547.029402	0.068148
547.243988	0.068485
547.458555	0.068600
547.673103	0.068559
547.887634	0.068564
548.102146	0.068237
548.316640	0.068244
548.531116	0.068027
548.745574	0.068211
548.960013	0.068124
549.174435	0.068483
549.388838	0.068867
549.603222	0.068888
549.817589	0.068848
550.031937	0.068905
550.246267	0.069318
550.460579	0.069476
550.674873	0.069180
550.889148	0.068919
551.103405	0.068472
551.317644	0.068317
551.531865	0.068509
551.746068	0.068526
551.960252	0.068514
552.174418	0.068420
552.388566	0.068712
552.602696	0.069306
552.816807	0.069859
553.030900	0.070509
553.244975	0.070659
553.459032	0.070570
553.673070	0.070691
553.887091	0.070638
554.101093	0.071022
554.315077	0.071055
554.529042	0.070978
554.742990	0.071026
554.956919	0.070669
555.170830	0.070729
555.384722	0.071129
555.598597	0.071445
555.812453	0.071866
556.026291	0.071679
556.240111	0.071528
556.453913	0.071500
556.667696	0.071541
556.881461	0.071604
557.095208	0.071757
557.308937	0.071375
557.522647	0.071198
557.736339	0.070917
557.950013	0.071055
558.163669	0.070770
558.377307	0.070799
558.590926	0.070959
558.804527	0.071362
559.018110	0.070976
559.231675	0.071265
559.445221	0.071562
559.658749	0.072013
559.872259	0.071748
560.085751	0.071862
560.299225	0.071888
560.512680	0.071419
560.726117	0.071352
560.939536	0.071700
561.152937	0.071593
561.366319	0.071083
561.579683	0.071160
561.793029	0.071164
562.006357	0.071258
562.219667	0.071254
562.432958	0.071777
562.646231	0.071864
562.859486	0.071815
563.072723	0.071797
563.285941	0.072132
563.499141	0.072098
563.712323	0.072581
563.925487	0.072744
564.138632	0.072999
564.351760	0.072900
564.564869	0.073053
564.777960	0.073184
564.991032	0.073590
565.204087	0.073499
565.417123	0.073354
565.630141	0.073230
565.843140	0.073208
566.056122	0.073235
566.269085	0.073036
566.482030	0.072786
566.694957	0.072653
566.907866	0.072224
567.120756	0.072160
567.333628	0.072250
567.546482	0.072400
567.759318	0.072537
567.972135	0.072415
568.184935	0.072407
568.397716	0.072339
568.610478	0.072501
568.823223	0.072849
569.035949	0.073097
569.248657	0.073233
569.461347	0.073256
569.674019	0.073482
569.886672	0.073657
570.099308	0.073959
570.311925	0.074051
570.524523	0.074046
570.737104	0.074093
570.949666	0.074244
571.162210	0.074038
571.374736	0.073994
571.587244	0.073966
571.799733	0.074208
572.012205	0.074383
572.224658	0.074383
572.437092	0.074738
572.649509	0.074544
572.861907	0.074326
573.074287	0.074765
573.286649	0.074922
573.498993	0.075028
573.711318	0.074845
573.923625	0.074753
574.135914	0.075047
574.348185	0.074667
574.560438	0.075092
574.772672	0.075209
574.984888	0.075359
575.197086	0.075223
575.409266	0.075141
575.621427	0.075104
575.833570	0.075104
576.045695	0.075066
576.257802	0.075370
576.469890	0.075325
576.681961	0.075536
576.894013	0.075104
577.106046	0.075299
577.318062	0.075482
577.530059	0.075619
577.742039	0.075670
577.954000	0.075767
578.165942	0.075519
578.377867	0.075692
578.589773	0.075608
578.801661	0.075732
579.013531	0.075716
579.225382	0.076141
579.437216	0.075828
579.649031	0.076029
579.860828	0.076271
580.072606	0.076536
580.284367	0.076404
580.496109	0.076376
580.707833	0.076558
580.919539	0.076665
581.131227	0.076119
581.342896	0.076408
581.554547	0.076606
581.766180	0.076369
581.977795	0.075996
582.189391	0.075831
582.400969	0.075826
582.612529	0.075568
582.824071	0.075466
583.035595	0.075601
583.247100	0.075745
583.458587	0.075460
583.670056	0.075259
583.881506	0.075596
584.092939	0.075826
584.304353	0.076047
584.515749	0.076217
584.727127	0.076160
584.938486	0.076102
585.149828	0.075958
585.361151	0.076043
585.572456	0.076079
585.783742	0.076092
585.995011	0.075981
586.206261	0.075911
586.417493	0.076158
586.628706	0.076487
586.839902	0.076624
587.051079	0.076607
587.262238	0.076803
587.473379	0.077061
587.684502	0.077126
587.895606	0.077089
588.106692	0.077522
588.317760	0.077411
588.528810	0.077300
588.739841	0.077399
588.950855	0.077764
589.161850	0.077725
589.372827	0.077962
589.583785	0.078343
589.794726	0.078872
590.005648	0.078643
590.216552	0.078915
590.427437	0.079231
590.638305	0.079232
590.849154	0.079332
591.059985	0.079538
591.270798	0.079480
591.481592	0.079183
591.692369	0.079141
591.903127	0.079207
592.113867	0.079241
592.324588	0.079043
592.535292	0.079303
592.745977	0.079357
592.956644	0.079242
593.167293	0.079332
593.377923	0.079562
593.588536	0.079603
593.799130	0.079481
594.009706	0.079382
594.220263	0.079299
594.430803	0.078868
594.641324	0.078851
594.851827	0.079188
595.062312	0.079424
595.272778	0.079549
595.483227	0.079410
595.693657	0.079897
595.904069	0.080069
596.114462	0.080200
596.324838	0.080541
596.535195	0.080433
596.745534	0.080227
596.955855	0.080138
597.166157	0.080002
597.376441	0.080209
597.586707	0.079665
597.796955	0.079647
598.007185	0.079833
598.217396	0.079996
598.427589	0.080370
598.637764	0.080575
598.847921	0.080646
599.058060	0.080539
599.268180	0.080480
599.478282	0.080866
599.688366	0.080927
599.898431	0.080828
600.108479	0.080739
600.318508	0.080538
600.528519	0.080372
600.738511	0.080083
600.948486	0.080584
601.158442	0.080916
601.368380	0.081147
601.578300	0.081085
601.788202	0.081353
601.998085	0.081469
602.207950	0.081432
602.417797	0.081499
602.627626	0.081645
602.837436	0.081533
603.047228	0.081321
603.257002	0.080963
603.466758	0.081102
603.676496	0.080865
603.886215	0.080622
604.095916	0.080454
604.305599	0.080660
604.515264	0.080719
604.724910	0.080622
604.934538	0.080901
605.144148	0.081096
605.353740	0.081120
605.563314	0.081188
605.772869	0.081387
605.982406	0.081624
606.191925	0.081682
606.401425	0.081793
606.610908	0.081998
606.820372	0.081864
607.029818	0.081910
607.239246	0.081899
607.448655	0.082081
607.658047	0.082221
607.867420	0.082382
608.076775	0.082216
608.286111	0.082362
608.495430	0.082218
608.704730	0.082177
608.914012	0.082311
609.123275	0.081990
609.332521	0.081825
609.541748	0.081723
609.750957	0.081722
609.960148	0.081690
610.169321	0.081535
610.378475	0.081621
610.587611	0.081881
610.796729	0.082030
611.005829	0.082421
611.214910	0.082607
611.423974	0.082660
611.633019	0.082573
611.842045	0.082983
612.051054	0.083140
612.260044	0.083152
612.469017	0.083172
612.677970	0.082978
612.886906	0.083073
613.095824	0.083175
613.304723	0.083329
613.513604	0.083418
613.722467	0.083318
613.931311	0.083166
614.140138	0.083328
614.348946	0.083361
614.557736	0.083209
614.766507	0.083031
614.975261	0.082929
615.183996	0.082819
615.392713	0.082987
615.601412	0.083085
615.810092	0.083313
616.018754	0.083299
616.227399	0.083227
616.436024	0.083599
616.644632	0.083567
616.853222	0.083813
617.061793	0.083934
617.270346	0.083706
617.478880	0.083417
617.687397	0.083545
617.895895	0.083415
618.104375	0.083280
618.312837	0.083281
618.521281	0.083584
618.729706	0.083486
618.938113	0.083379
619.146502	0.083753
619.354873	0.083825
619.563226	0.083800
619.771560	0.083787
619.979876	0.084088
620.188174	0.084016
620.396453	0.083873
620.604715	0.083688
620.812958	0.083750
621.021183	0.083537
621.229390	0.083547
621.437578	0.083571
621.645748	0.083667
621.853900	0.083581
622.062034	0.083488
622.270150	0.083565
622.478247	0.083796
622.686326	0.084173
622.894387	0.084236
623.102430	0.084712
623.310454	0.084522
623.518461	0.084784
623.726449	0.084758
623.934418	0.084914
624.142370	0.084786
624.350303	0.084990
624.558218	0.084822
624.766115	0.084845
624.973994	0.084510
625.181855	0.084645
625.389697	0.084654
625.597521	0.084896
625.805327	0.084932
626.013114	0.085052
626.220883	0.084797
626.428634	0.084721
626.636367	0.084708
626.844082	0.084871
627.051778	0.085098
627.259457	0.085165
627.467117	0.084987
627.674758	0.085080
627.882382	0.085156
628.089987	0.085416
628.297574	0.085507
628.505143	0.085727
628.712694	0.085754
628.920226	0.085537
629.127740	0.085493
629.335236	0.085548
629.542714	0.085515
629.750174	0.085598
629.957615	0.085795
630.165038	0.085841
630.372443	0.085903
630.579829	0.085722
630.787198	0.085782
630.994548	0.085659
631.201880	0.085678
631.409194	0.085799
631.616489	0.085889
631.823766	0.085593
632.031025	0.085716
632.238266	0.085536
632.445489	0.085733
632.652693	0.085773
632.859879	0.085791
633.067047	0.085895
633.274197	0.085878
633.481329	0.085815
633.688442	0.085994
633.895537	0.086152
634.102614	0.086278
634.309672	0.086160
634.516713	0.086175
634.723735	0.086439
634.930739	0.086392
635.137724	0.086440
635.344692	0.086608
635.551641	0.086689
635.758572	0.086624
635.965485	0.086766
636.172379	0.087091
636.379256	0.087181
636.586114	0.087175
636.792954	0.087392
636.999775	0.087283
637.206579	0.087557
637.413364	0.087661
637.620131	0.087804
637.826880	0.087994
638.033610	0.087845
638.240323	0.088013
638.447017	0.088066
638.653692	0.088130
638.860350	0.088437
639.066990	0.088224
639.273611	0.088113
639.480214	0.088268
639.686798	0.087993
639.893365	0.088011
640.099913	0.088044
640.306443	0.088017
640.512955	0.087838
640.719449	0.087718
640.925924	0.087807
641.132381	0.087865
641.338820	0.087833
641.545241	0.087953
641.751644	0.087998
641.958028	0.088183
642.164394	0.088408
642.370742	0.088528
642.577071	0.088703
642.783383	0.088808
642.989676	0.089050
643.195951	0.088948
643.402207	0.088984
643.608446	0.089171
643.814666	0.089046
644.020868	0.088833
644.227052	0.088985
644.433218	0.089117
644.639365	0.089090
644.845494	0.088844
645.051605	0.088912
645.257698	0.088955
645.463772	0.088965
645.669828	0.089051
645.875866	0.089201
646.081886	0.089242
646.287888	0.089030
646.493871	0.089134
646.699836	0.089213
646.905783	0.089169
647.111712	0.089427
647.317622	0.089481
647.523514	0.089679
647.729388	0.089721
647.935244	0.089922
648.141082	0.090189
648.346901	0.090240
648.552702	0.090358
648.758485	0.090506
648.964250	0.090567
649.169996	0.090638
649.375724	0.090456
649.581434	0.090441
649.787126	0.090092
649.992800	0.089889
650.198455	0.090047
650.404092	0.090118
650.609711	0.090110
650.815311	0.089958
651.020894	0.089827
651.226458	0.089984
651.432004	0.090157
651.637532	0.090531
651.843041	0.090712
652.048532	0.090585
652.254006	0.090703
652.459460	0.090652
652.664897	0.090849
652.870315	0.091219
653.075716	0.091191
653.281097	0.091134
653.486461	0.090910
653.691807	0.090894
653.897134	0.090940
654.102443	0.090872
654.307734	0.091035
654.513006	0.091049
654.718261	0.090948
654.923497	0.091087
655.128715	0.091276
655.333915	0.091278
655.539096	0.091436
655.744259	0.091690
655.949404	0.091600
656.154531	0.091589
656.359640	0.091537
656.564730	0.091661
656.769802	0.091715
656.974856	0.091741
657.179892	0.092049
657.384909	0.092114
657.589908	0.092117
657.794889	0.092426
657.999852	0.092447
658.204797	0.092628
658.409723	0.092586
658.614631	0.092678
658.819521	0.092741
659.024393	0.092772
659.229246	0.092728
659.434081	0.092674
659.638898	0.092642
659.843697	0.092675
660.048478	0.092640
660.253240	0.092505
660.457984	0.092403
660.662710	0.092573
660.867417	0.092515
661.072107	0.092598
661.276778	0.092663
661.481431	0.092626
661.686066	0.092744
661.890682	0.092651
662.095281	0.092896
662.299861	0.092888
662.504422	0.093017
662.708966	0.093132
662.913491	0.093273
663.117999	0.093428
663.322488	0.093661
663.526958	0.093787
663.731411	0.093986
663.935845	0.094195
664.140261	0.094358
664.344659	0.094243
664.549038	0.094256
664.753400	0.094305
664.957743	0.094277
665.162068	0.094166
665.366375	0.094243
665.570663	0.094238
665.774933	0.094117
665.979185	0.094182
666.183419	0.094118
666.387635	0.094419
666.591832	0.094448
666.796011	0.094614
667.000172	0.094761
667.204315	0.094867
667.408439	0.095114
667.612545	0.095023
667.816634	0.095043
668.020703	0.095198
668.224755	0.095023
668.428788	0.095074
668.632803	0.094871
668.836800	0.094909
669.040779	0.094799
669.244739	0.094652
669.448681	0.094927
669.652605	0.095039
669.856511	0.095053
670.060399	0.095168
670.264268	0.095236
670.468119	0.095275
670.671952	0.095394
670.875767	0.095498
671.079563	0.095719
671.283341	0.095711
671.487101	0.095781
671.690843	0.095969
671.894567	0.096054
672.098272	0.096156
672.301959	0.096365
672.505628	0.096347
672.709278	0.096348
672.912911	0.096167
673.116525	0.096076
673.320121	0.096038
673.523699	0.095826
673.727258	0.095710
673.930799	0.095745
674.134322	0.095819
674.337827	0.095856
674.541314	0.096057
674.744782	0.096144
674.948232	0.096504
675.151664	0.096540
675.355078	0.096696
675.558474	0.096911
675.761851	0.096925
675.965210	0.096946
676.168551	0.096904
676.371873	0.097018
676.575178	0.097024
676.778464	0.096961
676.981732	0.097146
677.184981	0.097282
677.388213	0.097314
677.591426	0.097473
677.794621	0.097592
677.997798	0.097822
678.200956	0.097842
678.404097	0.098019
678.607219	0.098031
678.810323	0.098131
679.013408	0.097993
679.216476	0.098021
679.419525	0.097917
679.622556	0.097845
679.825569	0.097765
680.028563	0.097634
680.231540	0.097647
680.434498	0.097786
680.637438	0.097707
680.840359	0.097817
681.043263	0.097797
681.246148	0.097909
681.449015	0.097828
681.651864	0.097893
681.854694	0.097936
682.057506	0.098065
682.260301	0.097983
682.463076	0.098060
682.665834	0.098139
682.868573	0.098270
683.071295	0.098328
683.273998	0.098509
683.476682	0.098545
683.679349	0.098610
683.881997	0.098582
684.084627	0.098788
684.287239	0.098922
684.489833	0.098821
684.692408	0.098766
684.894965	0.098836
685.097504	0.098804
685.300025	0.099008
685.502527	0.098957
685.705012	0.099075
685.907478	0.099036
686.109925	0.099039
686.312355	0.099234
686.514766	0.099299
686.717159	0.099097
686.919534	0.099342
687.121891	0.099258
687.324230	0.099410
687.526550	0.099575
687.728852	0.099476
687.931136	0.099467
688.133401	0.099591
688.335649	0.099678
688.537878	0.099905
688.740089	0.100006
688.942281	0.100098
689.144456	0.100197
689.346612	0.100108
689.548750	0.100302
689.750870	0.100381
689.952971	0.100294
690.155055	0.100368
690.357120	0.100401
690.559167	0.100343
690.761195	0.100412
690.963206	0.100588
691.165198	0.100684
691.367172	0.100641
691.569128	0.100570
691.771065	0.100783
691.972984	0.100840
692.174885	0.100906
692.376768	0.100818
692.578633	0.100728
692.780479	0.100635
692.982308	0.100630
693.184118	0.100742
693.385909	0.100867
