sample name	sample
index	259
start time	 02-25-2021  10:53:38 AM


Wavelength (nm)	Absorbance
494.344910	-0.024448
494.563924	-0.024448
494.782919	-0.024448
495.001897	-0.001200
495.220856	-0.063461
495.439797	-0.061376
495.658719	-0.060508
495.877624	-0.033139
496.096510	-0.033960
496.315378	-0.022873
496.534227	0.000967
496.753059	-0.006265
496.971872	-0.014509
497.190667	0.105979
497.409444	0.127420
497.628203	0.135892
497.846943	0.137319
498.065665	0.140573
498.284369	0.143696
498.503055	0.145474
498.721723	0.147217
498.940372	0.148687
499.159003	0.148261
499.377616	0.149666
499.596210	0.150779
499.814787	0.151335
500.033345	0.151966
500.251885	0.151669
500.470406	0.150566
500.688910	0.150822
500.907395	0.150621
501.125862	0.151646
501.344311	0.151542
501.562742	0.151623
501.781154	0.152726
501.999548	0.152712
502.217924	0.152735
502.436282	0.153313
502.654621	0.152175
502.872942	0.153170
503.091245	0.153230
503.309530	0.152897
503.527797	0.152666
503.746045	0.151840
503.964275	0.151764
504.182487	0.151949
504.400681	0.151991
504.618856	0.152875
504.837013	0.153601
505.055152	0.152870
505.273273	0.153820
505.491376	0.153889
505.709460	0.153895
505.927526	0.154397
506.145574	0.154840
506.363604	0.155552
506.581615	0.156377
506.799608	0.155366
507.017583	0.156050
507.235540	0.156305
507.453478	0.155968
507.671399	0.156090
507.889301	0.157489
508.107185	0.157452
508.325050	0.157679
508.542898	0.156980
508.760727	0.157143
508.978538	0.157398
509.196330	0.157669
509.414105	0.158579
509.631861	0.158646
509.849599	0.157084
510.067319	0.157446
510.285021	0.156505
510.502704	0.156821
510.720369	0.158243
510.938016	0.158700
511.155645	0.158467
511.373255	0.157809
511.590848	0.158246
511.808422	0.158139
512.025977	0.157720
512.243515	0.158646
512.461034	0.159289
512.678536	0.158757
512.896018	0.158224
513.113483	0.158599
513.330930	0.159486
513.548358	0.159835
513.765768	0.160790
513.983160	0.161180
514.200533	0.161254
514.417889	0.160905
514.635226	0.161020
514.852545	0.161786
515.069845	0.161959
515.287128	0.162600
515.504392	0.162579
515.721638	0.162691
515.938866	0.162807
516.156075	0.163300
516.373267	0.164144
516.590440	0.164162
516.807594	0.164295
517.024731	0.164616
517.241850	0.164326
517.458950	0.164885
517.676032	0.164793
517.893095	0.165579
518.110141	0.165833
518.327168	0.165889
518.544177	0.166351
518.761168	0.167000
518.978141	0.166769
519.195095	0.166798
519.412031	0.166476
519.628949	0.167953
519.845849	0.168118
520.062731	0.168505
520.279594	0.169073
520.496439	0.169411
520.713266	0.169441
520.930074	0.170259
521.146865	0.170401
521.363637	0.171223
521.580391	0.171445
521.797127	0.172000
522.013844	0.172046
522.230543	0.172089
522.447224	0.172058
522.663887	0.172580
522.880532	0.172473
523.097158	0.173758
523.313766	0.174059
523.530356	0.173694
523.746928	0.173279
523.963481	0.173178
524.180017	0.174123
524.396534	0.174786
524.613032	0.175788
524.829513	0.176004
525.045975	0.175830
525.262420	0.176174
525.478845	0.176168
525.695253	0.176832
525.911643	0.177777
526.128014	0.177268
526.344367	0.177689
526.560702	0.176678
526.777018	0.176802
526.993316	0.177109
527.209597	0.177167
527.425858	0.177116
527.642102	0.178035
527.858328	0.177873
528.074535	0.177891
528.290724	0.178154
528.506894	0.178307
528.723047	0.179131
528.939181	0.178861
529.155297	0.179123
529.371395	0.179651
529.587475	0.179452
529.803536	0.179685
530.019579	0.180147
530.235604	0.180136
530.451611	0.181417
530.667600	0.181508
530.883570	0.181997
531.099522	0.182804
531.315456	0.183810
531.531372	0.184183
531.747269	0.184963
531.963148	0.185998
532.179009	0.186617
532.394852	0.186560
532.610676	0.186937
532.826482	0.187724
533.042271	0.187963
533.258040	0.188594
533.473792	0.188744
533.689525	0.189029
533.905240	0.188650
534.120937	0.189246
534.336616	0.189448
534.552277	0.189951
534.767919	0.189932
534.983543	0.190032
535.199149	0.189637
535.414736	0.190509
535.630306	0.190863
535.845857	0.191498
536.061390	0.191837
536.276904	0.191546
536.492401	0.191711
536.707879	0.192129
536.923339	0.192623
537.138781	0.193511
537.354204	0.193467
537.569610	0.193581
537.784997	0.194360
538.000366	0.194085
538.215716	0.195039
538.431049	0.195366
538.646363	0.195455
538.861659	0.195565
539.076937	0.195521
539.292196	0.195475
539.507438	0.195603
539.722661	0.195197
539.937866	0.195824
540.153052	0.195941
540.368221	0.196336
540.583371	0.196831
540.798503	0.197514
541.013617	0.197187
541.228712	0.197860
541.443789	0.198322
541.658848	0.198741
541.873889	0.199331
542.088912	0.199627
542.303916	0.199648
542.518902	0.200215
542.733870	0.199992
542.948820	0.200826
543.163752	0.200861
543.378665	0.201705
543.593560	0.201795
543.808437	0.202294
544.023295	0.202985
544.238136	0.203764
544.452958	0.204339
544.667762	0.204709
544.882548	0.205346
545.097315	0.206047
545.312064	0.205824
545.526795	0.206770
545.741508	0.206941
545.956203	0.207110
546.170879	0.206770
546.385537	0.206853
546.600177	0.207334
546.814799	0.207649
547.029402	0.207869
547.243988	0.208519
547.458555	0.208457
547.673103	0.208589
547.887634	0.208831
548.102146	0.209687
548.316640	0.209642
548.531116	0.209725
548.745574	0.209996
548.960013	0.210341
549.174435	0.210048
549.388838	0.210347
549.603222	0.210148
549.817589	0.210773
550.031937	0.210565
550.246267	0.210854
550.460579	0.210978
550.674873	0.210735
550.889148	0.210700
551.103405	0.211621
551.317644	0.211777
551.531865	0.212056
551.746068	0.212040
551.960252	0.212099
552.174418	0.212142
552.388566	0.212822
552.602696	0.213096
552.816807	0.213241
553.030900	0.213402
553.244975	0.213556
553.459032	0.214074
553.673070	0.214296
553.887091	0.214613
554.101093	0.215216
554.315077	0.215213
554.529042	0.215744
554.742990	0.216365
554.956919	0.215915
555.170830	0.216586
555.384722	0.216642
555.598597	0.216660
555.812453	0.217167
556.026291	0.217130
556.240111	0.217819
556.453913	0.217456
556.667696	0.217418
556.881461	0.218100
557.095208	0.218050
557.308937	0.218174
557.522647	0.218439
557.736339	0.218377
557.950013	0.218653
558.163669	0.218630
558.377307	0.218971
558.590926	0.219427
558.804527	0.219840
559.018110	0.219630
559.231675	0.220047
559.445221	0.220500
559.658749	0.221095
559.872259	0.220921
560.085751	0.221284
560.299225	0.221704
560.512680	0.221292
560.726117	0.221344
560.939536	0.221733
561.152937	0.222167
561.366319	0.222262
561.579683	0.222483
561.793029	0.222603
562.006357	0.222410
562.219667	0.222446
562.432958	0.223009
562.646231	0.222652
562.859486	0.223110
563.072723	0.222962
563.285941	0.222723
563.499141	0.222620
563.712323	0.222961
563.925487	0.223084
564.138632	0.223446
564.351760	0.223609
564.564869	0.223825
564.777960	0.223837
564.991032	0.224318
565.204087	0.224820
565.417123	0.225003
565.630141	0.225367
565.843140	0.225765
566.056122	0.226047
566.269085	0.226492
566.482030	0.227014
566.694957	0.227127
566.907866	0.227094
567.120756	0.227393
567.333628	0.227875
567.546482	0.228128
567.759318	0.228125
567.972135	0.228451
568.184935	0.228379
568.397716	0.228477
568.610478	0.228823
568.823223	0.228907
569.035949	0.228880
569.248657	0.229081
569.461347	0.229476
569.674019	0.229880
569.886672	0.229927
570.099308	0.230094
570.311925	0.230472
570.524523	0.230740
570.737104	0.230963
570.949666	0.231129
571.162210	0.231079
571.374736	0.231153
571.587244	0.231198
571.799733	0.231270
572.012205	0.231406
572.224658	0.231757
572.437092	0.232053
572.649509	0.232258
572.861907	0.232430
573.074287	0.232915
573.286649	0.232537
573.498993	0.232252
573.711318	0.232354
573.923625	0.232318
574.135914	0.232468
574.348185	0.232594
574.560438	0.232699
574.772672	0.233161
574.984888	0.233020
575.197086	0.233705
575.409266	0.234469
575.621427	0.234602
575.833570	0.234978
576.045695	0.234872
576.257802	0.234561
576.469890	0.234691
576.681961	0.234732
576.894013	0.234949
577.106046	0.235215
577.318062	0.235220
577.530059	0.235972
577.742039	0.236517
577.954000	0.236620
578.165942	0.236775
578.377867	0.237098
578.589773	0.236935
578.801661	0.237015
579.013531	0.237174
579.225382	0.237611
579.437216	0.237182
579.649031	0.237196
579.860828	0.237763
580.072606	0.238097
580.284367	0.238533
580.496109	0.238952
580.707833	0.239133
580.919539	0.239040
581.131227	0.238873
581.342896	0.238994
581.554547	0.239013
581.766180	0.238732
581.977795	0.239140
582.189391	0.239169
582.400969	0.239737
582.612529	0.239979
582.824071	0.240513
583.035595	0.240862
583.247100	0.241433
583.458587	0.242039
583.670056	0.242743
583.881506	0.242711
584.092939	0.242808
584.304353	0.242477
584.515749	0.242460
584.727127	0.242466
584.938486	0.242594
585.149828	0.242779
585.361151	0.242573
585.572456	0.242141
585.783742	0.242407
585.995011	0.242919
586.206261	0.243260
586.417493	0.243526
586.628706	0.243666
586.839902	0.243737
587.051079	0.243632
587.262238	0.243706
587.473379	0.244590
587.684502	0.244848
587.895606	0.244649
588.106692	0.245133
588.317760	0.245441
588.528810	0.245741
588.739841	0.246000
588.950855	0.246463
589.161850	0.246763
589.372827	0.246315
589.583785	0.246493
589.794726	0.246912
590.005648	0.246989
590.216552	0.247406
590.427437	0.247597
590.638305	0.247601
590.849154	0.247601
591.059985	0.247790
591.270798	0.248130
591.481592	0.248495
591.692369	0.248287
591.903127	0.248301
592.113867	0.248344
592.324588	0.248484
592.535292	0.248775
592.745977	0.248820
592.956644	0.249267
593.167293	0.249298
593.377923	0.249088
593.588536	0.249299
593.799130	0.249494
594.009706	0.249419
594.220263	0.249533
594.430803	0.249806
594.641324	0.250113
594.851827	0.250431
595.062312	0.250561
595.272778	0.250830
595.483227	0.250807
595.693657	0.250725
595.904069	0.250919
596.114462	0.251112
596.324838	0.251046
596.535195	0.251437
596.745534	0.251270
596.955855	0.251612
597.166157	0.251767
597.376441	0.251957
597.586707	0.252258
597.796955	0.252781
598.007185	0.252729
598.217396	0.252939
598.427589	0.252668
598.637764	0.252663
598.847921	0.252863
599.058060	0.252686
599.268180	0.253252
599.478282	0.253191
599.688366	0.253429
599.898431	0.253682
600.108479	0.254008
600.318508	0.254629
600.528519	0.254785
600.738511	0.255045
600.948486	0.255597
601.158442	0.255676
601.368380	0.256128
601.578300	0.256370
601.788202	0.256747
601.998085	0.256931
602.207950	0.256858
602.417797	0.257044
602.627626	0.257083
602.837436	0.257529
603.047228	0.257459
603.257002	0.257712
603.466758	0.257505
603.676496	0.257637
603.886215	0.257836
604.095916	0.257924
604.305599	0.258237
604.515264	0.258276
604.724910	0.258580
604.934538	0.258898
605.144148	0.258873
605.353740	0.258642
605.563314	0.258826
605.772869	0.258798
605.982406	0.258884
606.191925	0.258995
606.401425	0.258969
606.610908	0.258529
606.820372	0.258696
607.029818	0.259229
607.239246	0.259591
607.448655	0.259519
607.658047	0.259578
607.867420	0.259925
608.076775	0.260247
608.286111	0.260835
608.495430	0.260910
608.704730	0.260878
608.914012	0.260645
609.123275	0.260946
609.332521	0.261198
609.541748	0.261245
609.750957	0.261376
609.960148	0.261250
610.169321	0.261168
610.378475	0.261866
610.587611	0.262013
610.796729	0.262346
611.005829	0.262292
611.214910	0.262436
611.423974	0.262863
611.633019	0.262828
611.842045	0.262719
612.051054	0.262944
612.260044	0.262756
612.469017	0.263118
612.677970	0.263092
612.886906	0.263527
613.095824	0.263761
613.304723	0.263836
613.513604	0.264002
613.722467	0.264473
613.931311	0.264708
614.140138	0.265394
614.348946	0.265525
614.557736	0.265841
614.766507	0.265867
614.975261	0.266228
615.183996	0.266528
615.392713	0.266348
615.601412	0.266602
615.810092	0.266457
616.018754	0.265947
616.227399	0.266189
616.436024	0.266241
616.644632	0.266345
616.853222	0.266350
617.061793	0.266456
617.270346	0.267133
617.478880	0.267050
617.687397	0.267639
617.895895	0.267872
618.104375	0.267999
618.312837	0.268339
618.521281	0.268853
618.729706	0.268711
618.938113	0.268674
619.146502	0.268907
619.354873	0.269226
619.563226	0.269185
619.771560	0.269340
619.979876	0.269551
620.188174	0.269476
620.396453	0.269417
620.604715	0.269849
620.812958	0.270345
621.021183	0.270153
621.229390	0.270146
621.437578	0.270315
621.645748	0.270661
621.853900	0.270557
622.062034	0.270628
622.270150	0.270851
622.478247	0.270841
622.686326	0.270932
622.894387	0.271435
623.102430	0.271759
623.310454	0.271982
623.518461	0.272113
623.726449	0.272534
623.934418	0.272859
624.142370	0.272950
624.350303	0.273433
624.558218	0.273558
624.766115	0.273471
624.973994	0.273828
625.181855	0.274077
625.389697	0.274246
625.597521	0.274250
625.805327	0.274340
626.013114	0.274448
626.220883	0.274615
626.428634	0.274684
626.636367	0.275154
626.844082	0.275070
627.051778	0.275098
627.259457	0.275165
627.467117	0.275533
627.674758	0.275747
627.882382	0.275859
628.089987	0.275682
628.297574	0.275942
628.505143	0.275931
628.712694	0.276195
628.920226	0.276416
629.127740	0.276732
629.335236	0.276696
629.542714	0.276798
629.750174	0.276934
629.957615	0.277135
630.165038	0.277352
630.372443	0.277455
630.579829	0.277431
630.787198	0.277664
630.994548	0.277726
631.201880	0.277937
631.409194	0.278352
631.616489	0.278688
631.823766	0.279368
632.031025	0.279682
632.238266	0.280112
632.445489	0.280599
632.652693	0.280700
632.859879	0.281200
633.067047	0.281638
633.274197	0.281661
633.481329	0.281750
633.688442	0.281483
633.895537	0.281420
634.102614	0.281596
634.309672	0.281588
634.516713	0.281979
634.723735	0.281901
634.930739	0.281766
635.137724	0.281868
635.344692	0.281857
635.551641	0.282108
635.758572	0.282513
635.965485	0.282359
636.172379	0.282509
636.379256	0.282314
636.586114	0.282243
636.792954	0.282431
636.999775	0.282639
637.206579	0.283061
637.413364	0.283133
637.620131	0.283218
637.826880	0.283548
638.033610	0.283827
638.240323	0.284102
638.447017	0.284614
638.653692	0.284735
638.860350	0.284854
639.066990	0.285204
639.273611	0.285520
639.480214	0.285565
639.686798	0.285791
639.893365	0.286015
640.099913	0.286041
640.306443	0.285897
640.512955	0.285945
640.719449	0.286097
640.925924	0.286130
641.132381	0.286082
641.338820	0.286294
641.545241	0.286251
641.751644	0.286396
641.958028	0.286874
642.164394	0.287162
642.370742	0.287396
642.577071	0.287711
642.783383	0.287821
642.989676	0.288189
643.195951	0.288338
643.402207	0.288595
643.608446	0.288652
643.814666	0.288574
644.020868	0.288753
644.227052	0.288935
644.433218	0.289069
644.639365	0.289463
644.845494	0.289633
645.051605	0.289704
645.257698	0.290117
645.463772	0.290347
645.669828	0.290788
645.875866	0.290941
646.081886	0.291371
646.287888	0.291677
646.493871	0.291595
646.699836	0.291673
646.905783	0.291982
647.111712	0.291839
647.317622	0.292165
647.523514	0.292052
647.729388	0.292465
647.935244	0.292742
648.141082	0.292764
648.346901	0.293236
648.552702	0.293373
648.758485	0.293954
648.964250	0.294491
649.169996	0.294779
649.375724	0.295119
649.581434	0.295311
649.787126	0.295416
649.992800	0.295764
650.198455	0.295947
650.404092	0.296613
650.609711	0.296515
650.815311	0.296650
651.020894	0.296675
651.226458	0.296856
651.432004	0.297021
651.637532	0.297144
651.843041	0.297540
652.048532	0.297617
652.254006	0.297585
652.459460	0.297844
652.664897	0.297927
652.870315	0.298240
653.075716	0.298357
653.281097	0.298511
653.486461	0.298855
653.691807	0.298765
653.897134	0.299229
654.102443	0.299239
654.307734	0.299466
654.513006	0.299579
654.718261	0.299682
654.923497	0.300082
655.128715	0.300244
655.333915	0.300321
655.539096	0.300599
655.744259	0.300613
655.949404	0.300994
656.154531	0.301187
656.359640	0.301438
656.564730	0.301934
656.769802	0.301996
656.974856	0.302300
657.179892	0.302520
657.384909	0.302706
657.589908	0.302836
657.794889	0.303203
657.999852	0.303211
658.204797	0.303602
658.409723	0.303347
658.614631	0.303712
658.819521	0.304050
659.024393	0.304209
659.229246	0.304368
659.434081	0.304699
659.638898	0.304792
659.843697	0.304991
660.048478	0.305197
660.253240	0.305645
660.457984	0.305761
660.662710	0.305813
660.867417	0.306288
661.072107	0.306724
661.276778	0.307057
661.481431	0.307136
661.686066	0.307552
661.890682	0.307799
662.095281	0.308127
662.299861	0.308479
662.504422	0.308850
662.708966	0.308886
662.913491	0.309003
663.117999	0.308971
663.322488	0.309249
663.526958	0.309535
663.731411	0.309553
663.935845	0.309564
664.140261	0.310012
664.344659	0.310066
664.549038	0.310272
664.753400	0.310604
664.957743	0.310649
665.162068	0.311042
665.366375	0.311193
665.570663	0.311526
665.774933	0.311862
665.979185	0.311553
666.183419	0.311884
666.387635	0.312203
666.591832	0.312212
666.796011	0.312813
667.000172	0.312907
667.204315	0.313062
667.408439	0.313183
667.612545	0.313290
667.816634	0.313923
668.020703	0.314163
668.224755	0.314110
668.428788	0.314275
668.632803	0.314316
668.836800	0.314475
669.040779	0.314916
669.244739	0.315458
669.448681	0.315674
669.652605	0.315702
669.856511	0.316111
670.060399	0.316767
670.264268	0.317037
670.468119	0.317279
670.671952	0.317786
670.875767	0.317674
671.079563	0.317873
671.283341	0.318301
671.487101	0.318609
671.690843	0.318822
671.894567	0.318800
672.098272	0.319131
672.301959	0.319379
672.505628	0.319549
672.709278	0.319936
672.912911	0.320234
673.116525	0.320446
673.320121	0.320706
673.523699	0.320794
673.727258	0.321290
673.930799	0.321786
674.134322	0.322340
674.337827	0.322446
674.541314	0.323086
674.744782	0.323214
674.948232	0.323364
675.151664	0.323623
675.355078	0.323925
675.558474	0.323877
675.761851	0.324095
675.965210	0.324156
676.168551	0.324394
676.371873	0.324326
676.575178	0.324613
676.778464	0.324945
676.981732	0.325346
677.184981	0.325508
677.388213	0.325909
677.591426	0.326151
677.794621	0.326347
677.997798	0.326785
678.200956	0.326881
678.404097	0.327078
678.607219	0.327438
678.810323	0.327565
679.013408	0.327942
679.216476	0.328250
679.419525	0.328175
679.622556	0.328581
679.825569	0.328782
680.028563	0.329185
680.231540	0.329362
680.434498	0.329266
680.637438	0.329431
680.840359	0.329378
681.043263	0.329672
681.246148	0.330045
681.449015	0.330011
681.651864	0.330009
681.854694	0.330323
682.057506	0.330704
682.260301	0.331109
682.463076	0.331464
682.665834	0.331944
682.868573	0.332284
683.071295	0.332668
683.273998	0.332843
683.476682	0.333280
683.679349	0.333378
683.881997	0.333433
684.084627	0.333833
684.287239	0.333737
684.489833	0.333614
684.692408	0.333555
684.894965	0.333391
685.097504	0.333781
685.300025	0.334024
685.502527	0.334215
685.705012	0.334241
685.907478	0.334252
686.109925	0.334479
686.312355	0.335074
686.514766	0.335100
686.717159	0.335483
686.919534	0.335570
687.121891	0.335648
687.324230	0.335812
687.526550	0.336283
687.728852	0.336494
687.931136	0.336927
688.133401	0.336702
688.335649	0.337006
688.537878	0.337081
688.740089	0.337197
688.942281	0.337352
689.144456	0.337587
689.346612	0.337352
689.548750	0.337427
689.750870	0.337491
689.952971	0.337786
690.155055	0.338040
690.357120	0.338263
690.559167	0.338401
690.761195	0.338411
690.963206	0.338404
691.165198	0.338865
691.367172	0.338967
691.569128	0.339070
691.771065	0.339302
691.972984	0.339461
692.174885	0.339591
692.376768	0.339767
692.578633	0.339898
692.780479	0.340121
692.982308	0.340297
693.184118	0.340381
693.385909	0.340450
