sample name	sample
index	504
start time	 03-11-2021  02:56:10 PM


Wavelength (nm)	Absorbance
494.344910	NaN
494.563924	NaN
494.782919	NaN
495.001897	-0.090617
495.220856	0.606784
495.439797	0.403861
495.658719	0.182474
495.877624	0.049260
496.096510	0.135703
496.315378	0.208421
496.534227	0.222805
496.753059	-0.047569
496.971872	-0.012974
497.190667	0.132792
497.409444	0.153722
497.628203	0.158301
497.846943	0.159509
498.065665	0.160797
498.284369	0.160912
498.503055	0.160496
498.721723	0.160908
498.940372	0.160207
499.159003	0.160942
499.377616	0.160606
499.596210	0.160999
499.814787	0.161726
500.033345	0.161266
500.251885	0.160525
500.470406	0.160726
500.688910	0.161875
500.907395	0.162300
501.125862	0.162991
501.344311	0.163722
501.562742	0.163797
501.781154	0.163124
501.999548	0.163511
502.217924	0.163826
502.436282	0.163449
502.654621	0.162607
502.872942	0.162941
503.091245	0.162929
503.309530	0.162544
503.527797	0.161612
503.746045	0.162623
503.964275	0.162962
504.182487	0.162394
504.400681	0.163632
504.618856	0.164477
504.837013	0.164332
505.055152	0.164562
505.273273	0.164013
505.491376	0.164920
505.709460	0.163615
505.927526	0.163611
506.145574	0.165649
506.363604	0.164941
506.581615	0.165238
506.799608	0.165704
507.017583	0.165758
507.235540	0.166103
507.453478	0.166694
507.671399	0.166543
507.889301	0.165968
508.107185	0.165115
508.325050	0.165644
508.542898	0.164690
508.760727	0.164300
508.978538	0.164306
509.196330	0.164507
509.414105	0.163184
509.631861	0.163598
509.849599	0.164153
510.067319	0.164118
510.285021	0.163891
510.502704	0.164821
510.720369	0.165729
510.938016	0.165120
511.155645	0.165638
511.373255	0.167023
511.590848	0.167892
511.808422	0.168504
512.025977	0.169516
512.243515	0.169803
512.461034	0.169762
512.678536	0.169927
512.896018	0.170868
513.113483	0.170113
513.330930	0.170040
513.548358	0.170288
513.765768	0.169855
513.983160	0.169672
514.200533	0.170718
514.417889	0.170645
514.635226	0.171089
514.852545	0.170811
515.069845	0.171678
515.287128	0.171781
515.504392	0.171641
515.721638	0.172703
515.938866	0.172767
516.156075	0.172799
516.373267	0.173412
516.590440	0.173290
516.807594	0.174485
517.024731	0.174336
517.241850	0.174419
517.458950	0.175045
517.676032	0.174925
517.893095	0.175129
518.110141	0.175468
518.327168	0.175062
518.544177	0.175246
518.761168	0.175016
518.978141	0.175435
519.195095	0.176004
519.412031	0.176303
519.628949	0.176403
519.845849	0.176890
520.062731	0.176592
520.279594	0.177417
520.496439	0.177455
520.713266	0.177971
520.930074	0.178696
521.146865	0.178519
521.363637	0.178858
521.580391	0.179362
521.797127	0.179726
522.013844	0.179919
522.230543	0.179993
522.447224	0.180333
522.663887	0.180006
522.880532	0.179716
523.097158	0.179977
523.313766	0.179864
523.530356	0.179211
523.746928	0.178948
523.963481	0.179845
524.180017	0.180109
524.396534	0.180671
524.613032	0.180867
524.829513	0.181354
525.045975	0.181867
525.262420	0.181978
525.478845	0.182304
525.695253	0.183241
525.911643	0.182625
526.128014	0.183063
526.344367	0.182035
526.560702	0.183012
526.777018	0.183061
526.993316	0.183383
527.209597	0.183737
527.425858	0.184715
527.642102	0.184702
527.858328	0.186277
528.074535	0.186318
528.290724	0.187572
528.506894	0.187836
528.723047	0.188483
528.939181	0.188347
529.155297	0.188960
529.371395	0.189114
529.587475	0.188234
529.803536	0.187080
530.019579	0.187770
530.235604	0.187773
530.451611	0.187985
530.667600	0.187983
530.883570	0.188113
531.099522	0.188258
531.315456	0.187788
531.531372	0.189407
531.747269	0.190468
531.963148	0.190774
532.179009	0.191027
532.394852	0.190925
532.610676	0.191359
532.826482	0.192137
533.042271	0.192474
533.258040	0.193897
533.473792	0.194018
533.689525	0.194445
533.905240	0.194660
534.120937	0.195650
534.336616	0.196735
534.552277	0.197084
534.767919	0.197439
534.983543	0.197648
535.199149	0.197460
535.414736	0.197288
535.630306	0.197600
535.845857	0.197384
536.061390	0.197517
536.276904	0.197277
536.492401	0.197514
536.707879	0.197427
536.923339	0.198010
537.138781	0.198286
537.354204	0.198614
537.569610	0.198702
537.784997	0.198918
538.000366	0.199019
538.215716	0.199259
538.431049	0.199375
538.646363	0.199911
538.861659	0.199464
539.076937	0.199823
539.292196	0.200403
539.507438	0.200785
539.722661	0.201538
539.937866	0.201768
540.153052	0.201701
540.368221	0.202294
540.583371	0.203077
540.798503	0.203873
541.013617	0.204811
541.228712	0.204949
541.443789	0.205131
541.658848	0.204980
541.873889	0.205456
542.088912	0.206259
542.303916	0.206254
542.518902	0.206297
542.733870	0.206628
542.948820	0.206160
543.163752	0.206791
543.378665	0.207410
543.593560	0.207225
543.808437	0.207438
544.023295	0.207723
544.238136	0.207889
544.452958	0.208334
544.667762	0.208386
544.882548	0.209264
545.097315	0.209155
545.312064	0.208615
545.526795	0.209781
545.741508	0.210144
545.956203	0.210378
546.170879	0.211244
546.385537	0.211396
546.600177	0.211675
546.814799	0.211356
547.029402	0.211540
547.243988	0.212436
547.458555	0.212691
547.673103	0.212864
547.887634	0.212697
548.102146	0.212748
548.316640	0.212577
548.531116	0.212857
548.745574	0.213093
548.960013	0.213157
549.174435	0.213483
549.388838	0.213655
549.603222	0.213662
549.817589	0.213876
550.031937	0.214033
550.246267	0.214263
550.460579	0.214744
550.674873	0.215108
550.889148	0.215533
551.103405	0.215608
551.317644	0.215682
551.531865	0.215811
551.746068	0.216748
551.960252	0.216739
552.174418	0.217290
552.388566	0.217595
552.602696	0.217735
552.816807	0.217993
553.030900	0.218238
553.244975	0.218477
553.459032	0.218993
553.673070	0.218963
553.887091	0.219224
554.101093	0.219215
554.315077	0.218635
554.529042	0.218932
554.742990	0.219269
554.956919	0.219144
555.170830	0.219813
555.384722	0.220266
555.598597	0.220157
555.812453	0.220615
556.026291	0.220800
556.240111	0.221745
556.453913	0.221621
556.667696	0.222015
556.881461	0.222906
557.095208	0.222506
557.308937	0.222511
557.522647	0.223007
557.736339	0.223252
557.950013	0.223232
558.163669	0.223173
558.377307	0.223382
558.590926	0.223373
558.804527	0.223665
559.018110	0.224034
559.231675	0.223878
559.445221	0.224083
559.658749	0.223899
559.872259	0.224279
560.085751	0.224156
560.299225	0.224360
560.512680	0.224759
560.726117	0.224684
560.939536	0.224936
561.152937	0.225268
561.366319	0.225597
561.579683	0.225791
561.793029	0.225978
562.006357	0.226337
562.219667	0.226815
562.432958	0.226845
562.646231	0.226767
562.859486	0.226881
563.072723	0.227155
563.285941	0.226825
563.499141	0.227189
563.712323	0.227556
563.925487	0.227699
564.138632	0.228341
564.351760	0.228571
564.564869	0.228987
564.777960	0.228984
564.991032	0.229110
565.204087	0.229698
565.417123	0.229836
565.630141	0.229520
565.843140	0.229904
566.056122	0.229960
566.269085	0.230309
566.482030	0.230062
566.694957	0.230544
566.907866	0.231072
567.120756	0.231342
567.333628	0.231972
567.546482	0.232766
567.759318	0.232840
567.972135	0.233006
568.184935	0.233161
568.397716	0.233823
568.610478	0.234166
568.823223	0.234025
569.035949	0.234250
569.248657	0.234244
569.461347	0.234403
569.674019	0.234840
569.886672	0.234422
570.099308	0.234623
570.311925	0.234716
570.524523	0.234953
570.737104	0.235293
570.949666	0.235120
571.162210	0.235452
571.374736	0.235617
571.587244	0.235483
571.799733	0.236055
572.012205	0.236125
572.224658	0.236567
572.437092	0.236420
572.649509	0.236267
572.861907	0.236444
573.074287	0.236622
573.286649	0.236649
573.498993	0.237114
573.711318	0.237162
573.923625	0.237223
574.135914	0.237007
574.348185	0.237434
574.560438	0.237944
574.772672	0.238133
574.984888	0.238004
575.197086	0.238412
575.409266	0.238496
575.621427	0.238377
575.833570	0.238682
576.045695	0.238844
576.257802	0.239085
576.469890	0.239208
576.681961	0.239593
576.894013	0.240044
577.106046	0.240155
577.318062	0.240349
577.530059	0.240979
577.742039	0.240857
577.954000	0.240779
578.165942	0.240594
578.377867	0.240846
578.589773	0.240736
578.801661	0.240708
579.013531	0.240755
579.225382	0.241264
579.437216	0.241218
579.649031	0.241609
579.860828	0.241694
580.072606	0.241736
580.284367	0.241682
580.496109	0.242057
580.707833	0.242153
580.919539	0.242565
581.131227	0.242401
581.342896	0.243008
581.554547	0.243219
581.766180	0.243802
581.977795	0.244212
582.189391	0.244599
582.400969	0.244654
582.612529	0.244989
582.824071	0.245119
583.035595	0.245212
583.247100	0.245326
583.458587	0.245858
583.670056	0.245811
583.881506	0.246404
584.092939	0.246842
584.304353	0.247462
584.515749	0.247410
584.727127	0.247686
584.938486	0.248177
585.149828	0.248202
585.361151	0.247772
585.572456	0.248109
585.783742	0.248410
585.995011	0.248306
586.206261	0.248248
586.417493	0.248513
586.628706	0.248500
586.839902	0.248452
587.051079	0.248714
587.262238	0.248843
587.473379	0.249193
587.684502	0.249052
587.895606	0.248839
588.106692	0.249157
588.317760	0.249049
588.528810	0.249047
588.739841	0.249301
588.950855	0.249438
589.161850	0.250211
589.372827	0.250054
589.583785	0.250254
589.794726	0.251204
590.005648	0.250881
590.216552	0.251665
590.427437	0.252389
590.638305	0.252743
590.849154	0.252908
591.059985	0.252756
591.270798	0.252705
591.481592	0.252523
591.692369	0.252169
591.903127	0.252644
592.113867	0.252718
592.324588	0.252600
592.535292	0.252645
592.745977	0.253007
592.956644	0.253497
593.167293	0.253894
593.377923	0.254215
593.588536	0.254771
593.799130	0.255143
594.009706	0.255179
594.220263	0.255610
594.430803	0.255859
594.641324	0.255554
594.851827	0.255309
595.062312	0.255780
595.272778	0.256047
595.483227	0.256043
595.693657	0.256176
595.904069	0.256152
596.114462	0.256208
596.324838	0.256359
596.535195	0.257028
596.745534	0.257612
596.955855	0.257709
597.166157	0.258201
597.376441	0.258223
597.586707	0.257987
597.796955	0.258599
598.007185	0.259053
598.217396	0.259379
598.427589	0.259476
598.637764	0.259550
598.847921	0.260106
599.058060	0.259995
599.268180	0.260349
599.478282	0.261185
599.688366	0.261208
599.898431	0.261100
600.108479	0.261129
600.318508	0.261246
600.528519	0.261240
600.738511	0.261206
600.948486	0.261320
601.158442	0.261543
601.368380	0.261386
601.578300	0.261806
601.788202	0.262071
601.998085	0.262357
602.207950	0.262491
602.417797	0.262743
602.627626	0.262645
602.837436	0.262984
603.047228	0.263323
603.257002	0.263631
603.466758	0.263777
603.676496	0.264286
603.886215	0.264297
604.095916	0.264584
604.305599	0.265101
604.515264	0.265754
604.724910	0.266228
604.934538	0.266167
605.144148	0.266358
605.353740	0.266237
605.563314	0.265912
605.772869	0.266210
605.982406	0.266329
606.191925	0.266402
606.401425	0.266201
606.610908	0.265945
606.820372	0.266267
607.029818	0.266403
607.239246	0.266694
607.448655	0.267004
607.658047	0.267043
607.867420	0.267404
608.076775	0.267128
608.286111	0.267458
608.495430	0.267710
608.704730	0.267686
608.914012	0.267734
609.123275	0.267748
609.332521	0.267869
609.541748	0.268109
609.750957	0.268209
609.960148	0.268948
610.169321	0.269083
610.378475	0.269405
610.587611	0.269532
610.796729	0.270101
611.005829	0.270358
611.214910	0.270542
611.423974	0.270638
611.633019	0.270755
611.842045	0.270941
612.051054	0.271162
612.260044	0.271195
612.469017	0.271432
612.677970	0.271129
612.886906	0.271359
613.095824	0.271134
613.304723	0.271409
613.513604	0.271440
613.722467	0.271068
613.931311	0.271316
614.140138	0.271425
614.348946	0.271686
614.557736	0.272227
614.766507	0.272342
614.975261	0.272890
615.183996	0.273113
615.392713	0.273324
615.601412	0.273550
615.810092	0.273729
616.018754	0.273838
616.227399	0.274036
616.436024	0.273890
616.644632	0.274185
616.853222	0.274424
617.061793	0.274619
617.270346	0.274767
617.478880	0.274893
617.687397	0.275000
617.895895	0.275369
618.104375	0.275740
618.312837	0.276118
618.521281	0.276174
618.729706	0.276374
618.938113	0.276675
619.146502	0.276891
619.354873	0.277406
619.563226	0.277566
619.771560	0.277658
619.979876	0.277852
620.188174	0.277941
620.396453	0.278460
620.604715	0.278578
620.812958	0.278607
621.021183	0.278654
621.229390	0.278831
621.437578	0.279002
621.645748	0.279286
621.853900	0.279454
622.062034	0.279641
622.270150	0.279338
622.478247	0.279441
622.686326	0.279440
622.894387	0.279807
623.102430	0.280279
623.310454	0.280276
623.518461	0.280236
623.726449	0.279931
623.934418	0.279690
624.142370	0.279913
624.350303	0.280074
624.558218	0.280007
624.766115	0.279937
624.973994	0.279521
625.181855	0.279790
625.389697	0.280137
625.597521	0.280595
625.805327	0.281044
626.013114	0.281552
626.220883	0.281704
626.428634	0.282058
626.636367	0.282423
626.844082	0.282533
627.051778	0.282757
627.259457	0.283150
627.467117	0.283151
627.674758	0.283331
627.882382	0.283281
628.089987	0.283361
628.297574	0.283703
628.505143	0.283821
628.712694	0.284290
628.920226	0.284280
629.127740	0.284022
629.335236	0.284199
629.542714	0.284348
629.750174	0.284535
629.957615	0.284762
630.165038	0.284980
630.372443	0.285284
630.579829	0.285324
630.787198	0.285458
630.994548	0.285709
631.201880	0.285954
631.409194	0.286259
631.616489	0.286224
631.823766	0.286437
632.031025	0.286366
632.238266	0.286410
632.445489	0.286534
632.652693	0.286748
632.859879	0.287195
633.067047	0.287357
633.274197	0.287272
633.481329	0.287421
633.688442	0.287617
633.895537	0.287816
634.102614	0.287893
634.309672	0.288206
634.516713	0.288311
634.723735	0.288339
634.930739	0.288800
635.137724	0.289182
635.344692	0.289393
635.551641	0.289411
635.758572	0.289595
635.965485	0.289809
636.172379	0.289996
636.379256	0.290179
636.586114	0.290236
636.792954	0.289883
636.999775	0.290087
637.206579	0.290374
637.413364	0.290686
637.620131	0.290759
637.826880	0.290840
638.033610	0.290876
638.240323	0.290897
638.447017	0.291008
638.653692	0.291375
638.860350	0.291428
639.066990	0.291667
639.273611	0.291790
639.480214	0.292221
639.686798	0.292494
639.893365	0.292758
640.099913	0.293115
640.306443	0.293313
640.512955	0.293643
640.719449	0.293895
640.925924	0.294011
641.132381	0.294017
641.338820	0.293964
641.545241	0.294419
641.751644	0.294669
641.958028	0.294894
642.164394	0.295184
642.370742	0.295194
642.577071	0.295316
642.783383	0.295420
642.989676	0.295526
643.195951	0.295617
643.402207	0.295595
643.608446	0.295642
643.814666	0.295783
644.020868	0.296196
644.227052	0.296376
644.433218	0.296614
644.639365	0.296695
644.845494	0.297047
645.051605	0.297454
645.257698	0.297491
645.463772	0.297540
645.669828	0.297740
645.875866	0.297626
646.081886	0.297951
646.287888	0.297972
646.493871	0.298293
646.699836	0.298458
646.905783	0.298879
647.111712	0.299071
647.317622	0.299125
647.523514	0.299260
647.729388	0.299385
647.935244	0.299448
648.141082	0.299750
648.346901	0.299819
648.552702	0.300331
648.758485	0.300493
648.964250	0.300685
649.169996	0.301436
649.375724	0.301632
649.581434	0.301936
649.787126	0.302299
649.992800	0.302243
650.198455	0.302388
650.404092	0.302269
650.609711	0.302083
650.815311	0.302315
651.020894	0.301997
651.226458	0.302304
651.432004	0.302516
651.637532	0.302437
651.843041	0.302732
652.048532	0.303032
652.254006	0.303297
652.459460	0.303694
652.664897	0.303956
652.870315	0.304213
653.075716	0.304238
653.281097	0.304373
653.486461	0.304715
653.691807	0.304898
653.897134	0.305221
654.102443	0.305516
654.307734	0.305767
654.513006	0.305625
654.718261	0.306233
654.923497	0.306799
655.128715	0.307020
655.333915	0.307293
655.539096	0.307770
655.744259	0.307843
655.949404	0.308055
656.154531	0.308191
656.359640	0.308695
656.564730	0.308532
656.769802	0.308441
656.974856	0.308523
657.179892	0.308591
657.384909	0.308650
657.589908	0.308687
657.794889	0.308814
657.999852	0.308773
658.204797	0.308902
658.409723	0.309258
658.614631	0.309689
658.819521	0.309947
659.024393	0.310300
659.229246	0.310483
659.434081	0.311045
659.638898	0.311380
659.843697	0.311675
660.048478	0.311936
660.253240	0.312207
660.457984	0.312426
660.662710	0.312548
660.867417	0.312707
661.072107	0.312960
661.276778	0.313004
661.481431	0.313011
661.686066	0.313321
661.890682	0.313607
662.095281	0.313907
662.299861	0.313906
662.504422	0.314194
662.708966	0.314530
662.913491	0.314837
663.117999	0.315012
663.322488	0.315427
663.526958	0.315654
663.731411	0.315948
663.935845	0.316014
664.140261	0.316191
664.344659	0.316342
664.549038	0.316567
664.753400	0.316666
664.957743	0.316876
665.162068	0.316843
665.366375	0.316771
665.570663	0.316629
665.774933	0.316600
665.979185	0.316726
666.183419	0.317022
666.387635	0.317197
666.591832	0.317415
666.796011	0.317785
667.000172	0.318204
667.204315	0.318723
667.408439	0.319067
667.612545	0.319530
667.816634	0.320101
668.020703	0.320191
668.224755	0.320252
668.428788	0.320371
668.632803	0.320513
668.836800	0.320459
669.040779	0.320487
669.244739	0.320938
669.448681	0.321334
669.652605	0.321282
669.856511	0.321704
670.060399	0.321854
670.264268	0.322303
670.468119	0.322539
670.671952	0.322652
670.875767	0.322922
671.079563	0.323042
671.283341	0.323128
671.487101	0.323417
671.690843	0.323577
671.894567	0.323914
672.098272	0.323827
672.301959	0.324158
672.505628	0.324686
672.709278	0.325389
672.912911	0.325553
673.116525	0.325660
673.320121	0.325802
673.523699	0.326115
673.727258	0.326480
673.930799	0.326958
674.134322	0.327098
674.337827	0.327327
674.541314	0.326989
674.744782	0.327205
674.948232	0.327536
675.151664	0.327780
675.355078	0.327934
675.558474	0.327878
675.761851	0.327981
675.965210	0.328193
676.168551	0.328385
676.371873	0.328991
676.575178	0.329388
676.778464	0.329722
676.981732	0.330067
677.184981	0.330210
677.388213	0.330503
677.591426	0.330769
677.794621	0.331106
677.997798	0.331289
678.200956	0.331226
678.404097	0.331397
678.607219	0.331468
678.810323	0.331679
679.013408	0.332012
679.216476	0.332267
679.419525	0.332560
679.622556	0.332768
679.825569	0.332986
680.028563	0.333727
680.231540	0.333747
680.434498	0.333996
680.637438	0.334349
680.840359	0.334708
681.043263	0.334922
681.246148	0.335389
681.449015	0.335638
681.651864	0.336186
681.854694	0.336072
682.057506	0.336372
682.260301	0.336797
682.463076	0.337046
682.665834	0.337051
682.868573	0.337759
683.071295	0.337698
683.273998	0.338164
683.476682	0.338129
683.679349	0.338400
683.881997	0.338625
684.084627	0.338761
684.287239	0.338720
684.489833	0.339013
684.692408	0.338916
684.894965	0.339282
685.097504	0.339378
685.300025	0.339922
685.502527	0.339944
685.705012	0.340199
685.907478	0.340504
686.109925	0.341021
686.312355	0.341229
686.514766	0.341514
686.717159	0.341741
686.919534	0.341874
687.121891	0.341604
687.324230	0.342022
687.526550	0.342195
687.728852	0.342394
687.931136	0.342413
688.133401	0.342728
688.335649	0.342669
688.537878	0.342764
688.740089	0.342970
688.942281	0.343204
689.144456	0.343150
689.346612	0.343415
689.548750	0.343153
689.750870	0.343299
689.952971	0.343179
690.155055	0.343660
690.357120	0.343470
690.559167	0.343356
690.761195	0.343743
690.963206	0.343892
691.165198	0.344127
691.367172	0.344532
691.569128	0.344556
691.771065	0.344785
691.972984	0.344663
692.174885	0.345240
692.376768	0.345461
692.578633	0.345396
692.780479	0.345788
692.982308	0.345987
693.184118	0.346193
693.385909	0.346518
693.587683	0.346917
