sample name	sample
index	1188
start time	 04-26-2021  12:07:23 PM


Wavelength (nm)	Absorbance
494.344910	-0.728321
494.563924	-0.728321
494.782919	-0.728321
495.001897	NaN
495.220856	0.222349
495.439797	0.522603
495.658719	0.540685
495.877624	0.955533
496.096510	0.408029
496.315378	0.816748
496.534227	0.508303
496.753059	0.970474
496.971872	1.147260
497.190667	0.191348
497.409444	0.191914
497.628203	0.196555
497.846943	0.195470
498.065665	0.199259
498.284369	0.197604
498.503055	0.196116
498.721723	0.196297
498.940372	0.195301
499.159003	0.194920
499.377616	0.195583
499.596210	0.194362
499.814787	0.193520
500.033345	0.191811
500.251885	0.192017
500.470406	0.192045
500.688910	0.192349
500.907395	0.192820
501.125862	0.193996
501.344311	0.193788
501.562742	0.194602
501.781154	0.195159
501.999548	0.195234
502.217924	0.196097
502.436282	0.197959
502.654621	0.196482
502.872942	0.195626
503.091245	0.196846
503.309530	0.196285
503.527797	0.195609
503.746045	0.197897
503.964275	0.198224
504.182487	0.197736
504.400681	0.196769
504.618856	0.197186
504.837013	0.198053
505.055152	0.196094
505.273273	0.196566
505.491376	0.196723
505.709460	0.195147
505.927526	0.194768
506.145574	0.195604
506.363604	0.196037
506.581615	0.195698
506.799608	0.195424
507.017583	0.195922
507.235540	0.196985
507.453478	0.198595
507.671399	0.198865
507.889301	0.198898
508.107185	0.197802
508.325050	0.198645
508.542898	0.199550
508.760727	0.199514
508.978538	0.199500
509.196330	0.198022
509.414105	0.197528
509.631861	0.198125
509.849599	0.199554
510.067319	0.199669
510.285021	0.200520
510.502704	0.200246
510.720369	0.201036
510.938016	0.201690
511.155645	0.202462
511.373255	0.200783
511.590848	0.200164
511.808422	0.198387
512.025977	0.197832
512.243515	0.196522
512.461034	0.196675
512.678536	0.197184
512.896018	0.197718
513.113483	0.197953
513.330930	0.199772
513.548358	0.200712
513.765768	0.200937
513.983160	0.202779
514.200533	0.202642
514.417889	0.204022
514.635226	0.203164
514.852545	0.203253
515.069845	0.204398
515.287128	0.204868
515.504392	0.205658
515.721638	0.206253
515.938866	0.204874
516.156075	0.204803
516.373267	0.204249
516.590440	0.205118
516.807594	0.204867
517.024731	0.204372
517.241850	0.204186
517.458950	0.203465
517.676032	0.203781
517.893095	0.205757
518.110141	0.205799
518.327168	0.205679
518.544177	0.205743
518.761168	0.206253
518.978141	0.207057
519.195095	0.207462
519.412031	0.208352
519.628949	0.209242
519.845849	0.209892
520.062731	0.210409
520.279594	0.211134
520.496439	0.211026
520.713266	0.210276
520.930074	0.209899
521.146865	0.209005
521.363637	0.208298
521.580391	0.208516
521.797127	0.208226
522.013844	0.209008
522.230543	0.208907
522.447224	0.209877
522.663887	0.210240
522.880532	0.210926
523.097158	0.212507
523.313766	0.212439
523.530356	0.212427
523.746928	0.212592
523.963481	0.212250
524.180017	0.212945
524.396534	0.212591
524.613032	0.213243
524.829513	0.213298
525.045975	0.212849
525.262420	0.213641
525.478845	0.214261
525.695253	0.214485
525.911643	0.215194
526.128014	0.215388
526.344367	0.215763
526.560702	0.216112
526.777018	0.215746
526.993316	0.216210
527.209597	0.217333
527.425858	0.217163
527.642102	0.216970
527.858328	0.217811
528.074535	0.217175
528.290724	0.217274
528.506894	0.217132
528.723047	0.217825
528.939181	0.218100
529.155297	0.217690
529.371395	0.217970
529.587475	0.218090
529.803536	0.217772
530.019579	0.218758
530.235604	0.218444
530.451611	0.218126
530.667600	0.218200
530.883570	0.218278
531.099522	0.218620
531.315456	0.218460
531.531372	0.218183
531.747269	0.218661
531.963148	0.218653
532.179009	0.220112
532.394852	0.220128
532.610676	0.220335
532.826482	0.221072
533.042271	0.221874
533.258040	0.223124
533.473792	0.224639
533.689525	0.224559
533.905240	0.224919
534.120937	0.224815
534.336616	0.226719
534.552277	0.227118
534.767919	0.227425
534.983543	0.227329
535.199149	0.227721
535.414736	0.227855
535.630306	0.228972
535.845857	0.228869
536.061390	0.229391
536.276904	0.229376
536.492401	0.229387
536.707879	0.229392
536.923339	0.229489
537.138781	0.229410
537.354204	0.229379
537.569610	0.228967
537.784997	0.230378
538.000366	0.230272
538.215716	0.230679
538.431049	0.231262
538.646363	0.231450
538.861659	0.231877
539.076937	0.232592
539.292196	0.232811
539.507438	0.233394
539.722661	0.232772
539.937866	0.233675
540.153052	0.233740
540.368221	0.234254
540.583371	0.234573
540.798503	0.234405
541.013617	0.234175
541.228712	0.235155
541.443789	0.235477
541.658848	0.236410
541.873889	0.236328
542.088912	0.236825
542.303916	0.237093
542.518902	0.237856
542.733870	0.238049
542.948820	0.238983
543.163752	0.239386
543.378665	0.239217
543.593560	0.239190
543.808437	0.239721
544.023295	0.240305
544.238136	0.240637
544.452958	0.240689
544.667762	0.241307
544.882548	0.241224
545.097315	0.241311
545.312064	0.241905
545.526795	0.242141
545.741508	0.242539
545.956203	0.242550
546.170879	0.242825
546.385537	0.242981
546.600177	0.243459
546.814799	0.243738
547.029402	0.243648
547.243988	0.243940
547.458555	0.244150
547.673103	0.244256
547.887634	0.244752
548.102146	0.245037
548.316640	0.245762
548.531116	0.246128
548.745574	0.246254
548.960013	0.246341
549.174435	0.246652
549.388838	0.247416
549.603222	0.247633
549.817589	0.246808
550.031937	0.246886
550.246267	0.246869
550.460579	0.246890
550.674873	0.246527
550.889148	0.247221
551.103405	0.247322
551.317644	0.246866
551.531865	0.246573
551.746068	0.247618
551.960252	0.247995
552.174418	0.247845
552.388566	0.248015
552.602696	0.248476
552.816807	0.248107
553.030900	0.248343
553.244975	0.248633
553.459032	0.249051
553.673070	0.249289
553.887091	0.249089
554.101093	0.249211
554.315077	0.249361
554.529042	0.249529
554.742990	0.249823
554.956919	0.249788
555.170830	0.250401
555.384722	0.250565
555.598597	0.250477
555.812453	0.250906
556.026291	0.251129
556.240111	0.251308
556.453913	0.251659
556.667696	0.252645
556.881461	0.253277
557.095208	0.253160
557.308937	0.253348
557.522647	0.253679
557.736339	0.253785
557.950013	0.254220
558.163669	0.254284
558.377307	0.255079
558.590926	0.254831
558.804527	0.254772
559.018110	0.255243
559.231675	0.256017
559.445221	0.256545
559.658749	0.256604
559.872259	0.256487
560.085751	0.256672
560.299225	0.256250
560.512680	0.256014
560.726117	0.255918
560.939536	0.255469
561.152937	0.255128
561.366319	0.254896
561.579683	0.255504
561.793029	0.255798
562.006357	0.255775
562.219667	0.255690
562.432958	0.255687
562.646231	0.256221
562.859486	0.256729
563.072723	0.257139
563.285941	0.256780
563.499141	0.256640
563.712323	0.257124
563.925487	0.257314
564.138632	0.257532
564.351760	0.258164
564.564869	0.258006
564.777960	0.257819
564.991032	0.257362
565.204087	0.257532
565.417123	0.257868
565.630141	0.257668
565.843140	0.257876
566.056122	0.258275
566.269085	0.257963
566.482030	0.258342
566.694957	0.258935
566.907866	0.259650
567.120756	0.260038
567.333628	0.259832
567.546482	0.259810
567.759318	0.260061
567.972135	0.260289
568.184935	0.261094
568.397716	0.260981
568.610478	0.261224
568.823223	0.261250
569.035949	0.261488
569.248657	0.261872
569.461347	0.262458
569.674019	0.262700
569.886672	0.262870
570.099308	0.263127
570.311925	0.263249
570.524523	0.263211
570.737104	0.263615
570.949666	0.264168
571.162210	0.264858
571.374736	0.264595
571.587244	0.264689
571.799733	0.264523
572.012205	0.264526
572.224658	0.265301
572.437092	0.265264
572.649509	0.265512
572.861907	0.265365
573.074287	0.264794
573.286649	0.265348
573.498993	0.265672
573.711318	0.265842
573.923625	0.265985
574.135914	0.265961
574.348185	0.265908
574.560438	0.265992
574.772672	0.266499
574.984888	0.267204
575.197086	0.266965
575.409266	0.267462
575.621427	0.267580
575.833570	0.267694
576.045695	0.267566
576.257802	0.268445
576.469890	0.268780
576.681961	0.268985
576.894013	0.269108
577.106046	0.269570
577.318062	0.269320
577.530059	0.269455
577.742039	0.269275
577.954000	0.269610
578.165942	0.269496
578.377867	0.269388
578.589773	0.268878
578.801661	0.268821
579.013531	0.269280
579.225382	0.269979
579.437216	0.270358
579.649031	0.270995
579.860828	0.271288
580.072606	0.271502
580.284367	0.271316
580.496109	0.271721
580.707833	0.271716
580.919539	0.271424
581.131227	0.270805
581.342896	0.271490
581.554547	0.271949
581.766180	0.272130
581.977795	0.272858
582.189391	0.273158
582.400969	0.273475
582.612529	0.274131
582.824071	0.274486
583.035595	0.275314
583.247100	0.274839
583.458587	0.274509
583.670056	0.274766
583.881506	0.274398
584.092939	0.274850
584.304353	0.275320
584.515749	0.275191
584.727127	0.275339
584.938486	0.275339
585.149828	0.276139
585.361151	0.276526
585.572456	0.276938
585.783742	0.277475
585.995011	0.277641
586.206261	0.277455
586.417493	0.277618
586.628706	0.278198
586.839902	0.278695
587.051079	0.278240
587.262238	0.278377
587.473379	0.278395
587.684502	0.278339
587.895606	0.278844
588.106692	0.279351
588.317760	0.279429
588.528810	0.279300
588.739841	0.279451
588.950855	0.280051
589.161850	0.280367
589.372827	0.279995
589.583785	0.280149
589.794726	0.280651
590.005648	0.280583
590.216552	0.281012
590.427437	0.281290
590.638305	0.280836
590.849154	0.281121
591.059985	0.281149
591.270798	0.282004
591.481592	0.282335
591.692369	0.282502
591.903127	0.282887
592.113867	0.283024
592.324588	0.283893
592.535292	0.284398
592.745977	0.284441
592.956644	0.284787
593.167293	0.284712
593.377923	0.284778
593.588536	0.284460
593.799130	0.285038
594.009706	0.285877
594.220263	0.285076
594.430803	0.285543
594.641324	0.285654
594.851827	0.285565
595.062312	0.285958
595.272778	0.285791
595.483227	0.285850
595.693657	0.285927
595.904069	0.285389
596.114462	0.285827
596.324838	0.285475
596.535195	0.285763
596.745534	0.285990
596.955855	0.285822
597.166157	0.286325
597.376441	0.286995
597.586707	0.287125
597.796955	0.287538
598.007185	0.288062
598.217396	0.288578
598.427589	0.288843
598.637764	0.289267
598.847921	0.289795
599.058060	0.290253
599.268180	0.290198
599.478282	0.290116
599.688366	0.289933
599.898431	0.289815
600.108479	0.289933
600.318508	0.289896
600.528519	0.290173
600.738511	0.289946
600.948486	0.289871
601.158442	0.290197
601.368380	0.290588
601.578300	0.291046
601.788202	0.291239
601.998085	0.291278
602.207950	0.291397
602.417797	0.291242
602.627626	0.291665
602.837436	0.292298
603.047228	0.292211
603.257002	0.292193
603.466758	0.292378
603.676496	0.292543
603.886215	0.293236
604.095916	0.293595
604.305599	0.293906
604.515264	0.294234
604.724910	0.294645
604.934538	0.294821
605.144148	0.295104
605.353740	0.295366
605.563314	0.295726
605.772869	0.295554
605.982406	0.295589
606.191925	0.295856
606.401425	0.296274
606.610908	0.296209
606.820372	0.296251
607.029818	0.296449
607.239246	0.296607
607.448655	0.296792
607.658047	0.297053
607.867420	0.297358
608.076775	0.297374
608.286111	0.297459
608.495430	0.297499
608.704730	0.298016
608.914012	0.297886
609.123275	0.297812
609.332521	0.298052
609.541748	0.297931
609.750957	0.298033
609.960148	0.298125
610.169321	0.298226
610.378475	0.298091
610.587611	0.297760
610.796729	0.297597
611.005829	0.297990
611.214910	0.297929
611.423974	0.298402
611.633019	0.298732
611.842045	0.299154
612.051054	0.299471
612.260044	0.300155
612.469017	0.300527
612.677970	0.301578
612.886906	0.301998
613.095824	0.302389
613.304723	0.302674
613.513604	0.302681
613.722467	0.302801
613.931311	0.302605
614.140138	0.302354
614.348946	0.302668
614.557736	0.302715
614.766507	0.302732
614.975261	0.302784
615.183996	0.302442
615.392713	0.302781
615.601412	0.302816
615.810092	0.302712
616.018754	0.302886
616.227399	0.303015
616.436024	0.303033
616.644632	0.303266
616.853222	0.303294
617.061793	0.303843
617.270346	0.303949
617.478880	0.304242
617.687397	0.304313
617.895895	0.304424
618.104375	0.304715
618.312837	0.304550
618.521281	0.304446
618.729706	0.304691
618.938113	0.304821
619.146502	0.304788
619.354873	0.304641
619.563226	0.304937
619.771560	0.304930
619.979876	0.304785
620.188174	0.305121
620.396453	0.305280
620.604715	0.305198
620.812958	0.305170
621.021183	0.305109
621.229390	0.305552
621.437578	0.305885
621.645748	0.306252
621.853900	0.306547
622.062034	0.306957
622.270150	0.307034
622.478247	0.307337
622.686326	0.307575
622.894387	0.308105
623.102430	0.308280
623.310454	0.308544
623.518461	0.308723
623.726449	0.308835
623.934418	0.308872
624.142370	0.309169
624.350303	0.309661
624.558218	0.309855
624.766115	0.309882
624.973994	0.310117
625.181855	0.310106
625.389697	0.310195
625.597521	0.310657
625.805327	0.310757
626.013114	0.310896
626.220883	0.311186
626.428634	0.311399
626.636367	0.311829
626.844082	0.312087
627.051778	0.312570
627.259457	0.313025
627.467117	0.313259
627.674758	0.313363
627.882382	0.313216
628.089987	0.313304
628.297574	0.313159
628.505143	0.313196
628.712694	0.313252
628.920226	0.313500
629.127740	0.313388
629.335236	0.313175
629.542714	0.313548
629.750174	0.314138
629.957615	0.313905
630.165038	0.314142
630.372443	0.314302
630.579829	0.314280
630.787198	0.314271
630.994548	0.314808
631.201880	0.314623
631.409194	0.314493
631.616489	0.314818
631.823766	0.314950
632.031025	0.315207
632.238266	0.315438
632.445489	0.315830
632.652693	0.315598
632.859879	0.315414
633.067047	0.316084
633.274197	0.316211
633.481329	0.316434
633.688442	0.316785
633.895537	0.317088
634.102614	0.317282
634.309672	0.317387
634.516713	0.317824
634.723735	0.317917
634.930739	0.318240
635.137724	0.318549
635.344692	0.318459
635.551641	0.318743
635.758572	0.318841
635.965485	0.319097
636.172379	0.319239
636.379256	0.319499
636.586114	0.319667
636.792954	0.319588
636.999775	0.319757
637.206579	0.319933
637.413364	0.319837
637.620131	0.319887
637.826880	0.319752
638.033610	0.319748
638.240323	0.319716
638.447017	0.319706
638.653692	0.320023
638.860350	0.320160
639.066990	0.320430
639.273611	0.320451
639.480214	0.320944
639.686798	0.321331
639.893365	0.321336
640.099913	0.321462
640.306443	0.321897
640.512955	0.321556
640.719449	0.321830
640.925924	0.321680
641.132381	0.322104
641.338820	0.322120
641.545241	0.322444
641.751644	0.322863
641.958028	0.323174
642.164394	0.323386
642.370742	0.323964
642.577071	0.324182
642.783383	0.324523
642.989676	0.324876
643.195951	0.324703
643.402207	0.324844
643.608446	0.325235
643.814666	0.325413
644.020868	0.325732
644.227052	0.325982
644.433218	0.326106
644.639365	0.326214
644.845494	0.326238
645.051605	0.326912
645.257698	0.326841
645.463772	0.326751
645.669828	0.326908
645.875866	0.326911
646.081886	0.327214
646.287888	0.327465
646.493871	0.327858
646.699836	0.328085
646.905783	0.328229
647.111712	0.328537
647.317622	0.328921
647.523514	0.329061
647.729388	0.329134
647.935244	0.329497
648.141082	0.329335
648.346901	0.329686
648.552702	0.329804
648.758485	0.329934
648.964250	0.330129
649.169996	0.330097
649.375724	0.330397
649.581434	0.330898
649.787126	0.330796
649.992800	0.331686
650.198455	0.331328
650.404092	0.331500
650.609711	0.331570
650.815311	0.331673
651.020894	0.331726
651.226458	0.332044
651.432004	0.332225
651.637532	0.332213
651.843041	0.331799
652.048532	0.332198
652.254006	0.332528
652.459460	0.332902
652.664897	0.333198
652.870315	0.333435
653.075716	0.333393
653.281097	0.333210
653.486461	0.333545
653.691807	0.333947
653.897134	0.334234
654.102443	0.334124
654.307734	0.334337
654.513006	0.334564
654.718261	0.334877
654.923497	0.335283
655.128715	0.336017
655.333915	0.336138
655.539096	0.336147
655.744259	0.336359
655.949404	0.336801
656.154531	0.336958
656.359640	0.337083
656.564730	0.337196
656.769802	0.337353
656.974856	0.337149
657.179892	0.337665
657.384909	0.338007
657.589908	0.338055
657.794889	0.338573
657.999852	0.338750
658.204797	0.338957
658.409723	0.339013
658.614631	0.339271
658.819521	0.339560
659.024393	0.339546
659.229246	0.339576
659.434081	0.339810
659.638898	0.339866
659.843697	0.340057
660.048478	0.340355
660.253240	0.341127
660.457984	0.341486
660.662710	0.341836
660.867417	0.341941
661.072107	0.342524
661.276778	0.342716
661.481431	0.342886
661.686066	0.343247
661.890682	0.343563
662.095281	0.343750
662.299861	0.343662
662.504422	0.343943
662.708966	0.344252
662.913491	0.344594
663.117999	0.345211
663.322488	0.345447
663.526958	0.345802
663.731411	0.345946
663.935845	0.345870
664.140261	0.346307
664.344659	0.346355
664.549038	0.346712
664.753400	0.346701
664.957743	0.346780
665.162068	0.346835
665.366375	0.346753
665.570663	0.347161
665.774933	0.347767
665.979185	0.347808
666.183419	0.348029
666.387635	0.348051
666.591832	0.348616
666.796011	0.348873
667.000172	0.349208
667.204315	0.349595
667.408439	0.349714
667.612545	0.349770
667.816634	0.350339
668.020703	0.350510
668.224755	0.350883
668.428788	0.351047
668.632803	0.351228
668.836800	0.351479
669.040779	0.351723
669.244739	0.352057
669.448681	0.352468
669.652605	0.352572
669.856511	0.353174
670.060399	0.353638
670.264268	0.353816
670.468119	0.354044
670.671952	0.354160
670.875767	0.354383
671.079563	0.354422
671.283341	0.354154
671.487101	0.354402
671.690843	0.354506
671.894567	0.354210
672.098272	0.354431
672.301959	0.354215
672.505628	0.354559
672.709278	0.354846
672.912911	0.355162
673.116525	0.355687
673.320121	0.355756
673.523699	0.355814
673.727258	0.356234
673.930799	0.356509
674.134322	0.357210
674.337827	0.357331
674.541314	0.357226
674.744782	0.357658
674.948232	0.357893
675.151664	0.358226
675.355078	0.358546
675.558474	0.359023
675.761851	0.358978
675.965210	0.359401
676.168551	0.359921
676.371873	0.360804
676.575178	0.360701
676.778464	0.361184
676.981732	0.361427
677.184981	0.361886
677.388213	0.362290
677.591426	0.362770
677.794621	0.363049
677.997798	0.363469
678.200956	0.363492
678.404097	0.363972
678.607219	0.364302
678.810323	0.364800
679.013408	0.364563
679.216476	0.364799
679.419525	0.364986
679.622556	0.365099
679.825569	0.365361
680.028563	0.365486
680.231540	0.365684
680.434498	0.365824
680.637438	0.365918
680.840359	0.366485
681.043263	0.366538
681.246148	0.366609
681.449015	0.366817
681.651864	0.366954
681.854694	0.367131
682.057506	0.367431
682.260301	0.367615
682.463076	0.367734
682.665834	0.367901
682.868573	0.368395
683.071295	0.368796
683.273998	0.368781
683.476682	0.368974
683.679349	0.369355
683.881997	0.369554
684.084627	0.369761
684.287239	0.370008
684.489833	0.370186
684.692408	0.370069
684.894965	0.370157
685.097504	0.370597
685.300025	0.370371
685.502527	0.370425
685.705012	0.370795
685.907478	0.370987
686.109925	0.371319
686.312355	0.371431
686.514766	0.371810
686.717159	0.372498
686.919534	0.372696
687.121891	0.373027
687.324230	0.373509
687.526550	0.373519
687.728852	0.373804
687.931136	0.374033
688.133401	0.374338
688.335649	0.374567
688.537878	0.374497
688.740089	0.374609
688.942281	0.375118
689.144456	0.375152
689.346612	0.375203
689.548750	0.375113
689.750870	0.375145
689.952971	0.375468
690.155055	0.375787
690.357120	0.376018
690.559167	0.376349
690.761195	0.376865
690.963206	0.377174
691.165198	0.377420
691.367172	0.377771
691.569128	0.377922
691.771065	0.378392
691.972984	0.378319
692.174885	0.378740
692.376768	0.379135
692.578633	0.378902
692.780479	0.378903
692.982308	0.379064
693.184118	0.379343
693.385909	0.379740
