sample name	sample
index	269
start time	 02-25-2021  11:28:25 AM


Wavelength (nm)	Absorbance
494.344910	-0.112072
494.563924	-0.112072
494.782919	-0.112072
495.001897	-0.042327
495.220856	-0.003371
495.439797	-0.008909
495.658719	0.026872
495.877624	0.005949
496.096510	0.016144
496.315378	0.033989
496.534227	0.001599
496.753059	-0.042554
496.971872	-0.011202
497.190667	0.033810
497.409444	0.048756
497.628203	0.048237
497.846943	0.052799
498.065665	0.052378
498.284369	0.052562
498.503055	0.053383
498.721723	0.055047
498.940372	0.054319
499.159003	0.055149
499.377616	0.054396
499.596210	0.055322
499.814787	0.055461
500.033345	0.056421
500.251885	0.056189
500.470406	0.056113
500.688910	0.055714
500.907395	0.056376
501.125862	0.056648
501.344311	0.057220
501.562742	0.056257
501.781154	0.055523
501.999548	0.054885
502.217924	0.055312
502.436282	0.055063
502.654621	0.054981
502.872942	0.054767
503.091245	0.054970
503.309530	0.055249
503.527797	0.056161
503.746045	0.055312
503.964275	0.056453
504.182487	0.056633
504.400681	0.056867
504.618856	0.057747
504.837013	0.058031
505.055152	0.056886
505.273273	0.056683
505.491376	0.056650
505.709460	0.058151
505.927526	0.057768
506.145574	0.057685
506.363604	0.057206
506.581615	0.056433
506.799608	0.056322
507.017583	0.056969
507.235540	0.057336
507.453478	0.057294
507.671399	0.056216
507.889301	0.055652
508.107185	0.055548
508.325050	0.056460
508.542898	0.057069
508.760727	0.057463
508.978538	0.057694
509.196330	0.057989
509.414105	0.057600
509.631861	0.058933
509.849599	0.060012
510.067319	0.061119
510.285021	0.060957
510.502704	0.060544
510.720369	0.060569
510.938016	0.060159
511.155645	0.060080
511.373255	0.060289
511.590848	0.060793
511.808422	0.059752
512.025977	0.059093
512.243515	0.058416
512.461034	0.059242
512.678536	0.059096
512.896018	0.060249
513.113483	0.060186
513.330930	0.059963
513.548358	0.059971
513.765768	0.059398
513.983160	0.059177
514.200533	0.059751
514.417889	0.058893
514.635226	0.058432
514.852545	0.057881
515.069845	0.057794
515.287128	0.058216
515.504392	0.057931
515.721638	0.058840
515.938866	0.058887
516.156075	0.059568
516.373267	0.059701
516.590440	0.059978
516.807594	0.060105
517.024731	0.060592
517.241850	0.060953
517.458950	0.060831
517.676032	0.060775
517.893095	0.061035
518.110141	0.060993
518.327168	0.060735
518.544177	0.060984
518.761168	0.060704
518.978141	0.060377
519.195095	0.060760
519.412031	0.060671
519.628949	0.060844
519.845849	0.061645
520.062731	0.061010
520.279594	0.061792
520.496439	0.061819
520.713266	0.062919
520.930074	0.063210
521.146865	0.063448
521.363637	0.063798
521.580391	0.064092
521.797127	0.063655
522.013844	0.064113
522.230543	0.064302
522.447224	0.064742
522.663887	0.064392
522.880532	0.064446
523.097158	0.063780
523.313766	0.063119
523.530356	0.063512
523.746928	0.063744
523.963481	0.063782
524.180017	0.063840
524.396534	0.063626
524.613032	0.063989
524.829513	0.064732
525.045975	0.065280
525.262420	0.066500
525.478845	0.066664
525.695253	0.066366
525.911643	0.066431
526.128014	0.067012
526.344367	0.067327
526.560702	0.067676
526.777018	0.067091
526.993316	0.067289
527.209597	0.066946
527.425858	0.067098
527.642102	0.067838
527.858328	0.068481
528.074535	0.068035
528.290724	0.068331
528.506894	0.067978
528.723047	0.068457
528.939181	0.068370
529.155297	0.068303
529.371395	0.067793
529.587475	0.067797
529.803536	0.067720
530.019579	0.067988
530.235604	0.068128
530.451611	0.068052
530.667600	0.068007
530.883570	0.068581
531.099522	0.069387
531.315456	0.069818
531.531372	0.069429
531.747269	0.069697
531.963148	0.069991
532.179009	0.070433
532.394852	0.071088
532.610676	0.071663
532.826482	0.071601
533.042271	0.071075
533.258040	0.071348
533.473792	0.071927
533.689525	0.072397
533.905240	0.072777
534.120937	0.072478
534.336616	0.071845
534.552277	0.071705
534.767919	0.071830
534.983543	0.071797
535.199149	0.071540
535.414736	0.071488
535.630306	0.071293
535.845857	0.071255
536.061390	0.071474
536.276904	0.071805
536.492401	0.072063
536.707879	0.072571
536.923339	0.073018
537.138781	0.073307
537.354204	0.073879
537.569610	0.073864
537.784997	0.074033
538.000366	0.074130
538.215716	0.075004
538.431049	0.074921
538.646363	0.074796
538.861659	0.075467
539.076937	0.076007
539.292196	0.076029
539.507438	0.075942
539.722661	0.075342
539.937866	0.075531
540.153052	0.075012
540.368221	0.074933
540.583371	0.074834
540.798503	0.074958
541.013617	0.074572
541.228712	0.074295
541.443789	0.074864
541.658848	0.075614
541.873889	0.075724
542.088912	0.076366
542.303916	0.076422
542.518902	0.076682
542.733870	0.076684
542.948820	0.077215
543.163752	0.077049
543.378665	0.077050
543.593560	0.076887
543.808437	0.077081
544.023295	0.077547
544.238136	0.077848
544.452958	0.077918
544.667762	0.077566
544.882548	0.077725
545.097315	0.078587
545.312064	0.079006
545.526795	0.079734
545.741508	0.079824
545.956203	0.079510
546.170879	0.080139
546.385537	0.080244
546.600177	0.081238
546.814799	0.081208
547.029402	0.080920
547.243988	0.080365
547.458555	0.079811
547.673103	0.079833
547.887634	0.079997
548.102146	0.079847
548.316640	0.080345
548.531116	0.079699
548.745574	0.080054
548.960013	0.080297
549.174435	0.080702
549.388838	0.081250
549.603222	0.081359
549.817589	0.081073
550.031937	0.081267
550.246267	0.080818
550.460579	0.081091
550.674873	0.080946
550.889148	0.081513
551.103405	0.081373
551.317644	0.081557
551.531865	0.081738
551.746068	0.081935
551.960252	0.081616
552.174418	0.082094
552.388566	0.082141
552.602696	0.082283
552.816807	0.081977
553.030900	0.082323
553.244975	0.082076
553.459032	0.082437
553.673070	0.082659
553.887091	0.083062
554.101093	0.083159
554.315077	0.083086
554.529042	0.083515
554.742990	0.083750
554.956919	0.083885
555.170830	0.084418
555.384722	0.084154
555.598597	0.084309
555.812453	0.084649
556.026291	0.084598
556.240111	0.084787
556.453913	0.085123
556.667696	0.085115
556.881461	0.085090
557.095208	0.084736
557.308937	0.084718
557.522647	0.084945
557.736339	0.084976
557.950013	0.085274
558.163669	0.085481
558.377307	0.084892
558.590926	0.085280
558.804527	0.085495
559.018110	0.085733
559.231675	0.085784
559.445221	0.085832
559.658749	0.085791
559.872259	0.085546
560.085751	0.085651
560.299225	0.086418
560.512680	0.086437
560.726117	0.086548
560.939536	0.086669
561.152937	0.087150
561.366319	0.087168
561.579683	0.087027
561.793029	0.087188
562.006357	0.087011
562.219667	0.086594
562.432958	0.086342
562.646231	0.086558
562.859486	0.086490
563.072723	0.086427
563.285941	0.086394
563.499141	0.086618
563.712323	0.086526
563.925487	0.086614
564.138632	0.086714
564.351760	0.086949
564.564869	0.087021
564.777960	0.086983
564.991032	0.087028
565.204087	0.087087
565.417123	0.086844
565.630141	0.087245
565.843140	0.087817
566.056122	0.087543
566.269085	0.087899
566.482030	0.087854
566.694957	0.088251
566.907866	0.088595
567.120756	0.088868
567.333628	0.089057
567.546482	0.089345
567.759318	0.089216
567.972135	0.089759
568.184935	0.089505
568.397716	0.089754
568.610478	0.089618
568.823223	0.089450
569.035949	0.089266
569.248657	0.089468
569.461347	0.088950
569.674019	0.088904
569.886672	0.088712
570.099308	0.088718
570.311925	0.088774
570.524523	0.088835
570.737104	0.088932
570.949666	0.089200
571.162210	0.089018
571.374736	0.089341
571.587244	0.089551
571.799733	0.089867
572.012205	0.089944
572.224658	0.090070
572.437092	0.090203
572.649509	0.090415
572.861907	0.090517
573.074287	0.090884
573.286649	0.091031
573.498993	0.091008
573.711318	0.091197
573.923625	0.091465
574.135914	0.091485
574.348185	0.091685
574.560438	0.091297
574.772672	0.091042
574.984888	0.091167
575.197086	0.091240
575.409266	0.091308
575.621427	0.091132
575.833570	0.091402
576.045695	0.091332
576.257802	0.091320
576.469890	0.091710
576.681961	0.092128
576.894013	0.092146
577.106046	0.092015
577.318062	0.092486
577.530059	0.092544
577.742039	0.092053
577.954000	0.092096
578.165942	0.092197
578.377867	0.092672
578.589773	0.092609
578.801661	0.092572
579.013531	0.092899
579.225382	0.092460
579.437216	0.092766
579.649031	0.093032
579.860828	0.093164
580.072606	0.093279
580.284367	0.093004
580.496109	0.093237
580.707833	0.093708
580.919539	0.093800
581.131227	0.094180
581.342896	0.094266
581.554547	0.094500
581.766180	0.094704
581.977795	0.094611
582.189391	0.094843
582.400969	0.094743
582.612529	0.094868
582.824071	0.095061
583.035595	0.095040
583.247100	0.094954
583.458587	0.094907
583.670056	0.095054
583.881506	0.095529
584.092939	0.095491
584.304353	0.095539
584.515749	0.095608
584.727127	0.095670
584.938486	0.095669
585.149828	0.095527
585.361151	0.095416
585.572456	0.095454
585.783742	0.095197
585.995011	0.095376
586.206261	0.095532
586.417493	0.095380
586.628706	0.095390
586.839902	0.095856
587.051079	0.096111
587.262238	0.096246
587.473379	0.095973
587.684502	0.095909
587.895606	0.095877
588.106692	0.096059
588.317760	0.096002
588.528810	0.096234
588.739841	0.095994
588.950855	0.096166
589.161850	0.096427
589.372827	0.096852
589.583785	0.097224
589.794726	0.097376
590.005648	0.097434
590.216552	0.097789
590.427437	0.097654
590.638305	0.097791
590.849154	0.097805
591.059985	0.097882
591.270798	0.097724
591.481592	0.097621
591.692369	0.097675
591.903127	0.097644
592.113867	0.097655
592.324588	0.097799
592.535292	0.097825
592.745977	0.097971
592.956644	0.098147
593.167293	0.098547
593.377923	0.098585
593.588536	0.098614
593.799130	0.098825
594.009706	0.098707
594.220263	0.098741
594.430803	0.098976
594.641324	0.099375
594.851827	0.099283
595.062312	0.099281
595.272778	0.099635
595.483227	0.099725
595.693657	0.099677
595.904069	0.099981
596.114462	0.100154
596.324838	0.100177
596.535195	0.099907
596.745534	0.100125
596.955855	0.100159
597.166157	0.100100
597.376441	0.099973
597.586707	0.100022
597.796955	0.099760
598.007185	0.099634
598.217396	0.099419
598.427589	0.099352
598.637764	0.099458
598.847921	0.099372
599.058060	0.099517
599.268180	0.099878
599.478282	0.100207
599.688366	0.100757
599.898431	0.100836
600.108479	0.101096
600.318508	0.101570
600.528519	0.101623
600.738511	0.101822
600.948486	0.101901
601.158442	0.101943
601.368380	0.101869
601.578300	0.101709
601.788202	0.101731
601.998085	0.101829
602.207950	0.101953
602.417797	0.102266
602.627626	0.102245
602.837436	0.102173
603.047228	0.102281
603.257002	0.102298
603.466758	0.102315
603.676496	0.102605
603.886215	0.102508
604.095916	0.102482
604.305599	0.101949
604.515264	0.102407
604.724910	0.102673
604.934538	0.102666
605.144148	0.102852
605.353740	0.103042
605.563314	0.102981
605.772869	0.103135
605.982406	0.102787
606.191925	0.103092
606.401425	0.102868
606.610908	0.102904
606.820372	0.102561
607.029818	0.102397
607.239246	0.102289
607.448655	0.102138
607.658047	0.102109
607.867420	0.102184
608.076775	0.102292
608.286111	0.102109
608.495430	0.101997
608.704730	0.102202
608.914012	0.102472
609.123275	0.102726
609.332521	0.103032
609.541748	0.102998
609.750957	0.103169
609.960148	0.103440
610.169321	0.103858
610.378475	0.104031
610.587611	0.104091
610.796729	0.104139
611.005829	0.103995
611.214910	0.104147
611.423974	0.104543
611.633019	0.104473
611.842045	0.104396
612.051054	0.104184
612.260044	0.104361
612.469017	0.104500
612.677970	0.104759
612.886906	0.104855
613.095824	0.104939
613.304723	0.105060
613.513604	0.105420
613.722467	0.105382
613.931311	0.105429
614.140138	0.105467
614.348946	0.105611
614.557736	0.105482
614.766507	0.105792
614.975261	0.105539
615.183996	0.105369
615.392713	0.104896
615.601412	0.105188
615.810092	0.105179
616.018754	0.105456
616.227399	0.105527
616.436024	0.105351
616.644632	0.105117
616.853222	0.105153
617.061793	0.105296
617.270346	0.105916
617.478880	0.105684
617.687397	0.105974
617.895895	0.105720
618.104375	0.105738
618.312837	0.105950
618.521281	0.105962
618.729706	0.106050
618.938113	0.106268
619.146502	0.106333
619.354873	0.106580
619.563226	0.106442
619.771560	0.106570
619.979876	0.106662
620.188174	0.106875
620.396453	0.107014
620.604715	0.107241
620.812958	0.107173
621.021183	0.107093
621.229390	0.107095
621.437578	0.107198
621.645748	0.107368
621.853900	0.107572
622.062034	0.107788
622.270150	0.107968
622.478247	0.108089
622.686326	0.108396
622.894387	0.108533
623.102430	0.108730
623.310454	0.109005
623.518461	0.108906
623.726449	0.109061
623.934418	0.109029
624.142370	0.108990
624.350303	0.109161
624.558218	0.108896
624.766115	0.109093
624.973994	0.109299
625.181855	0.109400
625.389697	0.109560
625.597521	0.109426
625.805327	0.109541
626.013114	0.109792
626.220883	0.110111
626.428634	0.110501
626.636367	0.110589
626.844082	0.110499
627.051778	0.110633
627.259457	0.110868
627.467117	0.111039
627.674758	0.111149
627.882382	0.111146
628.089987	0.111019
628.297574	0.110852
628.505143	0.110828
628.712694	0.110964
628.920226	0.110843
629.127740	0.110588
629.335236	0.110581
629.542714	0.110449
629.750174	0.110578
629.957615	0.110616
630.165038	0.110811
630.372443	0.110957
630.579829	0.110868
630.787198	0.111177
630.994548	0.111310
631.201880	0.111426
631.409194	0.111548
631.616489	0.111567
631.823766	0.111503
632.031025	0.111290
632.238266	0.111207
632.445489	0.111215
632.652693	0.111192
632.859879	0.111298
633.067047	0.111385
633.274197	0.111134
633.481329	0.111057
633.688442	0.111299
633.895537	0.111489
634.102614	0.111633
634.309672	0.111886
634.516713	0.112109
634.723735	0.112378
634.930739	0.112217
635.137724	0.112576
635.344692	0.112922
635.551641	0.112608
635.758572	0.112809
635.965485	0.112760
636.172379	0.112798
636.379256	0.112758
636.586114	0.112439
636.792954	0.112681
636.999775	0.112760
637.206579	0.112735
637.413364	0.112936
637.620131	0.113062
637.826880	0.113143
638.033610	0.113076
638.240323	0.112952
638.447017	0.113438
638.653692	0.113626
638.860350	0.113830
639.066990	0.113749
639.273611	0.113837
639.480214	0.113664
639.686798	0.113832
639.893365	0.113803
640.099913	0.113743
640.306443	0.113574
640.512955	0.113429
640.719449	0.113271
640.925924	0.113555
641.132381	0.113727
641.338820	0.113994
641.545241	0.114178
641.751644	0.114665
641.958028	0.115095
642.164394	0.115392
642.370742	0.115650
642.577071	0.115840
642.783383	0.115922
642.989676	0.115993
643.195951	0.116132
643.402207	0.116198
643.608446	0.116256
643.814666	0.116127
644.020868	0.116141
644.227052	0.116316
644.433218	0.116572
644.639365	0.116610
644.845494	0.116870
645.051605	0.116804
645.257698	0.116790
645.463772	0.116788
645.669828	0.116741
645.875866	0.116692
646.081886	0.116899
646.287888	0.116544
646.493871	0.116630
646.699836	0.116730
646.905783	0.117081
647.111712	0.117165
647.317622	0.117267
647.523514	0.117754
647.729388	0.117803
647.935244	0.117532
648.141082	0.117926
648.346901	0.117866
648.552702	0.117887
648.758485	0.117996
648.964250	0.118172
649.169996	0.118147
649.375724	0.118224
649.581434	0.118505
649.787126	0.119091
649.992800	0.119201
650.198455	0.119561
650.404092	0.119490
650.609711	0.119354
650.815311	0.119368
651.020894	0.119574
651.226458	0.119506
651.432004	0.119591
651.637532	0.119500
651.843041	0.119596
652.048532	0.119620
652.254006	0.119762
652.459460	0.119905
652.664897	0.119963
652.870315	0.120219
653.075716	0.120242
653.281097	0.120266
653.486461	0.120202
653.691807	0.120149
653.897134	0.120167
654.102443	0.120268
654.307734	0.120292
654.513006	0.120368
654.718261	0.120337
654.923497	0.120528
655.128715	0.120604
655.333915	0.120776
655.539096	0.120923
655.744259	0.121146
655.949404	0.121411
656.154531	0.121557
656.359640	0.121855
656.564730	0.121902
656.769802	0.122054
656.974856	0.122250
657.179892	0.122482
657.384909	0.122512
657.589908	0.122560
657.794889	0.122617
657.999852	0.122783
658.204797	0.122966
658.409723	0.122810
658.614631	0.122848
658.819521	0.122843
659.024393	0.122712
659.229246	0.122923
659.434081	0.122851
659.638898	0.122925
659.843697	0.123007
660.048478	0.122862
660.253240	0.123303
660.457984	0.123293
660.662710	0.123485
660.867417	0.123598
661.072107	0.123745
661.276778	0.123940
661.481431	0.124009
661.686066	0.124187
661.890682	0.124274
662.095281	0.124120
662.299861	0.124315
662.504422	0.124339
662.708966	0.124537
662.913491	0.124547
663.117999	0.124650
663.322488	0.124863
663.526958	0.124811
663.731411	0.124878
663.935845	0.125115
664.140261	0.125391
664.344659	0.125578
664.549038	0.125637
664.753400	0.125888
664.957743	0.126108
665.162068	0.125966
665.366375	0.125994
665.570663	0.126003
665.774933	0.125998
665.979185	0.125905
666.183419	0.125859
666.387635	0.125891
666.591832	0.125772
666.796011	0.125889
667.000172	0.125767
667.204315	0.125854
667.408439	0.126132
667.612545	0.126166
667.816634	0.126203
668.020703	0.126412
668.224755	0.126549
668.428788	0.126775
668.632803	0.126568
668.836800	0.126784
669.040779	0.127090
669.244739	0.127021
669.448681	0.127176
669.652605	0.127179
669.856511	0.127003
670.060399	0.127055
670.264268	0.127017
670.468119	0.127095
670.671952	0.127341
670.875767	0.127317
671.079563	0.127418
671.283341	0.127584
671.487101	0.127779
671.690843	0.127962
671.894567	0.127808
672.098272	0.127948
672.301959	0.128151
672.505628	0.128282
672.709278	0.128143
672.912911	0.128303
673.116525	0.128424
673.320121	0.128553
673.523699	0.128976
673.727258	0.129416
673.930799	0.129783
674.134322	0.129973
674.337827	0.130224
674.541314	0.130751
674.744782	0.130998
674.948232	0.131239
675.151664	0.131227
675.355078	0.131092
675.558474	0.131183
675.761851	0.131042
675.965210	0.131166
676.168551	0.131075
676.371873	0.130912
676.575178	0.131103
676.778464	0.131057
676.981732	0.131178
677.184981	0.131395
677.388213	0.131632
677.591426	0.131789
677.794621	0.132051
677.997798	0.132348
678.200956	0.132598
678.404097	0.132768
678.607219	0.132805
678.810323	0.133145
679.013408	0.133213
679.216476	0.133237
679.419525	0.133445
679.622556	0.133467
679.825569	0.133360
680.028563	0.133442
680.231540	0.133446
680.434498	0.133719
680.637438	0.133883
680.840359	0.133900
681.043263	0.134005
681.246148	0.133974
681.449015	0.134081
681.651864	0.134250
681.854694	0.134311
682.057506	0.134497
682.260301	0.134592
682.463076	0.134657
682.665834	0.134838
682.868573	0.134980
683.071295	0.135121
683.273998	0.135038
683.476682	0.135180
683.679349	0.135158
683.881997	0.135040
684.084627	0.134950
684.287239	0.134870
684.489833	0.134783
684.692408	0.134662
684.894965	0.134740
685.097504	0.134869
685.300025	0.134829
685.502527	0.135024
685.705012	0.135123
685.907478	0.135235
686.109925	0.135251
686.312355	0.135457
686.514766	0.135668
686.717159	0.135793
686.919534	0.135889
687.121891	0.136017
687.324230	0.136020
687.526550	0.136010
687.728852	0.136193
687.931136	0.136538
688.133401	0.136489
688.335649	0.136468
688.537878	0.136501
688.740089	0.136644
688.942281	0.136743
689.144456	0.136834
689.346612	0.136801
689.548750	0.136753
689.750870	0.136810
689.952971	0.136847
690.155055	0.136876
690.357120	0.137068
690.559167	0.136987
690.761195	0.136962
690.963206	0.137011
691.165198	0.137248
691.367172	0.137314
691.569128	0.137300
691.771065	0.137608
691.972984	0.137882
692.174885	0.137862
692.376768	0.137992
692.578633	0.138249
692.780479	0.138495
692.982308	0.138651
693.184118	0.138727
693.385909	0.138627
