sample name	sample
index	412
start time	 03-08-2021  11:10:32 AM
880	-0.025357
Peak Time (s)	92.035
Peak Height 	-0.02536
calc peak height	90,93
Baseline Time (s)	11.036
Baseline Value 	-0.00189
subtract baseline	10,4
Abs	-0.004933
Peak Time (s)	91.035
Peak Height 	-0.004933
calc peak height	90,93
Baseline Time (s)	9.536
Baseline Value 	-0.001006
subtract baseline	10,3
PK_550	-0.002713
Peak Time (s)	92.537
Peak Height 	-0.002713
calc peak height	90,93
Baseline Time (s)	10.036
Baseline Value 	1.845E-4
subtract baseline	10,2
PK_880	-0.006760
Peak Time (s)	90.038
Peak Height 	-0.00676
calc peak height	90,93
Baseline Time (s)	10.036
Baseline Value 	0.001011
subtract baseline	10,1


Time (s)	A880-A510	A880-A775	A880-A975	A880	I510	I775	I975	I880	
0.035000	-0.002573	-0.000372	0.001538	0.001417	6954.042532	47074.998933	3977.077229	24785.339503
0.536000	-0.003815	-0.000670	-0.001674	0.006393	6895.753504	46541.507393	3955.641077	24535.348190
1.036500	-0.001682	-0.000144	-0.000065	0.004213	6936.096197	46814.404709	3965.510643	24644.544087
1.536500	-0.001259	-0.000194	-0.002955	0.000357	6976.510482	47201.067295	3968.039691	24838.948959
2.039500	-0.000849	0.000166	0.000650	0.001728	6967.403714	47098.111276	3973.912495	24769.636120
2.537000	-0.001548	-0.000460	0.000132	0.002302	6955.364010	46976.021623	3971.038605	24740.675907
3.040000	0.001082	-0.000591	0.003740	-0.001750	7018.947352	47375.983896	3991.351972	24945.915942
3.534500	-0.000234	0.000311	-0.000133	0.001564	6974.788548	47129.532547	3972.282351	24777.897555
4.035000	-0.003956	-0.000620	0.003169	0.001250	6942.576016	47066.714340	3981.836889	24793.755554
4.535500	-0.001074	-0.000214	0.003552	0.000818	6973.889710	47151.981127	3984.000693	24815.595921
5.038500	-0.000457	0.000054	0.002670	0.000454	6983.206711	47216.506402	3982.623902	24834.033936
5.536000	-0.002146	-0.000436	0.001113	-0.000080	6972.249053	47221.074861	3979.912062	24861.110289
6.036500	0.000292	-0.000369	0.002116	-0.000768	7001.988049	47298.147235	3984.399055	24895.970519
6.537000	0.000400	0.000575	0.001814	0.000511	6990.818429	47263.822257	3980.200719	24831.124083
7.037000	-0.000237	-0.000855	0.002908	0.000007	6989.553869	47169.419943	3984.444654	24856.681699
7.537000	0.001677	0.001045	0.004380	0.001074	6997.624443	47254.393942	3985.522959	24802.647958
8.034500	-0.000767	0.000084	0.002601	0.000118	6983.458546	47253.947894	3983.334348	24851.075449
8.538000	0.002021	0.000611	0.000339	0.000440	7006.966939	47274.810110	3976.488346	24834.727740
9.035500	-0.000653	-0.000360	-0.000637	-0.000091	6986.530319	47229.897056	3975.314918	24861.653844
9.535500	0.001359	0.000392	0.000000	0.000375	7001.265945	47259.094256	3975.765643	24838.035017
10.035500	0.000000	0.000000	-0.000553	-0.000145	6993.261528	47272.170919	3975.677819	24864.381318
10.536000	-0.001377	-0.000062	0.000862	0.000167	6977.194740	47234.008664	3978.593332	24848.574307
11.036000	0.001677	0.000064	-0.000200	0.000000	7007.884503	47263.897458	3976.227042	24857.031297
11.537000	-0.001138	-0.000307	0.001928	-0.000075	6981.757808	47233.587573	3982.058825	24860.817783
12.036500	-0.001765	-0.000107	0.004167	0.000289	6972.354787	47216.880708	3987.047032	24842.398633
12.540000	-0.000465	-0.000792	-0.000200	-0.000134	6988.725734	47190.148345	3976.580457	24863.822779
13.037500	0.000740	-0.000055	0.007926	-0.001210	7010.496284	47375.550391	4001.145350	24918.443243
13.535000	0.001033	-0.000364	-0.003804	-0.000745	7008.854787	47296.292564	3968.702507	24894.815663
14.037500	-0.003704	-0.000615	0.001844	0.002180	6936.194223	46972.620506	3975.867824	24746.787777
14.536000	-0.001909	0.000228	0.000623	0.001995	6954.854313	47077.199840	3973.137962	24756.150345
15.039000	-0.001178	0.000768	0.001885	-0.000501	6985.439874	47387.228209	3983.075970	24882.443050
15.536500	-0.000550	-0.000194	0.001205	-0.000823	6994.484931	47321.687369	3982.126820	24898.789584
16.036500	-0.000028	-0.000027	0.008174	-0.001053	7001.655876	47362.317483	4001.391713	24910.475367
16.536500	-0.003562	-0.000299	0.003844	0.002180	6937.523162	47004.714273	3981.159716	24746.785883
17.039500	0.000490	0.000131	0.001351	-0.003285	7028.001649	47607.786208	3989.067790	25024.163926
17.537000	-0.001280	-0.000533	0.002052	0.000383	6976.062002	47163.849505	3981.173315	24837.625228
18.034500	-0.002509	0.000171	-0.001458	0.002588	6943.597289	47011.025671	3966.116448	24726.236665
18.535000	-0.001795	-0.000090	-0.001971	0.001157	6963.850258	47130.172194	3968.523466	24798.487083
19.035500	-0.002857	0.000218	0.003445	0.001570	6949.913122	47119.475681	3981.720798	24777.602345
19.535500	-0.003759	0.000338	-0.001172	0.001462	6942.428729	47142.658209	3969.818974	24783.036169
20.036000	-0.001005	0.000342	-0.000647	0.001388	6969.140273	47150.601710	3971.392554	24786.784184
20.536500	-0.002384	-0.000090	0.004571	0.001205	6957.821488	47125.270260	3985.681790	24796.039092
21.039500	-0.000667	0.000353	0.001036	0.001557	6970.736561	47134.467971	3975.379986	24778.231961
21.537000	-0.000110	0.000340	0.002552	0.001297	6978.498777	47159.747510	3980.077503	24791.410435
22.040000	-0.001752	0.000947	0.004526	0.002057	6955.754733	47144.140898	3983.297236	24753.032335
22.535000	-0.001748	0.000190	0.004404	0.001276	6963.165210	47146.498617	3985.047514	24792.431495
23.035000	0.000005	0.000969	0.004184	0.002156	6971.441521	47136.232314	3982.125615	24748.023431
23.535500	-0.002315	-0.000430	0.001343	0.000944	6960.941978	47117.137097	3977.808729	24809.228878
24.038000	-0.000648	0.000171	0.002384	0.001380	6972.596345	47133.945548	3979.410022	24787.184648
24.535500	-0.001634	0.000622	0.002237	0.001666	6960.557234	47150.781448	3978.264480	24772.759843
25.039000	-0.003075	-0.000539	0.000790	0.000816	6954.975512	47119.120234	3976.687596	24815.723012
25.536500	0.000665	0.001070	0.004398	0.001848	6980.625267	47177.877370	3983.511960	24763.559352
26.036500	-0.000682	0.000311	0.007546	0.001285	6973.183317	47157.919280	3993.414663	24791.998571
26.537000	-0.002438	0.000418	0.003135	0.001826	6951.447057	47113.681908	3980.217934	24764.650922
27.037500	0.000596	0.000864	0.005182	-0.000475	7002.098280	47394.434779	3991.797429	24881.133158
27.536500	0.001189	0.000355	0.011535	-0.001232	7015.007819	47419.809974	4010.981401	24919.562904
28.035000	-0.002812	0.000354	0.002118	0.004783	6920.150953	46807.085876	3969.737002	24615.940147
28.538000	-0.002591	-0.000244	-0.003164	0.003608	6933.238313	46865.507231	3959.004768	24674.893669
29.035500	0.000930	0.000183	0.003721	-0.000679	7007.240958	47345.509580	3988.439006	24891.473496
29.536000	0.001624	0.000927	-0.001962	-0.000135	7008.673705	47365.912016	3971.938764	24863.855957
30.037500	-0.003209	0.000456	0.001382	0.005259	6911.977164	46769.315378	3966.560408	24592.081545
30.541000	-0.001082	0.000132	-0.001206	0.003203	6951.258119	46944.713165	3965.168037	24695.300453
31.036500	-0.000568	0.000185	0.002205	0.001603	6971.244480	47112.702854	3978.346521	24775.924839
31.539500	0.000298	0.000698	0.001820	-0.000309	6997.665600	47360.354450	3982.393995	24872.714342
32.037500	-0.003490	0.000914	0.001554	0.004742	6914.187846	46867.889065	3968.364187	24617.976546
32.539500	-0.002821	0.001010	0.004573	0.002309	6943.292191	47124.762871	3982.751697	24740.295568
33.035500	0.000236	0.000278	0.001555	-0.000577	6999.630426	47344.767119	3982.400605	24886.296892
33.535500	0.001985	-0.000359	0.004101	-0.001481	7025.032893	47372.156452	3991.595925	24932.212588
34.036000	-0.000953	0.000315	0.003686	0.003563	6949.074957	46926.694981	3977.082187	24677.185387
34.536000	-0.000301	0.000744	0.002117	0.002609	6964.248144	47067.243684	3975.457895	24725.199422
35.035500	-0.002059	-0.000077	0.003293	0.002218	6951.330057	47023.442948	3979.599133	24744.892880
35.537000	-0.000841	0.000647	0.001238	0.002522	6959.958157	47066.203637	3973.368316	24729.562648
36.040000	-0.003862	-0.000292	0.000529	0.003575	6921.622633	46863.999621	3968.736022	24676.560705
36.534500	-0.001611	0.000221	0.002478	0.002193	6955.800485	47056.344454	3977.510672	24746.166165
37.035000	-0.000205	0.001166	0.002890	0.003052	6960.966040	47065.138047	3976.329962	24702.897102
37.535000	-0.000411	0.000821	0.001414	0.002856	6960.869100	47049.936375	3972.954187	24712.756963
38.035500	-0.001914	-0.000356	0.000006	0.003539	6940.245914	46861.151597	3967.459363	24678.368670
38.536000	-0.000537	0.000280	0.002582	0.002424	6963.766461	47038.845214	3977.173179	24734.510191
39.036000	-0.000068	0.000482	-0.002590	0.002792	6964.724590	47021.988330	3962.626906	24715.987383
39.536000	-0.000196	0.000456	0.001041	0.002479	6966.475033	47051.210707	3972.965152	24731.757153
40.036000	-0.001059	-0.000302	0.000583	0.002173	6961.201174	47005.200184	3972.563486	24747.187736
40.536500	0.000503	0.000633	0.003675	0.002808	6969.984811	47035.753803	3979.050289	24715.183057
41.037500	-0.001066	0.000983	0.000516	0.003085	6952.519319	47043.137090	3969.988479	24701.221221
41.534000	-0.001769	0.000973	0.001235	0.002776	6948.797430	47073.450436	3972.691591	24716.754438
42.037500	0.000311	0.001512	0.004810	0.003289	6963.602129	47076.189512	3980.781271	24690.956419
42.560000	0.000174	0.001308	0.005371	0.003111	6963.989046	47073.521463	3982.740800	24699.905945
43.038500	-0.001153	0.000433	0.001920	0.002557	6956.679362	47040.839521	3975.074424	24727.809247
43.536000	0.000387	0.000723	0.000380	0.001343	6982.777154	47194.034091	3974.213633	24789.056655
44.036500	0.001020	0.000485	0.002683	-0.002309	7023.714872	47543.734411	3990.017319	24974.362379
44.798000	0.000953	0.000750	0.001278	-0.000124	7002.149121	47346.736890	3980.464813	24863.311829
45.157000	0.000983	0.000907	0.002835	0.000157	6999.756665	47334.097981	3983.851484	24849.083600
45.540500	0.001541	0.000367	0.006211	-0.000209	7008.585165	47316.173310	3993.840515	24867.613328
46.037500	-0.001966	0.000585	0.006910	0.006218	6914.636327	46685.563708	3978.585517	24544.118797
46.535000	-0.002862	0.000702	0.002409	0.006621	6902.504181	46656.635509	3965.681421	24523.968624
47.035000	0.000281	0.000005	0.005704	-0.000703	7001.264907	47329.744160	3993.806328	24892.703491
47.535500	0.001738	0.000663	0.008877	0.001720	6992.052405	47149.518304	3995.818979	24770.024462
48.040000	-0.000816	0.000640	0.005953	0.003956	6946.666246	46919.819450	3982.043040	24657.427199
48.536000	-0.003377	-0.000300	0.002924	0.004998	6912.845320	46719.324589	3971.290442	24605.152091
49.036000	-0.000532	0.000003	0.005670	0.000063	6986.220824	47251.233757	3991.663851	24853.859442
49.536500	0.000564	0.001154	0.000755	0.000752	6990.088617	47298.442183	3976.763250	24818.963476
50.037000	-0.001580	-0.000359	-0.001331	0.004731	6932.185172	46740.264809	3960.852804	24618.523354
50.537000	-0.003773	0.000529	-0.000777	0.005722	6902.387774	46729.823968	3959.713493	24568.878976
51.037500	-0.003209	-0.002698	0.007234	0.001899	6943.494569	46790.112536	3990.934159	24760.976962
51.537000	-0.025414	-0.011725	-0.005572	0.298605	4816.294202	24599.210381	3398.985395	13912.169625
52.035000	-0.042161	-0.023216	-0.013976	0.002209	6590.010149	44734.000689	3934.785631	24745.332778
52.536000	-0.035395	-0.053969	-0.007344	-0.186243	8710.317344	63057.140640	4561.547075	36644.434777
53.036000	-0.035025	-0.031995	-0.001808	-0.131077	8016.133732	58629.499983	4374.504147	32612.474681
53.536000	-0.035512	-0.026247	-0.007179	-0.123179	7917.419054	58354.148798	4328.013990	32076.016101
54.036000	-0.030552	-0.023176	-0.009817	-0.126284	8012.321524	59148.701686	4329.625354	32285.737395
54.536500	-0.017831	-0.030614	-0.008539	-0.156821	8552.587136	62222.499268	4443.643769	34430.436109
55.039000	-0.009904	-0.031645	-0.006942	-0.161654	8722.482347	62744.123933	4467.720687	34783.876383
55.537000	-0.004714	-0.026771	-0.004181	-0.155154	8704.811019	62520.464782	4453.676901	34309.411093
56.035000	-0.007132	-0.018069	-0.009378	-0.133959	8395.202194	60829.332107	4357.916529	32810.687790
56.534500	-0.005477	-0.014339	-0.008836	-0.114312	8170.329309	58743.988195	4292.135554	31485.213829
57.035500	-0.008898	-0.011932	-0.008895	-0.101507	7975.371265	57422.383559	4249.445526	30653.066952
57.535500	-0.011015	-0.006867	-0.010478	-0.073589	7633.160717	54626.637071	4156.197502	28921.682268
58.035000	-0.016188	-0.011813	-0.010406	-0.065105	7485.218817	53051.005280	4130.747099	28417.204148
58.536000	-0.007080	-0.009218	-0.004248	-0.079007	7737.190509	54993.307216	4192.257837	29249.009523
59.036500	-0.008307	-0.007291	-0.008132	-0.067373	7594.715111	53841.532694	4144.426709	28551.104875
59.537000	-0.013271	-0.007215	-0.009272	-0.040711	7261.759409	50815.430987	4062.888697	27020.368804
60.036500	-0.015372	-0.005519	-0.015918	-0.023699	7071.981594	49154.359721	3997.494585	26091.626711
60.537500	-0.013810	-0.006423	-0.009845	-0.036037	7209.165989	50388.861083	4048.073752	26761.548343
61.034500	-0.010955	-0.005690	-0.008658	-0.041661	7295.021574	51089.294099	4067.336098	27073.281715
61.535000	-0.009927	-0.006444	-0.011141	-0.047983	7370.828171	51711.414340	4078.326643	27428.555311
62.036000	-0.014818	-0.006379	-0.014162	-0.055246	7395.571875	52542.391672	4090.585429	27843.206629
62.536000	-0.012420	-0.005785	-0.009464	-0.061552	7487.505095	53337.643717	4122.947953	28208.832118
63.036000	-0.014752	-0.005036	-0.005475	-0.055724	7401.260072	52751.067102	4117.480860	27870.720358
63.536000	-0.012490	-0.004900	-0.016508	-0.052582	7392.052066	52407.052522	4076.121129	27690.320880
64.045500	-0.016452	-0.005926	-0.013837	-0.047548	7299.022769	51720.793948	4069.357770	27403.986087
64.540000	-0.014644	-0.004733	-0.013901	-0.045318	7294.701901	51604.255049	4062.825213	27278.194891
65.037000	-0.012587	-0.004479	-0.012836	-0.043503	7297.172966	51429.398398	4060.694613	27176.263941
65.534000	-0.016110	-0.005166	-0.012732	-0.043397	7260.195928	51340.812416	4060.690998	27170.320976
66.035000	-0.013760	-0.004364	-0.009498	-0.040612	7255.791708	51120.141623	4061.962924	27014.835500
66.535500	-0.015301	-0.003781	-0.017648	-0.039025	7224.202908	51008.783309	4034.639766	26926.684823
67.035500	-0.014316	-0.003664	-0.013072	-0.043196	7276.390091	51486.232583	4059.156941	27159.057975
67.536000	-0.010780	-0.004227	-0.009722	-0.044704	7328.064217	51592.239125	4072.991183	27243.678392
68.036000	-0.013142	-0.003683	-0.008894	-0.042279	7279.011358	51381.615748	4068.425300	27107.805400
68.536500	-0.012763	-0.004180	-0.018026	-0.042930	7289.517176	51398.793564	4044.466641	27144.196609
69.039500	-0.010356	-0.003365	-0.014505	-0.046615	7352.178259	51904.255227	4064.795570	27351.290123
69.536000	-0.010747	-0.003601	-0.007846	-0.047687	7359.238283	51998.690756	4086.979660	27411.836350
70.037500	-0.009703	-0.003816	-0.007125	-0.048244	7375.876480	52037.342804	4090.686784	27443.351825
70.534500	-0.011393	-0.003560	-0.007602	-0.046649	7341.797692	51886.009606	4084.683912	27353.170072
71.035000	-0.010613	-0.004095	-0.008535	-0.049954	7384.212970	52199.558972	4091.556285	27540.391446
71.535500	-0.010580	-0.004117	-0.010523	-0.049833	7383.294813	52183.317034	4085.444933	27533.521303
72.036000	-0.009208	-0.003710	-0.007346	-0.047210	7370.273562	51932.429923	4087.049307	27384.882605
72.536000	-0.013086	-0.004348	-0.014801	-0.046622	7324.068309	51794.143798	4063.972562	27351.663786
73.036000	-0.008177	-0.003672	-0.003814	-0.049216	7401.953372	52163.750023	4103.186374	27498.459593
73.537000	-0.006908	-0.003231	-0.006447	-0.048957	7412.555240	52184.506074	4094.732966	27483.793300
74.040000	-0.008827	-0.003649	-0.008746	-0.046902	7371.028523	51904.509453	4082.112949	27367.481925
74.537000	-0.008052	-0.004350	-0.010417	-0.046323	7373.058617	51760.172051	4075.637422	27334.766205
75.034500	-0.007996	-0.003913	-0.008817	-0.049064	7402.266423	52119.276663	4088.158649	27489.876360
75.534500	-0.006405	-0.003440	-0.007302	-0.048117	7409.012456	52065.501936	4089.803373	27436.150401
76.035000	-0.007038	-0.003494	-0.006358	-0.046571	7386.211542	51884.697005	4088.058792	27348.783834
76.535500	-0.006984	-0.003221	-0.005502	-0.047777	7399.385812	52051.803095	4094.047462	27416.930987
77.036000	-0.005396	-0.002998	-0.008441	-0.046990	7407.775861	51988.086530	4083.248128	27372.459935
77.536000	-0.003703	-0.003030	-0.007415	-0.046373	7419.071029	51914.702384	4084.426204	27337.623589
78.036500	-0.009056	-0.003250	-0.011626	-0.044472	7343.454061	51675.827628	4066.890796	27230.654290
78.539500	-0.006675	-0.003485	-0.009191	-0.045695	7380.871625	51787.016403	4077.355718	27299.425377
79.037000	-0.006590	-0.003847	-0.003402	-0.045441	7379.100480	51717.554222	4093.361580	27285.094422
79.534500	-0.007923	-0.004163	-0.009879	-0.045115	7361.847691	51645.469860	4073.718913	27266.772851
80.034500	-0.008421	-0.003289	-0.011261	-0.041750	7321.937075	51366.607145	4060.193021	27078.266431
80.535500	-0.007840	-0.003497	-0.007901	-0.042578	7336.450265	51435.816656	4072.115433	27124.499752
81.035000	-0.008202	-0.003917	-0.010547	-0.042511	7332.027516	51381.414496	4064.381441	27120.789971
81.535500	-0.008791	-0.004030	-0.005231	-0.041109	7311.541834	51212.487666	4075.557412	27042.522100
82.036000	-0.008643	-0.004149	-0.007722	-0.038741	7288.807028	50936.462410	4061.692823	26910.909943
82.536000	-0.007638	-0.003829	-0.008286	-0.038916	7300.881713	50991.340960	4060.593327	26920.651339
83.036000	-0.008295	-0.003848	-0.009376	-0.038143	7286.261258	50903.650242	4055.320973	26877.803833
83.536500	-0.010130	-0.004041	-0.009730	-0.037292	7258.933888	50788.356121	4051.925661	26830.758151
84.037500	-0.010416	-0.004724	-0.009527	-0.037405	7257.184779	50725.523596	4052.814029	26837.006742
84.537000	-0.011244	-0.004407	-0.016245	-0.033476	7209.213174	50329.322318	4023.190233	26620.944358
85.034500	-0.010028	-0.004434	-0.008783	-0.034947	7236.248294	50487.377550	4047.997650	26701.629119
85.535000	-0.009397	-0.004236	-0.007979	-0.033886	7231.912109	50392.869528	4047.276376	26643.411521
86.035500	-0.008704	-0.003736	-0.009114	-0.031833	7218.220236	50223.143144	4038.367682	26531.129800
86.535500	-0.010813	-0.004354	-0.009720	-0.030232	7181.092057	49981.920903	4032.241818	26443.982493
87.036000	-0.009559	-0.004318	-0.006245	-0.031696	7208.268238	50144.914213	4045.997996	26523.694022
87.536500	-0.007962	-0.003654	-0.008475	-0.030893	7216.237574	50129.861041	4037.532504	26479.954923
88.039500	-0.010203	-0.004674	-0.011208	-0.029992	7184.793640	49921.314352	4027.467373	26430.968021
88.537000	-0.008745	-0.003206	-0.009792	-0.029529	7194.719748	50030.282627	4030.096862	26405.827924
89.037000	-0.007441	-0.004399	-0.004678	-0.029746	7209.950595	49924.440552	4044.925853	26417.601272
89.537000	-0.008957	-0.004063	-0.007020	-0.029242	7189.739031	49906.242485	4036.987878	26390.265171
90.038000	-0.006760	-0.003511	-0.008387	-0.027391	7193.194608	49765.794069	4028.072196	26290.118578
90.535000	-0.009747	-0.003716	-0.012515	-0.028035	7169.843828	49813.175092	4018.495194	26324.915789
91.035500	-0.010851	-0.003660	-0.004933	-0.027584	7154.421424	49770.493615	4038.180827	26300.532221
91.536000	-0.009807	-0.003054	-0.010798	-0.026743	7156.422467	49745.039795	4019.658466	26255.135649
92.035500	-0.009657	-0.003077	-0.009063	-0.025357	7144.202472	49593.320974	4020.615655	26180.546069
92.536500	-0.008547	-0.002713	-0.006598	-0.025372	7155.328415	49634.080270	4027.439349	26181.374852
93.036500	-0.007783	-0.003153	-0.005058	-0.025302	7162.208295	49579.261907	4031.499664	26177.605298
93.537000	-0.007929	-0.003520	-0.007613	-0.025078	7158.542633	49515.718598	4023.832840	26165.562067
94.034500	-0.009141	-0.003901	-0.008864	-0.023998	7135.875073	49359.034269	4017.437477	26107.626839
94.535000	-0.007371	-0.002367	-0.001652	-0.023583	7149.268073	49479.070049	4036.178022	26085.442649
95.035500	-0.008156	-0.002860	-0.008240	-0.023567	7141.343699	49424.429319	4017.967231	26084.559961
95.535500	-0.009945	-0.002346	-0.010212	-0.023100	7119.140578	49429.572001	4011.313197	26059.617494
96.035500	-0.010936	-0.002835	-0.009126	-0.022104	7099.664507	49270.578275	4011.557082	26006.429864
