sample name	sample
index	1136
start time	 04-22-2021  02:35:01 PM


Wavelength (nm)	Absorbance
494.344910	NaN
494.563924	NaN
494.782919	NaN
495.001897	-0.374125
495.220856	0.187078
495.439797	0.087510
495.658719	0.134801
495.877624	0.022501
496.096510	0.065581
496.315378	0.030613
496.534227	-0.074860
496.753059	0.188947
496.971872	0.306492
497.190667	0.150061
497.409444	0.148134
497.628203	0.149230
497.846943	0.149072
498.065665	0.152386
498.284369	0.149706
498.503055	0.150174
498.721723	0.148187
498.940372	0.148255
499.159003	0.147688
499.377616	0.147428
499.596210	0.146667
499.814787	0.147288
500.033345	0.147142
500.251885	0.148297
500.470406	0.148761
500.688910	0.148990
500.907395	0.149529
501.125862	0.152210
501.344311	0.153953
501.562742	0.154530
501.781154	0.154527
501.999548	0.153699
502.217924	0.154002
502.436282	0.152425
502.654621	0.152241
502.872942	0.150300
503.091245	0.149239
503.309530	0.147094
503.527797	0.147294
503.746045	0.147299
503.964275	0.147780
504.182487	0.147075
504.400681	0.147980
504.618856	0.148676
504.837013	0.149384
505.055152	0.149153
505.273273	0.150122
505.491376	0.149860
505.709460	0.150010
505.927526	0.149542
506.145574	0.151663
506.363604	0.152273
506.581615	0.152022
506.799608	0.152313
507.017583	0.152542
507.235540	0.153000
507.453478	0.152601
507.671399	0.152454
507.889301	0.151999
508.107185	0.150865
508.325050	0.150293
508.542898	0.150316
508.760727	0.151285
508.978538	0.151040
509.196330	0.151872
509.414105	0.151693
509.631861	0.152428
509.849599	0.153618
510.067319	0.154338
510.285021	0.154812
510.502704	0.155950
510.720369	0.155933
510.938016	0.157011
511.155645	0.156598
511.373255	0.158356
511.590848	0.158513
511.808422	0.159925
512.025977	0.159625
512.243515	0.159692
512.461034	0.159568
512.678536	0.159841
512.896018	0.159636
513.113483	0.158788
513.330930	0.158460
513.548358	0.158879
513.765768	0.157641
513.983160	0.157052
514.200533	0.157531
514.417889	0.157868
514.635226	0.157548
514.852545	0.157729
515.069845	0.158818
515.287128	0.158469
515.504392	0.158145
515.721638	0.158051
515.938866	0.157588
516.156075	0.157349
516.373267	0.157547
516.590440	0.159086
516.807594	0.158399
517.024731	0.158846
517.241850	0.159627
517.458950	0.159524
517.676032	0.160025
517.893095	0.161405
518.110141	0.162324
518.327168	0.162256
518.544177	0.161839
518.761168	0.163312
518.978141	0.163289
519.195095	0.163757
519.412031	0.164386
519.628949	0.165118
519.845849	0.165580
520.062731	0.165773
520.279594	0.165891
520.496439	0.165987
520.713266	0.166035
520.930074	0.166980
521.146865	0.166066
521.363637	0.166129
521.580391	0.166112
521.797127	0.166379
522.013844	0.166198
522.230543	0.167474
522.447224	0.167748
522.663887	0.168188
522.880532	0.167716
523.097158	0.168457
523.313766	0.169191
523.530356	0.169163
523.746928	0.169411
523.963481	0.169370
524.180017	0.169865
524.396534	0.170313
524.613032	0.170141
524.829513	0.171189
525.045975	0.171952
525.262420	0.171903
525.478845	0.172502
525.695253	0.171753
525.911643	0.172403
526.128014	0.172293
526.344367	0.172105
526.560702	0.172996
526.777018	0.172489
526.993316	0.172121
527.209597	0.173036
527.425858	0.172822
527.642102	0.173632
527.858328	0.174482
528.074535	0.174674
528.290724	0.175686
528.506894	0.175558
528.723047	0.176204
528.939181	0.177587
529.155297	0.177650
529.371395	0.178139
529.587475	0.178880
529.803536	0.179049
530.019579	0.179115
530.235604	0.178604
530.451611	0.178565
530.667600	0.178718
530.883570	0.178219
531.099522	0.178915
531.315456	0.179883
531.531372	0.180267
531.747269	0.180178
531.963148	0.179913
532.179009	0.180342
532.394852	0.181038
532.610676	0.181676
532.826482	0.182998
533.042271	0.183216
533.258040	0.183732
533.473792	0.184561
533.689525	0.184517
533.905240	0.185423
534.120937	0.186329
534.336616	0.186638
534.552277	0.186626
534.767919	0.186400
534.983543	0.186178
535.199149	0.186031
535.414736	0.186131
535.630306	0.186786
535.845857	0.186807
536.061390	0.186456
536.276904	0.186619
536.492401	0.187529
536.707879	0.187259
536.923339	0.187460
537.138781	0.188109
537.354204	0.187895
537.569610	0.187993
537.784997	0.188198
538.000366	0.188719
538.215716	0.188945
538.431049	0.188700
538.646363	0.188971
538.861659	0.189268
539.076937	0.189352
539.292196	0.189440
539.507438	0.189942
539.722661	0.190165
539.937866	0.190833
540.153052	0.191727
540.368221	0.192020
540.583371	0.192482
540.798503	0.192731
541.013617	0.192615
541.228712	0.193460
541.443789	0.193960
541.658848	0.194683
541.873889	0.194913
542.088912	0.194697
542.303916	0.194889
542.518902	0.195139
542.733870	0.195566
542.948820	0.195979
543.163752	0.196227
543.378665	0.196533
543.593560	0.196631
543.808437	0.197123
544.023295	0.197364
544.238136	0.197876
544.452958	0.198087
544.667762	0.198479
544.882548	0.199099
545.097315	0.198886
545.312064	0.198862
545.526795	0.199584
545.741508	0.199318
545.956203	0.200334
546.170879	0.200085
546.385537	0.200797
546.600177	0.201256
546.814799	0.201158
547.029402	0.201680
547.243988	0.201919
547.458555	0.201967
547.673103	0.202424
547.887634	0.202394
548.102146	0.203363
548.316640	0.203376
548.531116	0.203616
548.745574	0.204053
548.960013	0.204388
549.174435	0.204956
549.388838	0.205400
549.603222	0.205558
549.817589	0.205448
550.031937	0.205419
550.246267	0.205642
550.460579	0.205632
550.674873	0.206010
550.889148	0.206010
551.103405	0.206129
551.317644	0.205791
551.531865	0.205934
551.746068	0.206492
551.960252	0.206572
552.174418	0.207128
552.388566	0.207447
552.602696	0.207309
552.816807	0.207680
553.030900	0.208094
553.244975	0.208388
553.459032	0.208735
553.673070	0.208756
553.887091	0.209593
554.101093	0.209623
554.315077	0.209693
554.529042	0.209774
554.742990	0.210195
554.956919	0.209922
555.170830	0.210062
555.384722	0.210090
555.598597	0.210056
555.812453	0.209773
556.026291	0.210091
556.240111	0.210119
556.453913	0.210451
556.667696	0.210095
556.881461	0.210520
557.095208	0.211156
557.308937	0.211494
557.522647	0.211346
557.736339	0.211276
557.950013	0.211046
558.163669	0.211202
558.377307	0.211579
558.590926	0.211689
558.804527	0.211782
559.018110	0.211343
559.231675	0.211242
559.445221	0.211726
559.658749	0.211861
559.872259	0.211945
560.085751	0.211916
560.299225	0.211851
560.512680	0.212012
560.726117	0.211941
560.939536	0.212279
561.152937	0.212496
561.366319	0.212252
561.579683	0.211936
561.793029	0.212532
562.006357	0.213014
562.219667	0.212904
562.432958	0.213002
562.646231	0.213549
562.859486	0.213498
563.072723	0.213139
563.285941	0.213831
563.499141	0.214791
563.712323	0.214139
563.925487	0.213663
564.138632	0.213737
564.351760	0.214303
564.564869	0.213980
564.777960	0.214150
564.991032	0.214737
565.204087	0.214623
565.417123	0.214066
565.630141	0.214492
565.843140	0.214707
566.056122	0.215166
566.269085	0.215022
566.482030	0.215475
566.694957	0.215515
566.907866	0.216007
567.120756	0.216033
567.333628	0.216674
567.546482	0.216968
567.759318	0.217344
567.972135	0.217253
568.184935	0.217535
568.397716	0.217539
568.610478	0.217875
568.823223	0.217391
569.035949	0.217396
569.248657	0.217555
569.461347	0.217829
569.674019	0.218051
569.886672	0.218079
570.099308	0.218240
570.311925	0.218216
570.524523	0.218287
570.737104	0.218560
570.949666	0.218607
571.162210	0.218974
571.374736	0.218906
571.587244	0.218712
571.799733	0.219002
572.012205	0.218883
572.224658	0.219371
572.437092	0.219569
572.649509	0.219286
572.861907	0.220023
573.074287	0.219574
573.286649	0.219523
573.498993	0.219704
573.711318	0.219601
573.923625	0.219864
574.135914	0.219545
574.348185	0.218982
574.560438	0.219225
574.772672	0.218623
574.984888	0.218742
575.197086	0.218870
575.409266	0.218899
575.621427	0.218817
575.833570	0.218847
576.045695	0.218867
576.257802	0.219258
576.469890	0.219646
576.681961	0.220352
576.894013	0.220527
577.106046	0.220648
577.318062	0.221048
577.530059	0.221209
577.742039	0.221523
577.954000	0.221810
578.165942	0.222352
578.377867	0.222430
578.589773	0.222255
578.801661	0.221945
579.013531	0.222133
579.225382	0.222308
579.437216	0.222678
579.649031	0.222509
579.860828	0.222652
580.072606	0.222680
580.284367	0.222897
580.496109	0.222816
580.707833	0.223291
580.919539	0.223350
581.131227	0.223538
581.342896	0.223418
581.554547	0.223311
581.766180	0.223567
581.977795	0.223707
582.189391	0.223740
582.400969	0.223949
582.612529	0.223919
582.824071	0.224312
583.035595	0.224241
583.247100	0.224358
583.458587	0.224749
583.670056	0.224444
583.881506	0.224668
584.092939	0.224760
584.304353	0.224875
584.515749	0.225279
584.727127	0.225255
584.938486	0.225277
585.149828	0.225277
585.361151	0.225284
585.572456	0.225863
585.783742	0.225713
585.995011	0.225893
586.206261	0.226011
586.417493	0.226301
586.628706	0.225954
586.839902	0.226169
587.051079	0.226234
587.262238	0.226512
587.473379	0.226193
587.684502	0.226358
587.895606	0.226462
588.106692	0.226624
588.317760	0.226535
588.528810	0.226821
588.739841	0.227252
588.950855	0.228108
589.161850	0.228340
589.372827	0.229011
589.583785	0.228996
589.794726	0.229184
590.005648	0.229219
590.216552	0.229187
590.427437	0.229649
590.638305	0.229511
590.849154	0.229229
591.059985	0.229031
591.270798	0.228731
591.481592	0.229290
591.692369	0.229408
591.903127	0.230289
592.113867	0.230650
592.324588	0.231049
592.535292	0.231285
592.745977	0.231927
592.956644	0.232498
593.167293	0.232908
593.377923	0.232746
593.588536	0.233203
593.799130	0.232904
594.009706	0.233021
594.220263	0.233271
594.430803	0.233455
594.641324	0.233250
594.851827	0.233425
595.062312	0.233724
595.272778	0.234160
595.483227	0.233611
595.693657	0.234053
595.904069	0.234554
596.114462	0.234247
596.324838	0.234363
596.535195	0.234524
596.745534	0.234755
596.955855	0.234646
597.166157	0.234420
597.376441	0.235122
597.586707	0.234977
597.796955	0.234891
598.007185	0.235204
598.217396	0.235166
598.427589	0.235223
598.637764	0.234894
598.847921	0.235157
599.058060	0.235407
599.268180	0.235317
599.478282	0.235243
599.688366	0.234846
599.898431	0.234686
600.108479	0.235093
600.318508	0.235283
600.528519	0.235654
600.738511	0.235490
600.948486	0.235471
601.158442	0.235548
601.368380	0.235688
601.578300	0.236128
601.788202	0.236571
601.998085	0.236330
602.207950	0.236345
602.417797	0.236436
602.627626	0.236540
602.837436	0.236832
603.047228	0.237110
603.257002	0.237426
603.466758	0.237608
603.676496	0.237561
603.886215	0.238010
604.095916	0.238466
604.305599	0.238494
604.515264	0.238571
604.724910	0.238614
604.934538	0.238679
605.144148	0.238499
605.353740	0.238573
605.563314	0.238554
605.772869	0.238444
605.982406	0.238505
606.191925	0.238807
606.401425	0.239282
606.610908	0.239612
606.820372	0.239505
607.029818	0.239277
607.239246	0.239479
607.448655	0.239810
607.658047	0.239952
607.867420	0.239944
608.076775	0.239970
608.286111	0.240016
608.495430	0.240308
608.704730	0.240781
608.914012	0.241590
609.123275	0.241497
609.332521	0.241551
609.541748	0.241659
609.750957	0.241749
609.960148	0.242045
610.169321	0.242133
610.378475	0.242066
610.587611	0.241828
610.796729	0.242092
611.005829	0.242449
611.214910	0.243017
611.423974	0.243671
611.633019	0.244126
611.842045	0.244317
612.051054	0.244545
612.260044	0.244489
612.469017	0.244787
612.677970	0.244487
612.886906	0.244405
613.095824	0.244001
613.304723	0.243807
613.513604	0.243393
613.722467	0.243019
613.931311	0.243013
614.140138	0.243115
614.348946	0.243330
614.557736	0.243884
614.766507	0.244066
614.975261	0.244280
615.183996	0.244366
615.392713	0.244548
615.601412	0.244810
615.810092	0.245043
616.018754	0.245098
616.227399	0.245361
616.436024	0.245018
616.644632	0.245377
616.853222	0.245255
617.061793	0.245078
617.270346	0.245457
617.478880	0.245580
617.687397	0.245693
617.895895	0.245894
618.104375	0.245539
618.312837	0.245686
618.521281	0.245629
618.729706	0.245818
618.938113	0.246178
619.146502	0.246289
619.354873	0.246516
619.563226	0.246471
619.771560	0.246943
619.979876	0.247468
620.188174	0.247604
620.396453	0.247508
620.604715	0.247789
620.812958	0.247789
621.021183	0.247870
621.229390	0.247880
621.437578	0.248178
621.645748	0.248019
621.853900	0.247683
622.062034	0.247810
622.270150	0.247913
622.478247	0.248066
622.686326	0.248212
622.894387	0.248419
623.102430	0.248510
623.310454	0.248403
623.518461	0.248473
623.726449	0.248840
623.934418	0.249025
624.142370	0.249384
624.350303	0.249468
624.558218	0.249598
624.766115	0.249605
624.973994	0.249836
625.181855	0.249864
625.389697	0.250099
625.597521	0.249906
625.805327	0.249995
626.013114	0.250127
626.220883	0.250172
626.428634	0.250285
626.636367	0.250442
626.844082	0.250366
627.051778	0.250651
627.259457	0.250739
627.467117	0.251347
627.674758	0.251536
627.882382	0.251754
628.089987	0.252148
628.297574	0.252438
628.505143	0.252336
628.712694	0.252643
628.920226	0.252710
629.127740	0.252724
629.335236	0.252644
629.542714	0.252649
629.750174	0.252706
629.957615	0.252506
630.165038	0.252286
630.372443	0.252448
630.579829	0.252588
630.787198	0.253077
630.994548	0.253277
631.201880	0.253447
631.409194	0.253936
631.616489	0.254091
631.823766	0.254278
632.031025	0.254805
632.238266	0.254624
632.445489	0.254829
632.652693	0.254705
632.859879	0.254618
633.067047	0.254688
633.274197	0.254544
633.481329	0.254523
633.688442	0.254605
633.895537	0.254642
634.102614	0.255013
634.309672	0.255001
634.516713	0.255212
634.723735	0.255697
634.930739	0.256101
635.137724	0.255885
635.344692	0.256094
635.551641	0.256313
635.758572	0.256439
635.965485	0.256802
636.172379	0.256874
636.379256	0.256942
636.586114	0.257008
636.792954	0.256901
636.999775	0.257365
637.206579	0.257722
637.413364	0.257833
637.620131	0.257972
637.826880	0.257969
638.033610	0.258280
638.240323	0.258517
638.447017	0.258704
638.653692	0.259001
638.860350	0.259208
639.066990	0.259511
639.273611	0.259855
639.480214	0.259978
639.686798	0.260259
639.893365	0.260266
640.099913	0.260482
640.306443	0.260592
640.512955	0.260688
640.719449	0.260650
640.925924	0.260703
641.132381	0.260825
641.338820	0.260786
641.545241	0.261174
641.751644	0.261398
641.958028	0.261643
642.164394	0.261914
642.370742	0.261907
642.577071	0.262331
642.783383	0.262119
642.989676	0.262088
643.195951	0.262672
643.402207	0.262403
643.608446	0.262665
643.814666	0.262665
644.020868	0.262879
644.227052	0.263078
644.433218	0.262882
644.639365	0.263236
644.845494	0.263163
645.051605	0.263160
645.257698	0.263394
645.463772	0.263523
645.669828	0.263766
645.875866	0.263664
646.081886	0.264236
646.287888	0.264750
646.493871	0.264819
646.699836	0.265413
646.905783	0.265423
647.111712	0.265768
647.317622	0.265752
647.523514	0.265549
647.729388	0.265516
647.935244	0.265572
648.141082	0.265670
648.346901	0.265695
648.552702	0.265724
648.758485	0.265953
648.964250	0.265992
649.169996	0.266502
649.375724	0.266988
649.581434	0.267425
649.787126	0.267469
649.992800	0.267638
650.198455	0.267913
650.404092	0.268137
650.609711	0.268303
650.815311	0.268476
651.020894	0.268606
651.226458	0.268642
651.432004	0.269036
651.637532	0.269176
651.843041	0.268963
652.048532	0.269374
652.254006	0.269490
652.459460	0.269628
652.664897	0.269810
652.870315	0.269808
653.075716	0.269854
653.281097	0.269800
653.486461	0.270054
653.691807	0.270535
653.897134	0.270602
654.102443	0.270871
654.307734	0.270979
654.513006	0.271080
654.718261	0.271315
654.923497	0.271849
655.128715	0.272304
655.333915	0.272520
655.539096	0.272644
655.744259	0.272697
655.949404	0.272855
656.154531	0.273283
656.359640	0.273667
656.564730	0.273989
656.769802	0.273917
656.974856	0.274017
657.179892	0.274194
657.384909	0.274607
657.589908	0.274786
657.794889	0.275136
657.999852	0.274963
658.204797	0.275341
658.409723	0.275600
658.614631	0.275998
658.819521	0.276071
659.024393	0.276224
659.229246	0.276405
659.434081	0.276763
659.638898	0.276765
659.843697	0.277344
660.048478	0.277333
660.253240	0.277122
660.457984	0.276879
660.662710	0.277071
660.867417	0.277063
661.072107	0.276907
661.276778	0.276877
661.481431	0.276969
661.686066	0.277034
661.890682	0.276869
662.095281	0.277135
662.299861	0.277606
662.504422	0.277841
662.708966	0.278100
662.913491	0.278412
663.117999	0.278613
663.322488	0.278872
663.526958	0.278795
663.731411	0.279215
663.935845	0.279342
664.140261	0.279437
664.344659	0.279291
664.549038	0.279237
664.753400	0.279294
664.957743	0.279543
665.162068	0.279693
665.366375	0.280052
665.570663	0.279858
665.774933	0.280135
665.979185	0.280277
666.183419	0.280528
666.387635	0.280811
666.591832	0.281061
666.796011	0.281325
667.000172	0.281322
667.204315	0.281366
667.408439	0.282081
667.612545	0.282332
667.816634	0.282563
668.020703	0.282778
668.224755	0.283161
668.428788	0.283601
668.632803	0.284092
668.836800	0.284618
669.040779	0.285054
669.244739	0.285276
669.448681	0.285539
669.652605	0.285754
669.856511	0.286310
670.060399	0.286469
670.264268	0.286538
670.468119	0.286460
670.671952	0.286658
670.875767	0.286862
671.079563	0.287065
671.283341	0.287439
671.487101	0.287921
671.690843	0.288154
671.894567	0.288296
672.098272	0.288790
672.301959	0.289042
672.505628	0.289193
672.709278	0.289647
672.912911	0.289802
673.116525	0.289620
673.320121	0.289722
673.523699	0.289681
673.727258	0.289826
673.930799	0.289869
674.134322	0.290193
674.337827	0.290244
674.541314	0.290038
674.744782	0.290237
674.948232	0.290703
675.151664	0.290532
675.355078	0.290403
675.558474	0.290717
675.761851	0.290986
675.965210	0.291172
676.168551	0.291242
676.371873	0.291729
676.575178	0.292051
676.778464	0.292137
676.981732	0.292476
677.184981	0.292891
677.388213	0.293135
677.591426	0.293081
677.794621	0.292956
677.997798	0.293449
678.200956	0.293333
678.404097	0.293263
678.607219	0.293506
678.810323	0.293848
679.013408	0.294398
679.216476	0.295020
679.419525	0.295049
679.622556	0.295415
679.825569	0.295577
680.028563	0.296031
680.231540	0.296161
680.434498	0.296554
680.637438	0.296749
680.840359	0.296899
681.043263	0.296774
681.246148	0.297128
681.449015	0.297237
681.651864	0.297535
681.854694	0.297657
682.057506	0.298062
682.260301	0.298114
682.463076	0.298499
682.665834	0.298446
682.868573	0.298669
683.071295	0.299102
683.273998	0.299373
683.476682	0.299364
683.679349	0.299521
683.881997	0.299609
684.084627	0.299902
684.287239	0.299932
684.489833	0.300038
684.692408	0.299987
684.894965	0.300091
685.097504	0.300006
685.300025	0.300084
685.502527	0.300106
685.705012	0.300192
685.907478	0.300206
686.109925	0.300110
686.312355	0.300267
686.514766	0.300698
686.717159	0.300737
686.919534	0.301011
687.121891	0.301214
687.324230	0.301297
687.526550	0.301607
687.728852	0.301705
687.931136	0.302047
688.133401	0.302346
688.335649	0.302325
688.537878	0.302553
688.740089	0.302881
688.942281	0.302991
689.144456	0.303147
689.346612	0.303414
689.548750	0.303375
689.750870	0.303302
689.952971	0.303331
690.155055	0.303352
690.357120	0.303469
690.559167	0.303488
690.761195	0.303666
690.963206	0.303928
691.165198	0.303755
691.367172	0.303779
691.569128	0.303792
691.771065	0.303973
691.972984	0.304017
692.174885	0.304208
692.376768	0.304379
692.578633	0.304569
692.780479	0.304367
692.982308	0.304693
693.184118	0.305199
693.385909	0.305823
693.587683	0.306025
