sample name	sample
index	184
start time	 02-18-2021  11:27:42 AM


Wavelength (nm)	Absorbance
494.344910	NaN
494.563924	NaN
494.782919	NaN
495.001897	0.061887
495.220856	0.226968
495.439797	0.178770
495.658719	0.089735
495.877624	0.032757
496.096510	0.002139
496.315378	-0.007058
496.534227	-0.064596
496.753059	-0.052801
496.971872	0.043071
497.190667	0.148969
497.409444	0.150650
497.628203	0.159602
497.846943	0.162281
498.065665	0.164107
498.284369	0.165063
498.503055	0.166775
498.721723	0.167002
498.940372	0.166306
499.159003	0.167046
499.377616	0.168609
499.596210	0.168260
499.814787	0.167680
500.033345	0.167263
500.251885	0.167553
500.470406	0.166766
500.688910	0.166965
500.907395	0.167767
501.125862	0.167999
501.344311	0.167907
501.562742	0.167137
501.781154	0.167131
501.999548	0.167988
502.217924	0.168131
502.436282	0.168050
502.654621	0.169054
502.872942	0.169115
503.091245	0.168987
503.309530	0.167921
503.527797	0.169255
503.746045	0.169567
503.964275	0.168575
504.182487	0.168437
504.400681	0.169206
504.618856	0.168373
504.837013	0.168270
505.055152	0.168333
505.273273	0.170007
505.491376	0.170242
505.709460	0.171103
505.927526	0.171513
506.145574	0.172136
506.363604	0.171441
506.581615	0.171299
506.799608	0.170755
507.017583	0.169807
507.235540	0.169495
507.453478	0.168819
507.671399	0.168262
507.889301	0.168493
508.107185	0.168394
508.325050	0.170212
508.542898	0.171338
508.760727	0.171933
508.978538	0.172773
509.196330	0.172824
509.414105	0.172393
509.631861	0.171960
509.849599	0.172055
510.067319	0.172876
510.285021	0.172147
510.502704	0.171187
510.720369	0.170604
510.938016	0.170722
511.155645	0.171420
511.373255	0.172458
511.590848	0.173657
511.808422	0.173607
512.025977	0.172829
512.243515	0.173689
512.461034	0.174255
512.678536	0.175522
512.896018	0.176827
513.113483	0.176979
513.330930	0.178350
513.548358	0.178261
513.765768	0.179621
513.983160	0.180237
514.200533	0.179433
514.417889	0.179564
514.635226	0.179073
514.852545	0.178868
515.069845	0.178871
515.287128	0.178124
515.504392	0.178606
515.721638	0.179053
515.938866	0.179355
516.156075	0.180563
516.373267	0.181599
516.590440	0.182529
516.807594	0.182953
517.024731	0.183407
517.241850	0.183883
517.458950	0.183846
517.676032	0.183799
517.893095	0.183642
518.110141	0.183031
518.327168	0.182327
518.544177	0.182693
518.761168	0.182461
518.978141	0.182405
519.195095	0.181897
519.412031	0.182169
519.628949	0.182081
519.845849	0.182333
520.062731	0.182055
520.279594	0.182855
520.496439	0.183389
520.713266	0.183416
520.930074	0.183581
521.146865	0.183865
521.363637	0.183887
521.580391	0.184833
521.797127	0.185216
522.013844	0.186582
522.230543	0.186503
522.447224	0.186123
522.663887	0.186781
522.880532	0.187028
523.097158	0.187999
523.313766	0.188371
523.530356	0.188280
523.746928	0.188381
523.963481	0.188355
524.180017	0.188449
524.396534	0.188977
524.613032	0.189194
524.829513	0.189684
525.045975	0.189860
525.262420	0.190206
525.478845	0.190547
525.695253	0.190942
525.911643	0.191124
526.128014	0.191825
526.344367	0.191905
526.560702	0.191406
526.777018	0.191463
526.993316	0.191085
527.209597	0.191211
527.425858	0.191311
527.642102	0.192100
527.858328	0.192615
528.074535	0.193323
528.290724	0.193397
528.506894	0.194043
528.723047	0.194857
528.939181	0.195755
529.155297	0.196504
529.371395	0.196607
529.587475	0.196680
529.803536	0.197107
530.019579	0.197047
530.235604	0.197219
530.451611	0.198430
530.667600	0.198620
530.883570	0.198627
531.099522	0.199201
531.315456	0.199728
531.531372	0.199625
531.747269	0.199730
531.963148	0.199438
532.179009	0.200388
532.394852	0.200085
532.610676	0.199606
532.826482	0.200538
533.042271	0.200723
533.258040	0.200709
533.473792	0.201236
533.689525	0.202001
533.905240	0.202938
534.120937	0.203183
534.336616	0.203463
534.552277	0.204308
534.767919	0.203819
534.983543	0.204274
535.199149	0.205165
535.414736	0.205553
535.630306	0.205781
535.845857	0.205855
536.061390	0.205485
536.276904	0.205627
536.492401	0.206291
536.707879	0.206843
536.923339	0.206655
537.138781	0.206382
537.354204	0.206631
537.569610	0.206057
537.784997	0.205823
538.000366	0.206937
538.215716	0.207257
538.431049	0.206956
538.646363	0.206959
538.861659	0.207407
539.076937	0.207878
539.292196	0.207675
539.507438	0.208657
539.722661	0.209339
539.937866	0.209965
540.153052	0.210776
540.368221	0.210970
540.583371	0.212297
540.798503	0.212362
541.013617	0.212971
541.228712	0.213968
541.443789	0.214139
541.658848	0.214182
541.873889	0.213877
542.088912	0.214108
542.303916	0.214887
542.518902	0.213852
542.733870	0.214682
542.948820	0.214788
543.163752	0.214472
543.378665	0.215107
543.593560	0.215654
543.808437	0.215871
544.023295	0.215759
544.238136	0.215304
544.452958	0.216164
544.667762	0.216104
544.882548	0.216592
545.097315	0.216822
545.312064	0.216755
545.526795	0.217368
545.741508	0.217515
545.956203	0.218079
546.170879	0.218702
546.385537	0.219211
546.600177	0.219387
546.814799	0.219421
547.029402	0.220060
547.243988	0.220839
547.458555	0.221351
547.673103	0.222314
547.887634	0.222375
548.102146	0.222524
548.316640	0.222307
548.531116	0.222724
548.745574	0.223401
548.960013	0.223606
549.174435	0.223144
549.388838	0.222656
549.603222	0.222473
549.817589	0.222839
550.031937	0.223757
550.246267	0.224475
550.460579	0.224838
550.674873	0.225062
550.889148	0.224835
551.103405	0.224926
551.317644	0.225429
551.531865	0.225580
551.746068	0.225679
551.960252	0.225536
552.174418	0.225814
552.388566	0.225520
552.602696	0.225265
552.816807	0.226477
553.030900	0.226850
553.244975	0.226603
553.459032	0.227095
553.673070	0.227594
553.887091	0.227594
554.101093	0.227653
554.315077	0.227955
554.529042	0.228286
554.742990	0.227747
554.956919	0.228583
555.170830	0.229137
555.384722	0.229338
555.598597	0.229717
555.812453	0.230460
556.026291	0.230282
556.240111	0.230519
556.453913	0.231048
556.667696	0.231619
556.881461	0.231327
557.095208	0.231646
557.308937	0.231683
557.522647	0.231696
557.736339	0.231388
557.950013	0.232134
558.163669	0.232531
558.377307	0.232478
558.590926	0.232615
558.804527	0.232946
559.018110	0.233320
559.231675	0.233724
559.445221	0.233754
559.658749	0.234492
559.872259	0.234246
560.085751	0.234619
560.299225	0.234635
560.512680	0.234987
560.726117	0.235039
560.939536	0.234765
561.152937	0.234571
561.366319	0.234773
561.579683	0.234836
561.793029	0.235099
562.006357	0.235412
562.219667	0.235686
562.432958	0.235777
562.646231	0.235972
562.859486	0.236626
563.072723	0.236950
563.285941	0.237310
563.499141	0.237224
563.712323	0.237766
563.925487	0.238035
564.138632	0.238227
564.351760	0.238813
564.564869	0.239280
564.777960	0.239807
564.991032	0.240130
565.204087	0.240234
565.417123	0.240363
565.630141	0.240808
565.843140	0.240855
566.056122	0.240998
566.269085	0.241036
566.482030	0.241331
566.694957	0.241024
566.907866	0.241266
567.120756	0.241658
567.333628	0.241780
567.546482	0.241603
567.759318	0.241466
567.972135	0.242194
568.184935	0.242313
568.397716	0.242164
568.610478	0.242384
568.823223	0.242571
569.035949	0.242861
569.248657	0.243514
569.461347	0.244125
569.674019	0.244380
569.886672	0.244101
570.099308	0.244235
570.311925	0.244645
570.524523	0.245001
570.737104	0.244994
570.949666	0.245093
571.162210	0.245161
571.374736	0.245128
571.587244	0.245535
571.799733	0.246541
572.012205	0.246913
572.224658	0.246762
572.437092	0.246718
572.649509	0.247314
572.861907	0.247517
573.074287	0.247655
573.286649	0.247579
573.498993	0.247545
573.711318	0.246645
573.923625	0.247094
574.135914	0.247730
574.348185	0.248011
574.560438	0.247845
574.772672	0.247848
574.984888	0.247829
575.197086	0.248163
575.409266	0.248103
575.621427	0.248487
575.833570	0.248063
576.045695	0.247869
576.257802	0.248338
576.469890	0.248507
576.681961	0.248668
576.894013	0.248869
577.106046	0.248422
577.318062	0.248689
577.530059	0.249334
577.742039	0.249418
577.954000	0.249963
578.165942	0.249834
578.377867	0.250044
578.589773	0.250154
578.801661	0.250687
579.013531	0.251498
579.225382	0.252322
579.437216	0.251948
579.649031	0.252530
579.860828	0.252578
580.072606	0.252557
580.284367	0.252635
580.496109	0.253334
580.707833	0.253567
580.919539	0.253768
581.131227	0.253841
581.342896	0.254444
581.554547	0.254404
581.766180	0.254565
581.977795	0.254970
582.189391	0.255350
582.400969	0.254938
582.612529	0.254794
582.824071	0.254748
583.035595	0.254654
583.247100	0.254669
583.458587	0.255041
583.670056	0.255339
583.881506	0.255668
584.092939	0.255781
584.304353	0.256212
584.515749	0.256724
584.727127	0.256705
584.938486	0.256966
585.149828	0.257063
585.361151	0.257450
585.572456	0.257157
585.783742	0.257017
585.995011	0.257416
586.206261	0.257696
586.417493	0.257553
586.628706	0.257809
586.839902	0.257971
587.051079	0.258603
587.262238	0.258525
587.473379	0.259426
587.684502	0.259969
587.895606	0.259923
588.106692	0.259643
588.317760	0.260308
588.528810	0.260636
588.739841	0.260756
588.950855	0.260484
589.161850	0.260336
589.372827	0.260203
589.583785	0.260376
589.794726	0.260933
590.005648	0.261676
590.216552	0.261564
590.427437	0.262031
590.638305	0.262762
590.849154	0.262893
591.059985	0.263375
591.270798	0.263926
591.481592	0.264303
591.692369	0.263973
591.903127	0.264165
592.113867	0.264374
592.324588	0.264498
592.535292	0.264383
592.745977	0.264581
592.956644	0.264633
593.167293	0.264384
593.377923	0.264497
593.588536	0.265070
593.799130	0.265191
594.009706	0.265375
594.220263	0.265593
594.430803	0.265728
594.641324	0.265808
594.851827	0.266150
595.062312	0.266076
595.272778	0.266188
595.483227	0.266248
595.693657	0.265978
595.904069	0.266066
596.114462	0.266119
596.324838	0.266173
596.535195	0.266935
596.745534	0.267122
596.955855	0.267743
597.166157	0.267762
597.376441	0.268141
597.586707	0.268645
597.796955	0.269208
598.007185	0.269707
598.217396	0.270315
598.427589	0.270335
598.637764	0.270749
598.847921	0.271042
599.058060	0.271519
599.268180	0.271476
599.478282	0.271697
599.688366	0.271302
599.898431	0.271093
600.108479	0.270979
600.318508	0.271424
600.528519	0.271191
600.738511	0.270828
600.948486	0.271012
601.158442	0.271411
601.368380	0.271612
601.578300	0.272195
601.788202	0.272634
601.998085	0.272726
602.207950	0.272798
602.417797	0.273413
602.627626	0.274032
602.837436	0.274261
603.047228	0.274353
603.257002	0.274385
603.466758	0.274353
603.676496	0.274600
603.886215	0.274675
604.095916	0.274491
604.305599	0.274444
604.515264	0.274750
604.724910	0.274547
604.934538	0.274860
605.144148	0.275175
605.353740	0.275327
605.563314	0.275296
605.772869	0.275491
605.982406	0.275947
606.191925	0.276467
606.401425	0.276421
606.610908	0.276827
606.820372	0.277099
607.029818	0.277284
607.239246	0.277509
607.448655	0.277828
607.658047	0.277905
607.867420	0.277773
608.076775	0.277653
608.286111	0.277647
608.495430	0.277966
608.704730	0.277859
608.914012	0.278060
609.123275	0.278192
609.332521	0.278309
609.541748	0.278775
609.750957	0.279079
609.960148	0.279177
610.169321	0.279104
610.378475	0.279150
610.587611	0.279114
610.796729	0.279226
611.005829	0.279373
611.214910	0.279343
611.423974	0.279470
611.633019	0.279772
611.842045	0.279711
612.051054	0.280337
612.260044	0.280209
612.469017	0.280553
612.677970	0.280580
612.886906	0.281146
613.095824	0.281389
613.304723	0.281292
613.513604	0.281367
613.722467	0.281586
613.931311	0.281506
614.140138	0.281818
614.348946	0.281955
614.557736	0.282280
614.766507	0.282407
614.975261	0.282674
615.183996	0.282894
615.392713	0.283212
615.601412	0.283741
615.810092	0.284216
616.018754	0.284353
616.227399	0.284496
616.436024	0.284762
616.644632	0.284591
616.853222	0.284852
617.061793	0.285108
617.270346	0.284796
617.478880	0.284846
617.687397	0.284861
617.895895	0.284812
618.104375	0.284676
618.312837	0.284600
618.521281	0.284851
618.729706	0.284728
618.938113	0.284863
619.146502	0.285379
619.354873	0.285266
619.563226	0.285466
619.771560	0.285879
619.979876	0.285963
620.188174	0.286217
620.396453	0.286334
620.604715	0.286407
620.812958	0.286672
621.021183	0.286587
621.229390	0.286954
621.437578	0.287143
621.645748	0.287380
621.853900	0.287935
622.062034	0.287958
622.270150	0.288110
622.478247	0.288562
622.686326	0.288348
622.894387	0.288642
623.102430	0.288888
623.310454	0.289087
623.518461	0.288925
623.726449	0.289096
623.934418	0.289430
624.142370	0.289694
624.350303	0.289526
624.558218	0.290084
624.766115	0.290199
624.973994	0.290071
625.181855	0.290552
625.389697	0.290977
625.597521	0.291028
625.805327	0.290997
626.013114	0.291101
626.220883	0.291701
626.428634	0.291936
626.636367	0.292138
626.844082	0.292559
627.051778	0.292064
627.259457	0.292254
627.467117	0.292328
627.674758	0.292675
627.882382	0.292852
628.089987	0.292815
628.297574	0.292609
628.505143	0.292844
628.712694	0.292830
628.920226	0.293121
629.127740	0.293165
629.335236	0.293634
629.542714	0.293928
629.750174	0.294034
629.957615	0.294096
630.165038	0.294645
630.372443	0.294822
630.579829	0.295270
630.787198	0.295554
630.994548	0.295931
631.201880	0.296133
631.409194	0.296123
631.616489	0.296396
631.823766	0.296917
632.031025	0.297026
632.238266	0.297414
632.445489	0.297351
632.652693	0.297524
632.859879	0.297582
633.067047	0.297887
633.274197	0.297947
633.481329	0.298107
633.688442	0.298089
633.895537	0.298264
634.102614	0.298293
634.309672	0.298639
634.516713	0.298690
634.723735	0.298892
634.930739	0.298786
635.137724	0.299231
635.344692	0.299307
635.551641	0.299272
635.758572	0.299065
635.965485	0.298833
636.172379	0.298867
636.379256	0.298952
636.586114	0.299212
636.792954	0.299314
636.999775	0.299357
637.206579	0.299644
637.413364	0.299998
637.620131	0.300452
637.826880	0.301072
638.033610	0.301430
638.240323	0.301778
638.447017	0.301739
638.653692	0.302053
638.860350	0.302093
639.066990	0.302212
639.273611	0.302437
639.480214	0.302697
639.686798	0.302862
639.893365	0.302799
640.099913	0.302918
640.306443	0.303521
640.512955	0.303483
640.719449	0.303827
640.925924	0.303926
641.132381	0.304110
641.338820	0.304233
641.545241	0.304101
641.751644	0.304277
641.958028	0.304412
642.164394	0.304128
642.370742	0.304565
642.577071	0.304518
642.783383	0.304672
642.989676	0.305014
643.195951	0.305304
643.402207	0.305821
643.608446	0.306150
643.814666	0.306476
644.020868	0.306629
644.227052	0.306721
644.433218	0.307318
644.639365	0.307703
644.845494	0.307844
645.051605	0.307757
645.257698	0.307821
645.463772	0.308155
645.669828	0.308222
645.875866	0.308636
646.081886	0.308904
646.287888	0.309003
646.493871	0.309013
646.699836	0.309154
646.905783	0.309603
647.111712	0.309724
647.317622	0.309970
647.523514	0.310492
647.729388	0.310628
647.935244	0.310725
648.141082	0.310930
648.346901	0.311077
648.552702	0.311432
648.758485	0.311762
648.964250	0.311863
649.169996	0.311821
649.375724	0.311799
649.581434	0.312324
649.787126	0.312716
649.992800	0.312626
650.198455	0.313059
650.404092	0.313175
650.609711	0.313127
650.815311	0.313565
651.020894	0.313706
651.226458	0.314048
651.432004	0.313903
651.637532	0.313847
651.843041	0.314267
652.048532	0.314406
652.254006	0.314461
652.459460	0.314651
652.664897	0.314711
652.870315	0.315093
653.075716	0.315082
653.281097	0.315379
653.486461	0.315778
653.691807	0.316149
653.897134	0.316465
654.102443	0.316495
654.307734	0.316994
654.513006	0.317239
654.718261	0.317233
654.923497	0.317285
655.128715	0.317630
655.333915	0.317451
655.539096	0.317519
655.744259	0.317669
655.949404	0.318280
656.154531	0.318156
656.359640	0.318494
656.564730	0.318860
656.769802	0.319483
656.974856	0.319667
657.179892	0.320215
657.384909	0.320483
657.589908	0.320639
657.794889	0.320652
657.999852	0.320931
658.204797	0.321255
658.409723	0.321726
658.614631	0.322105
658.819521	0.322344
659.024393	0.322580
659.229246	0.322652
659.434081	0.322800
659.638898	0.323091
659.843697	0.323222
660.048478	0.323261
660.253240	0.323294
660.457984	0.323445
660.662710	0.323443
660.867417	0.323797
661.072107	0.324213
661.276778	0.324631
661.481431	0.324782
661.686066	0.325134
661.890682	0.325418
662.095281	0.325746
662.299861	0.325799
662.504422	0.326182
662.708966	0.326044
662.913491	0.326135
663.117999	0.326389
663.322488	0.326685
663.526958	0.327226
663.731411	0.327523
663.935845	0.327527
664.140261	0.327616
664.344659	0.327827
664.549038	0.328344
664.753400	0.328490
664.957743	0.328627
665.162068	0.328777
665.366375	0.328807
665.570663	0.328740
665.774933	0.328929
665.979185	0.329389
666.183419	0.329599
666.387635	0.329521
666.591832	0.329886
666.796011	0.330109
667.000172	0.330107
667.204315	0.330220
667.408439	0.330822
667.612545	0.330975
667.816634	0.330989
668.020703	0.330984
668.224755	0.331334
668.428788	0.331507
668.632803	0.331863
668.836800	0.332105
669.040779	0.332318
669.244739	0.332349
669.448681	0.332661
669.652605	0.332910
669.856511	0.333333
670.060399	0.333547
670.264268	0.333643
670.468119	0.333635
670.671952	0.333965
670.875767	0.334101
671.079563	0.334136
671.283341	0.334470
671.487101	0.334750
671.690843	0.335222
671.894567	0.335591
672.098272	0.336080
672.301959	0.336397
672.505628	0.336637
672.709278	0.337005
672.912911	0.337428
673.116525	0.337880
673.320121	0.338130
673.523699	0.338153
673.727258	0.338169
673.930799	0.338164
674.134322	0.338365
674.337827	0.338650
674.541314	0.338852
674.744782	0.339278
674.948232	0.339402
675.151664	0.339838
675.355078	0.340000
675.558474	0.340317
675.761851	0.340786
675.965210	0.341278
676.168551	0.341739
676.371873	0.341755
676.575178	0.341792
676.778464	0.341649
676.981732	0.341877
677.184981	0.342048
677.388213	0.342528
677.591426	0.342632
677.794621	0.342793
677.997798	0.342832
678.200956	0.343190
678.404097	0.343697
678.607219	0.344198
678.810323	0.344257
679.013408	0.344661
679.216476	0.344813
679.419525	0.345193
679.622556	0.345511
679.825569	0.345798
680.028563	0.346039
680.231540	0.346030
680.434498	0.346387
680.637438	0.346581
680.840359	0.346829
681.043263	0.346880
681.246148	0.346940
681.449015	0.346925
681.651864	0.347050
681.854694	0.347248
682.057506	0.347645
682.260301	0.347671
682.463076	0.347681
682.665834	0.348026
682.868573	0.348509
683.071295	0.348915
683.273998	0.349399
683.476682	0.349866
683.679349	0.350336
683.881997	0.350403
684.084627	0.350770
684.287239	0.351050
684.489833	0.351324
684.692408	0.351087
684.894965	0.351126
685.097504	0.351240
685.300025	0.351433
685.502527	0.351499
685.705012	0.351609
685.907478	0.351755
686.109925	0.351986
686.312355	0.352039
686.514766	0.352560
686.717159	0.352882
686.919534	0.352925
687.121891	0.353005
687.324230	0.353389
687.526550	0.353618
687.728852	0.353850
687.931136	0.354248
688.133401	0.354548
688.335649	0.354650
688.537878	0.355034
688.740089	0.355455
688.942281	0.355677
689.144456	0.355660
689.346612	0.355806
689.548750	0.355993
689.750870	0.356151
689.952971	0.355977
690.155055	0.356435
690.357120	0.356417
690.559167	0.356275
690.761195	0.356446
690.963206	0.356491
691.165198	0.357004
691.367172	0.357040
691.569128	0.357109
691.771065	0.357625
691.972984	0.357669
692.174885	0.358007
692.376768	0.358286
692.578633	0.358410
692.780479	0.358843
692.982308	0.358782
693.184118	0.359194
693.385909	0.359426
693.587683	0.359611
