sample name	sample
index	145
start time	 02-15-2021  02:08:27 PM


Wavelength (nm)	Absorbance
494.344910	NaN
494.563924	NaN
494.782919	NaN
495.001897	NaN
495.220856	0.049464
495.439797	0.064287
495.658719	NaN
495.877624	NaN
496.096510	NaN
496.315378	NaN
496.534227	0.115606
496.753059	NaN
496.971872	NaN
497.190667	0.237929
497.409444	0.175061
497.628203	0.165403
497.846943	0.169670
498.065665	0.174172
498.284369	0.173597
498.503055	0.168388
498.721723	0.166270
498.940372	0.167379
499.159003	0.164958
499.377616	0.166327
499.596210	0.166657
499.814787	0.168332
500.033345	0.165483
500.251885	0.168127
500.470406	0.168767
500.688910	0.168336
500.907395	0.165885
501.125862	0.165298
501.344311	0.164865
501.562742	0.161457
501.781154	0.159498
501.999548	0.161488
502.217924	0.158460
502.436282	0.161126
502.654621	0.159994
502.872942	0.160621
503.091245	0.164207
503.309530	0.167236
503.527797	0.170288
503.746045	0.168353
503.964275	0.165497
504.182487	0.167969
504.400681	0.166481
504.618856	0.169174
504.837013	0.169023
505.055152	0.166141
505.273273	0.165509
505.491376	0.164981
505.709460	0.166543
505.927526	0.168487
506.145574	0.165572
506.363604	0.164916
506.581615	0.162757
506.799608	0.161155
507.017583	0.166082
507.235540	0.163895
507.453478	0.164306
507.671399	0.163607
507.889301	0.165264
508.107185	0.166453
508.325050	0.165892
508.542898	0.164168
508.760727	0.164751
508.978538	0.162693
509.196330	0.165036
509.414105	0.164970
509.631861	0.168109
509.849599	0.167775
510.067319	0.167371
510.285021	0.166522
510.502704	0.170239
510.720369	0.171557
510.938016	0.171490
511.155645	0.170565
511.373255	0.173151
511.590848	0.174243
511.808422	0.171290
512.025977	0.170489
512.243515	0.171370
512.461034	0.168766
512.678536	0.169602
512.896018	0.167904
513.113483	0.167686
513.330930	0.166685
513.548358	0.162702
513.765768	0.163896
513.983160	0.165191
514.200533	0.166272
514.417889	0.168974
514.635226	0.169217
514.852545	0.170482
515.069845	0.169090
515.287128	0.169094
515.504392	0.170869
515.721638	0.171353
515.938866	0.169423
516.156075	0.169316
516.373267	0.169564
516.590440	0.168923
516.807594	0.170069
517.024731	0.172872
517.241850	0.172087
517.458950	0.174014
517.676032	0.175132
517.893095	0.176560
518.110141	0.175671
518.327168	0.176055
518.544177	0.176180
518.761168	0.176635
518.978141	0.174978
519.195095	0.175958
519.412031	0.174066
519.628949	0.174555
519.845849	0.178829
520.062731	0.178283
520.279594	0.177099
520.496439	0.178948
520.713266	0.177873
520.930074	0.181097
521.146865	0.181706
521.363637	0.183068
521.580391	0.181724
521.797127	0.177780
522.013844	0.179431
522.230543	0.180781
522.447224	0.179420
522.663887	0.178439
522.880532	0.174876
523.097158	0.175124
523.313766	0.175455
523.530356	0.175789
523.746928	0.177941
523.963481	0.179149
524.180017	0.178480
524.396534	0.179870
524.613032	0.182360
524.829513	0.184847
525.045975	0.184998
525.262420	0.183488
525.478845	0.184092
525.695253	0.183967
525.911643	0.184544
526.128014	0.184951
526.344367	0.185093
526.560702	0.184911
526.777018	0.186119
526.993316	0.185553
527.209597	0.186677
527.425858	0.187070
527.642102	0.187778
527.858328	0.188223
528.074535	0.188840
528.290724	0.189719
528.506894	0.191030
528.723047	0.190274
528.939181	0.193441
529.155297	0.193771
529.371395	0.195325
529.587475	0.195442
529.803536	0.196117
530.019579	0.195719
530.235604	0.194626
530.451611	0.196217
530.667600	0.196737
530.883570	0.194442
531.099522	0.196641
531.315456	0.195312
531.531372	0.194479
531.747269	0.195089
531.963148	0.195338
532.179009	0.195432
532.394852	0.194094
532.610676	0.195455
532.826482	0.196108
533.042271	0.196203
533.258040	0.196693
533.473792	0.198328
533.689525	0.198955
533.905240	0.199849
534.120937	0.200601
534.336616	0.200553
534.552277	0.199832
534.767919	0.200783
534.983543	0.199274
535.199149	0.199751
535.414736	0.199482
535.630306	0.199622
535.845857	0.198701
536.061390	0.198202
536.276904	0.197601
536.492401	0.197926
536.707879	0.197676
536.923339	0.198379
537.138781	0.198487
537.354204	0.198751
537.569610	0.199630
537.784997	0.202164
538.000366	0.203221
538.215716	0.203977
538.431049	0.204878
538.646363	0.206529
538.861659	0.207158
539.076937	0.207694
539.292196	0.207947
539.507438	0.206757
539.722661	0.205804
539.937866	0.206839
540.153052	0.208862
540.368221	0.209949
540.583371	0.209142
540.798503	0.208533
541.013617	0.210379
541.228712	0.211043
541.443789	0.210520
541.658848	0.210841
541.873889	0.210906
542.088912	0.209613
542.303916	0.208696
542.518902	0.209363
542.733870	0.210530
542.948820	0.209885
543.163752	0.209461
543.378665	0.209304
543.593560	0.209873
543.808437	0.210447
544.023295	0.210853
544.238136	0.211013
544.452958	0.212417
544.667762	0.212224
544.882548	0.213335
545.097315	0.214837
545.312064	0.217298
545.526795	0.217840
545.741508	0.218208
545.956203	0.219632
546.170879	0.220569
546.385537	0.218924
546.600177	0.219972
546.814799	0.219676
547.029402	0.220177
547.243988	0.219215
547.458555	0.218658
547.673103	0.217954
547.887634	0.217279
548.102146	0.217760
548.316640	0.219086
548.531116	0.218105
548.745574	0.218607
548.960013	0.217851
549.174435	0.218849
549.388838	0.219171
549.603222	0.220371
549.817589	0.221087
550.031937	0.220564
550.246267	0.220404
550.460579	0.222256
550.674873	0.222038
550.889148	0.223206
551.103405	0.222750
551.317644	0.223478
551.531865	0.223458
551.746068	0.224455
551.960252	0.223764
552.174418	0.223505
552.388566	0.223044
552.602696	0.222891
552.816807	0.223171
553.030900	0.223436
553.244975	0.223236
553.459032	0.223661
553.673070	0.222702
553.887091	0.224783
554.101093	0.225898
554.315077	0.226250
554.529042	0.226357
554.742990	0.226458
554.956919	0.227185
555.170830	0.226979
555.384722	0.227866
555.598597	0.228538
555.812453	0.227409
556.026291	0.227520
556.240111	0.227556
556.453913	0.227613
556.667696	0.227134
556.881461	0.226606
557.095208	0.227507
557.308937	0.227678
557.522647	0.228734
557.736339	0.228513
557.950013	0.229546
558.163669	0.229523
558.377307	0.230084
558.590926	0.231345
558.804527	0.232942
559.018110	0.232978
559.231675	0.232035
559.445221	0.231123
559.658749	0.232032
559.872259	0.230740
560.085751	0.231567
560.299225	0.232763
560.512680	0.231785
560.726117	0.230563
560.939536	0.231678
561.152937	0.232709
561.366319	0.232933
561.579683	0.232569
561.793029	0.232758
562.006357	0.232953
562.219667	0.232812
562.432958	0.232948
562.646231	0.233671
562.859486	0.233572
563.072723	0.233484
563.285941	0.233095
563.499141	0.234310
563.712323	0.234761
563.925487	0.234299
564.138632	0.234881
564.351760	0.235740
564.564869	0.236004
564.777960	0.236479
564.991032	0.236770
565.204087	0.237688
565.417123	0.238449
565.630141	0.238847
565.843140	0.239177
566.056122	0.238464
566.269085	0.239079
566.482030	0.239599
566.694957	0.238692
566.907866	0.238686
567.120756	0.239085
567.333628	0.239522
567.546482	0.239009
567.759318	0.239564
567.972135	0.240291
568.184935	0.240254
568.397716	0.240700
568.610478	0.241172
568.823223	0.241331
569.035949	0.241919
569.248657	0.240514
569.461347	0.241490
569.674019	0.241724
569.886672	0.240340
570.099308	0.240500
570.311925	0.239978
570.524523	0.241554
570.737104	0.241518
570.949666	0.240444
571.162210	0.241064
571.374736	0.241201
571.587244	0.241464
571.799733	0.243066
572.012205	0.244033
572.224658	0.245096
572.437092	0.244858
572.649509	0.245053
572.861907	0.246059
573.074287	0.246011
573.286649	0.247144
573.498993	0.248651
573.711318	0.248569
573.923625	0.248380
574.135914	0.249073
574.348185	0.249080
574.560438	0.250277
574.772672	0.250526
574.984888	0.250321
575.197086	0.250289
575.409266	0.248116
575.621427	0.248972
575.833570	0.248985
576.045695	0.248133
576.257802	0.248556
576.469890	0.247369
576.681961	0.247427
576.894013	0.250386
577.106046	0.249440
577.318062	0.251707
577.530059	0.251654
577.742039	0.252536
577.954000	0.253289
578.165942	0.252912
578.377867	0.253338
578.589773	0.253278
578.801661	0.251605
579.013531	0.252600
579.225382	0.252163
579.437216	0.251962
579.649031	0.251072
579.860828	0.250329
580.072606	0.250421
580.284367	0.251456
580.496109	0.252271
580.707833	0.252383
580.919539	0.252838
581.131227	0.252589
581.342896	0.253033
581.554547	0.253066
581.766180	0.253775
581.977795	0.254865
582.189391	0.254086
582.400969	0.254512
582.612529	0.254914
582.824071	0.254294
583.035595	0.254470
583.247100	0.254961
583.458587	0.255505
583.670056	0.255666
583.881506	0.255188
584.092939	0.255859
584.304353	0.256129
584.515749	0.256488
584.727127	0.257313
584.938486	0.256322
585.149828	0.255075
585.361151	0.254509
585.572456	0.253816
585.783742	0.254016
585.995011	0.253853
586.206261	0.252909
586.417493	0.253055
586.628706	0.252875
586.839902	0.254623
587.051079	0.255707
587.262238	0.256274
587.473379	0.256791
587.684502	0.256371
587.895606	0.256795
588.106692	0.257075
588.317760	0.256870
588.528810	0.257017
588.739841	0.257283
588.950855	0.258508
589.161850	0.258735
589.372827	0.258828
589.583785	0.259061
589.794726	0.259729
590.005648	0.259811
590.216552	0.260727
590.427437	0.260667
590.638305	0.260640
590.849154	0.259370
591.059985	0.259636
591.270798	0.260095
591.481592	0.261048
591.692369	0.261206
591.903127	0.262079
592.113867	0.262321
592.324588	0.262109
592.535292	0.262258
592.745977	0.263285
592.956644	0.264372
593.167293	0.264786
593.377923	0.264222
593.588536	0.264599
593.799130	0.264341
594.009706	0.264781
594.220263	0.265736
594.430803	0.265429
594.641324	0.265792
594.851827	0.265591
595.062312	0.266701
595.272778	0.267496
595.483227	0.267246
595.693657	0.268913
595.904069	0.268665
596.114462	0.269119
596.324838	0.269867
596.535195	0.270126
596.745534	0.270496
596.955855	0.270018
597.166157	0.270080
597.376441	0.270495
597.586707	0.270382
597.796955	0.270483
598.007185	0.270578
598.217396	0.270152
598.427589	0.269698
598.637764	0.269565
598.847921	0.269781
599.058060	0.270069
599.268180	0.269518
599.478282	0.268658
599.688366	0.268025
599.898431	0.268233
600.108479	0.269138
600.318508	0.270594
600.528519	0.271059
600.738511	0.270921
600.948486	0.270666
601.158442	0.271329
601.368380	0.271927
601.578300	0.272414
601.788202	0.272268
601.998085	0.273090
602.207950	0.272450
602.417797	0.272079
602.627626	0.273447
602.837436	0.273785
603.047228	0.274285
603.257002	0.273986
603.466758	0.275140
603.676496	0.275590
603.886215	0.275269
604.095916	0.276533
604.305599	0.277101
604.515264	0.276887
604.724910	0.277925
604.934538	0.277913
605.144148	0.279201
605.353740	0.279314
605.563314	0.279372
605.772869	0.279540
605.982406	0.278746
606.191925	0.279470
606.401425	0.279531
606.610908	0.279905
606.820372	0.280668
607.029818	0.280344
607.239246	0.280626
607.448655	0.281146
607.658047	0.280691
607.867420	0.281280
608.076775	0.281139
608.286111	0.280915
608.495430	0.280722
608.704730	0.280592
608.914012	0.281227
609.123275	0.281043
609.332521	0.281147
609.541748	0.282082
609.750957	0.281812
609.960148	0.281655
610.169321	0.282182
610.378475	0.282061
610.587611	0.282307
610.796729	0.282179
611.005829	0.282157
611.214910	0.281858
611.423974	0.281805
611.633019	0.282780
611.842045	0.283096
612.051054	0.283100
612.260044	0.283202
612.469017	0.283555
612.677970	0.283005
612.886906	0.282961
613.095824	0.282812
613.304723	0.282967
613.513604	0.282534
613.722467	0.282755
613.931311	0.283157
614.140138	0.283657
614.348946	0.283739
614.557736	0.284571
614.766507	0.284665
614.975261	0.285898
615.183996	0.285933
615.392713	0.286571
615.601412	0.286631
615.810092	0.286847
616.018754	0.286899
616.227399	0.287504
616.436024	0.287715
616.644632	0.288494
616.853222	0.288923
617.061793	0.289497
617.270346	0.289025
617.478880	0.289850
617.687397	0.289783
617.895895	0.289440
618.104375	0.289256
618.312837	0.288980
618.521281	0.289028
618.729706	0.289163
618.938113	0.289246
619.146502	0.289728
619.354873	0.289311
619.563226	0.289371
619.771560	0.289780
619.979876	0.289406
620.188174	0.290561
620.396453	0.291308
620.604715	0.291331
620.812958	0.291301
621.021183	0.291424
621.229390	0.290705
621.437578	0.290698
621.645748	0.291315
621.853900	0.292066
622.062034	0.291512
622.270150	0.291335
622.478247	0.290709
622.686326	0.290464
622.894387	0.291258
623.102430	0.292196
623.310454	0.292576
623.518461	0.293050
623.726449	0.293067
623.934418	0.294124
624.142370	0.293863
624.350303	0.294913
624.558218	0.295704
624.766115	0.295231
624.973994	0.295533
625.181855	0.296240
625.389697	0.296244
625.597521	0.296306
625.805327	0.296336
626.013114	0.296987
626.220883	0.297524
626.428634	0.297943
626.636367	0.298166
626.844082	0.298412
627.051778	0.298188
627.259457	0.298252
627.467117	0.298870
627.674758	0.298385
627.882382	0.298106
628.089987	0.297903
628.297574	0.297587
628.505143	0.298453
628.712694	0.298419
628.920226	0.298827
629.127740	0.298618
629.335236	0.298855
629.542714	0.299490
629.750174	0.300058
629.957615	0.300225
630.165038	0.300966
630.372443	0.300406
630.579829	0.301233
630.787198	0.301178
630.994548	0.302199
631.201880	0.302427
631.409194	0.302591
631.616489	0.302426
631.823766	0.302361
632.031025	0.301950
632.238266	0.302205
632.445489	0.302118
632.652693	0.302778
632.859879	0.302739
633.067047	0.302372
633.274197	0.302287
633.481329	0.303046
633.688442	0.303696
633.895537	0.304027
634.102614	0.304680
634.309672	0.305241
634.516713	0.305103
634.723735	0.305197
634.930739	0.305858
635.137724	0.305378
635.344692	0.305789
635.551641	0.305596
635.758572	0.305873
635.965485	0.305568
636.172379	0.305432
636.379256	0.305753
636.586114	0.305647
636.792954	0.306161
636.999775	0.307059
637.206579	0.306858
637.413364	0.307217
637.620131	0.307800
637.826880	0.307431
638.033610	0.307694
638.240323	0.307502
638.447017	0.308044
638.653692	0.308363
638.860350	0.308159
639.066990	0.307999
639.273611	0.308658
639.480214	0.308702
639.686798	0.309298
639.893365	0.309575
640.099913	0.309595
640.306443	0.309919
640.512955	0.309140
640.719449	0.310052
640.925924	0.310808
641.132381	0.311204
641.338820	0.311295
641.545241	0.311759
641.751644	0.311887
641.958028	0.312906
642.164394	0.313116
642.370742	0.313969
642.577071	0.314687
642.783383	0.315173
642.989676	0.315147
643.195951	0.315722
643.402207	0.316111
643.608446	0.316549
643.814666	0.316071
644.020868	0.316606
644.227052	0.316596
644.433218	0.316474
644.639365	0.316716
644.845494	0.316402
645.051605	0.316654
645.257698	0.316215
645.463772	0.315632
645.669828	0.316464
645.875866	0.315944
646.081886	0.316288
646.287888	0.316243
646.493871	0.316386
646.699836	0.317071
646.905783	0.316978
647.111712	0.317874
647.317622	0.318867
647.523514	0.319241
647.729388	0.319751
647.935244	0.319703
648.141082	0.320213
648.346901	0.320338
648.552702	0.320574
648.758485	0.321257
648.964250	0.321105
649.169996	0.321229
649.375724	0.321086
649.581434	0.321354
649.787126	0.322714
649.992800	0.323138
650.198455	0.323197
650.404092	0.323543
650.609711	0.323100
650.815311	0.323612
651.020894	0.323475
651.226458	0.323716
651.432004	0.323675
651.637532	0.323071
651.843041	0.322888
652.048532	0.323067
652.254006	0.323129
652.459460	0.323804
652.664897	0.324537
652.870315	0.325024
653.075716	0.324970
653.281097	0.325248
653.486461	0.325008
653.691807	0.325247
653.897134	0.325904
654.102443	0.326057
654.307734	0.325786
654.513006	0.325717
654.718261	0.326267
654.923497	0.326367
655.128715	0.327075
655.333915	0.327881
655.539096	0.327417
655.744259	0.327167
655.949404	0.327185
656.154531	0.327742
656.359640	0.328077
656.564730	0.328052
656.769802	0.328872
656.974856	0.328688
657.179892	0.328839
657.384909	0.329651
657.589908	0.329884
657.794889	0.329926
657.999852	0.330887
658.204797	0.331007
658.409723	0.330859
658.614631	0.331160
658.819521	0.332236
659.024393	0.332248
659.229246	0.332438
659.434081	0.333012
659.638898	0.333713
659.843697	0.333604
660.048478	0.333922
660.253240	0.334465
660.457984	0.334842
660.662710	0.334679
660.867417	0.335014
661.072107	0.334736
661.276778	0.334794
661.481431	0.334281
661.686066	0.334337
661.890682	0.334551
662.095281	0.334763
662.299861	0.334498
662.504422	0.334609
662.708966	0.335053
662.913491	0.335767
663.117999	0.336058
663.322488	0.336899
663.526958	0.337198
663.731411	0.337474
663.935845	0.337872
664.140261	0.338230
664.344659	0.338565
664.549038	0.338615
664.753400	0.339181
664.957743	0.339356
665.162068	0.339891
665.366375	0.340175
665.570663	0.340626
665.774933	0.340899
665.979185	0.341604
666.183419	0.341903
666.387635	0.342333
666.591832	0.342635
666.796011	0.342937
667.000172	0.342705
667.204315	0.342544
667.408439	0.341635
667.612545	0.341669
667.816634	0.341608
668.020703	0.342035
668.224755	0.342519
668.428788	0.343390
668.632803	0.343637
668.836800	0.343996
669.040779	0.344215
669.244739	0.345166
669.448681	0.345788
669.652605	0.345931
669.856511	0.345827
670.060399	0.345706
670.264268	0.345462
670.468119	0.345629
670.671952	0.346016
670.875767	0.346508
671.079563	0.347136
671.283341	0.347038
671.487101	0.347619
671.690843	0.348147
671.894567	0.348654
672.098272	0.348792
672.301959	0.349039
672.505628	0.349185
672.709278	0.349360
672.912911	0.349327
673.116525	0.350095
673.320121	0.350407
673.523699	0.350561
673.727258	0.350510
673.930799	0.350896
674.134322	0.351368
674.337827	0.352198
674.541314	0.352387
674.744782	0.352323
674.948232	0.352237
675.151664	0.352209
675.355078	0.352271
675.558474	0.352650
675.761851	0.352380
675.965210	0.352276
676.168551	0.351552
676.371873	0.352312
676.575178	0.353035
676.778464	0.353619
676.981732	0.354274
677.184981	0.354753
677.388213	0.355005
677.591426	0.355329
677.794621	0.355803
677.997798	0.356456
678.200956	0.356207
678.404097	0.356793
678.607219	0.356804
678.810323	0.356609
679.013408	0.356297
679.216476	0.356470
679.419525	0.356846
679.622556	0.356860
679.825569	0.357259
680.028563	0.357987
680.231540	0.357422
680.434498	0.358097
680.637438	0.358605
680.840359	0.359507
681.043263	0.360454
681.246148	0.360471
681.449015	0.360689
681.651864	0.360795
681.854694	0.360705
682.057506	0.361604
682.260301	0.361077
682.463076	0.360942
682.665834	0.360962
682.868573	0.360960
683.071295	0.361547
683.273998	0.362126
683.476682	0.362538
683.679349	0.362717
683.881997	0.362176
684.084627	0.363020
684.287239	0.363573
684.489833	0.363914
684.692408	0.363839
684.894965	0.364130
685.097504	0.364489
685.300025	0.364659
685.502527	0.364577
685.705012	0.365409
685.907478	0.365350
686.109925	0.365534
686.312355	0.365631
686.514766	0.365957
686.717159	0.365853
686.919534	0.366006
687.121891	0.366318
687.324230	0.366652
687.526550	0.366567
687.728852	0.366427
687.931136	0.366807
688.133401	0.366661
688.335649	0.366428
688.537878	0.367122
688.740089	0.367419
688.942281	0.367577
689.144456	0.367942
689.346612	0.368310
689.548750	0.368403
689.750870	0.368158
689.952971	0.369011
690.155055	0.369683
690.357120	0.369434
690.559167	0.369125
690.761195	0.369384
690.963206	0.370210
691.165198	0.370576
691.367172	0.371085
691.569128	0.371333
691.771065	0.371561
691.972984	0.371428
692.174885	0.371909
692.376768	0.372577
692.578633	0.372716
692.780479	0.373020
692.982308	0.373369
693.184118	0.373671
693.385909	0.373835
693.587683	0.373911
693.789438	0.374089
693.991175	0.374075
