sample name	sample
index	926
start time	 04-12-2021  12:06:07 PM


Wavelength (nm)	Absorbance
494.344910	NaN
494.563924	NaN
494.782919	NaN
495.001897	0.020046
495.220856	NaN
495.439797	NaN
495.658719	-0.188076
495.877624	-0.590138
496.096510	-0.839604
496.315378	-1.060915
496.534227	-0.751389
496.753059	-0.161390
496.971872	0.005233
497.190667	0.062238
497.409444	0.070346
497.628203	0.074083
497.846943	0.075462
498.065665	0.075477
498.284369	0.075668
498.503055	0.075555
498.721723	0.074754
498.940372	0.073307
499.159003	0.074779
499.377616	0.075303
499.596210	0.075151
499.814787	0.074847
500.033345	0.074190
500.251885	0.074939
500.470406	0.073945
500.688910	0.074725
500.907395	0.075816
501.125862	0.075577
501.344311	0.075468
501.562742	0.076803
501.781154	0.076692
501.999548	0.077880
502.217924	0.076364
502.436282	0.076540
502.654621	0.076106
502.872942	0.075746
503.091245	0.074469
503.309530	0.075421
503.527797	0.074914
503.746045	0.074906
503.964275	0.074324
504.182487	0.076086
504.400681	0.076603
504.618856	0.077218
504.837013	0.077784
505.055152	0.079230
505.273273	0.077288
505.491376	0.077149
505.709460	0.077549
505.927526	0.077605
506.145574	0.078096
506.363604	0.078068
506.581615	0.078451
506.799608	0.079157
507.017583	0.078789
507.235540	0.079876
507.453478	0.080726
507.671399	0.081891
507.889301	0.082464
508.107185	0.080358
508.325050	0.080398
508.542898	0.080587
508.760727	0.079907
508.978538	0.080880
509.196330	0.081480
509.414105	0.080438
509.631861	0.079368
509.849599	0.079330
510.067319	0.080648
510.285021	0.080948
510.502704	0.080971
510.720369	0.081590
510.938016	0.081675
511.155645	0.080905
511.373255	0.081520
511.590848	0.081725
511.808422	0.082122
512.025977	0.081878
512.243515	0.082473
512.461034	0.082107
512.678536	0.082406
512.896018	0.081804
513.113483	0.082669
513.330930	0.082948
513.548358	0.084274
513.765768	0.084128
513.983160	0.084965
514.200533	0.085091
514.417889	0.085455
514.635226	0.085192
514.852545	0.086149
515.069845	0.086511
515.287128	0.086518
515.504392	0.086208
515.721638	0.086239
515.938866	0.087064
516.156075	0.086469
516.373267	0.087477
516.590440	0.088077
516.807594	0.088014
517.024731	0.087867
517.241850	0.088203
517.458950	0.088191
517.676032	0.089114
517.893095	0.087545
518.110141	0.088095
518.327168	0.087195
518.544177	0.088029
518.761168	0.088529
518.978141	0.088962
519.195095	0.089466
519.412031	0.089814
519.628949	0.089714
519.845849	0.091329
520.062731	0.091896
520.279594	0.092279
520.496439	0.092057
520.713266	0.092423
520.930074	0.093143
521.146865	0.092728
521.363637	0.093034
521.580391	0.092929
521.797127	0.092817
522.013844	0.093218
522.230543	0.093419
522.447224	0.092649
522.663887	0.092412
522.880532	0.092095
523.097158	0.092539
523.313766	0.092528
523.530356	0.093138
523.746928	0.093452
523.963481	0.093933
524.180017	0.094289
524.396534	0.095036
524.613032	0.095270
524.829513	0.096243
525.045975	0.096724
525.262420	0.097332
525.478845	0.097709
525.695253	0.098312
525.911643	0.098278
526.128014	0.099249
526.344367	0.100714
526.560702	0.101005
526.777018	0.101057
526.993316	0.101524
527.209597	0.101502
527.425858	0.101701
527.642102	0.101941
527.858328	0.102847
528.074535	0.102859
528.290724	0.102823
528.506894	0.103485
528.723047	0.103631
528.939181	0.103906
529.155297	0.104391
529.371395	0.104720
529.587475	0.104918
529.803536	0.105226
530.019579	0.105135
530.235604	0.105160
530.451611	0.105012
530.667600	0.105326
530.883570	0.105941
531.099522	0.106566
531.315456	0.107439
531.531372	0.107463
531.747269	0.107388
531.963148	0.108820
532.179009	0.109399
532.394852	0.110280
532.610676	0.110732
532.826482	0.111032
533.042271	0.111072
533.258040	0.111126
533.473792	0.112006
533.689525	0.112109
533.905240	0.111868
534.120937	0.111597
534.336616	0.111829
534.552277	0.112032
534.767919	0.112132
534.983543	0.113103
535.199149	0.113457
535.414736	0.113808
535.630306	0.114895
535.845857	0.115452
536.061390	0.116464
536.276904	0.116578
536.492401	0.116397
536.707879	0.116816
536.923339	0.116781
537.138781	0.117341
537.354204	0.116864
537.569610	0.116463
537.784997	0.116176
538.000366	0.116022
538.215716	0.116785
538.431049	0.117345
538.646363	0.117485
538.861659	0.117536
539.076937	0.118002
539.292196	0.118766
539.507438	0.119032
539.722661	0.119778
539.937866	0.119835
540.153052	0.119726
540.368221	0.120288
540.583371	0.120449
540.798503	0.120943
541.013617	0.121152
541.228712	0.121376
541.443789	0.121843
541.658848	0.122071
541.873889	0.122865
542.088912	0.123504
542.303916	0.123899
542.518902	0.124538
542.733870	0.125065
542.948820	0.125359
543.163752	0.125964
543.378665	0.126268
543.593560	0.126333
543.808437	0.126935
544.023295	0.127273
544.238136	0.127825
544.452958	0.127851
544.667762	0.128020
544.882548	0.128138
545.097315	0.128416
545.312064	0.128705
545.526795	0.129070
545.741508	0.129162
545.956203	0.129504
546.170879	0.129704
546.385537	0.130612
546.600177	0.131070
546.814799	0.131510
547.029402	0.132192
547.243988	0.132602
547.458555	0.133282
547.673103	0.133604
547.887634	0.133355
548.102146	0.133096
548.316640	0.132754
548.531116	0.132360
548.745574	0.132254
548.960013	0.131811
549.174435	0.131844
549.388838	0.131960
549.603222	0.132385
549.817589	0.132791
550.031937	0.133179
550.246267	0.133491
550.460579	0.134165
550.674873	0.134946
550.889148	0.135164
551.103405	0.135623
551.317644	0.135967
551.531865	0.135596
551.746068	0.135961
551.960252	0.136357
552.174418	0.136790
552.388566	0.136915
552.602696	0.136810
552.816807	0.137005
553.030900	0.137166
553.244975	0.137488
553.459032	0.138118
553.673070	0.138659
553.887091	0.139118
554.101093	0.139239
554.315077	0.139563
554.529042	0.139734
554.742990	0.140348
554.956919	0.140455
555.170830	0.140634
555.384722	0.140392
555.598597	0.140240
555.812453	0.139839
556.026291	0.140133
556.240111	0.140160
556.453913	0.140065
556.667696	0.140093
556.881461	0.140420
557.095208	0.140317
557.308937	0.140679
557.522647	0.140993
557.736339	0.141552
557.950013	0.141711
558.163669	0.142235
558.377307	0.142539
558.590926	0.142383
558.804527	0.142715
559.018110	0.143102
559.231675	0.143406
559.445221	0.143465
559.658749	0.143818
559.872259	0.143891
560.085751	0.143859
560.299225	0.144096
560.512680	0.144801
560.726117	0.144962
560.939536	0.144888
561.152937	0.145129
561.366319	0.145557
561.579683	0.145570
561.793029	0.146070
562.006357	0.146064
562.219667	0.146567
562.432958	0.146385
562.646231	0.146513
562.859486	0.146737
563.072723	0.146697
563.285941	0.146607
563.499141	0.146655
563.712323	0.146675
563.925487	0.147014
564.138632	0.147179
564.351760	0.147917
564.564869	0.148712
564.777960	0.149040
564.991032	0.149446
565.204087	0.149596
565.417123	0.149754
565.630141	0.150106
565.843140	0.150313
566.056122	0.150566
566.269085	0.150210
566.482030	0.150160
566.694957	0.150374
566.907866	0.150519
567.120756	0.150683
567.333628	0.151202
567.546482	0.151378
567.759318	0.151542
567.972135	0.151226
568.184935	0.151413
568.397716	0.150971
568.610478	0.151012
568.823223	0.151044
569.035949	0.151400
569.248657	0.150958
569.461347	0.150784
569.674019	0.150773
569.886672	0.150877
570.099308	0.151113
570.311925	0.151561
570.524523	0.151859
570.737104	0.152268
570.949666	0.152390
571.162210	0.152938
571.374736	0.153377
571.587244	0.154105
571.799733	0.154655
572.012205	0.155108
572.224658	0.155292
572.437092	0.155492
572.649509	0.155550
572.861907	0.155720
573.074287	0.156137
573.286649	0.156283
573.498993	0.156196
573.711318	0.156552
573.923625	0.156469
574.135914	0.156627
574.348185	0.156645
574.560438	0.156741
574.772672	0.157122
574.984888	0.156995
575.197086	0.157491
575.409266	0.157768
575.621427	0.157702
575.833570	0.157926
576.045695	0.158258
576.257802	0.158471
576.469890	0.158513
576.681961	0.158390
576.894013	0.158811
577.106046	0.158651
577.318062	0.158766
577.530059	0.159021
577.742039	0.159713
577.954000	0.159945
578.165942	0.160326
578.377867	0.160819
578.589773	0.160928
578.801661	0.160881
579.013531	0.160920
579.225382	0.160933
579.437216	0.161177
579.649031	0.160980
579.860828	0.160949
580.072606	0.161031
580.284367	0.161142
580.496109	0.161250
580.707833	0.161307
580.919539	0.161604
581.131227	0.161879
581.342896	0.162027
581.554547	0.161835
581.766180	0.161818
581.977795	0.161954
582.189391	0.161939
582.400969	0.162452
582.612529	0.162835
582.824071	0.162845
583.035595	0.162875
583.247100	0.162925
583.458587	0.163234
583.670056	0.163426
583.881506	0.163952
584.092939	0.164512
584.304353	0.164559
584.515749	0.164600
584.727127	0.164587
584.938486	0.165118
585.149828	0.165197
585.361151	0.165532
585.572456	0.165845
585.783742	0.165742
585.995011	0.165912
586.206261	0.165844
586.417493	0.166452
586.628706	0.167075
586.839902	0.167143
587.051079	0.167782
587.262238	0.168313
587.473379	0.168779
587.684502	0.169002
587.895606	0.169088
588.106692	0.169756
588.317760	0.169730
588.528810	0.169755
588.739841	0.169532
588.950855	0.169481
589.161850	0.169483
589.372827	0.169314
589.583785	0.169561
589.794726	0.169682
590.005648	0.169819
590.216552	0.170335
590.427437	0.170563
590.638305	0.170835
590.849154	0.171062
591.059985	0.171127
591.270798	0.171645
591.481592	0.171980
591.692369	0.172295
591.903127	0.172325
592.113867	0.172055
592.324588	0.172388
592.535292	0.172893
592.745977	0.172995
592.956644	0.173576
593.167293	0.173339
593.377923	0.173243
593.588536	0.173413
593.799130	0.173790
594.009706	0.173879
594.220263	0.173794
594.430803	0.174223
594.641324	0.174201
594.851827	0.173903
595.062312	0.174142
595.272778	0.174460
595.483227	0.174490
595.693657	0.174450
595.904069	0.175230
596.114462	0.175730
596.324838	0.175626
596.535195	0.175795
596.745534	0.176083
596.955855	0.176393
597.166157	0.176209
597.376441	0.176464
597.586707	0.176835
597.796955	0.176523
598.007185	0.176515
598.217396	0.176207
598.427589	0.176175
598.637764	0.176147
598.847921	0.176275
599.058060	0.176554
599.268180	0.176555
599.478282	0.176381
599.688366	0.176757
599.898431	0.176678
600.108479	0.176858
600.318508	0.177286
600.528519	0.177531
600.738511	0.177997
600.948486	0.177950
601.158442	0.178217
601.368380	0.178548
601.578300	0.178448
601.788202	0.178825
601.998085	0.179084
602.207950	0.179121
602.417797	0.179485
602.627626	0.179384
602.837436	0.179895
603.047228	0.179959
603.257002	0.180150
603.466758	0.180480
603.676496	0.180806
603.886215	0.181280
604.095916	0.181514
604.305599	0.181484
604.515264	0.181410
604.724910	0.181851
604.934538	0.182097
605.144148	0.182432
605.353740	0.182669
605.563314	0.182515
605.772869	0.182434
605.982406	0.182725
606.191925	0.182930
606.401425	0.183356
606.610908	0.183242
606.820372	0.183570
607.029818	0.183502
607.239246	0.183693
607.448655	0.183850
607.658047	0.184249
607.867420	0.184468
608.076775	0.184824
608.286111	0.184850
608.495430	0.184900
608.704730	0.184902
608.914012	0.184978
609.123275	0.184898
609.332521	0.185212
609.541748	0.185349
609.750957	0.185432
609.960148	0.185366
610.169321	0.185698
610.378475	0.186036
610.587611	0.185956
610.796729	0.186183
611.005829	0.186126
611.214910	0.186202
611.423974	0.186500
611.633019	0.186622
611.842045	0.186798
612.051054	0.186875
612.260044	0.186544
612.469017	0.186967
612.677970	0.187026
612.886906	0.187227
613.095824	0.187203
613.304723	0.187332
613.513604	0.187512
613.722467	0.187600
613.931311	0.187960
614.140138	0.188686
614.348946	0.189095
614.557736	0.189416
614.766507	0.189840
614.975261	0.190225
615.183996	0.190097
615.392713	0.190317
615.601412	0.190311
615.810092	0.190018
616.018754	0.189859
616.227399	0.190028
616.436024	0.190167
616.644632	0.190453
616.853222	0.190509
617.061793	0.190804
617.270346	0.191111
617.478880	0.191855
617.687397	0.192164
617.895895	0.192164
618.104375	0.192336
618.312837	0.192552
618.521281	0.192617
618.729706	0.192724
618.938113	0.193051
619.146502	0.193033
619.354873	0.192862
619.563226	0.193105
619.771560	0.193596
619.979876	0.193549
620.188174	0.193592
620.396453	0.193597
620.604715	0.194066
620.812958	0.194044
621.021183	0.194273
621.229390	0.194235
621.437578	0.194384
621.645748	0.194499
621.853900	0.194561
622.062034	0.194706
622.270150	0.194905
622.478247	0.194710
622.686326	0.194946
622.894387	0.195035
623.102430	0.195385
623.310454	0.195448
623.518461	0.195642
623.726449	0.195946
623.934418	0.196071
624.142370	0.196383
624.350303	0.196496
624.558218	0.196835
624.766115	0.196840
624.973994	0.197051
625.181855	0.197115
625.389697	0.197367
625.597521	0.197275
625.805327	0.197649
626.013114	0.198090
626.220883	0.198612
626.428634	0.198602
626.636367	0.199122
626.844082	0.199085
627.051778	0.199535
627.259457	0.199443
627.467117	0.199737
627.674758	0.199833
627.882382	0.199646
628.089987	0.199636
628.297574	0.199924
628.505143	0.199829
628.712694	0.200436
628.920226	0.200702
629.127740	0.200961
629.335236	0.201389
629.542714	0.201645
629.750174	0.201844
629.957615	0.202041
630.165038	0.202075
630.372443	0.202266
630.579829	0.202033
630.787198	0.202043
630.994548	0.202254
631.201880	0.202168
631.409194	0.202175
631.616489	0.202385
631.823766	0.202614
632.031025	0.202702
632.238266	0.202812
632.445489	0.202920
632.652693	0.203210
632.859879	0.203247
633.067047	0.203594
633.274197	0.203894
633.481329	0.204179
633.688442	0.204269
633.895537	0.204440
634.102614	0.204611
634.309672	0.204946
634.516713	0.205110
634.723735	0.205451
634.930739	0.205694
635.137724	0.205602
635.344692	0.205596
635.551641	0.205772
635.758572	0.206008
635.965485	0.206161
636.172379	0.206179
636.379256	0.206128
636.586114	0.206164
636.792954	0.205917
636.999775	0.206108
637.206579	0.206457
637.413364	0.206812
637.620131	0.207023
637.826880	0.207365
638.033610	0.207666
638.240323	0.207918
638.447017	0.208222
638.653692	0.208613
638.860350	0.208940
639.066990	0.208678
639.273611	0.208777
639.480214	0.208963
639.686798	0.209205
639.893365	0.209715
640.099913	0.209858
640.306443	0.209859
640.512955	0.210019
640.719449	0.210251
640.925924	0.210860
641.132381	0.210672
641.338820	0.210943
641.545241	0.211067
641.751644	0.210826
641.958028	0.210766
642.164394	0.210930
642.370742	0.211262
642.577071	0.211448
642.783383	0.211561
642.989676	0.212259
643.195951	0.212256
643.402207	0.212177
643.608446	0.212461
643.814666	0.212957
644.020868	0.213394
644.227052	0.213551
644.433218	0.213864
644.639365	0.214019
644.845494	0.213980
645.051605	0.214171
645.257698	0.214732
645.463772	0.214960
645.669828	0.215104
645.875866	0.215201
646.081886	0.215325
646.287888	0.215361
646.493871	0.215362
646.699836	0.215572
646.905783	0.215709
647.111712	0.215990
647.317622	0.216291
647.523514	0.216313
647.729388	0.216782
647.935244	0.217038
648.141082	0.217383
648.346901	0.217867
648.552702	0.218117
648.758485	0.218330
648.964250	0.218274
649.169996	0.218516
649.375724	0.218876
649.581434	0.218583
649.787126	0.218763
649.992800	0.218681
650.198455	0.218792
650.404092	0.219077
650.609711	0.219409
650.815311	0.219695
651.020894	0.219919
651.226458	0.220206
651.432004	0.220676
651.637532	0.220782
651.843041	0.221239
652.048532	0.221188
652.254006	0.221300
652.459460	0.221445
652.664897	0.221708
652.870315	0.221683
653.075716	0.221791
653.281097	0.221930
653.486461	0.222089
653.691807	0.222282
653.897134	0.222676
654.102443	0.223023
654.307734	0.223073
654.513006	0.223065
654.718261	0.223494
654.923497	0.223758
655.128715	0.223942
655.333915	0.224229
655.539096	0.224115
655.744259	0.224409
655.949404	0.224333
656.154531	0.224583
656.359640	0.224896
656.564730	0.224901
656.769802	0.225290
656.974856	0.225625
657.179892	0.225771
657.384909	0.225940
657.589908	0.226037
657.794889	0.226666
657.999852	0.227047
658.204797	0.227280
658.409723	0.227398
658.614631	0.227469
658.819521	0.227621
659.024393	0.228086
659.229246	0.228633
659.434081	0.228970
659.638898	0.229020
659.843697	0.229291
660.048478	0.229447
660.253240	0.229864
660.457984	0.230029
660.662710	0.230147
660.867417	0.230258
661.072107	0.230307
661.276778	0.230459
661.481431	0.230661
661.686066	0.230744
661.890682	0.230921
662.095281	0.231111
662.299861	0.231372
662.504422	0.231725
662.708966	0.231912
662.913491	0.232149
663.117999	0.232293
663.322488	0.232301
663.526958	0.232836
663.731411	0.233167
663.935845	0.233401
664.140261	0.233798
664.344659	0.233784
664.549038	0.234155
664.753400	0.234565
664.957743	0.235001
665.162068	0.235391
665.366375	0.235506
665.570663	0.235932
665.774933	0.236385
665.979185	0.236480
666.183419	0.237085
666.387635	0.237189
666.591832	0.237313
666.796011	0.237477
667.000172	0.237857
667.204315	0.237914
667.408439	0.237960
667.612545	0.238063
667.816634	0.238267
668.020703	0.238305
668.224755	0.238544
668.428788	0.238899
668.632803	0.239111
668.836800	0.239151
669.040779	0.239319
669.244739	0.239438
669.448681	0.239427
669.652605	0.239668
669.856511	0.239988
670.060399	0.240175
670.264268	0.240392
670.468119	0.240686
670.671952	0.241089
670.875767	0.241478
671.079563	0.241764
671.283341	0.242087
671.487101	0.242453
671.690843	0.242766
671.894567	0.243098
672.098272	0.243173
672.301959	0.243536
672.505628	0.243878
672.709278	0.244286
672.912911	0.244782
673.116525	0.245119
673.320121	0.245405
673.523699	0.245552
673.727258	0.245780
673.930799	0.246029
674.134322	0.246247
674.337827	0.246132
674.541314	0.245978
674.744782	0.246184
674.948232	0.246395
675.151664	0.246685
675.355078	0.247185
675.558474	0.247377
675.761851	0.247561
675.965210	0.247696
676.168551	0.248094
676.371873	0.248663
676.575178	0.248938
676.778464	0.249144
676.981732	0.249275
677.184981	0.249209
677.388213	0.249385
677.591426	0.249625
677.794621	0.249617
677.997798	0.249960
678.200956	0.249987
678.404097	0.249948
678.607219	0.250009
678.810323	0.250034
679.013408	0.250314
679.216476	0.250614
679.419525	0.250667
679.622556	0.251035
679.825569	0.251118
680.028563	0.251301
680.231540	0.251591
680.434498	0.251988
680.637438	0.252234
680.840359	0.252426
681.043263	0.252653
681.246148	0.253221
681.449015	0.253478
681.651864	0.253463
681.854694	0.253801
682.057506	0.254017
682.260301	0.254392
682.463076	0.254695
682.665834	0.254741
682.868573	0.254804
683.071295	0.254961
683.273998	0.255102
683.476682	0.255377
683.679349	0.255453
683.881997	0.255680
684.084627	0.255850
684.287239	0.255905
684.489833	0.256328
684.692408	0.256768
684.894965	0.256899
685.097504	0.256955
685.300025	0.257297
685.502527	0.257760
685.705012	0.257933
685.907478	0.258007
686.109925	0.258420
686.312355	0.258453
686.514766	0.258705
686.717159	0.259049
686.919534	0.259502
687.121891	0.259826
687.324230	0.260029
687.526550	0.260292
687.728852	0.260763
687.931136	0.260653
688.133401	0.260951
688.335649	0.260724
688.537878	0.260916
688.740089	0.261218
688.942281	0.261504
689.144456	0.261789
689.346612	0.262050
689.548750	0.262202
689.750870	0.262621
689.952971	0.262843
690.155055	0.263451
690.357120	0.263745
690.559167	0.263964
690.761195	0.264107
690.963206	0.264153
691.165198	0.264458
691.367172	0.264597
691.569128	0.264776
691.771065	0.265009
691.972984	0.265260
692.174885	0.265209
692.376768	0.265465
692.578633	0.265594
692.780479	0.265686
692.982308	0.265789
693.184118	0.266126
693.385909	0.266436
693.587683	0.266758
