sample name	sample
index	1106
start time	 04-22-2021  12:54:24 PM


Wavelength (nm)	Absorbance
494.344910	-0.156735
494.563924	-0.156735
494.782919	-0.156735
495.001897	-1.046997
495.220856	0.254120
495.439797	0.493521
495.658719	0.762606
495.877624	0.693568
496.096510	0.828980
496.315378	0.606837
496.534227	0.409760
496.753059	0.077107
496.971872	-0.090859
497.190667	0.137137
497.409444	0.147056
497.628203	0.153156
497.846943	0.154150
498.065665	0.153972
498.284369	0.155763
498.503055	0.158009
498.721723	0.157419
498.940372	0.159244
499.159003	0.160190
499.377616	0.160964
499.596210	0.159924
499.814787	0.160487
500.033345	0.160710
500.251885	0.161590
500.470406	0.161891
500.688910	0.163318
500.907395	0.162937
501.125862	0.161543
501.344311	0.159845
501.562742	0.160341
501.781154	0.159968
501.999548	0.161013
502.217924	0.160241
502.436282	0.158911
502.654621	0.158923
502.872942	0.158649
503.091245	0.158466
503.309530	0.159473
503.527797	0.159285
503.746045	0.160474
503.964275	0.159965
504.182487	0.159277
504.400681	0.159933
504.618856	0.159769
504.837013	0.160456
505.055152	0.161104
505.273273	0.160457
505.491376	0.160339
505.709460	0.160104
505.927526	0.161581
506.145574	0.162533
506.363604	0.163929
506.581615	0.164233
506.799608	0.163883
507.017583	0.164282
507.235540	0.165190
507.453478	0.164959
507.671399	0.164930
507.889301	0.163366
508.107185	0.163316
508.325050	0.162596
508.542898	0.162026
508.760727	0.162599
508.978538	0.162565
509.196330	0.162874
509.414105	0.164472
509.631861	0.164124
509.849599	0.166179
510.067319	0.166425
510.285021	0.166593
510.502704	0.167995
510.720369	0.168605
510.938016	0.168687
511.155645	0.169379
511.373255	0.169315
511.590848	0.169861
511.808422	0.168542
512.025977	0.168958
512.243515	0.169238
512.461034	0.168096
512.678536	0.168060
512.896018	0.168475
513.113483	0.168790
513.330930	0.168397
513.548358	0.168257
513.765768	0.169958
513.983160	0.170315
514.200533	0.171225
514.417889	0.173085
514.635226	0.172973
514.852545	0.172791
515.069845	0.172485
515.287128	0.173808
515.504392	0.174957
515.721638	0.173624
515.938866	0.173274
516.156075	0.173527
516.373267	0.173006
516.590440	0.173585
516.807594	0.173479
517.024731	0.173125
517.241850	0.171531
517.458950	0.170579
517.676032	0.170538
517.893095	0.170751
518.110141	0.170516
518.327168	0.170403
518.544177	0.170106
518.761168	0.170636
518.978141	0.171802
519.195095	0.172564
519.412031	0.173827
519.628949	0.174679
519.845849	0.175006
520.062731	0.174293
520.279594	0.174609
520.496439	0.175591
520.713266	0.176359
520.930074	0.175466
521.146865	0.176284
521.363637	0.176747
521.580391	0.177230
521.797127	0.177380
522.013844	0.178207
522.230543	0.178769
522.447224	0.178505
522.663887	0.178388
522.880532	0.178802
523.097158	0.178685
523.313766	0.178451
523.530356	0.179021
523.746928	0.180095
523.963481	0.180664
524.180017	0.181188
524.396534	0.181480
524.613032	0.181816
524.829513	0.182640
525.045975	0.183562
525.262420	0.183951
525.478845	0.183475
525.695253	0.183256
525.911643	0.183026
526.128014	0.182185
526.344367	0.182149
526.560702	0.182767
526.777018	0.183524
526.993316	0.183218
527.209597	0.182714
527.425858	0.183273
527.642102	0.183749
527.858328	0.183378
528.074535	0.184501
528.290724	0.185196
528.506894	0.184651
528.723047	0.184592
528.939181	0.185327
529.155297	0.186759
529.371395	0.187319
529.587475	0.187017
529.803536	0.188109
530.019579	0.187980
530.235604	0.188816
530.451611	0.189620
530.667600	0.189752
530.883570	0.189736
531.099522	0.189394
531.315456	0.189644
531.531372	0.190084
531.747269	0.190471
531.963148	0.191387
532.179009	0.190907
532.394852	0.191443
532.610676	0.192479
532.826482	0.192691
533.042271	0.193083
533.258040	0.193396
533.473792	0.193596
533.689525	0.194472
533.905240	0.194206
534.120937	0.194617
534.336616	0.195135
534.552277	0.194339
534.767919	0.194811
534.983543	0.194552
535.199149	0.194404
535.414736	0.194312
535.630306	0.193702
535.845857	0.194540
536.061390	0.194309
536.276904	0.194891
536.492401	0.195243
536.707879	0.195403
536.923339	0.196578
537.138781	0.197054
537.354204	0.197413
537.569610	0.197891
537.784997	0.198331
538.000366	0.199167
538.215716	0.198867
538.431049	0.199570
538.646363	0.199620
538.861659	0.199508
539.076937	0.199974
539.292196	0.200966
539.507438	0.201207
539.722661	0.200649
539.937866	0.201153
540.153052	0.201417
540.368221	0.201383
540.583371	0.202300
540.798503	0.202712
541.013617	0.202580
541.228712	0.202487
541.443789	0.203188
541.658848	0.204137
541.873889	0.204090
542.088912	0.204249
542.303916	0.204780
542.518902	0.204933
542.733870	0.204731
542.948820	0.205241
543.163752	0.205559
543.378665	0.205886
543.593560	0.206466
543.808437	0.207081
544.023295	0.207342
544.238136	0.207913
544.452958	0.207533
544.667762	0.208209
544.882548	0.208325
545.097315	0.208625
545.312064	0.208841
545.526795	0.208347
545.741508	0.208463
545.956203	0.208975
546.170879	0.209084
546.385537	0.209519
546.600177	0.209702
546.814799	0.209906
547.029402	0.210099
547.243988	0.210414
547.458555	0.211220
547.673103	0.211786
547.887634	0.212039
548.102146	0.211981
548.316640	0.212573
548.531116	0.212844
548.745574	0.213085
548.960013	0.213372
549.174435	0.213284
549.388838	0.213005
549.603222	0.213328
549.817589	0.213244
550.031937	0.213157
550.246267	0.212949
550.460579	0.213677
550.674873	0.214148
550.889148	0.214836
551.103405	0.215040
551.317644	0.215509
551.531865	0.215383
551.746068	0.215241
551.960252	0.215570
552.174418	0.215915
552.388566	0.215052
552.602696	0.215157
552.816807	0.215100
553.030900	0.215090
553.244975	0.215117
553.459032	0.215547
553.673070	0.216364
553.887091	0.216904
554.101093	0.217456
554.315077	0.218779
554.529042	0.219114
554.742990	0.219286
554.956919	0.219703
555.170830	0.219926
555.384722	0.219691
555.598597	0.219686
555.812453	0.219895
556.026291	0.220137
556.240111	0.219910
556.453913	0.219813
556.667696	0.220244
556.881461	0.220183
557.095208	0.220743
557.308937	0.220830
557.522647	0.220590
557.736339	0.220681
557.950013	0.220951
558.163669	0.220874
558.377307	0.221229
558.590926	0.221258
558.804527	0.221902
559.018110	0.221636
559.231675	0.221874
559.445221	0.222893
559.658749	0.223314
559.872259	0.223208
560.085751	0.223292
560.299225	0.223461
560.512680	0.223581
560.726117	0.223604
560.939536	0.224072
561.152937	0.224455
561.366319	0.224163
561.579683	0.223906
561.793029	0.224170
562.006357	0.224702
562.219667	0.224747
562.432958	0.224622
562.646231	0.224784
562.859486	0.224903
563.072723	0.224748
563.285941	0.224626
563.499141	0.224671
563.712323	0.224327
563.925487	0.224526
564.138632	0.224655
564.351760	0.224975
564.564869	0.225373
564.777960	0.225022
564.991032	0.225675
565.204087	0.225526
565.417123	0.225860
565.630141	0.226203
565.843140	0.226251
566.056122	0.226987
566.269085	0.226850
566.482030	0.227023
566.694957	0.227428
566.907866	0.227543
567.120756	0.228281
567.333628	0.228504
567.546482	0.228677
567.759318	0.228516
567.972135	0.228067
568.184935	0.228449
568.397716	0.228432
568.610478	0.228501
568.823223	0.228267
569.035949	0.228625
569.248657	0.228785
569.461347	0.228791
569.674019	0.228806
569.886672	0.229401
570.099308	0.230040
570.311925	0.229940
570.524523	0.230357
570.737104	0.230501
570.949666	0.230256
571.162210	0.230533
571.374736	0.230944
571.587244	0.231249
571.799733	0.230876
572.012205	0.230534
572.224658	0.230671
572.437092	0.230469
572.649509	0.230750
572.861907	0.230962
573.074287	0.230947
573.286649	0.231150
573.498993	0.231507
573.711318	0.231636
573.923625	0.232150
574.135914	0.232155
574.348185	0.232313
574.560438	0.232517
574.772672	0.233086
574.984888	0.233382
575.197086	0.233388
575.409266	0.233488
575.621427	0.233649
575.833570	0.233767
576.045695	0.234137
576.257802	0.234831
576.469890	0.234922
576.681961	0.234782
576.894013	0.235119
577.106046	0.235058
577.318062	0.235224
577.530059	0.235666
577.742039	0.235875
577.954000	0.235900
578.165942	0.236093
578.377867	0.236694
578.589773	0.237024
578.801661	0.236786
579.013531	0.237680
579.225382	0.238264
579.437216	0.237917
579.649031	0.238046
579.860828	0.238728
580.072606	0.238664
580.284367	0.238490
580.496109	0.238428
580.707833	0.238654
580.919539	0.238509
581.131227	0.238389
581.342896	0.239077
581.554547	0.239152
581.766180	0.239219
581.977795	0.239046
582.189391	0.239267
582.400969	0.239572
582.612529	0.239495
582.824071	0.239587
583.035595	0.239797
583.247100	0.240206
583.458587	0.240178
583.670056	0.240247
583.881506	0.241061
584.092939	0.241295
584.304353	0.241118
584.515749	0.241612
584.727127	0.241547
584.938486	0.241582
585.149828	0.241262
585.361151	0.241070
585.572456	0.241429
585.783742	0.241205
585.995011	0.240988
586.206261	0.241637
586.417493	0.241902
586.628706	0.242478
586.839902	0.242881
587.051079	0.243342
587.262238	0.243709
587.473379	0.243829
587.684502	0.244133
587.895606	0.244707
588.106692	0.244604
588.317760	0.244976
588.528810	0.244796
588.739841	0.245165
588.950855	0.245055
589.161850	0.245417
589.372827	0.245736
589.583785	0.245716
589.794726	0.246039
590.005648	0.246676
590.216552	0.246860
590.427437	0.246816
590.638305	0.246557
590.849154	0.246939
591.059985	0.246846
591.270798	0.246514
591.481592	0.246636
591.692369	0.246386
591.903127	0.246175
592.113867	0.246133
592.324588	0.247069
592.535292	0.247428
592.745977	0.247480
592.956644	0.248008
593.167293	0.248367
593.377923	0.248683
593.588536	0.248777
593.799130	0.248706
594.009706	0.248665
594.220263	0.248230
594.430803	0.247917
594.641324	0.247963
594.851827	0.248042
595.062312	0.248001
595.272778	0.248327
595.483227	0.248527
595.693657	0.248733
595.904069	0.248825
596.114462	0.249187
596.324838	0.249595
596.535195	0.249463
596.745534	0.249251
596.955855	0.249653
597.166157	0.249682
597.376441	0.250039
597.586707	0.250301
597.796955	0.250885
598.007185	0.251188
598.217396	0.251619
598.427589	0.252330
598.637764	0.252957
598.847921	0.253275
599.058060	0.253438
599.268180	0.253383
599.478282	0.253734
599.688366	0.253323
599.898431	0.253280
600.108479	0.253215
600.318508	0.253264
600.528519	0.253600
600.738511	0.253451
600.948486	0.253610
601.158442	0.253791
601.368380	0.253880
601.578300	0.254449
601.788202	0.254844
601.998085	0.255323
602.207950	0.255392
602.417797	0.255356
602.627626	0.255617
602.837436	0.255688
603.047228	0.256054
603.257002	0.255980
603.466758	0.256303
603.676496	0.256302
603.886215	0.256049
604.095916	0.255944
604.305599	0.255919
604.515264	0.255927
604.724910	0.256125
604.934538	0.256489
605.144148	0.256558
605.353740	0.256736
605.563314	0.256863
605.772869	0.257199
605.982406	0.257574
606.191925	0.257695
606.401425	0.257933
606.610908	0.258150
606.820372	0.258299
607.029818	0.258836
607.239246	0.258663
607.448655	0.258564
607.658047	0.258643
607.867420	0.258968
608.076775	0.258919
608.286111	0.259100
608.495430	0.259442
608.704730	0.259436
608.914012	0.259680
609.123275	0.259966
609.332521	0.260297
609.541748	0.260394
609.750957	0.260516
609.960148	0.261162
610.169321	0.261129
610.378475	0.260751
610.587611	0.260843
610.796729	0.260731
611.005829	0.260768
611.214910	0.261165
611.423974	0.261331
611.633019	0.261192
611.842045	0.261229
612.051054	0.261347
612.260044	0.261688
612.469017	0.261526
612.677970	0.261844
612.886906	0.262173
613.095824	0.261743
613.304723	0.261866
613.513604	0.262095
613.722467	0.261835
613.931311	0.261947
614.140138	0.262023
614.348946	0.262721
614.557736	0.262618
614.766507	0.262427
614.975261	0.262867
615.183996	0.263226
615.392713	0.263703
615.601412	0.264095
615.810092	0.264602
616.018754	0.264829
616.227399	0.264721
616.436024	0.264938
616.644632	0.265123
616.853222	0.265325
617.061793	0.265350
617.270346	0.265336
617.478880	0.265340
617.687397	0.265116
617.895895	0.265421
618.104375	0.265430
618.312837	0.265463
618.521281	0.265568
618.729706	0.266016
618.938113	0.265811
619.146502	0.265790
619.354873	0.266113
619.563226	0.266395
619.771560	0.266371
619.979876	0.266535
620.188174	0.266876
620.396453	0.267211
620.604715	0.267050
620.812958	0.267316
621.021183	0.267492
621.229390	0.267629
621.437578	0.267818
621.645748	0.268199
621.853900	0.268160
622.062034	0.268332
622.270150	0.268446
622.478247	0.268629
622.686326	0.268735
622.894387	0.269026
623.102430	0.269012
623.310454	0.269081
623.518461	0.269077
623.726449	0.269395
623.934418	0.269226
624.142370	0.269085
624.350303	0.269143
624.558218	0.269543
624.766115	0.269501
624.973994	0.269679
625.181855	0.269951
625.389697	0.269862
625.597521	0.269960
625.805327	0.270512
626.013114	0.270654
626.220883	0.270886
626.428634	0.270792
626.636367	0.271244
626.844082	0.271577
627.051778	0.271603
627.259457	0.272126
627.467117	0.272673
627.674758	0.272750
627.882382	0.273413
628.089987	0.273554
628.297574	0.274081
628.505143	0.274403
628.712694	0.274366
628.920226	0.274701
629.127740	0.274535
629.335236	0.274087
629.542714	0.274110
629.750174	0.274059
629.957615	0.274428
630.165038	0.274501
630.372443	0.274171
630.579829	0.274396
630.787198	0.274320
630.994548	0.274442
631.201880	0.274849
631.409194	0.275046
631.616489	0.275061
631.823766	0.274928
632.031025	0.274900
632.238266	0.274990
632.445489	0.275084
632.652693	0.275224
632.859879	0.275592
633.067047	0.275754
633.274197	0.275822
633.481329	0.276353
633.688442	0.276645
633.895537	0.277041
634.102614	0.277411
634.309672	0.277546
634.516713	0.277953
634.723735	0.278270
634.930739	0.278367
635.137724	0.278680
635.344692	0.278494
635.551641	0.278488
635.758572	0.278653
635.965485	0.278889
636.172379	0.279078
636.379256	0.279032
636.586114	0.278610
636.792954	0.278893
636.999775	0.279071
637.206579	0.279379
637.413364	0.279528
637.620131	0.279554
637.826880	0.279540
638.033610	0.279776
638.240323	0.279974
638.447017	0.280552
638.653692	0.280581
638.860350	0.280521
639.066990	0.280562
639.273611	0.280877
639.480214	0.280884
639.686798	0.280878
639.893365	0.280911
640.099913	0.281121
640.306443	0.281106
640.512955	0.281253
640.719449	0.281561
640.925924	0.281898
641.132381	0.282025
641.338820	0.282351
641.545241	0.282591
641.751644	0.283201
641.958028	0.283131
642.164394	0.283633
642.370742	0.283807
642.577071	0.283920
642.783383	0.283880
642.989676	0.283736
643.195951	0.283855
643.402207	0.284056
643.608446	0.284047
643.814666	0.284368
644.020868	0.284254
644.227052	0.284754
644.433218	0.284822
644.639365	0.285083
644.845494	0.285820
645.051605	0.285922
645.257698	0.286520
645.463772	0.286502
645.669828	0.286591
645.875866	0.286824
646.081886	0.286814
646.287888	0.287078
646.493871	0.287316
646.699836	0.287304
646.905783	0.287742
647.111712	0.287772
647.317622	0.288148
647.523514	0.288686
647.729388	0.289121
647.935244	0.289283
648.141082	0.289438
648.346901	0.289516
648.552702	0.289599
648.758485	0.289551
648.964250	0.289655
649.169996	0.289519
649.375724	0.289465
649.581434	0.289300
649.787126	0.289335
649.992800	0.289643
650.198455	0.289746
650.404092	0.290101
650.609711	0.290338
650.815311	0.290517
651.020894	0.290590
651.226458	0.290748
651.432004	0.290928
651.637532	0.291438
651.843041	0.291587
652.048532	0.291924
652.254006	0.291963
652.459460	0.292323
652.664897	0.292254
652.870315	0.292598
653.075716	0.292841
653.281097	0.292945
653.486461	0.293121
653.691807	0.293113
653.897134	0.293323
654.102443	0.293440
654.307734	0.293692
654.513006	0.293996
654.718261	0.294387
654.923497	0.294468
655.128715	0.294948
655.333915	0.294914
655.539096	0.295305
655.744259	0.295361
655.949404	0.295692
656.154531	0.295669
656.359640	0.295940
656.564730	0.296208
656.769802	0.296571
656.974856	0.296920
657.179892	0.297112
657.384909	0.297441
657.589908	0.297834
657.794889	0.297981
657.999852	0.298511
658.204797	0.298762
658.409723	0.299052
658.614631	0.299321
658.819521	0.299070
659.024393	0.299325
659.229246	0.299394
659.434081	0.299419
659.638898	0.299310
659.843697	0.298985
660.048478	0.299143
660.253240	0.299144
660.457984	0.299334
660.662710	0.299991
660.867417	0.300084
661.072107	0.300201
661.276778	0.300458
661.481431	0.300960
661.686066	0.301300
661.890682	0.301648
662.095281	0.301552
662.299861	0.301409
662.504422	0.301451
662.708966	0.301789
662.913491	0.302261
663.117999	0.302505
663.322488	0.303013
663.526958	0.303293
663.731411	0.303278
663.935845	0.303836
664.140261	0.304465
664.344659	0.304568
664.549038	0.304884
664.753400	0.305094
664.957743	0.305309
665.162068	0.305381
665.366375	0.305574
665.570663	0.305998
665.774933	0.306378
665.979185	0.306503
666.183419	0.306766
666.387635	0.306983
666.591832	0.307194
666.796011	0.307639
667.000172	0.308060
667.204315	0.308478
667.408439	0.308954
667.612545	0.309087
667.816634	0.309368
668.020703	0.309737
668.224755	0.309888
668.428788	0.309873
668.632803	0.309901
668.836800	0.309946
669.040779	0.309870
669.244739	0.309617
669.448681	0.309740
669.652605	0.309986
669.856511	0.310217
670.060399	0.310326
670.264268	0.310861
670.468119	0.310905
670.671952	0.311057
670.875767	0.311537
671.079563	0.311895
671.283341	0.312173
671.487101	0.312316
671.690843	0.312478
671.894567	0.312723
672.098272	0.312842
672.301959	0.313406
672.505628	0.313519
672.709278	0.313523
672.912911	0.313642
673.116525	0.313642
673.320121	0.314041
673.523699	0.314040
673.727258	0.314591
673.930799	0.314588
674.134322	0.314819
674.337827	0.315178
674.541314	0.315284
674.744782	0.315831
674.948232	0.316148
675.151664	0.316098
675.355078	0.316647
675.558474	0.316558
675.761851	0.317003
675.965210	0.317251
676.168551	0.317226
676.371873	0.317670
676.575178	0.317762
676.778464	0.318103
676.981732	0.318403
677.184981	0.318318
677.388213	0.318554
677.591426	0.318483
677.794621	0.318596
677.997798	0.318890
678.200956	0.318871
678.404097	0.318928
678.607219	0.319130
678.810323	0.319460
679.013408	0.319656
679.216476	0.319976
679.419525	0.320409
679.622556	0.320539
679.825569	0.320970
680.028563	0.321409
680.231540	0.321628
680.434498	0.321777
680.637438	0.321952
680.840359	0.322333
681.043263	0.322581
681.246148	0.322723
681.449015	0.322691
681.651864	0.322710
681.854694	0.323018
682.057506	0.323550
682.260301	0.323820
682.463076	0.323952
682.665834	0.324217
682.868573	0.324295
683.071295	0.324871
683.273998	0.325198
683.476682	0.325488
683.679349	0.325602
683.881997	0.325438
684.084627	0.325691
684.287239	0.325728
684.489833	0.325697
684.692408	0.325965
684.894965	0.325562
685.097504	0.325825
685.300025	0.325864
685.502527	0.325909
685.705012	0.325961
685.907478	0.326205
686.109925	0.326636
686.312355	0.326937
686.514766	0.327088
686.717159	0.327572
686.919534	0.327746
687.121891	0.327662
687.324230	0.327912
687.526550	0.328305
687.728852	0.328243
687.931136	0.328405
688.133401	0.328356
688.335649	0.328440
688.537878	0.328556
688.740089	0.328687
688.942281	0.328958
689.144456	0.329108
689.346612	0.329328
689.548750	0.329255
689.750870	0.329509
689.952971	0.329913
690.155055	0.330248
690.357120	0.330363
690.559167	0.330642
690.761195	0.330954
690.963206	0.331025
691.165198	0.331207
691.367172	0.331822
691.569128	0.331578
691.771065	0.331964
691.972984	0.331877
692.174885	0.332082
692.376768	0.332094
692.578633	0.332501
692.780479	0.332805
692.982308	0.332900
693.184118	0.332860
693.385909	0.333090
