sample name	sample
index	982
start time	 04-14-2021  03:22:07 PM


Wavelength (nm)	Absorbance
494.344910	0.167596
494.563924	0.167596
494.782919	0.167596
495.001897	-0.083311
495.220856	0.028223
495.439797	-0.003665
495.658719	-0.014223
495.877624	-0.016562
496.096510	-0.001395
496.315378	-0.012461
496.534227	-0.006382
496.753059	0.007126
496.971872	0.018289
497.190667	0.091949
497.409444	0.132785
497.628203	0.138578
497.846943	0.142991
498.065665	0.145685
498.284369	0.149425
498.503055	0.151323
498.721723	0.152486
498.940372	0.151349
499.159003	0.154133
499.377616	0.153210
499.596210	0.153599
499.814787	0.154276
500.033345	0.155406
500.251885	0.155389
500.470406	0.156175
500.688910	0.156511
500.907395	0.158484
501.125862	0.157996
501.344311	0.159613
501.562742	0.159370
501.781154	0.159359
501.999548	0.159211
502.217924	0.159506
502.436282	0.158939
502.654621	0.158395
502.872942	0.158395
503.091245	0.158392
503.309530	0.156938
503.527797	0.159084
503.746045	0.159441
503.964275	0.159579
504.182487	0.159294
504.400681	0.160054
504.618856	0.161270
504.837013	0.161186
505.055152	0.162029
505.273273	0.162585
505.491376	0.161640
505.709460	0.161522
505.927526	0.161738
506.145574	0.162617
506.363604	0.162587
506.581615	0.162487
506.799608	0.162821
507.017583	0.162313
507.235540	0.162726
507.453478	0.164096
507.671399	0.163939
507.889301	0.164413
508.107185	0.164242
508.325050	0.164480
508.542898	0.165084
508.760727	0.165494
508.978538	0.165856
509.196330	0.165846
509.414105	0.165050
509.631861	0.165572
509.849599	0.165874
510.067319	0.165767
510.285021	0.165526
510.502704	0.164322
510.720369	0.164355
510.938016	0.165117
511.155645	0.165418
511.373255	0.165468
511.590848	0.165651
511.808422	0.165650
512.025977	0.166267
512.243515	0.166720
512.461034	0.167347
512.678536	0.167329
512.896018	0.166437
513.113483	0.167636
513.330930	0.169265
513.548358	0.170139
513.765768	0.170031
513.983160	0.170045
514.200533	0.169789
514.417889	0.169900
514.635226	0.171050
514.852545	0.171651
515.069845	0.170882
515.287128	0.170180
515.504392	0.169781
515.721638	0.170172
515.938866	0.170804
516.156075	0.171659
516.373267	0.172199
516.590440	0.171587
516.807594	0.172367
517.024731	0.172843
517.241850	0.173756
517.458950	0.174163
517.676032	0.174487
517.893095	0.175061
518.110141	0.174886
518.327168	0.174950
518.544177	0.175778
518.761168	0.175010
518.978141	0.175319
519.195095	0.174739
519.412031	0.175315
519.628949	0.175072
519.845849	0.175289
520.062731	0.175256
520.279594	0.175534
520.496439	0.175987
520.713266	0.177369
520.930074	0.177560
521.146865	0.178736
521.363637	0.179469
521.580391	0.179913
521.797127	0.179782
522.013844	0.180763
522.230543	0.181218
522.447224	0.181239
522.663887	0.181020
522.880532	0.181719
523.097158	0.181424
523.313766	0.181040
523.530356	0.182031
523.746928	0.182392
523.963481	0.182852
524.180017	0.183693
524.396534	0.183870
524.613032	0.184207
524.829513	0.184183
525.045975	0.184778
525.262420	0.185284
525.478845	0.185611
525.695253	0.186345
525.911643	0.186251
526.128014	0.186096
526.344367	0.186700
526.560702	0.187173
526.777018	0.187078
526.993316	0.187136
527.209597	0.187562
527.425858	0.187251
527.642102	0.187748
527.858328	0.188711
528.074535	0.188485
528.290724	0.188666
528.506894	0.188946
528.723047	0.190553
528.939181	0.190753
529.155297	0.191091
529.371395	0.191715
529.587475	0.191882
529.803536	0.191721
530.019579	0.192623
530.235604	0.193557
530.451611	0.193818
530.667600	0.194237
530.883570	0.195204
531.099522	0.195372
531.315456	0.195672
531.531372	0.195493
531.747269	0.196603
531.963148	0.196959
532.179009	0.197045
532.394852	0.197408
532.610676	0.197415
532.826482	0.197369
533.042271	0.197940
533.258040	0.199169
533.473792	0.199797
533.689525	0.199554
533.905240	0.200103
534.120937	0.200627
534.336616	0.200541
534.552277	0.200917
534.767919	0.201171
534.983543	0.201481
535.199149	0.201006
535.414736	0.201550
535.630306	0.202611
535.845857	0.203295
536.061390	0.203204
536.276904	0.203688
536.492401	0.203868
536.707879	0.204500
536.923339	0.204927
537.138781	0.205524
537.354204	0.205517
537.569610	0.205633
537.784997	0.206423
538.000366	0.206745
538.215716	0.208268
538.431049	0.208224
538.646363	0.208316
538.861659	0.208461
539.076937	0.208519
539.292196	0.208661
539.507438	0.209184
539.722661	0.208713
539.937866	0.209260
540.153052	0.208786
540.368221	0.209044
540.583371	0.208962
540.798503	0.209677
541.013617	0.210668
541.228712	0.211729
541.443789	0.211742
541.658848	0.212611
541.873889	0.213139
542.088912	0.213736
542.303916	0.214494
542.518902	0.215703
542.733870	0.215525
542.948820	0.215383
543.163752	0.215478
543.378665	0.215644
543.593560	0.215838
543.808437	0.215592
544.023295	0.216113
544.238136	0.216572
544.452958	0.216696
544.667762	0.217095
544.882548	0.217355
545.097315	0.217208
545.312064	0.217771
545.526795	0.217468
545.741508	0.218114
545.956203	0.218154
546.170879	0.217971
546.385537	0.218706
546.600177	0.219223
546.814799	0.219674
547.029402	0.220703
547.243988	0.220854
547.458555	0.221508
547.673103	0.222205
547.887634	0.221974
548.102146	0.222691
548.316640	0.222944
548.531116	0.222792
548.745574	0.223135
548.960013	0.223280
549.174435	0.223463
549.388838	0.224198
549.603222	0.224268
549.817589	0.224963
550.031937	0.225603
550.246267	0.225349
550.460579	0.225754
550.674873	0.225869
550.889148	0.226257
551.103405	0.226685
551.317644	0.226315
551.531865	0.226579
551.746068	0.226641
551.960252	0.226493
552.174418	0.227161
552.388566	0.227769
552.602696	0.228004
552.816807	0.228595
553.030900	0.228624
553.244975	0.229127
553.459032	0.229134
553.673070	0.230267
553.887091	0.230168
554.101093	0.230191
554.315077	0.230024
554.529042	0.230636
554.742990	0.230328
554.956919	0.230855
555.170830	0.231453
555.384722	0.232132
555.598597	0.231936
555.812453	0.232746
556.026291	0.232930
556.240111	0.233119
556.453913	0.232956
556.667696	0.233740
556.881461	0.234306
557.095208	0.234187
557.308937	0.234278
557.522647	0.234369
557.736339	0.234467
557.950013	0.235071
558.163669	0.235564
558.377307	0.235781
558.590926	0.235279
558.804527	0.235652
559.018110	0.235703
559.231675	0.235748
559.445221	0.236168
559.658749	0.236450
559.872259	0.236145
560.085751	0.236396
560.299225	0.236930
560.512680	0.237328
560.726117	0.237251
560.939536	0.237666
561.152937	0.237727
561.366319	0.237832
561.579683	0.237668
561.793029	0.237813
562.006357	0.237984
562.219667	0.238051
562.432958	0.238266
562.646231	0.238403
562.859486	0.238372
563.072723	0.238774
563.285941	0.238518
563.499141	0.239160
563.712323	0.239553
563.925487	0.239746
564.138632	0.240002
564.351760	0.240237
564.564869	0.240413
564.777960	0.240333
564.991032	0.240135
565.204087	0.240497
565.417123	0.240489
565.630141	0.240542
565.843140	0.240833
566.056122	0.241047
566.269085	0.241182
566.482030	0.241254
566.694957	0.241816
566.907866	0.242156
567.120756	0.242051
567.333628	0.242733
567.546482	0.243077
567.759318	0.243107
567.972135	0.243103
568.184935	0.243407
568.397716	0.243455
568.610478	0.244066
568.823223	0.244335
569.035949	0.244946
569.248657	0.244827
569.461347	0.245525
569.674019	0.245938
569.886672	0.246594
570.099308	0.246817
570.311925	0.247028
570.524523	0.246960
570.737104	0.247210
570.949666	0.247491
571.162210	0.247400
571.374736	0.246936
571.587244	0.246930
571.799733	0.246170
572.012205	0.246352
572.224658	0.246220
572.437092	0.246237
572.649509	0.246234
572.861907	0.246454
573.074287	0.246574
573.286649	0.247100
573.498993	0.247427
573.711318	0.248379
573.923625	0.248422
574.135914	0.248876
574.348185	0.248972
574.560438	0.249398
574.772672	0.249680
574.984888	0.250195
575.197086	0.249751
575.409266	0.250080
575.621427	0.250073
575.833570	0.250088
576.045695	0.250324
576.257802	0.251132
576.469890	0.251489
576.681961	0.251305
576.894013	0.250952
577.106046	0.251685
577.318062	0.251722
577.530059	0.252111
577.742039	0.252570
577.954000	0.252792
578.165942	0.251864
578.377867	0.251516
578.589773	0.251791
578.801661	0.252594
579.013531	0.252672
579.225382	0.252563
579.437216	0.252599
579.649031	0.252925
579.860828	0.253013
580.072606	0.253705
580.284367	0.253948
580.496109	0.254336
580.707833	0.254339
580.919539	0.254578
581.131227	0.254911
581.342896	0.254664
581.554547	0.254698
581.766180	0.255287
581.977795	0.255492
582.189391	0.256199
582.400969	0.256149
582.612529	0.255998
582.824071	0.256123
583.035595	0.256131
583.247100	0.256512
583.458587	0.256447
583.670056	0.255901
583.881506	0.256612
584.092939	0.256350
584.304353	0.256494
584.515749	0.256856
584.727127	0.256975
584.938486	0.257692
585.149828	0.257770
585.361151	0.258300
585.572456	0.258779
585.783742	0.258884
585.995011	0.259426
586.206261	0.259620
586.417493	0.259760
586.628706	0.260447
586.839902	0.260699
587.051079	0.261119
587.262238	0.261319
587.473379	0.262123
587.684502	0.261880
587.895606	0.261994
588.106692	0.262434
588.317760	0.262891
588.528810	0.262744
588.739841	0.262689
588.950855	0.263362
589.161850	0.263704
589.372827	0.263717
589.583785	0.264318
589.794726	0.264222
590.005648	0.264462
590.216552	0.264485
590.427437	0.264721
590.638305	0.265095
590.849154	0.265310
591.059985	0.265187
591.270798	0.265237
591.481592	0.265439
591.692369	0.265728
591.903127	0.266001
592.113867	0.266134
592.324588	0.266189
592.535292	0.266356
592.745977	0.265948
592.956644	0.266088
593.167293	0.266308
593.377923	0.266291
593.588536	0.266598
593.799130	0.266489
594.009706	0.266814
594.220263	0.266739
594.430803	0.267129
594.641324	0.267436
594.851827	0.268009
595.062312	0.268179
595.272778	0.268609
595.483227	0.268814
595.693657	0.269077
595.904069	0.269201
596.114462	0.269838
596.324838	0.269414
596.535195	0.269687
596.745534	0.269654
596.955855	0.269827
597.166157	0.269685
597.376441	0.269994
597.586707	0.270067
597.796955	0.270205
598.007185	0.270199
598.217396	0.270532
598.427589	0.270684
598.637764	0.270625
598.847921	0.270491
599.058060	0.270836
599.268180	0.271133
599.478282	0.271301
599.688366	0.271507
599.898431	0.271734
600.108479	0.271762
600.318508	0.272022
600.528519	0.272661
600.738511	0.273158
600.948486	0.273350
601.158442	0.273401
601.368380	0.274291
601.578300	0.274492
601.788202	0.274845
601.998085	0.275438
602.207950	0.275683
602.417797	0.275778
602.627626	0.276005
602.837436	0.276221
603.047228	0.276468
603.257002	0.276057
603.466758	0.276230
603.676496	0.276079
603.886215	0.276122
604.095916	0.276313
604.305599	0.276250
604.515264	0.276270
604.724910	0.276276
604.934538	0.276295
605.144148	0.276275
605.353740	0.276390
605.563314	0.276597
605.772869	0.276823
605.982406	0.276961
606.191925	0.277367
606.401425	0.277618
606.610908	0.277817
606.820372	0.277805
607.029818	0.278082
607.239246	0.278087
607.448655	0.278446
607.658047	0.278596
607.867420	0.278781
608.076775	0.278930
608.286111	0.278946
608.495430	0.279298
608.704730	0.279614
608.914012	0.280000
609.123275	0.280614
609.332521	0.280630
609.541748	0.281109
609.750957	0.281045
609.960148	0.281299
610.169321	0.281565
610.378475	0.281608
610.587611	0.281967
610.796729	0.282239
611.005829	0.282282
611.214910	0.282891
611.423974	0.282957
611.633019	0.283590
611.842045	0.283277
612.051054	0.283227
612.260044	0.283373
612.469017	0.283336
612.677970	0.283136
612.886906	0.283316
613.095824	0.282902
613.304723	0.282931
613.513604	0.282736
613.722467	0.282894
613.931311	0.283344
614.140138	0.283429
614.348946	0.283904
614.557736	0.284352
614.766507	0.284478
614.975261	0.284868
615.183996	0.284925
615.392713	0.285425
615.601412	0.286073
615.810092	0.286247
616.018754	0.286476
616.227399	0.286514
616.436024	0.286971
616.644632	0.287404
616.853222	0.287429
617.061793	0.287456
617.270346	0.287239
617.478880	0.287378
617.687397	0.287592
617.895895	0.287787
618.104375	0.287813
618.312837	0.287726
618.521281	0.287693
618.729706	0.287996
618.938113	0.288561
619.146502	0.289075
619.354873	0.289127
619.563226	0.289289
619.771560	0.289394
619.979876	0.289533
620.188174	0.289494
620.396453	0.289583
620.604715	0.289666
620.812958	0.289448
621.021183	0.289535
621.229390	0.289617
621.437578	0.289669
621.645748	0.290104
621.853900	0.290569
622.062034	0.291042
622.270150	0.291321
622.478247	0.291378
622.686326	0.291578
622.894387	0.291575
623.102430	0.291617
623.310454	0.291734
623.518461	0.291964
623.726449	0.291930
623.934418	0.291780
624.142370	0.291803
624.350303	0.292332
624.558218	0.292768
624.766115	0.292873
624.973994	0.293176
625.181855	0.293460
625.389697	0.293431
625.597521	0.293658
625.805327	0.294172
626.013114	0.294266
626.220883	0.294465
626.428634	0.294587
626.636367	0.294937
626.844082	0.294910
627.051778	0.294651
627.259457	0.294611
627.467117	0.294868
627.674758	0.294886
627.882382	0.295153
628.089987	0.295329
628.297574	0.295358
628.505143	0.295121
628.712694	0.295682
628.920226	0.296177
629.127740	0.296751
629.335236	0.296855
629.542714	0.297284
629.750174	0.297434
629.957615	0.297383
630.165038	0.297757
630.372443	0.298303
630.579829	0.298366
630.787198	0.298612
630.994548	0.298532
631.201880	0.298719
631.409194	0.298677
631.616489	0.298897
631.823766	0.299252
632.031025	0.299500
632.238266	0.299771
632.445489	0.299953
632.652693	0.300256
632.859879	0.300259
633.067047	0.300403
633.274197	0.300401
633.481329	0.300361
633.688442	0.300202
633.895537	0.300006
634.102614	0.300135
634.309672	0.300198
634.516713	0.300018
634.723735	0.300450
634.930739	0.300558
635.137724	0.300883
635.344692	0.301276
635.551641	0.301476
635.758572	0.301729
635.965485	0.301729
636.172379	0.301648
636.379256	0.301768
636.586114	0.301976
636.792954	0.302444
636.999775	0.302411
637.206579	0.302506
637.413364	0.302680
637.620131	0.302655
637.826880	0.302612
638.033610	0.303024
638.240323	0.303244
638.447017	0.303466
638.653692	0.303434
638.860350	0.303887
639.066990	0.304080
639.273611	0.304339
639.480214	0.304487
639.686798	0.304971
639.893365	0.305040
640.099913	0.305521
640.306443	0.305619
640.512955	0.305608
640.719449	0.305597
640.925924	0.305804
641.132381	0.305927
641.338820	0.306137
641.545241	0.306301
641.751644	0.306766
641.958028	0.306716
642.164394	0.306915
642.370742	0.307508
642.577071	0.307931
642.783383	0.308432
642.989676	0.308814
643.195951	0.309324
643.402207	0.309496
643.608446	0.309532
643.814666	0.309922
644.020868	0.310049
644.227052	0.309825
644.433218	0.309819
644.639365	0.309706
644.845494	0.310034
645.051605	0.310453
645.257698	0.310537
645.463772	0.311029
645.669828	0.311120
645.875866	0.311338
646.081886	0.311702
646.287888	0.311906
646.493871	0.312157
646.699836	0.312283
646.905783	0.312084
647.111712	0.312263
647.317622	0.312146
647.523514	0.312423
647.729388	0.312374
647.935244	0.312586
648.141082	0.312747
648.346901	0.312966
648.552702	0.313218
648.758485	0.313229
648.964250	0.313827
649.169996	0.313872
649.375724	0.313810
649.581434	0.314279
649.787126	0.314464
649.992800	0.314623
650.198455	0.314580
650.404092	0.314323
650.609711	0.314983
650.815311	0.315017
651.020894	0.315302
651.226458	0.315597
651.432004	0.315691
651.637532	0.315676
651.843041	0.315902
652.048532	0.316330
652.254006	0.316711
652.459460	0.316935
652.664897	0.317029
652.870315	0.317304
653.075716	0.317724
653.281097	0.318136
653.486461	0.318394
653.691807	0.318951
653.897134	0.319064
654.102443	0.319515
654.307734	0.319350
654.513006	0.320007
654.718261	0.320519
654.923497	0.321052
655.128715	0.321214
655.333915	0.321502
655.539096	0.321557
655.744259	0.322063
655.949404	0.322319
656.154531	0.322800
656.359640	0.322573
656.564730	0.322508
656.769802	0.322375
656.974856	0.322688
657.179892	0.323205
657.384909	0.323318
657.589908	0.323454
657.794889	0.323484
657.999852	0.323816
658.204797	0.324123
658.409723	0.324335
658.614631	0.324533
658.819521	0.324576
659.024393	0.324738
659.229246	0.325065
659.434081	0.325262
659.638898	0.325627
659.843697	0.325649
660.048478	0.326022
660.253240	0.326538
660.457984	0.326817
660.662710	0.327090
660.867417	0.327283
661.072107	0.327560
661.276778	0.327784
661.481431	0.327983
661.686066	0.328141
661.890682	0.328614
662.095281	0.328787
662.299861	0.329178
662.504422	0.329533
662.708966	0.330031
662.913491	0.330352
663.117999	0.330884
663.322488	0.331134
663.526958	0.331658
663.731411	0.331695
663.935845	0.332071
664.140261	0.332153
664.344659	0.332321
664.549038	0.331897
664.753400	0.332139
664.957743	0.332451
665.162068	0.332792
665.366375	0.332923
665.570663	0.333209
665.774933	0.333150
665.979185	0.333391
666.183419	0.333927
666.387635	0.334679
666.591832	0.335039
666.796011	0.335107
667.000172	0.335079
667.204315	0.335364
667.408439	0.335408
667.612545	0.335946
667.816634	0.336463
668.020703	0.336265
668.224755	0.336268
668.428788	0.336310
668.632803	0.336371
668.836800	0.336720
669.040779	0.337001
669.244739	0.337335
669.448681	0.337741
669.652605	0.337891
669.856511	0.338356
670.060399	0.339102
670.264268	0.339478
670.468119	0.339547
670.671952	0.339973
670.875767	0.340270
671.079563	0.340616
671.283341	0.340478
671.487101	0.340778
671.690843	0.341002
671.894567	0.340858
672.098272	0.340888
672.301959	0.341454
672.505628	0.341427
672.709278	0.341869
672.912911	0.342191
673.116525	0.342718
673.320121	0.342900
673.523699	0.343224
673.727258	0.343679
673.930799	0.344144
674.134322	0.344440
674.337827	0.345080
674.541314	0.345157
674.744782	0.345357
674.948232	0.345422
675.151664	0.345693
675.355078	0.345875
675.558474	0.345893
675.761851	0.346102
675.965210	0.346438
676.168551	0.346576
676.371873	0.346913
676.575178	0.347222
676.778464	0.347288
676.981732	0.347392
677.184981	0.347174
677.388213	0.347578
677.591426	0.347863
677.794621	0.347971
677.997798	0.348353
678.200956	0.348419
678.404097	0.348797
678.607219	0.349379
678.810323	0.349764
679.013408	0.350503
679.216476	0.350721
679.419525	0.350957
679.622556	0.351094
679.825569	0.351052
680.028563	0.351326
680.231540	0.351384
680.434498	0.351644
680.637438	0.351919
680.840359	0.352095
681.043263	0.352358
681.246148	0.352470
681.449015	0.352491
681.651864	0.352968
681.854694	0.353251
682.057506	0.353395
682.260301	0.353437
682.463076	0.353726
682.665834	0.353825
682.868573	0.353846
683.071295	0.354171
683.273998	0.354479
683.476682	0.354735
683.679349	0.354981
683.881997	0.355075
684.084627	0.355346
684.287239	0.355389
684.489833	0.355624
684.692408	0.356155
684.894965	0.356422
685.097504	0.356753
685.300025	0.356732
685.502527	0.356952
685.705012	0.357173
685.907478	0.357325
686.109925	0.357711
686.312355	0.358122
686.514766	0.358179
686.717159	0.358268
686.919534	0.358506
687.121891	0.358956
687.324230	0.359038
687.526550	0.359619
687.728852	0.360010
687.931136	0.360143
688.133401	0.360488
688.335649	0.360550
688.537878	0.360760
688.740089	0.360976
688.942281	0.360923
689.144456	0.361532
689.346612	0.361237
689.548750	0.361186
689.750870	0.361488
689.952971	0.361336
690.155055	0.361803
690.357120	0.361942
690.559167	0.362060
690.761195	0.362483
690.963206	0.362390
691.165198	0.362751
691.367172	0.363050
691.569128	0.363303
691.771065	0.363972
691.972984	0.364035
692.174885	0.364667
692.376768	0.364951
692.578633	0.365084
692.780479	0.365310
692.982308	0.365815
693.184118	0.366109
693.385909	0.366173
