sample name	sample
index	629
start time	 03-19-2021  02:55:52 PM


Wavelength (nm)	Absorbance
494.344910	-0.469835
494.563924	-0.469835
494.782919	-0.469835
495.001897	NaN
495.220856	-0.210512
495.439797	-0.176593
495.658719	-0.008346
495.877624	0.206818
496.096510	0.134179
496.315378	0.100003
496.534227	0.196091
496.753059	0.069222
496.971872	-0.013382
497.190667	0.081418
497.409444	0.083707
497.628203	0.081764
497.846943	0.081702
498.065665	0.081129
498.284369	0.082329
498.503055	0.082355
498.721723	0.083594
498.940372	0.084128
499.159003	0.084177
499.377616	0.084357
499.596210	0.083576
499.814787	0.083491
500.033345	0.084307
500.251885	0.084576
500.470406	0.085285
500.688910	0.085882
500.907395	0.085861
501.125862	0.085924
501.344311	0.087131
501.562742	0.088491
501.781154	0.089137
501.999548	0.089063
502.217924	0.088848
502.436282	0.088822
502.654621	0.088181
502.872942	0.088553
503.091245	0.088854
503.309530	0.087923
503.527797	0.087340
503.746045	0.086700
503.964275	0.086955
504.182487	0.087384
504.400681	0.087614
504.618856	0.087155
504.837013	0.086982
505.055152	0.087256
505.273273	0.086777
505.491376	0.087524
505.709460	0.088316
505.927526	0.087823
506.145574	0.088322
506.363604	0.088011
506.581615	0.088076
506.799608	0.087879
507.017583	0.087797
507.235540	0.089161
507.453478	0.088493
507.671399	0.088316
507.889301	0.088712
508.107185	0.087956
508.325050	0.087389
508.542898	0.088125
508.760727	0.088044
508.978538	0.086984
509.196330	0.086843
509.414105	0.087550
509.631861	0.087613
509.849599	0.087820
510.067319	0.088559
510.285021	0.088978
510.502704	0.089032
510.720369	0.089061
510.938016	0.090319
511.155645	0.089904
511.373255	0.090613
511.590848	0.090584
511.808422	0.090761
512.025977	0.090563
512.243515	0.090975
512.461034	0.091000
512.678536	0.091357
512.896018	0.091139
513.113483	0.091343
513.330930	0.090291
513.548358	0.089881
513.765768	0.089552
513.983160	0.089258
514.200533	0.089243
514.417889	0.089486
514.635226	0.089438
514.852545	0.089327
515.069845	0.089921
515.287128	0.090201
515.504392	0.090680
515.721638	0.090222
515.938866	0.091121
516.156075	0.091484
516.373267	0.091022
516.590440	0.091293
516.807594	0.091644
517.024731	0.091800
517.241850	0.091639
517.458950	0.091613
517.676032	0.092724
517.893095	0.092557
518.110141	0.092460
518.327168	0.092878
518.544177	0.093403
518.761168	0.093951
518.978141	0.093304
519.195095	0.094584
519.412031	0.094961
519.628949	0.094762
519.845849	0.094888
520.062731	0.095175
520.279594	0.095124
520.496439	0.094627
520.713266	0.094200
520.930074	0.094457
521.146865	0.093945
521.363637	0.093741
521.580391	0.093904
521.797127	0.093962
522.013844	0.094128
522.230543	0.094699
522.447224	0.094643
522.663887	0.095735
522.880532	0.096158
523.097158	0.096281
523.313766	0.096577
523.530356	0.096861
523.746928	0.096767
523.963481	0.096624
524.180017	0.096359
524.396534	0.097271
524.613032	0.096967
524.829513	0.096989
525.045975	0.097269
525.262420	0.097759
525.478845	0.098383
525.695253	0.098105
525.911643	0.098470
526.128014	0.099113
526.344367	0.099332
526.560702	0.099223
526.777018	0.099678
526.993316	0.100076
527.209597	0.099988
527.425858	0.099661
527.642102	0.100428
527.858328	0.100324
528.074535	0.100265
528.290724	0.100401
528.506894	0.100679
528.723047	0.100550
528.939181	0.100347
529.155297	0.100629
529.371395	0.101282
529.587475	0.101270
529.803536	0.101869
530.019579	0.101888
530.235604	0.101770
530.451611	0.101518
530.667600	0.101643
530.883570	0.101768
531.099522	0.101961
531.315456	0.101517
531.531372	0.101833
531.747269	0.101892
531.963148	0.102245
532.179009	0.102348
532.394852	0.102198
532.610676	0.101996
532.826482	0.102221
533.042271	0.102424
533.258040	0.102570
533.473792	0.102863
533.689525	0.103201
533.905240	0.103433
534.120937	0.103445
534.336616	0.104234
534.552277	0.105119
534.767919	0.105181
534.983543	0.105471
535.199149	0.106012
535.414736	0.106146
535.630306	0.106461
535.845857	0.106294
536.061390	0.107063
536.276904	0.107588
536.492401	0.107351
536.707879	0.107515
536.923339	0.107067
537.138781	0.106831
537.354204	0.107064
537.569610	0.106625
537.784997	0.107312
538.000366	0.106751
538.215716	0.106482
538.431049	0.106820
538.646363	0.107038
538.861659	0.107896
539.076937	0.108112
539.292196	0.108362
539.507438	0.108631
539.722661	0.108295
539.937866	0.109080
540.153052	0.109113
540.368221	0.108754
540.583371	0.108926
540.798503	0.108859
541.013617	0.109001
541.228712	0.108605
541.443789	0.108959
541.658848	0.108870
541.873889	0.108328
542.088912	0.108400
542.303916	0.108986
542.518902	0.109215
542.733870	0.109457
542.948820	0.109874
543.163752	0.110300
543.378665	0.109949
543.593560	0.110568
543.808437	0.111057
544.023295	0.111186
544.238136	0.111538
544.452958	0.112218
544.667762	0.112348
544.882548	0.112058
545.097315	0.112070
545.312064	0.112625
545.526795	0.112895
545.741508	0.112439
545.956203	0.112699
546.170879	0.112762
546.385537	0.112021
546.600177	0.111797
546.814799	0.111727
547.029402	0.112057
547.243988	0.112090
547.458555	0.112333
547.673103	0.113208
547.887634	0.113502
548.102146	0.113280
548.316640	0.113708
548.531116	0.114191
548.745574	0.115178
548.960013	0.115330
549.174435	0.115193
549.388838	0.115084
549.603222	0.114959
549.817589	0.115002
550.031937	0.115391
550.246267	0.115529
550.460579	0.115785
550.674873	0.115391
550.889148	0.115587
551.103405	0.116244
551.317644	0.116417
551.531865	0.116611
551.746068	0.116809
551.960252	0.116768
552.174418	0.116751
552.388566	0.116650
552.602696	0.117062
552.816807	0.116714
553.030900	0.116728
553.244975	0.116911
553.459032	0.117180
553.673070	0.117171
553.887091	0.117595
554.101093	0.117691
554.315077	0.118045
554.529042	0.118050
554.742990	0.118522
554.956919	0.118433
555.170830	0.118400
555.384722	0.118199
555.598597	0.118043
555.812453	0.118277
556.026291	0.118438
556.240111	0.118797
556.453913	0.118962
556.667696	0.119131
556.881461	0.119271
557.095208	0.119202
557.308937	0.119412
557.522647	0.119915
557.736339	0.119287
557.950013	0.119578
558.163669	0.119076
558.377307	0.118877
558.590926	0.118976
558.804527	0.119264
559.018110	0.119913
559.231675	0.120029
559.445221	0.120291
559.658749	0.120947
559.872259	0.120794
560.085751	0.121163
560.299225	0.121779
560.512680	0.121903
560.726117	0.121774
560.939536	0.121552
561.152937	0.121816
561.366319	0.121566
561.579683	0.122003
561.793029	0.122247
562.006357	0.122258
562.219667	0.122148
562.432958	0.122116
562.646231	0.122150
562.859486	0.122305
563.072723	0.122025
563.285941	0.122028
563.499141	0.121524
563.712323	0.121653
563.925487	0.121834
564.138632	0.121585
564.351760	0.121544
564.564869	0.121684
564.777960	0.121715
564.991032	0.122046
565.204087	0.122414
565.417123	0.122489
565.630141	0.122768
565.843140	0.122765
566.056122	0.123275
566.269085	0.123484
566.482030	0.123757
566.694957	0.123839
566.907866	0.124144
567.120756	0.123979
567.333628	0.124283
567.546482	0.124324
567.759318	0.124512
567.972135	0.124374
568.184935	0.124355
568.397716	0.124344
568.610478	0.124331
568.823223	0.124531
569.035949	0.124657
569.248657	0.124811
569.461347	0.124833
569.674019	0.124583
569.886672	0.124945
570.099308	0.125217
570.311925	0.125240
570.524523	0.125178
570.737104	0.124849
570.949666	0.125104
571.162210	0.125217
571.374736	0.125105
571.587244	0.125445
571.799733	0.125146
572.012205	0.125138
572.224658	0.125228
572.437092	0.125729
572.649509	0.125911
572.861907	0.126119
573.074287	0.126056
573.286649	0.126377
573.498993	0.126037
573.711318	0.126235
573.923625	0.126300
574.135914	0.126564
574.348185	0.126425
574.560438	0.126410
574.772672	0.126412
574.984888	0.126712
575.197086	0.126710
575.409266	0.127229
575.621427	0.127152
575.833570	0.127566
576.045695	0.127378
576.257802	0.127222
576.469890	0.127507
576.681961	0.127344
576.894013	0.127511
577.106046	0.127443
577.318062	0.127281
577.530059	0.127791
577.742039	0.127582
577.954000	0.127869
578.165942	0.128425
578.377867	0.128649
578.589773	0.129081
578.801661	0.128825
579.013531	0.129213
579.225382	0.129532
579.437216	0.129209
579.649031	0.129434
579.860828	0.129723
580.072606	0.129814
580.284367	0.129721
580.496109	0.129648
580.707833	0.129719
580.919539	0.129781
581.131227	0.130048
581.342896	0.130667
581.554547	0.130364
581.766180	0.130461
581.977795	0.130216
582.189391	0.130151
582.400969	0.130391
582.612529	0.130701
582.824071	0.130575
583.035595	0.130601
583.247100	0.130679
583.458587	0.131290
583.670056	0.131147
583.881506	0.131338
584.092939	0.131529
584.304353	0.131335
584.515749	0.131116
584.727127	0.130812
584.938486	0.130888
585.149828	0.130938
585.361151	0.130690
585.572456	0.130986
585.783742	0.131221
585.995011	0.131524
586.206261	0.131859
586.417493	0.131913
586.628706	0.132564
586.839902	0.132743
587.051079	0.132726
587.262238	0.132851
587.473379	0.132922
587.684502	0.132678
587.895606	0.132546
588.106692	0.132511
588.317760	0.133100
588.528810	0.133063
588.739841	0.133181
588.950855	0.132961
589.161850	0.132955
589.372827	0.132818
589.583785	0.133100
589.794726	0.133143
590.005648	0.133393
590.216552	0.133057
590.427437	0.133306
590.638305	0.133189
590.849154	0.133553
591.059985	0.133632
591.270798	0.133812
591.481592	0.134120
591.692369	0.134058
591.903127	0.134319
592.113867	0.134568
592.324588	0.134419
592.535292	0.134389
592.745977	0.134501
592.956644	0.134789
593.167293	0.134859
593.377923	0.134814
593.588536	0.135184
593.799130	0.134521
594.009706	0.134475
594.220263	0.134710
594.430803	0.134896
594.641324	0.134422
594.851827	0.134652
595.062312	0.134491
595.272778	0.134489
595.483227	0.134205
595.693657	0.134868
595.904069	0.134984
596.114462	0.135073
596.324838	0.135065
596.535195	0.135508
596.745534	0.135364
596.955855	0.135739
597.166157	0.135861
597.376441	0.136422
597.586707	0.136358
597.796955	0.136652
598.007185	0.136611
598.217396	0.136833
598.427589	0.137184
598.637764	0.137128
598.847921	0.137235
599.058060	0.137477
599.268180	0.137436
599.478282	0.137442
599.688366	0.137230
599.898431	0.137551
600.108479	0.137355
600.318508	0.137276
600.528519	0.137827
600.738511	0.137774
600.948486	0.137649
601.158442	0.137594
601.368380	0.137419
601.578300	0.137371
601.788202	0.137244
601.998085	0.137636
602.207950	0.137642
602.417797	0.137572
602.627626	0.137753
602.837436	0.137694
603.047228	0.137752
603.257002	0.138271
603.466758	0.138208
603.676496	0.138394
603.886215	0.138409
604.095916	0.138596
604.305599	0.138504
604.515264	0.138445
604.724910	0.138535
604.934538	0.138789
605.144148	0.138591
605.353740	0.139065
605.563314	0.139098
605.772869	0.139247
605.982406	0.139168
606.191925	0.139209
606.401425	0.139319
606.610908	0.139499
606.820372	0.139489
607.029818	0.140016
607.239246	0.139671
607.448655	0.139519
607.658047	0.139603
607.867420	0.139911
608.076775	0.140068
608.286111	0.140198
608.495430	0.140211
608.704730	0.140420
608.914012	0.140046
609.123275	0.140622
609.332521	0.140784
609.541748	0.140719
609.750957	0.140649
609.960148	0.140594
610.169321	0.140373
610.378475	0.140608
610.587611	0.140547
610.796729	0.140739
611.005829	0.140880
611.214910	0.141242
611.423974	0.141246
611.633019	0.141319
611.842045	0.141659
612.051054	0.142004
612.260044	0.141875
612.469017	0.142061
612.677970	0.142133
612.886906	0.141889
613.095824	0.141796
613.304723	0.141915
613.513604	0.141798
613.722467	0.141803
613.931311	0.141816
614.140138	0.141765
614.348946	0.141718
614.557736	0.141693
614.766507	0.141731
614.975261	0.141702
615.183996	0.141770
615.392713	0.142120
615.601412	0.142065
615.810092	0.141991
616.018754	0.142552
616.227399	0.142531
616.436024	0.142809
616.644632	0.142978
616.853222	0.142903
617.061793	0.143269
617.270346	0.143244
617.478880	0.143212
617.687397	0.143563
617.895895	0.143435
618.104375	0.143731
618.312837	0.143748
618.521281	0.144004
618.729706	0.144290
618.938113	0.144201
619.146502	0.144192
619.354873	0.144417
619.563226	0.144260
619.771560	0.144281
619.979876	0.144120
620.188174	0.144195
620.396453	0.144212
620.604715	0.144296
620.812958	0.144388
621.021183	0.144744
621.229390	0.144839
621.437578	0.144994
621.645748	0.145018
621.853900	0.145246
622.062034	0.145127
622.270150	0.145061
622.478247	0.144906
622.686326	0.144810
622.894387	0.144553
623.102430	0.144613
623.310454	0.144525
623.518461	0.144961
623.726449	0.144899
623.934418	0.145229
624.142370	0.145469
624.350303	0.145545
624.558218	0.145528
624.766115	0.145630
624.973994	0.145743
625.181855	0.145964
625.389697	0.145695
625.597521	0.145933
625.805327	0.145878
626.013114	0.145800
626.220883	0.145779
626.428634	0.145783
626.636367	0.146049
626.844082	0.146023
627.051778	0.146057
627.259457	0.146146
627.467117	0.146207
627.674758	0.146437
627.882382	0.146482
628.089987	0.146439
628.297574	0.146735
628.505143	0.146549
628.712694	0.146707
628.920226	0.146957
629.127740	0.147155
629.335236	0.147362
629.542714	0.147449
629.750174	0.147936
629.957615	0.148420
630.165038	0.148278
630.372443	0.148743
630.579829	0.148967
630.787198	0.148993
630.994548	0.148983
631.201880	0.148788
631.409194	0.148829
631.616489	0.148611
631.823766	0.148821
632.031025	0.149033
632.238266	0.148968
632.445489	0.148617
632.652693	0.148561
632.859879	0.148771
633.067047	0.148909
633.274197	0.148862
633.481329	0.148798
633.688442	0.148810
633.895537	0.148784
634.102614	0.148896
634.309672	0.149108
634.516713	0.149460
634.723735	0.149257
634.930739	0.149428
635.137724	0.149585
635.344692	0.149882
635.551641	0.149925
635.758572	0.150215
635.965485	0.150274
636.172379	0.150573
636.379256	0.150426
636.586114	0.150791
636.792954	0.151035
636.999775	0.151158
637.206579	0.151280
637.413364	0.151266
637.620131	0.151217
637.826880	0.151306
638.033610	0.151433
638.240323	0.151480
638.447017	0.151721
638.653692	0.151463
638.860350	0.151217
639.066990	0.151410
639.273611	0.151323
639.480214	0.151622
639.686798	0.151723
639.893365	0.151640
640.099913	0.151999
640.306443	0.151866
640.512955	0.152118
640.719449	0.152396
640.925924	0.152230
641.132381	0.152584
641.338820	0.152800
641.545241	0.152742
641.751644	0.152838
641.958028	0.152664
642.164394	0.152854
642.370742	0.152900
642.577071	0.153160
642.783383	0.153129
642.989676	0.153234
643.195951	0.153205
643.402207	0.153480
643.608446	0.153494
643.814666	0.153757
644.020868	0.153729
644.227052	0.153846
644.433218	0.153744
644.639365	0.153826
644.845494	0.153908
645.051605	0.153906
645.257698	0.153855
645.463772	0.154002
645.669828	0.154120
645.875866	0.154103
646.081886	0.154034
646.287888	0.154151
646.493871	0.154286
646.699836	0.154101
646.905783	0.154262
647.111712	0.154292
647.317622	0.154397
647.523514	0.154555
647.729388	0.154542
647.935244	0.154861
648.141082	0.155031
648.346901	0.155222
648.552702	0.155542
648.758485	0.155625
648.964250	0.156002
649.169996	0.156215
649.375724	0.156126
649.581434	0.156588
649.787126	0.156710
649.992800	0.156757
650.198455	0.156895
650.404092	0.157014
650.609711	0.157118
650.815311	0.157050
651.020894	0.157188
651.226458	0.157515
651.432004	0.157482
651.637532	0.157475
651.843041	0.157731
652.048532	0.157715
652.254006	0.157803
652.459460	0.157805
652.664897	0.157794
652.870315	0.157825
653.075716	0.157745
653.281097	0.157852
653.486461	0.157775
653.691807	0.157859
653.897134	0.158179
654.102443	0.158146
654.307734	0.158116
654.513006	0.158198
654.718261	0.158211
654.923497	0.158073
655.128715	0.158009
655.333915	0.158135
655.539096	0.158029
655.744259	0.158218
655.949404	0.158360
656.154531	0.158580
656.359640	0.158711
656.564730	0.158749
656.769802	0.159216
656.974856	0.159496
657.179892	0.159876
657.384909	0.159949
657.589908	0.159796
657.794889	0.159924
657.999852	0.160032
658.204797	0.160319
658.409723	0.160495
658.614631	0.160574
658.819521	0.160622
659.024393	0.160521
659.229246	0.160706
659.434081	0.160893
659.638898	0.161056
659.843697	0.161054
660.048478	0.161049
660.253240	0.161108
660.457984	0.161188
660.662710	0.161403
660.867417	0.161650
661.072107	0.161651
661.276778	0.161653
661.481431	0.161796
661.686066	0.162152
661.890682	0.162046
662.095281	0.162197
662.299861	0.162232
662.504422	0.162101
662.708966	0.162170
662.913491	0.162556
663.117999	0.162597
663.322488	0.162665
663.526958	0.162687
663.731411	0.162901
663.935845	0.163051
664.140261	0.163270
664.344659	0.163445
664.549038	0.163366
664.753400	0.163481
664.957743	0.163810
665.162068	0.163762
665.366375	0.163866
665.570663	0.164086
665.774933	0.164151
665.979185	0.164053
666.183419	0.164257
666.387635	0.164513
666.591832	0.164404
666.796011	0.164588
667.000172	0.164719
667.204315	0.164801
667.408439	0.164895
667.612545	0.164908
667.816634	0.165108
668.020703	0.164931
668.224755	0.165068
668.428788	0.165265
668.632803	0.165027
668.836800	0.165286
669.040779	0.165545
669.244739	0.165597
669.448681	0.165983
669.652605	0.166197
669.856511	0.166601
670.060399	0.166669
670.264268	0.166734
670.468119	0.166871
670.671952	0.166886
670.875767	0.166573
671.079563	0.166949
671.283341	0.166915
671.487101	0.166851
671.690843	0.166898
671.894567	0.167043
672.098272	0.167321
672.301959	0.167439
672.505628	0.167550
672.709278	0.167910
672.912911	0.167877
673.116525	0.167623
673.320121	0.167785
673.523699	0.168072
673.727258	0.168064
673.930799	0.167927
674.134322	0.168164
674.337827	0.168377
674.541314	0.168374
674.744782	0.168534
674.948232	0.168980
675.151664	0.169158
675.355078	0.169013
675.558474	0.169285
675.761851	0.169405
675.965210	0.169506
676.168551	0.169622
676.371873	0.169664
676.575178	0.169577
676.778464	0.169466
676.981732	0.169483
677.184981	0.169670
677.388213	0.169651
677.591426	0.169909
677.794621	0.170104
677.997798	0.170119
678.200956	0.170369
678.404097	0.170549
678.607219	0.170744
678.810323	0.170820
679.013408	0.170823
679.216476	0.170904
679.419525	0.170897
679.622556	0.170958
679.825569	0.171044
680.028563	0.171138
680.231540	0.171130
680.434498	0.171238
680.637438	0.171503
680.840359	0.171598
681.043263	0.171705
681.246148	0.171997
681.449015	0.172158
681.651864	0.172448
681.854694	0.172552
682.057506	0.172615
682.260301	0.172753
682.463076	0.172842
682.665834	0.173159
682.868573	0.173440
683.071295	0.173444
683.273998	0.173447
683.476682	0.173446
683.679349	0.173575
683.881997	0.173838
684.084627	0.174044
684.287239	0.174103
684.489833	0.174043
684.692408	0.173893
684.894965	0.173748
685.097504	0.173728
685.300025	0.173765
685.502527	0.173908
685.705012	0.173911
685.907478	0.173973
686.109925	0.173929
686.312355	0.174003
686.514766	0.174298
686.717159	0.174409
686.919534	0.174562
687.121891	0.174738
687.324230	0.174757
687.526550	0.174846
687.728852	0.174848
687.931136	0.174923
688.133401	0.174997
688.335649	0.175150
688.537878	0.175028
688.740089	0.175046
688.942281	0.175070
689.144456	0.175100
689.346612	0.175229
689.548750	0.175173
689.750870	0.175257
689.952971	0.175248
690.155055	0.175066
690.357120	0.175371
690.559167	0.175375
690.761195	0.175279
690.963206	0.175444
691.165198	0.175307
691.367172	0.175501
691.569128	0.175589
691.771065	0.175952
691.972984	0.176213
692.174885	0.176504
692.376768	0.176704
692.578633	0.176963
692.780479	0.177016
692.982308	0.177388
693.184118	0.177706
693.385909	0.177836
