sample name	sample
index	963
start time	 04-12-2021  04:17:56 PM


Wavelength (nm)	Absorbance
494.344910	-0.299121
494.563924	-0.299121
494.782919	-0.299121
495.001897	0.211651
495.220856	-0.070460
495.439797	-0.065020
495.658719	-0.001182
495.877624	0.041193
496.096510	0.048098
496.315378	0.049314
496.534227	0.065244
496.753059	0.057379
496.971872	0.044406
497.190667	0.149263
497.409444	0.171993
497.628203	0.177688
497.846943	0.179572
498.065665	0.180684
498.284369	0.181801
498.503055	0.182113
498.721723	0.181482
498.940372	0.182488
499.159003	0.183271
499.377616	0.182597
499.596210	0.181197
499.814787	0.182064
500.033345	0.181848
500.251885	0.181849
500.470406	0.182338
500.688910	0.183722
500.907395	0.183049
501.125862	0.182709
501.344311	0.183990
501.562742	0.183994
501.781154	0.182644
501.999548	0.182656
502.217924	0.183387
502.436282	0.183666
502.654621	0.183338
502.872942	0.182749
503.091245	0.181412
503.309530	0.181259
503.527797	0.182636
503.746045	0.183065
503.964275	0.183160
504.182487	0.183478
504.400681	0.182627
504.618856	0.183553
504.837013	0.184462
505.055152	0.186383
505.273273	0.185834
505.491376	0.185978
505.709460	0.187007
505.927526	0.187754
506.145574	0.187760
506.363604	0.188992
506.581615	0.188120
506.799608	0.188934
507.017583	0.189044
507.235540	0.190674
507.453478	0.190358
507.671399	0.190005
507.889301	0.189873
508.107185	0.189907
508.325050	0.190660
508.542898	0.191525
508.760727	0.191042
508.978538	0.191436
509.196330	0.190766
509.414105	0.191366
509.631861	0.192067
509.849599	0.192260
510.067319	0.192369
510.285021	0.191797
510.502704	0.191738
510.720369	0.192211
510.938016	0.192102
511.155645	0.192849
511.373255	0.193458
511.590848	0.193612
511.808422	0.194299
512.025977	0.194590
512.243515	0.195322
512.461034	0.195266
512.678536	0.195745
512.896018	0.195740
513.113483	0.195950
513.330930	0.196148
513.548358	0.196917
513.765768	0.196460
513.983160	0.195890
514.200533	0.195317
514.417889	0.196176
514.635226	0.196370
514.852545	0.196872
515.069845	0.196843
515.287128	0.196305
515.504392	0.195889
515.721638	0.196310
515.938866	0.197681
516.156075	0.198293
516.373267	0.199216
516.590440	0.199947
516.807594	0.200222
517.024731	0.200847
517.241850	0.200765
517.458950	0.202546
517.676032	0.203402
517.893095	0.202909
518.110141	0.202942
518.327168	0.202695
518.544177	0.202694
518.761168	0.203824
518.978141	0.204314
519.195095	0.205176
519.412031	0.203911
519.628949	0.204245
519.845849	0.204946
520.062731	0.205558
520.279594	0.205025
520.496439	0.204819
520.713266	0.204579
520.930074	0.204779
521.146865	0.205741
521.363637	0.206633
521.580391	0.206780
521.797127	0.207347
522.013844	0.207923
522.230543	0.208276
522.447224	0.209309
522.663887	0.209321
522.880532	0.209777
523.097158	0.210252
523.313766	0.210043
523.530356	0.210504
523.746928	0.210980
523.963481	0.211445
524.180017	0.212400
524.396534	0.212813
524.613032	0.213497
524.829513	0.213371
525.045975	0.212654
525.262420	0.213079
525.478845	0.213217
525.695253	0.213199
525.911643	0.213257
526.128014	0.213232
526.344367	0.213605
526.560702	0.213914
526.777018	0.214856
526.993316	0.215631
527.209597	0.215712
527.425858	0.216116
527.642102	0.216653
527.858328	0.217234
528.074535	0.217338
528.290724	0.216813
528.506894	0.217492
528.723047	0.217846
528.939181	0.218046
529.155297	0.218755
529.371395	0.219136
529.587475	0.219555
529.803536	0.219945
530.019579	0.221540
530.235604	0.222969
530.451611	0.222957
530.667600	0.223571
530.883570	0.224104
531.099522	0.224824
531.315456	0.225486
531.531372	0.225235
531.747269	0.224949
531.963148	0.224560
532.179009	0.224669
532.394852	0.224526
532.610676	0.224602
532.826482	0.225184
533.042271	0.225411
533.258040	0.225129
533.473792	0.225685
533.689525	0.226150
533.905240	0.226698
534.120937	0.227153
534.336616	0.228126
534.552277	0.228533
534.767919	0.229046
534.983543	0.230219
535.199149	0.230812
535.414736	0.231311
535.630306	0.231803
535.845857	0.232559
536.061390	0.233114
536.276904	0.233517
536.492401	0.233253
536.707879	0.233421
536.923339	0.233070
537.138781	0.234009
537.354204	0.234584
537.569610	0.235344
537.784997	0.235460
538.000366	0.235791
538.215716	0.236187
538.431049	0.236920
538.646363	0.237651
538.861659	0.238647
539.076937	0.238196
539.292196	0.238584
539.507438	0.238732
539.722661	0.239649
539.937866	0.239833
540.153052	0.239269
540.368221	0.240071
540.583371	0.239673
540.798503	0.239237
541.013617	0.240058
541.228712	0.240315
541.443789	0.240453
541.658848	0.239736
541.873889	0.239770
542.088912	0.240840
542.303916	0.240724
542.518902	0.241379
542.733870	0.241796
542.948820	0.241762
543.163752	0.241864
543.378665	0.242216
543.593560	0.242998
543.808437	0.244168
544.023295	0.244772
544.238136	0.245126
544.452958	0.245504
544.667762	0.245561
544.882548	0.246660
545.097315	0.247463
545.312064	0.247549
545.526795	0.247944
545.741508	0.247865
545.956203	0.247857
546.170879	0.248265
546.385537	0.248368
546.600177	0.249463
546.814799	0.249600
547.029402	0.249392
547.243988	0.249649
547.458555	0.249987
547.673103	0.250054
547.887634	0.250721
548.102146	0.251004
548.316640	0.251691
548.531116	0.251881
548.745574	0.252235
548.960013	0.252905
549.174435	0.253837
549.388838	0.253866
549.603222	0.254542
549.817589	0.254461
550.031937	0.255248
550.246267	0.255873
550.460579	0.256281
550.674873	0.256012
550.889148	0.255903
551.103405	0.256231
551.317644	0.256494
551.531865	0.256724
551.746068	0.256527
551.960252	0.256040
552.174418	0.256048
552.388566	0.255603
552.602696	0.255828
552.816807	0.256442
553.030900	0.256417
553.244975	0.256811
553.459032	0.256908
553.673070	0.258040
553.887091	0.258702
554.101093	0.258533
554.315077	0.258928
554.529042	0.259777
554.742990	0.259727
554.956919	0.259542
555.170830	0.259948
555.384722	0.260069
555.598597	0.260125
555.812453	0.260055
556.026291	0.260325
556.240111	0.260782
556.453913	0.260615
556.667696	0.260911
556.881461	0.261262
557.095208	0.261512
557.308937	0.262050
557.522647	0.262021
557.736339	0.262085
557.950013	0.262435
558.163669	0.262434
558.377307	0.262509
558.590926	0.262934
558.804527	0.263273
559.018110	0.263293
559.231675	0.263021
559.445221	0.263296
559.658749	0.263716
559.872259	0.263534
560.085751	0.263651
560.299225	0.263869
560.512680	0.264109
560.726117	0.264163
560.939536	0.264207
561.152937	0.264857
561.366319	0.265141
561.579683	0.265299
561.793029	0.265535
562.006357	0.266023
562.219667	0.266129
562.432958	0.266379
562.646231	0.267365
562.859486	0.267888
563.072723	0.268093
563.285941	0.267870
563.499141	0.268264
563.712323	0.268758
563.925487	0.268694
564.138632	0.269016
564.351760	0.268804
564.564869	0.268415
564.777960	0.268255
564.991032	0.267902
565.204087	0.268370
565.417123	0.268291
565.630141	0.268360
565.843140	0.268762
566.056122	0.269171
566.269085	0.269476
566.482030	0.269221
566.694957	0.269977
566.907866	0.270686
567.120756	0.270856
567.333628	0.270776
567.546482	0.271226
567.759318	0.271246
567.972135	0.271630
568.184935	0.272225
568.397716	0.272774
568.610478	0.272777
568.823223	0.272856
569.035949	0.273463
569.248657	0.274284
569.461347	0.274220
569.674019	0.274034
569.886672	0.273903
570.099308	0.273658
570.311925	0.274518
570.524523	0.274387
570.737104	0.274439
570.949666	0.274377
571.162210	0.274345
571.374736	0.274168
571.587244	0.274753
571.799733	0.274924
572.012205	0.275152
572.224658	0.274325
572.437092	0.275047
572.649509	0.275517
572.861907	0.275843
573.074287	0.276100
573.286649	0.276583
573.498993	0.276793
573.711318	0.276853
573.923625	0.276990
574.135914	0.277865
574.348185	0.277664
574.560438	0.277649
574.772672	0.277723
574.984888	0.277458
575.197086	0.277916
575.409266	0.277958
575.621427	0.278184
575.833570	0.278524
576.045695	0.278694
576.257802	0.278410
576.469890	0.278501
576.681961	0.278465
576.894013	0.278631
577.106046	0.278550
577.318062	0.278795
577.530059	0.278999
577.742039	0.279093
577.954000	0.278843
578.165942	0.279113
578.377867	0.279542
578.589773	0.279397
578.801661	0.279570
579.013531	0.280161
579.225382	0.280359
579.437216	0.280577
579.649031	0.281089
579.860828	0.281404
580.072606	0.281532
580.284367	0.281387
580.496109	0.281865
580.707833	0.282245
580.919539	0.282127
581.131227	0.282454
581.342896	0.282418
581.554547	0.282083
581.766180	0.282422
581.977795	0.282426
582.189391	0.282332
582.400969	0.282303
582.612529	0.282200
582.824071	0.282176
583.035595	0.282205
583.247100	0.282313
583.458587	0.282756
583.670056	0.283108
583.881506	0.283788
584.092939	0.284202
584.304353	0.284560
584.515749	0.285247
584.727127	0.285832
584.938486	0.286133
585.149828	0.286379
585.361151	0.286266
585.572456	0.286373
585.783742	0.286162
585.995011	0.286339
586.206261	0.286543
586.417493	0.286802
586.628706	0.286548
586.839902	0.286687
587.051079	0.287093
587.262238	0.287383
587.473379	0.287183
587.684502	0.287681
587.895606	0.287970
588.106692	0.288169
588.317760	0.288450
588.528810	0.288887
588.739841	0.289049
588.950855	0.289195
589.161850	0.289308
589.372827	0.289495
589.583785	0.289443
589.794726	0.289554
590.005648	0.289681
590.216552	0.289412
590.427437	0.289474
590.638305	0.289345
590.849154	0.289687
591.059985	0.289947
591.270798	0.290457
591.481592	0.290890
591.692369	0.290769
591.903127	0.291060
592.113867	0.291470
592.324588	0.291860
592.535292	0.292479
592.745977	0.292265
592.956644	0.292353
593.167293	0.292360
593.377923	0.292196
593.588536	0.292840
593.799130	0.292986
594.009706	0.293551
594.220263	0.293848
594.430803	0.293937
594.641324	0.294293
594.851827	0.294325
595.062312	0.294507
595.272778	0.295039
595.483227	0.294978
595.693657	0.295035
595.904069	0.294505
596.114462	0.294862
596.324838	0.295169
596.535195	0.295176
596.745534	0.295527
596.955855	0.295710
597.166157	0.296117
597.376441	0.296514
597.586707	0.296511
597.796955	0.297002
598.007185	0.296538
598.217396	0.296366
598.427589	0.296940
598.637764	0.297382
598.847921	0.297789
599.058060	0.297932
599.268180	0.298252
599.478282	0.299239
599.688366	0.299182
599.898431	0.299745
600.108479	0.299700
600.318508	0.299866
600.528519	0.299938
600.738511	0.299735
600.948486	0.299877
601.158442	0.299737
601.368380	0.299765
601.578300	0.300505
601.788202	0.300823
601.998085	0.301164
602.207950	0.301080
602.417797	0.301014
602.627626	0.301432
602.837436	0.301604
603.047228	0.301869
603.257002	0.301987
603.466758	0.301972
603.676496	0.301938
603.886215	0.302274
604.095916	0.302991
604.305599	0.303679
604.515264	0.303619
604.724910	0.303507
604.934538	0.303622
605.144148	0.303565
605.353740	0.303326
605.563314	0.303794
605.772869	0.303893
605.982406	0.303959
606.191925	0.303995
606.401425	0.304422
606.610908	0.304803
606.820372	0.304951
607.029818	0.305413
607.239246	0.306100
607.448655	0.306062
607.658047	0.306464
607.867420	0.306265
608.076775	0.306539
608.286111	0.306632
608.495430	0.306950
608.704730	0.306901
608.914012	0.306881
609.123275	0.306585
609.332521	0.306834
609.541748	0.306598
609.750957	0.306661
609.960148	0.306560
610.169321	0.307020
610.378475	0.306930
610.587611	0.307252
610.796729	0.307229
611.005829	0.307373
611.214910	0.307572
611.423974	0.307772
611.633019	0.308146
611.842045	0.308443
612.051054	0.308331
612.260044	0.308568
612.469017	0.309128
612.677970	0.309104
612.886906	0.309270
613.095824	0.309332
613.304723	0.309759
613.513604	0.309858
613.722467	0.309925
613.931311	0.310015
614.140138	0.310142
614.348946	0.310114
614.557736	0.310417
614.766507	0.310935
614.975261	0.311056
615.183996	0.311332
615.392713	0.311831
615.601412	0.312286
615.810092	0.312560
616.018754	0.312874
616.227399	0.313121
616.436024	0.313541
616.644632	0.313553
616.853222	0.313723
617.061793	0.313613
617.270346	0.313661
617.478880	0.313785
617.687397	0.313908
617.895895	0.314069
618.104375	0.314241
618.312837	0.314344
618.521281	0.314523
618.729706	0.314487
618.938113	0.315010
619.146502	0.314563
619.354873	0.314704
619.563226	0.314657
619.771560	0.314649
619.979876	0.314909
620.188174	0.314906
620.396453	0.315031
620.604715	0.315316
620.812958	0.315459
621.021183	0.316088
621.229390	0.315896
621.437578	0.315984
621.645748	0.316058
621.853900	0.315514
622.062034	0.315691
622.270150	0.315843
622.478247	0.316068
622.686326	0.316281
622.894387	0.316423
623.102430	0.316583
623.310454	0.317012
623.518461	0.317715
623.726449	0.318165
623.934418	0.318197
624.142370	0.318392
624.350303	0.318408
624.558218	0.318603
624.766115	0.318720
624.973994	0.318962
625.181855	0.319209
625.389697	0.318996
625.597521	0.319021
625.805327	0.319385
626.013114	0.319408
626.220883	0.319557
626.428634	0.319346
626.636367	0.319468
626.844082	0.319339
627.051778	0.319363
627.259457	0.319799
627.467117	0.320353
627.674758	0.320503
627.882382	0.320713
628.089987	0.320894
628.297574	0.321286
628.505143	0.321455
628.712694	0.321899
628.920226	0.322070
629.127740	0.322112
629.335236	0.321878
629.542714	0.322049
629.750174	0.322166
629.957615	0.322164
630.165038	0.322133
630.372443	0.322345
630.579829	0.322654
630.787198	0.323091
630.994548	0.323122
631.201880	0.323356
631.409194	0.323545
631.616489	0.323768
631.823766	0.324316
632.031025	0.324581
632.238266	0.324846
632.445489	0.324923
632.652693	0.324723
632.859879	0.324890
633.067047	0.325237
633.274197	0.325349
633.481329	0.325559
633.688442	0.325591
633.895537	0.325640
634.102614	0.325551
634.309672	0.325840
634.516713	0.326131
634.723735	0.326519
634.930739	0.326712
635.137724	0.326820
635.344692	0.327020
635.551641	0.326981
635.758572	0.327333
635.965485	0.327693
636.172379	0.328163
636.379256	0.328536
636.586114	0.328246
636.792954	0.328286
636.999775	0.328311
637.206579	0.328303
637.413364	0.328546
637.620131	0.328466
637.826880	0.328603
638.033610	0.328479
638.240323	0.328257
638.447017	0.328415
638.653692	0.328769
638.860350	0.329187
639.066990	0.329550
639.273611	0.329847
639.480214	0.330210
639.686798	0.330670
639.893365	0.330740
640.099913	0.331354
640.306443	0.331943
640.512955	0.332126
640.719449	0.332251
640.925924	0.332450
641.132381	0.332836
641.338820	0.333091
641.545241	0.333090
641.751644	0.333386
641.958028	0.333391
642.164394	0.333524
642.370742	0.333681
642.577071	0.333712
642.783383	0.334013
642.989676	0.333990
643.195951	0.334035
643.402207	0.334194
643.608446	0.334208
643.814666	0.334380
644.020868	0.334851
644.227052	0.334976
644.433218	0.335512
644.639365	0.335741
644.845494	0.336106
645.051605	0.336356
645.257698	0.336386
645.463772	0.336611
645.669828	0.336699
645.875866	0.336554
646.081886	0.336776
646.287888	0.336692
646.493871	0.336752
646.699836	0.336929
646.905783	0.337272
647.111712	0.337517
647.317622	0.337822
647.523514	0.338291
647.729388	0.338386
647.935244	0.338386
648.141082	0.338768
648.346901	0.338970
648.552702	0.339193
648.758485	0.339521
648.964250	0.339864
649.169996	0.339697
649.375724	0.339552
649.581434	0.339885
649.787126	0.340284
649.992800	0.340329
650.198455	0.340575
650.404092	0.340586
650.609711	0.340805
650.815311	0.340987
651.020894	0.341470
651.226458	0.341908
651.432004	0.342094
651.637532	0.342432
651.843041	0.342835
652.048532	0.342820
652.254006	0.343125
652.459460	0.343234
652.664897	0.343283
652.870315	0.343480
653.075716	0.343806
653.281097	0.343826
653.486461	0.344217
653.691807	0.344458
653.897134	0.344852
654.102443	0.345060
654.307734	0.345258
654.513006	0.345692
654.718261	0.346129
654.923497	0.346517
655.128715	0.347127
655.333915	0.347175
655.539096	0.347439
655.744259	0.347715
655.949404	0.348087
656.154531	0.348027
656.359640	0.348042
656.564730	0.348117
656.769802	0.347859
656.974856	0.347940
657.179892	0.348219
657.384909	0.348346
657.589908	0.348643
657.794889	0.348588
657.999852	0.349082
658.204797	0.349406
658.409723	0.349654
658.614631	0.349968
658.819521	0.350266
659.024393	0.350288
659.229246	0.350595
659.434081	0.350794
659.638898	0.351160
659.843697	0.351272
660.048478	0.351504
660.253240	0.351967
660.457984	0.352651
660.662710	0.352757
660.867417	0.353083
661.072107	0.353428
661.276778	0.353785
661.481431	0.354060
661.686066	0.354247
661.890682	0.354432
662.095281	0.354234
662.299861	0.354103
662.504422	0.354289
662.708966	0.354328
662.913491	0.354114
663.117999	0.353930
663.322488	0.353993
663.526958	0.354316
663.731411	0.354769
663.935845	0.355203
664.140261	0.355549
664.344659	0.355970
664.549038	0.356580
664.753400	0.357295
664.957743	0.357979
665.162068	0.358483
665.366375	0.358744
665.570663	0.358891
665.774933	0.359355
665.979185	0.359351
666.183419	0.359558
666.387635	0.359854
666.591832	0.360189
666.796011	0.360357
667.000172	0.360360
667.204315	0.360674
667.408439	0.361053
667.612545	0.361042
667.816634	0.361262
668.020703	0.361407
668.224755	0.361532
668.428788	0.361503
668.632803	0.361700
668.836800	0.362055
669.040779	0.362137
669.244739	0.362313
669.448681	0.362695
669.652605	0.363294
669.856511	0.363743
670.060399	0.363769
670.264268	0.363987
670.468119	0.364148
670.671952	0.364406
670.875767	0.364641
671.079563	0.364786
671.283341	0.364818
671.487101	0.364969
671.690843	0.364842
671.894567	0.365222
672.098272	0.365321
672.301959	0.365456
672.505628	0.365515
672.709278	0.365724
672.912911	0.365988
673.116525	0.366237
673.320121	0.366182
673.523699	0.366431
673.727258	0.366569
673.930799	0.366987
674.134322	0.367520
674.337827	0.367961
674.541314	0.368160
674.744782	0.368465
674.948232	0.368871
675.151664	0.369449
675.355078	0.369612
675.558474	0.370115
675.761851	0.370469
675.965210	0.370505
676.168551	0.370623
676.371873	0.371076
676.575178	0.371194
676.778464	0.371385
676.981732	0.371394
677.184981	0.371980
677.388213	0.372024
677.591426	0.371984
677.794621	0.372267
677.997798	0.372669
678.200956	0.372920
678.404097	0.373299
678.607219	0.373466
678.810323	0.373778
679.013408	0.373799
679.216476	0.374039
679.419525	0.374586
679.622556	0.374577
679.825569	0.374815
680.028563	0.374738
680.231540	0.375091
680.434498	0.375262
680.637438	0.375398
680.840359	0.375327
681.043263	0.375564
681.246148	0.375149
681.449015	0.375746
681.651864	0.375746
681.854694	0.376324
682.057506	0.376239
682.260301	0.376540
682.463076	0.376907
682.665834	0.377320
682.868573	0.377574
683.071295	0.378391
683.273998	0.378405
683.476682	0.378694
683.679349	0.378723
683.881997	0.378945
684.084627	0.379163
684.287239	0.379454
684.489833	0.379760
684.692408	0.380057
684.894965	0.380132
685.097504	0.380417
685.300025	0.380406
685.502527	0.380497
685.705012	0.380867
685.907478	0.381207
686.109925	0.381189
686.312355	0.381471
686.514766	0.381561
686.717159	0.381858
686.919534	0.382157
687.121891	0.382727
687.324230	0.383250
687.526550	0.383625
687.728852	0.383603
687.931136	0.383944
688.133401	0.384182
688.335649	0.384502
688.537878	0.384644
688.740089	0.384592
688.942281	0.384582
689.144456	0.384700
689.346612	0.384639
689.548750	0.385061
689.750870	0.385253
689.952971	0.385136
690.155055	0.385215
690.357120	0.385373
690.559167	0.385645
690.761195	0.385804
690.963206	0.386172
691.165198	0.386444
691.367172	0.386451
691.569128	0.386490
691.771065	0.387041
691.972984	0.387331
692.174885	0.387577
692.376768	0.387751
692.578633	0.388034
692.780479	0.388258
692.982308	0.388350
693.184118	0.388587
693.385909	0.388858
