sample name	sample
index	480
start time	 03-11-2021  01:09:06 PM


Wavelength (nm)	Absorbance
494.344910	0.221827
494.563924	0.221827
494.782919	0.221827
495.001897	-0.003231
495.220856	0.014950
495.439797	-0.019193
495.658719	-0.036946
495.877624	-0.071969
496.096510	-0.057821
496.315378	-0.068228
496.534227	-0.104185
496.753059	-0.043937
496.971872	-0.029769
497.190667	0.131364
497.409444	0.163767
497.628203	0.171236
497.846943	0.174630
498.065665	0.174269
498.284369	0.175060
498.503055	0.176960
498.721723	0.176229
498.940372	0.177288
499.159003	0.178276
499.377616	0.177821
499.596210	0.177338
499.814787	0.177347
500.033345	0.177826
500.251885	0.178023
500.470406	0.178139
500.688910	0.176908
500.907395	0.176202
501.125862	0.175693
501.344311	0.176498
501.562742	0.176481
501.781154	0.176389
501.999548	0.175622
502.217924	0.175725
502.436282	0.176114
502.654621	0.177723
502.872942	0.178174
503.091245	0.178613
503.309530	0.178919
503.527797	0.179170
503.746045	0.178561
503.964275	0.177895
504.182487	0.177890
504.400681	0.177812
504.618856	0.178659
504.837013	0.179368
505.055152	0.178529
505.273273	0.177574
505.491376	0.178109
505.709460	0.179468
505.927526	0.180788
506.145574	0.180345
506.363604	0.181077
506.581615	0.180640
506.799608	0.179566
507.017583	0.181242
507.235540	0.181510
507.453478	0.182029
507.671399	0.182558
507.889301	0.182477
508.107185	0.183896
508.325050	0.183608
508.542898	0.183812
508.760727	0.184048
508.978538	0.183277
509.196330	0.183069
509.414105	0.182916
509.631861	0.181703
509.849599	0.181588
510.067319	0.181389
510.285021	0.181652
510.502704	0.181926
510.720369	0.181554
510.938016	0.182081
511.155645	0.181794
511.373255	0.181140
511.590848	0.181639
511.808422	0.182699
512.025977	0.183083
512.243515	0.183114
512.461034	0.183156
512.678536	0.184201
512.896018	0.184186
513.113483	0.184450
513.330930	0.184632
513.548358	0.185758
513.765768	0.185843
513.983160	0.186592
514.200533	0.186515
514.417889	0.186623
514.635226	0.187565
514.852545	0.188011
515.069845	0.188689
515.287128	0.189732
515.504392	0.188211
515.721638	0.188832
515.938866	0.187989
516.156075	0.188183
516.373267	0.188997
516.590440	0.188863
516.807594	0.189209
517.024731	0.189172
517.241850	0.189263
517.458950	0.190494
517.676032	0.190477
517.893095	0.190909
518.110141	0.190896
518.327168	0.190725
518.544177	0.190861
518.761168	0.190792
518.978141	0.191516
519.195095	0.191685
519.412031	0.192192
519.628949	0.192532
519.845849	0.193380
520.062731	0.194094
520.279594	0.194486
520.496439	0.193930
520.713266	0.194295
520.930074	0.194566
521.146865	0.193625
521.363637	0.193593
521.580391	0.193672
521.797127	0.193329
522.013844	0.193953
522.230543	0.193077
522.447224	0.193255
522.663887	0.193244
522.880532	0.193297
523.097158	0.195003
523.313766	0.195620
523.530356	0.195974
523.746928	0.196734
523.963481	0.196744
524.180017	0.196963
524.396534	0.197346
524.613032	0.197735
524.829513	0.198822
525.045975	0.198479
525.262420	0.198385
525.478845	0.198173
525.695253	0.198622
525.911643	0.199116
526.128014	0.200069
526.344367	0.200805
526.560702	0.201663
526.777018	0.201289
526.993316	0.201816
527.209597	0.201964
527.425858	0.203005
527.642102	0.202844
527.858328	0.203243
528.074535	0.203230
528.290724	0.203313
528.506894	0.203611
528.723047	0.203678
528.939181	0.204542
529.155297	0.205200
529.371395	0.205232
529.587475	0.205271
529.803536	0.205671
530.019579	0.206373
530.235604	0.206784
530.451611	0.206653
530.667600	0.207377
530.883570	0.206743
531.099522	0.207252
531.315456	0.207848
531.531372	0.207852
531.747269	0.207804
531.963148	0.208345
532.179009	0.208618
532.394852	0.208716
532.610676	0.209126
532.826482	0.209885
533.042271	0.209923
533.258040	0.210281
533.473792	0.211131
533.689525	0.211182
533.905240	0.211787
534.120937	0.211779
534.336616	0.212637
534.552277	0.212460
534.767919	0.212462
534.983543	0.212585
535.199149	0.212100
535.414736	0.212647
535.630306	0.213304
535.845857	0.213481
536.061390	0.214503
536.276904	0.214601
536.492401	0.215027
536.707879	0.215364
536.923339	0.215501
537.138781	0.216067
537.354204	0.216348
537.569610	0.216811
537.784997	0.217685
538.000366	0.217687
538.215716	0.217822
538.431049	0.218561
538.646363	0.219244
538.861659	0.220211
539.076937	0.220828
539.292196	0.221617
539.507438	0.221996
539.722661	0.221750
539.937866	0.222109
540.153052	0.222515
540.368221	0.222283
540.583371	0.222207
540.798503	0.222507
541.013617	0.222727
541.228712	0.222228
541.443789	0.222123
541.658848	0.221991
541.873889	0.222350
542.088912	0.223376
542.303916	0.223834
542.518902	0.224349
542.733870	0.224316
542.948820	0.224627
543.163752	0.225581
543.378665	0.225392
543.593560	0.225925
543.808437	0.225810
544.023295	0.225706
544.238136	0.226121
544.452958	0.226787
544.667762	0.227056
544.882548	0.227548
545.097315	0.227961
545.312064	0.228929
545.526795	0.229067
545.741508	0.229630
545.956203	0.229790
546.170879	0.229759
546.385537	0.229436
546.600177	0.230411
546.814799	0.230698
547.029402	0.230382
547.243988	0.230695
547.458555	0.231186
547.673103	0.231656
547.887634	0.231721
548.102146	0.232657
548.316640	0.233421
548.531116	0.233152
548.745574	0.233054
548.960013	0.233754
549.174435	0.233823
549.388838	0.233756
549.603222	0.233629
549.817589	0.233994
550.031937	0.233583
550.246267	0.233452
550.460579	0.233301
550.674873	0.234187
550.889148	0.234049
551.103405	0.234062
551.317644	0.234444
551.531865	0.234770
551.746068	0.235112
551.960252	0.235784
552.174418	0.235973
552.388566	0.236590
552.602696	0.236238
552.816807	0.236316
553.030900	0.236993
553.244975	0.237591
553.459032	0.238094
553.673070	0.238538
553.887091	0.238493
554.101093	0.238834
554.315077	0.239208
554.529042	0.239815
554.742990	0.240120
554.956919	0.240037
555.170830	0.240105
555.384722	0.240390
555.598597	0.240479
555.812453	0.240930
556.026291	0.241140
556.240111	0.241599
556.453913	0.241434
556.667696	0.241805
556.881461	0.242296
557.095208	0.242107
557.308937	0.242059
557.522647	0.242412
557.736339	0.242412
557.950013	0.242763
558.163669	0.243007
558.377307	0.243365
558.590926	0.243318
558.804527	0.243420
559.018110	0.244132
559.231675	0.244509
559.445221	0.244500
559.658749	0.244798
559.872259	0.244868
560.085751	0.244733
560.299225	0.244867
560.512680	0.245227
560.726117	0.245432
560.939536	0.245879
561.152937	0.245788
561.366319	0.246031
561.579683	0.246420
561.793029	0.247049
562.006357	0.247160
562.219667	0.247032
562.432958	0.247689
562.646231	0.248088
562.859486	0.247591
563.072723	0.247938
563.285941	0.248082
563.499141	0.248114
563.712323	0.247732
563.925487	0.247852
564.138632	0.248486
564.351760	0.248044
564.564869	0.248014
564.777960	0.248251
564.991032	0.248247
565.204087	0.248746
565.417123	0.248982
565.630141	0.249207
565.843140	0.249692
566.056122	0.249674
566.269085	0.250190
566.482030	0.250108
566.694957	0.250166
566.907866	0.250563
567.120756	0.250640
567.333628	0.250826
567.546482	0.251433
567.759318	0.251828
567.972135	0.252116
568.184935	0.252568
568.397716	0.253173
568.610478	0.253829
568.823223	0.254232
569.035949	0.254281
569.248657	0.254248
569.461347	0.254359
569.674019	0.254188
569.886672	0.254394
570.099308	0.254096
570.311925	0.254078
570.524523	0.254138
570.737104	0.254475
570.949666	0.254410
571.162210	0.255274
571.374736	0.255703
571.587244	0.256170
571.799733	0.256265
572.012205	0.256590
572.224658	0.256866
572.437092	0.257572
572.649509	0.257451
572.861907	0.257770
573.074287	0.257517
573.286649	0.257223
573.498993	0.257311
573.711318	0.257655
573.923625	0.257901
574.135914	0.257971
574.348185	0.257776
574.560438	0.257969
574.772672	0.258271
574.984888	0.258284
575.197086	0.258303
575.409266	0.258189
575.621427	0.258417
575.833570	0.258444
576.045695	0.258821
576.257802	0.258846
576.469890	0.259148
576.681961	0.259226
576.894013	0.259522
577.106046	0.260009
577.318062	0.260116
577.530059	0.260175
577.742039	0.260593
577.954000	0.260544
578.165942	0.260810
578.377867	0.260522
578.589773	0.260948
578.801661	0.261130
579.013531	0.261074
579.225382	0.261587
579.437216	0.262032
579.649031	0.262083
579.860828	0.262338
580.072606	0.261891
580.284367	0.262480
580.496109	0.262387
580.707833	0.262756
580.919539	0.263245
581.131227	0.263306
581.342896	0.263341
581.554547	0.263902
581.766180	0.264331
581.977795	0.265483
582.189391	0.265833
582.400969	0.266114
582.612529	0.266327
582.824071	0.266455
583.035595	0.266546
583.247100	0.266723
583.458587	0.266611
583.670056	0.266818
583.881506	0.267089
584.092939	0.266947
584.304353	0.267559
584.515749	0.268011
584.727127	0.268521
584.938486	0.269249
585.149828	0.269628
585.361151	0.269847
585.572456	0.269917
585.783742	0.269907
585.995011	0.270321
586.206261	0.270213
586.417493	0.269782
586.628706	0.269284
586.839902	0.268953
587.051079	0.269189
587.262238	0.269616
587.473379	0.269706
587.684502	0.269552
587.895606	0.269649
588.106692	0.269805
588.317760	0.270128
588.528810	0.271017
588.739841	0.271310
588.950855	0.271161
589.161850	0.271157
589.372827	0.271677
589.583785	0.272149
589.794726	0.272576
590.005648	0.272872
590.216552	0.273470
590.427437	0.273750
590.638305	0.274074
590.849154	0.274802
591.059985	0.275085
591.270798	0.275107
591.481592	0.275386
591.692369	0.275335
591.903127	0.275603
592.113867	0.275909
592.324588	0.275722
592.535292	0.275803
592.745977	0.275684
592.956644	0.275919
593.167293	0.275831
593.377923	0.275879
593.588536	0.276316
593.799130	0.275998
594.009706	0.276018
594.220263	0.276301
594.430803	0.276657
594.641324	0.277035
594.851827	0.277178
595.062312	0.277561
595.272778	0.277588
595.483227	0.277688
595.693657	0.277853
595.904069	0.277827
596.114462	0.277883
596.324838	0.278377
596.535195	0.278322
596.745534	0.278938
596.955855	0.279281
597.166157	0.279945
597.376441	0.280321
597.586707	0.280501
597.796955	0.280750
598.007185	0.281070
598.217396	0.280644
598.427589	0.280996
598.637764	0.280695
598.847921	0.280772
599.058060	0.280710
599.268180	0.280484
599.478282	0.281000
599.688366	0.281172
599.898431	0.281220
600.108479	0.281649
600.318508	0.281701
600.528519	0.282236
600.738511	0.282379
600.948486	0.282570
601.158442	0.282927
601.368380	0.283072
601.578300	0.283048
601.788202	0.283168
601.998085	0.283313
602.207950	0.283315
602.417797	0.283086
602.627626	0.283438
602.837436	0.283559
603.047228	0.283902
603.257002	0.284207
603.466758	0.284829
603.676496	0.285278
603.886215	0.285459
604.095916	0.285626
604.305599	0.285921
604.515264	0.285839
604.724910	0.286052
604.934538	0.286394
605.144148	0.286570
605.353740	0.286691
605.563314	0.286950
605.772869	0.286961
605.982406	0.287733
606.191925	0.287856
606.401425	0.288124
606.610908	0.288002
606.820372	0.288046
607.029818	0.288331
607.239246	0.288656
607.448655	0.288684
607.658047	0.289222
607.867420	0.289112
608.076775	0.289444
608.286111	0.289445
608.495430	0.290162
608.704730	0.290323
608.914012	0.290428
609.123275	0.290271
609.332521	0.290288
609.541748	0.290245
609.750957	0.290451
609.960148	0.290598
610.169321	0.291055
610.378475	0.290673
610.587611	0.290671
610.796729	0.290847
611.005829	0.291186
611.214910	0.291583
611.423974	0.291966
611.633019	0.292005
611.842045	0.292042
612.051054	0.292286
612.260044	0.292865
612.469017	0.293151
612.677970	0.293211
612.886906	0.293272
613.095824	0.292942
613.304723	0.292998
613.513604	0.292982
613.722467	0.293015
613.931311	0.293105
614.140138	0.293428
614.348946	0.293427
614.557736	0.293705
614.766507	0.293859
614.975261	0.294106
615.183996	0.294113
615.392713	0.294528
615.601412	0.294826
615.810092	0.295158
616.018754	0.294739
616.227399	0.294893
616.436024	0.295183
616.644632	0.295491
616.853222	0.295968
617.061793	0.296349
617.270346	0.296629
617.478880	0.296820
617.687397	0.296609
617.895895	0.296876
618.104375	0.297034
618.312837	0.297122
618.521281	0.297382
618.729706	0.297691
618.938113	0.297910
619.146502	0.298039
619.354873	0.298499
619.563226	0.299109
619.771560	0.299386
619.979876	0.299558
620.188174	0.299851
620.396453	0.299662
620.604715	0.299904
620.812958	0.299967
621.021183	0.300197
621.229390	0.300187
621.437578	0.300121
621.645748	0.300903
621.853900	0.301376
622.062034	0.301381
622.270150	0.301901
622.478247	0.302215
622.686326	0.302548
622.894387	0.302696
623.102430	0.303177
623.310454	0.303504
623.518461	0.303320
623.726449	0.303517
623.934418	0.303856
624.142370	0.303837
624.350303	0.303812
624.558218	0.303712
624.766115	0.303793
624.973994	0.303800
625.181855	0.303762
625.389697	0.303851
625.597521	0.303870
625.805327	0.303670
626.013114	0.303790
626.220883	0.303803
626.428634	0.303961
626.636367	0.304145
626.844082	0.304412
627.051778	0.304489
627.259457	0.304655
627.467117	0.304606
627.674758	0.305048
627.882382	0.305069
628.089987	0.305399
628.297574	0.305470
628.505143	0.305719
628.712694	0.305702
628.920226	0.306011
629.127740	0.306453
629.335236	0.306794
629.542714	0.306929
629.750174	0.307318
629.957615	0.307637
630.165038	0.308233
630.372443	0.308348
630.579829	0.308469
630.787198	0.308678
630.994548	0.308696
631.201880	0.308967
631.409194	0.309082
631.616489	0.309134
631.823766	0.309303
632.031025	0.309239
632.238266	0.309524
632.445489	0.309793
632.652693	0.310027
632.859879	0.309946
633.067047	0.310063
633.274197	0.309952
633.481329	0.310336
633.688442	0.310149
633.895537	0.310477
634.102614	0.310572
634.309672	0.310754
634.516713	0.310991
634.723735	0.311178
634.930739	0.311387
635.137724	0.311925
635.344692	0.312157
635.551641	0.312682
635.758572	0.312705
635.965485	0.313081
636.172379	0.313244
636.379256	0.313238
636.586114	0.313783
636.792954	0.314098
636.999775	0.314004
637.206579	0.314120
637.413364	0.314228
637.620131	0.314549
637.826880	0.314568
638.033610	0.314622
638.240323	0.314674
638.447017	0.314728
638.653692	0.314635
638.860350	0.314767
639.066990	0.314989
639.273611	0.315060
639.480214	0.315210
639.686798	0.315581
639.893365	0.315824
640.099913	0.316408
640.306443	0.316713
640.512955	0.317158
640.719449	0.317692
640.925924	0.317978
641.132381	0.318428
641.338820	0.318653
641.545241	0.318620
641.751644	0.318769
641.958028	0.318771
642.164394	0.318762
642.370742	0.319031
642.577071	0.319197
642.783383	0.319217
642.989676	0.319183
643.195951	0.319277
643.402207	0.319469
643.608446	0.319793
643.814666	0.320223
644.020868	0.320465
644.227052	0.320484
644.433218	0.320894
644.639365	0.320991
644.845494	0.321224
645.051605	0.321531
645.257698	0.321657
645.463772	0.321473
645.669828	0.321265
645.875866	0.321320
646.081886	0.321615
646.287888	0.321784
646.493871	0.322181
646.699836	0.322229
646.905783	0.322385
647.111712	0.322703
647.317622	0.323020
647.523514	0.323430
647.729388	0.323806
647.935244	0.323685
648.141082	0.323729
648.346901	0.323839
648.552702	0.324266
648.758485	0.324441
648.964250	0.324631
649.169996	0.325076
649.375724	0.325426
649.581434	0.325526
649.787126	0.326058
649.992800	0.326259
650.198455	0.326573
650.404092	0.326601
650.609711	0.327093
650.815311	0.327336
651.020894	0.327573
651.226458	0.327662
651.432004	0.327930
651.637532	0.327962
651.843041	0.327959
652.048532	0.328092
652.254006	0.328544
652.459460	0.328516
652.664897	0.328585
652.870315	0.328646
653.075716	0.329046
653.281097	0.329226
653.486461	0.329706
653.691807	0.330115
653.897134	0.330263
654.102443	0.330205
654.307734	0.330204
654.513006	0.330502
654.718261	0.330924
654.923497	0.330953
655.128715	0.331179
655.333915	0.331182
655.539096	0.331206
655.744259	0.331544
655.949404	0.331887
656.154531	0.332323
656.359640	0.332452
656.564730	0.332382
656.769802	0.332324
656.974856	0.332519
657.179892	0.332907
657.384909	0.333340
657.589908	0.333407
657.794889	0.333606
657.999852	0.333787
658.204797	0.333944
658.409723	0.334370
658.614631	0.334853
658.819521	0.335174
659.024393	0.335202
659.229246	0.335779
659.434081	0.336189
659.638898	0.336479
659.843697	0.336727
660.048478	0.337448
660.253240	0.337244
660.457984	0.337368
660.662710	0.337275
660.867417	0.337631
661.072107	0.337630
661.276778	0.337820
661.481431	0.338076
661.686066	0.338131
661.890682	0.338109
662.095281	0.338656
662.299861	0.338808
662.504422	0.339079
662.708966	0.339232
662.913491	0.339384
663.117999	0.339631
663.322488	0.339892
663.526958	0.340216
663.731411	0.340301
663.935845	0.340459
664.140261	0.340821
664.344659	0.341163
664.549038	0.341429
664.753400	0.341424
664.957743	0.341763
665.162068	0.342040
665.366375	0.342203
665.570663	0.342265
665.774933	0.342674
665.979185	0.342774
666.183419	0.343025
666.387635	0.343236
666.591832	0.343555
666.796011	0.343650
667.000172	0.343415
667.204315	0.343741
667.408439	0.343990
667.612545	0.344239
667.816634	0.344680
668.020703	0.345087
668.224755	0.345346
668.428788	0.345565
668.632803	0.345675
668.836800	0.346238
669.040779	0.346434
669.244739	0.346981
669.448681	0.347032
669.652605	0.347056
669.856511	0.347010
670.060399	0.347281
670.264268	0.347345
670.468119	0.347605
670.671952	0.347711
670.875767	0.347925
671.079563	0.347949
671.283341	0.348310
671.487101	0.348810
671.690843	0.349063
671.894567	0.349126
672.098272	0.349794
672.301959	0.349891
672.505628	0.350283
672.709278	0.350599
672.912911	0.350982
673.116525	0.350971
673.320121	0.351004
673.523699	0.351331
673.727258	0.351831
673.930799	0.352213
674.134322	0.352567
674.337827	0.352690
674.541314	0.352987
674.744782	0.352877
674.948232	0.353458
675.151664	0.353697
675.355078	0.353963
675.558474	0.354093
675.761851	0.353881
675.965210	0.354034
676.168551	0.354411
676.371873	0.354526
676.575178	0.354911
676.778464	0.355089
676.981732	0.355449
677.184981	0.355819
677.388213	0.355810
677.591426	0.355991
677.794621	0.356372
677.997798	0.356619
678.200956	0.356795
678.404097	0.356992
678.607219	0.357384
678.810323	0.357568
679.013408	0.357722
679.216476	0.358110
679.419525	0.358543
679.622556	0.358589
679.825569	0.358770
680.028563	0.359068
680.231540	0.359495
680.434498	0.359206
680.637438	0.359589
680.840359	0.359675
681.043263	0.360037
681.246148	0.360260
681.449015	0.360723
681.651864	0.360677
681.854694	0.361017
682.057506	0.361270
682.260301	0.361704
682.463076	0.361659
682.665834	0.361559
682.868573	0.361671
683.071295	0.361998
683.273998	0.362264
683.476682	0.362580
683.679349	0.362704
683.881997	0.362779
684.084627	0.363264
684.287239	0.363574
684.489833	0.364057
684.692408	0.364323
684.894965	0.364517
685.097504	0.364370
685.300025	0.364904
685.502527	0.365221
685.705012	0.365658
685.907478	0.365685
686.109925	0.365714
686.312355	0.366152
686.514766	0.366183
686.717159	0.366404
686.919534	0.366777
687.121891	0.366769
687.324230	0.366924
687.526550	0.366790
687.728852	0.367055
687.931136	0.367498
688.133401	0.367677
688.335649	0.367892
688.537878	0.367924
688.740089	0.368088
688.942281	0.368222
689.144456	0.368450
689.346612	0.368782
689.548750	0.368734
689.750870	0.369041
689.952971	0.368720
690.155055	0.369003
690.357120	0.368895
690.559167	0.369113
690.761195	0.369158
690.963206	0.369226
691.165198	0.369261
691.367172	0.369484
691.569128	0.369499
691.771065	0.370065
691.972984	0.370199
692.174885	0.370499
692.376768	0.370822
692.578633	0.371222
692.780479	0.371428
692.982308	0.371488
693.184118	0.371750
693.385909	0.371898
