sample name	sample
index	640
start time	 03-19-2021  03:31:17 PM
880	0.324091
Peak Time (s)	92.037
Peak Height 	0.3241
calc peak height	90,93
Baseline Time (s)	10.536
Baseline Value 	-0.001505
subtract baseline	10,4
Abs	0.202992
Peak Time (s)	91.036
Peak Height 	0.203
calc peak height	90,93
Baseline Time (s)	10.536
Baseline Value 	-8.6639E-5
subtract baseline	10,3
PK_550	0.091837
Peak Time (s)	90.541
Peak Height 	0.09184
calc peak height	90,93
Baseline Time (s)	9.536
Baseline Value 	3.3841E-4
subtract baseline	10,2
PK_880	0.199471
Peak Time (s)	92.539
Peak Height 	0.1995
calc peak height	90,93
Baseline Time (s)	9.536
Baseline Value 	0.002193
subtract baseline	10,1


Time (s)	A880-A510	A880-A775	A880-A975	A880	I510	I775	I975	I880	
0.035500	-0.000303	0.000525	-0.001509	0.001472	7381.022222	45401.583854	4045.695136	24121.773427
0.535500	-0.003677	0.000343	-0.006623	0.006780	7293.676676	44869.140215	4019.669449	23864.884172
1.036500	-0.004752	-0.000098	-0.003428	0.002961	7321.098910	45195.984232	4037.117326	24049.426897
1.539500	-0.003108	-0.000696	0.001501	-0.000033	7367.834958	45429.311696	4057.167959	24195.218683
2.040000	-0.001942	-0.000662	0.001136	-0.000239	7381.752627	45452.719921	4056.759838	24205.255532
2.537000	-0.002470	-0.000134	-0.002920	0.004195	7331.614264	45072.848637	4035.298743	23989.613889
3.037500	0.000108	0.000085	0.006609	-0.001818	7418.797158	45680.717182	4074.910071	24282.627326
3.535000	-0.002769	-0.000653	-0.000623	-0.000079	7371.734718	45438.058634	4051.871713	24197.455325
4.035500	-0.002389	-0.000402	-0.002817	-0.000133	7376.138444	45467.858952	4046.446913	24200.090087
4.535500	-0.001375	-0.000063	0.002216	0.002692	7357.795012	45225.464937	4052.044969	24062.446760
5.035500	-0.000339	0.000519	-0.000519	0.000501	7390.534930	45495.875937	4050.662531	24169.119344
5.536000	-0.000279	-0.000604	0.000256	0.000217	7394.039768	45413.971669	4053.355281	24183.010577
6.036500	-0.000749	-0.000439	0.001403	0.000259	7388.816010	45425.827705	4056.169147	24180.923282
6.536500	-0.001171	-0.000751	0.003045	-0.000269	7389.908431	45447.049323	4061.722946	24206.763957
7.037000	-0.000444	-0.000103	0.001012	0.000322	7391.292609	45452.524399	4055.013536	24177.862035
7.537000	-0.001123	-0.000321	0.001520	-0.000221	7389.895041	45484.322467	4057.693737	24204.377449
8.034500	-0.001422	-0.000629	0.001214	-0.000400	7388.683151	45471.746729	4057.372700	24213.169807
8.534500	-0.000418	0.000096	0.004482	-0.000118	7396.037797	45515.027460	4065.022998	24199.350588
9.035500	-0.002931	-0.000131	-0.000358	-0.000527	7374.631387	45532.909285	4053.684443	24219.356579
9.535500	0.000000	0.000000	-0.000589	0.000180	7397.257988	45476.494286	4051.300852	24184.785663
10.036000	0.000859	-0.000520	-0.000202	-0.000222	7410.145589	45464.954860	4053.307720	24204.450694
10.536000	0.000682	0.000218	0.000000	0.000000	7406.056941	45515.437491	4053.255734	24193.594296
11.036500	-0.002214	0.000082	0.002900	0.000172	7374.823141	45485.326771	4060.220374	24185.190579
11.542500	0.001911	-0.000365	0.000041	0.000074	7417.876234	45451.208850	4053.169407	24189.957218
12.036500	-0.003157	-0.000351	-0.001163	0.003371	7332.995576	45131.693756	4041.778470	24029.536990
12.537000	-0.001823	0.000101	-0.002347	0.000497	7375.484523	45455.401941	4046.040979	24169.311438
13.035000	0.000818	0.000453	0.001521	0.000215	7405.256672	45517.406549	4056.585979	24183.110898
13.535500	0.000153	0.000148	0.006206	0.000336	7397.236248	45475.747741	4068.295163	24177.201708
14.035500	-0.002124	-0.000100	0.000613	0.003815	7338.904086	45112.840550	4045.135930	24007.980729
14.536000	-0.001017	-0.000117	0.003252	0.002021	7368.208338	45285.596253	4056.394545	24095.091580
15.041500	-0.001114	0.001114	0.003587	0.001168	7375.875739	45488.782838	4059.428919	24136.584407
15.536500	0.002191	0.000129	0.007540	0.000502	7416.364384	45457.726426	4071.313168	24169.101534
16.036500	-0.001584	-0.000125	-0.006427	0.003449	7348.043316	45145.964494	4028.407210	24025.734679
16.536500	-0.000543	-0.000284	0.000210	0.000739	7386.038020	45394.185955	4051.911080	24157.538906
17.037000	0.001182	0.000352	0.008662	-0.002104	7432.761172	45735.124269	4080.995208	24296.674352
17.534500	-0.001619	-0.000000	0.002235	0.001474	7367.645378	45350.153498	4055.193850	24121.684869
18.035000	-0.001552	-0.000335	-0.002114	0.002723	7355.696092	45196.054308	4041.016486	24060.966610
18.535500	-0.003034	-0.000380	0.000045	0.001883	7349.208466	45273.378343	4048.587446	24101.779557
19.035500	0.000517	0.000676	0.003836	0.002723	7376.650266	45294.342019	4056.091083	24060.960623
19.536000	-0.002021	0.000668	0.002719	0.002750	7350.687854	45290.971353	4053.177446	24059.666135
20.036500	-0.000715	0.000072	0.008676	0.003210	7359.232452	45188.305924	4067.254437	24037.343331
20.536000	-0.000862	-0.000571	0.001551	0.002091	7369.074962	45234.523267	4051.882006	24091.674840
21.039500	-0.000057	0.000305	0.004749	0.002875	7369.289493	45243.524851	4058.035671	24053.592797
21.537500	0.000575	0.000940	0.001508	0.003632	7368.014311	45231.647299	4047.863314	24016.850151
22.034500	-0.001596	-0.000015	0.000124	0.002217	7360.356495	45276.351082	4047.942652	24085.532801
22.535000	-0.000752	-0.000916	-0.000390	0.001473	7376.450310	45261.048811	4048.523962	24121.725691
23.035000	-0.000972	0.000159	-0.000508	0.002866	7360.106933	45230.081261	4044.702419	24053.993712
23.535500	-0.001755	0.000087	-0.001605	0.002527	7355.618125	45256.127377	4042.789986	24070.482137
24.035000	-0.001314	0.000136	0.002355	0.003941	7345.802790	45123.535250	4049.226146	24001.876917
24.536000	-0.000270	0.000330	0.003139	0.003456	7361.236262	45189.414654	4052.448133	24025.384509
25.036500	-0.001264	0.000493	0.004644	0.003319	7352.581482	45218.631044	4056.633988	24032.055942
25.537000	-0.001498	0.000101	0.005330	0.003103	7352.403957	45201.546760	4058.938309	24042.514069
26.037000	-0.000917	0.000440	-0.000961	0.003365	7355.615210	45208.930376	4042.301632	24029.794539
26.534000	0.000396	0.001124	0.006416	0.004143	7361.028499	45199.813435	4059.054760	23992.116688
27.034500	0.001915	0.000263	0.006886	0.001307	7405.310972	45392.195401	4067.544523	24129.846739
27.535000	0.000505	-0.000016	0.005489	0.001104	7392.989394	45384.735979	4064.470023	24139.715408
28.035000	-0.000170	0.000510	0.004019	0.002138	7375.610910	45335.114516	4058.051215	24089.370818
28.536000	0.000749	0.000842	0.005271	0.003638	7369.718161	45221.498570	4057.418746	24016.557737
29.036000	0.001188	0.000567	0.003395	0.002615	7384.558336	45294.244917	4055.242461	24066.199618
29.536000	0.000799	0.000835	0.006280	0.002722	7379.516450	45309.874912	4062.346016	24060.981290
30.036500	0.002301	0.000006	0.005047	0.002199	7400.132225	45280.120408	4060.526228	24086.399482
30.539000	-0.000120	0.001116	0.005209	0.006215	7334.935401	44998.271716	4050.699352	23892.083918
31.037000	0.000975	0.000444	0.004258	0.004951	7358.716480	45055.635739	4051.495299	23953.065055
31.539500	0.001446	0.001296	0.005391	0.003214	7381.094408	45306.990926	4058.810807	24037.136526
32.035000	-0.001383	0.000232	0.000068	0.006061	7323.792610	44927.758355	4038.109751	23899.485050
32.535000	0.001157	0.000464	0.002640	0.003365	7376.619089	45211.279124	4051.411451	24029.793096
33.038000	0.002816	0.000480	0.004555	0.002577	7401.543825	45289.545940	4058.301555	24068.068920
33.536000	0.002021	0.000674	0.007992	0.002206	7397.218313	45344.581247	4068.079234	24086.090585
34.036500	-0.001026	0.001432	0.001387	0.006362	7324.355471	45014.589753	4040.665841	23884.981432
34.536000	-0.000712	-0.000022	0.004318	0.004030	7350.974423	45099.638936	4053.988645	23997.587034
35.039000	-0.001443	0.000728	0.005876	0.004378	7340.097547	45138.585547	4057.073438	23980.732254
35.539500	-0.001594	0.000655	0.000734	0.004450	7337.848030	45124.463894	4043.838614	23977.249426
36.037000	0.000178	0.001276	0.005500	0.004872	7351.460503	45143.865120	4054.855599	23956.883641
36.537000	-0.001020	0.000955	0.005206	0.004538	7342.746730	45145.103031	4054.955456	23973.000237
37.035000	0.000641	0.000611	0.001818	0.004722	7357.660819	45093.962167	4045.890633	23964.135024
37.535500	-0.000660	0.000502	0.001502	0.004596	7345.792859	45095.515078	4045.409784	23970.190046
38.035500	-0.001527	0.000141	0.002968	0.005713	7325.839553	44952.592597	4046.291766	23916.267211
38.536000	0.000345	0.000439	0.002327	0.004663	7355.254281	45082.985923	4047.327622	23966.965675
39.036000	0.001236	0.000528	0.004528	0.004506	7365.856990	45106.812730	4053.313056	23974.568372
39.536500	0.000514	0.001280	0.004249	0.005354	7349.983141	45097.449912	4050.447428	23933.566670
40.037000	-0.000779	0.000883	0.005960	0.006392	7326.529196	44958.673189	4052.158047	23883.563344
40.536500	0.000662	0.001094	0.008300	0.004951	7355.550782	45118.490237	4061.810100	23953.040508
41.037000	-0.000669	0.000642	0.004185	0.005070	7340.919309	45063.221761	4051.004156	23947.286445
41.535000	0.001323	0.001530	0.002642	0.005318	7358.525961	45125.278555	4046.466451	23935.336103
42.035000	-0.000937	-0.000060	0.001263	0.005532	7333.578547	44950.637694	4042.444833	23924.989869
42.535500	0.000199	0.000495	0.004710	0.004453	7355.906671	45108.793689	4053.910735	23977.130638
43.035500	0.000017	0.000423	0.001290	0.004863	7349.927655	45062.052515	4044.200292	23957.304888
43.536000	0.001856	0.000851	0.004639	0.005204	7365.072976	45070.481158	4051.820020	23940.839444
44.036500	0.000797	0.001521	0.000581	0.006181	7344.496974	45040.724877	4039.095722	23893.686468
44.539000	0.003402	0.001532	0.003980	0.003606	7397.018357	45291.800112	4054.209842	24018.136580
45.037000	0.003622	0.002028	0.006207	0.003524	7400.093539	45348.036673	4060.103991	24022.101389
45.537000	0.004302	0.001234	0.004448	0.003084	7411.537426	45313.519305	4056.730006	24043.415469
46.035000	-0.000240	0.001501	0.003475	0.006866	7327.182128	44972.512327	4044.657559	23860.714941
46.535000	0.000485	0.001070	0.003748	0.003319	7370.267287	45274.634821	4054.345986	24032.013530
47.035000	0.003362	0.001003	0.005466	0.003372	7398.999142	45263.058023	4058.597580	24029.477639
47.535500	-0.000576	0.000961	0.001529	0.005130	7341.255928	45088.226622	4044.127719	23944.383305
48.036000	0.000699	0.001289	0.001757	0.007475	7330.494965	44893.360061	4038.799696	23831.472778
48.536000	0.001837	0.000781	0.008284	0.003788	7379.233241	45200.972537	4064.754997	24009.290621
49.036500	0.002001	0.001326	0.009179	0.003370	7385.151879	45294.696385	4068.139568	24029.582137
49.536500	0.003078	0.001992	0.004152	0.004206	7387.601550	45278.156771	4053.119590	23989.070242
50.037000	-0.000693	0.000394	0.003812	0.005887	7332.462558	44960.264295	4047.988183	23907.879289
50.534500	0.001453	0.001439	0.006253	0.004061	7372.571302	45238.485459	4058.847472	23996.091510
51.034500	0.001774	0.001659	0.009353	0.007716	7338.882890	44905.749249	4057.429643	23819.893454
51.535000	-0.010903	-0.001817	0.013481	0.071027	6637.254214	38934.398191	3916.100084	20991.926667
52.035000	-0.045472	-0.015995	0.015250	0.038006	6624.197092	40527.217684	3996.837708	22415.429537
52.535500	-0.023880	-0.013938	0.027905	-0.040066	7567.369954	48128.354364	4240.497533	26244.513581
53.036000	-0.014747	-0.010217	0.035528	-0.026715	7522.908869	47138.850723	4223.561748	25539.938645
53.536500	-0.008560	-0.000280	0.033597	0.019016	7126.483909	43648.076567	4090.990916	23284.472263
54.039500	0.016026	0.015066	0.049181	0.032023	7238.847277	43867.468451	4097.794625	22685.158919
54.537000	0.076101	0.036827	0.084036	0.026876	7930.920407	46478.758090	4208.722463	22920.159523
55.037000	0.126755	0.054470	0.116343	0.041800	8356.508904	46751.679631	4260.202479	22246.314355
55.534500	0.143391	0.065992	0.132704	0.078641	8111.546690	44274.715041	4199.761921	20678.760468
56.037500	0.144079	0.071296	0.146780	0.126697	7580.043173	40406.462294	4105.562958	18824.033297
56.535500	0.146779	0.076327	0.156812	0.174942	7120.867650	36864.937731	4008.069572	17157.428114
57.046500	0.152533	0.082679	0.162232	0.188665	7045.352365	36295.261415	3987.995045	16716.209766
57.538500	0.160391	0.087336	0.176418	0.222781	6806.123410	34112.580794	3941.352219	15677.901548
58.036500	0.158530	0.088829	0.170722	0.247073	6581.803356	32522.055738	3875.080325	14986.736766
58.536500	0.160835	0.091318	0.175568	0.265526	6449.895733	31457.112486	3846.484415	14486.950833
59.037000	0.162346	0.091711	0.181108	0.277642	6365.897462	30699.565662	3832.983621	14170.160371
59.537000	0.162372	0.092030	0.178488	0.284174	6315.376332	30306.391762	3814.531131	14003.014683
60.037000	0.160199	0.092502	0.182218	0.293090	6230.985065	29780.860167	3804.246833	13778.867742
60.534000	0.161920	0.094115	0.184625	0.299906	6192.924153	29462.076016	3795.597344	13610.588017
61.038500	0.163105	0.095100	0.186664	0.304010	6171.328164	29272.835338	3791.578360	13510.551222
61.538500	0.168674	0.096134	0.186306	0.308547	6178.943044	29061.829214	3782.123524	13401.021339
62.035500	0.173499	0.098315	0.188608	0.305781	6235.563993	29360.241764	3791.915026	13467.656937
62.536000	0.184155	0.100011	0.184881	0.302093	6345.295472	29688.956638	3791.838993	13557.169426
63.036000	0.182687	0.101054	0.187955	0.302492	6330.812817	29728.545551	3797.052442	13547.451066
63.539000	0.182065	0.099853	0.191386	0.299284	6350.888805	29852.270036	3810.129794	13625.847800
64.037000	0.180388	0.098819	0.182481	0.302009	6316.778840	29620.962881	3787.352448	13559.215991
64.537000	0.182568	0.099031	0.189840	0.297344	6369.974450	29921.477681	3810.913347	13673.550051
65.036500	0.180929	0.099141	0.191357	0.296024	6367.472010	30010.179752	3816.566849	13706.106466
65.535000	0.184918	0.098866	0.185649	0.295470	6403.229105	30027.530713	3806.322297	13719.820674
66.035500	0.183970	0.100267	0.182548	0.298535	6371.627261	29924.218844	3794.222721	13644.234613
66.540500	0.184997	0.099748	0.192565	0.295088	6406.875547	30106.214115	3820.864284	13729.264728
67.036000	0.186966	0.100992	0.193533	0.295526	6419.019651	30156.584869	3821.932587	13718.433237
67.536000	0.184757	0.100606	0.185508	0.294826	6407.048576	30176.192236	3807.316375	13735.757815
68.199000	0.185493	0.099776	0.190498	0.295354	6408.694470	30091.410115	3816.188714	13722.675476
68.643500	0.188397	0.100546	0.193709	0.295563	6430.111008	30126.419986	3822.211261	13717.506273
69.248500	0.188476	0.100703	0.194370	0.295891	6428.132546	30115.723162	3822.882271	13709.397315
69.549000	0.187483	0.101046	0.193395	0.296564	6414.878778	30095.139213	3819.567794	13692.775934
70.037500	0.185523	0.099845	0.195058	0.301248	6362.544851	29730.659776	3813.526828	13577.774024
70.535000	0.188362	0.101424	0.197579	0.297303	6415.994964	30072.648353	3826.509970	13674.555194
71.038000	0.190151	0.101501	0.194083	0.297710	6426.980686	30052.088867	3818.648854	13664.518734
71.538500	0.187162	0.099623	0.192464	0.296721	6411.087717	29996.815173	3817.388272	13688.898392
72.036000	0.189682	0.099714	0.193303	0.298014	6420.830125	29922.183924	3816.477819	13657.032748
72.536000	0.189346	0.100687	0.195293	0.298964	6410.624117	29923.672911	3818.561770	13633.707480
73.039000	0.190785	0.100659	0.190944	0.299923	6414.429457	29862.578307	3807.986714	13610.188035
73.537000	0.190080	0.099950	0.196687	0.299999	6408.236898	29814.046037	3819.280565	13608.314524
74.076000	0.187325	0.098645	0.195251	0.304344	6352.447938	29467.669471	3807.760559	13502.432159
74.534500	0.190780	0.098096	0.192453	0.300245	6411.839614	29684.802860	3810.341058	13602.304356
75.034500	0.188672	0.097677	0.192176	0.301151	6388.017082	29603.544226	3807.995803	13580.152229
75.535000	0.191293	0.100409	0.194969	0.303769	6388.042182	29610.535463	3808.341937	13516.390413
76.035500	0.186092	0.097354	0.195424	0.306456	6326.477126	29261.193280	3803.930220	13451.352578
76.535500	0.192824	0.099026	0.197013	0.304646	6393.198892	29472.520464	3810.656174	13495.127468
77.036000	0.192725	0.098859	0.197640	0.304682	6392.127174	29460.119923	3811.829516	13494.241923
77.539000	0.194135	0.098316	0.193737	0.306183	6391.409516	29335.949591	3801.149801	13457.941464
78.037000	0.188877	0.098271	0.189670	0.310541	6316.440392	29070.425253	3784.760295	13353.250563
78.536500	0.193391	0.098515	0.197662	0.307066	6378.612480	29294.561269	3807.146579	13436.660623
79.034500	0.192967	0.097810	0.199656	0.306628	6378.715497	29278.320155	3811.970170	13447.200998
79.535000	0.195844	0.097787	0.195309	0.307588	6393.812447	29218.995480	3801.477447	13424.084276
80.035000	0.191815	0.096418	0.190743	0.312799	6321.689546	28824.947465	3782.480176	13299.422182
80.535500	0.193682	0.096999	0.199432	0.308708	6368.018073	29104.106190	3807.399553	13397.169995
81.038500	0.194242	0.096209	0.195076	0.308437	6374.533862	29072.988272	3799.354732	13403.675501
81.536000	0.194542	0.096786	0.195384	0.309183	6371.037473	29062.857596	3798.497761	13385.780268
82.036000	0.191310	0.096295	0.199752	0.315031	6300.616989	28685.367086	3795.601786	13246.479103
82.536000	0.193384	0.096109	0.196471	0.310943	6348.241154	28917.061438	3797.178292	13343.653038
83.036000	0.195779	0.096820	0.201528	0.311472	6362.796884	28927.904802	3806.078034	13331.031355
83.537500	0.194121	0.094834	0.196303	0.310124	6360.379279	28889.857959	3798.453436	13363.234445
84.037500	0.193811	0.094729	0.199138	0.316644	6307.448103	28498.168762	3791.268512	13208.413664
84.539500	0.196417	0.095468	0.196955	0.312690	6358.264004	28775.014061	3794.714020	13302.018442
85.035000	0.194598	0.094260	0.195904	0.312232	6347.662433	28730.572250	3793.559527	13312.922820
85.535000	0.195375	0.094331	0.201203	0.313193	6346.229439	28677.962522	3802.046948	13290.068337
86.035500	0.191658	0.093888	0.196918	0.318881	6273.855346	28318.164630	3782.658993	13155.811910
86.538500	0.195806	0.093560	0.200209	0.313732	6345.388606	28600.631107	3799.036019	13277.269093
87.041500	0.196769	0.094825	0.203600	0.315208	6341.398231	28588.210058	3802.798053	13242.303372
87.536500	0.194825	0.093327	0.196450	0.314658	6330.590577	28532.394752	3789.905078	13255.310206
88.037000	0.192271	0.092972	0.199377	0.321483	6258.746735	28113.983061	3782.383779	13094.978415
88.537000	0.194813	0.092410	0.195915	0.315409	6324.691850	28434.627228	3787.417292	13237.558814
89.034500	0.196773	0.093110	0.198572	0.316864	6328.594970	28390.420820	3789.743923	13203.215339
89.535000	0.198686	0.092222	0.200137	0.317076	6341.779566	28326.250827	3792.369126	13198.226919
90.035500	0.194282	0.090883	0.193331	0.322002	6270.072487	27963.715289	3769.867148	13082.894093
90.541000	0.198839	0.091837	0.197809	0.317761	6337.650551	28263.941933	3786.532005	13182.100212
91.036000	0.197746	0.090700	0.202992	0.317728	6329.433431	28199.887389	3796.663479	13182.884535
91.536500	0.195937	0.090688	0.200821	0.318365	6310.561132	28162.282951	3791.195181	13167.927272
92.036500	0.194595	0.089749	0.197798	0.324091	6256.595195	27779.253166	3774.379686	13034.386736
92.539000	0.199471	0.090782	0.199614	0.319927	6325.764112	28077.369303	3785.834624	13131.307270
93.037000	0.197278	0.090401	0.197771	0.320431	6304.982621	28026.333616	3781.320433	13119.529560
93.539500	0.199760	0.090654	0.197848	0.321439	6316.326209	27982.939890	3779.535882	13096.009756
94.034500	0.194766	0.088849	0.200581	0.326500	6239.695232	27591.323716	3775.092990	12978.736368
94.660500	0.200436	0.089088	0.203831	0.321749	6319.147728	27875.265758	3790.466694	13088.778553
95.035000	0.199211	0.088820	0.202681	0.322384	6304.827133	27823.690326	3787.014352	13074.016698
95.535500	0.196542	0.088352	0.200462	0.322203	6285.766241	27807.321239	3783.086342	13078.227775
96.036000	0.196964	0.087776	0.196838	0.327793	6246.519823	27457.807540	3765.556717	12948.988463
96.596500	0.199046	0.087926	0.203536	0.323737	6293.181165	27695.656643	3786.051758	13042.583946
97.036500	0.199676	0.086823	0.202316	0.323436	6300.326023	27650.134355	3784.282234	13049.580070
