sample name	sample
index	523
start time	 03-11-2021  04:01:14 PM
880	0.030848
Peak Time (s)	92.537
Peak Height 	0.03085
calc peak height	90,93
Baseline Time (s)	10.039
Baseline Value 	-0.005042
subtract baseline	10,4
Abs	0.033246
Peak Time (s)	91.536
Peak Height 	0.03325
calc peak height	90,93
Baseline Time (s)	8.536
Baseline Value 	0.00409
subtract baseline	10,3
PK_550	0.023467
Peak Time (s)	91.038
Peak Height 	0.02347
calc peak height	90,93
Baseline Time (s)	9.536
Baseline Value 	4.1974E-4
subtract baseline	10,2
PK_880	0.033418
Peak Time (s)	90.535
Peak Height 	0.03342
calc peak height	90,93
Baseline Time (s)	11.037
Baseline Value 	0.002664
subtract baseline	10,1


Time (s)	A880-A510	A880-A775	A880-A975	A880	I510	I775	I975	I880	
0.035500	-0.002779	-0.000091	0.002606	0.001536	7006.742081	45161.898794	3992.353107	24016.072089
0.536500	-0.002504	-0.000511	-0.007112	0.003859	6987.482617	44896.101463	3962.099184	23903.423624
1.039000	-0.000877	0.000225	-0.005221	0.005198	6990.180813	44837.847596	3963.467265	23838.774460
1.537000	0.000820	0.000001	-0.004148	0.001576	7040.428912	45167.013865	3975.179308	24014.120515
2.037000	0.000484	-0.000566	-0.005525	0.000640	7046.130301	45202.822319	3974.071929	24059.645109
2.536500	-0.000838	0.000133	0.000008	0.001334	7026.988281	45203.341078	3986.263839	24025.868323
3.037500	-0.000430	0.000387	-0.001862	0.000757	7036.327368	45284.251077	3982.991364	24053.947420
3.535000	-0.002152	-0.000142	0.002662	0.000517	7022.275357	45256.088595	3995.090561	24065.630285
4.035500	0.000680	-0.000179	-0.000781	0.000788	7046.584266	45226.114728	3985.649032	24052.447145
4.535000	-0.000582	-0.000150	0.002384	0.000395	7038.326879	45267.258145	3994.694317	24071.603364
5.036000	0.000572	0.000347	-0.000814	0.001245	7041.210603	45232.817059	3984.409125	24030.212478
5.538500	0.000698	0.000175	0.000230	0.000468	7049.796162	45291.793447	3989.023912	24068.018986
6.036500	0.000453	0.000087	-0.000463	0.000627	7045.956186	45267.671197	3986.862053	24060.279933
6.536500	-0.000787	0.000145	-0.004714	0.000884	7031.736285	45248.357826	3975.494113	24047.796262
7.037000	-0.000067	0.000325	-0.001825	0.000375	7043.405771	45315.526577	3984.050665	24072.567898
7.534500	-0.000837	0.000209	-0.002147	-0.000027	7039.914570	45343.456404	3984.255027	24092.189219
8.037500	0.000950	0.000168	-0.002316	0.000524	7051.666518	45285.638349	3982.434481	24065.286821
8.535500	-0.001067	-0.000432	0.000000	-0.000519	7042.401149	45328.848144	3990.947310	24116.181083
9.035500	0.001006	-0.000451	-0.002630	-0.000272	7059.798359	45302.953879	3983.653664	24104.151927
9.535500	0.000358	0.000000	0.002853	0.000613	7045.189169	45260.602177	3995.334825	24060.970704
10.039000	-0.001247	0.000380	0.002685	0.000000	7035.761641	45357.461088	3996.472862	24090.858003
10.536500	0.000880	-0.000073	-0.004952	-0.000101	7056.957818	45323.069221	3977.367626	24095.767465
11.036500	0.000000	0.000140	-0.002897	0.000028	7047.346836	45331.274181	3982.219912	24089.493036
11.536500	-0.000051	0.000381	0.001067	0.000448	7042.864847	45313.847872	3991.202608	24068.997176
12.037500	0.001143	0.000907	0.000856	0.000697	7051.865338	45340.946797	3990.033242	24056.895378
12.537000	-0.001332	-0.000758	-0.004556	-0.001010	7044.553184	45345.001679	3980.653992	24140.194928
13.035000	0.001526	0.000459	0.004110	-0.001221	7073.844886	45484.642446	4003.259579	24150.514745
13.551000	0.001157	0.001029	0.002570	0.000691	7052.046815	45353.343108	3994.412115	24057.148176
14.079000	-0.000144	0.000105	0.004901	-0.000066	7046.863869	45337.042777	4002.321326	24094.065259
14.538500	-0.001450	-0.000117	-0.003556	0.002414	7010.986811	45074.136940	3974.561643	23973.413906
15.036000	-0.001043	0.000791	0.000377	0.002460	7014.396686	45157.795591	3984.347362	23971.159179
15.564000	-0.001731	-0.000267	0.001406	0.000753	7024.037114	45220.970508	3991.288556	24054.160479
16.036500	-0.000371	-0.000301	0.002824	0.000376	7040.507224	45254.352633	3995.865112	24072.510746
16.537000	-0.001742	0.000557	0.001011	0.001095	7020.687715	45267.861683	3989.413477	24037.485947
17.037000	0.000645	0.000974	-0.001559	0.000653	7047.539776	45351.719867	3984.020007	24059.016096
17.534500	-0.000088	-0.000001	0.001378	0.000665	7040.453567	45255.467112	3991.442964	24058.449705
18.035500	0.001956	-0.000014	0.000278	-0.001748	7083.025519	45489.888474	3994.788460	24176.300101
18.535500	0.001832	0.000533	0.002283	0.001513	7050.649446	45224.810184	3991.584960	24017.151470
19.038500	-0.000561	-0.000414	-0.003413	0.000881	7033.900129	45194.136538	3978.769670	24047.904549
19.535500	-0.001766	0.000733	-0.004140	0.001845	7013.375907	45211.986172	3974.522207	24001.023320
20.036000	-0.002137	0.000086	-0.003660	0.001164	7016.308644	45215.297237	3977.436291	24034.139474
20.536000	-0.000125	-0.000304	0.000709	0.001248	7034.556717	45169.226618	3988.258537	24030.051820
21.037000	-0.000210	0.000940	0.006655	0.001873	7027.833611	45229.406640	4001.847689	23999.673330
21.537500	-0.000216	-0.000164	-0.000634	0.001376	7032.483193	45170.387314	3984.532943	24023.843266
22.037000	-0.000776	0.000556	0.000011	0.002130	7020.047975	45167.076249	3984.257351	23987.213512
22.535000	0.000223	0.000353	0.002645	0.001443	7036.013328	45214.137878	3992.687003	24020.581714
23.035000	-0.001143	-0.000284	-0.000471	0.001453	7022.974190	45151.189281	3984.750147	24020.097626
23.538000	-0.000993	-0.000306	0.003433	0.001259	7026.236186	45167.970927	3995.167731	24029.535364
24.035500	-0.000678	0.000250	0.000546	0.001427	7027.619721	45205.677008	3987.391806	24021.333792
24.536000	-0.000139	0.000572	0.003348	0.001715	7029.995971	45208.989538	3993.786722	24007.348134
25.036000	-0.000042	0.000255	0.001457	0.001437	7033.551601	45205.150723	3989.678019	24020.855386
25.537000	0.000046	0.000132	0.000702	0.001351	7035.209650	45201.632161	3987.981825	24025.058161
26.037000	-0.002720	-0.000090	-0.001087	0.001319	7009.342003	45183.150974	3983.530895	24026.621363
26.537500	-0.002094	0.000095	-0.000274	0.001312	7015.313608	45201.795694	3985.606360	24026.958114
27.035000	-0.000893	-0.000221	-0.002743	0.001201	7027.723034	45181.820044	3979.652254	24032.353589
27.535000	-0.000645	0.000231	0.002556	0.001815	7024.263010	45166.156137	3991.513661	24002.513032
28.037500	-0.000501	-0.000281	-0.003312	0.001029	7033.073130	45192.707518	3978.653132	24040.717537
28.535000	0.002378	-0.000150	0.001403	-0.000583	7075.893410	45362.580918	3994.685384	24119.299177
29.036000	0.000882	0.000551	0.001451	0.000384	7052.352999	45336.637251	3992.342900	24072.111847
29.612500	0.000479	-0.000443	-0.000274	-0.000302	7055.050800	45306.570568	3989.698383	24105.580425
30.036500	0.000711	0.000084	-0.002221	-0.000140	7055.729622	45342.288549	3984.354953	24097.710371
30.537000	-0.003311	0.000121	-0.000105	0.004189	6976.824078	44925.252246	3978.770720	23887.460134
31.037000	0.000434	0.000111	0.001207	0.000063	7051.146791	45325.062869	3992.539446	24087.775943
31.537500	-0.000335	-0.000024	0.001103	0.000930	7035.582536	45227.383439	3990.066757	24045.518614
32.035000	-0.000346	0.000997	0.006998	0.001101	7033.860355	45310.258558	4004.716243	24037.204570
32.538000	-0.000500	0.000730	-0.002512	0.004249	7002.649925	44978.362552	3972.581303	23884.585963
33.066000	0.001815	0.000674	0.001329	0.000769	7057.585799	45311.122840	3991.051144	24053.374170
33.536000	-0.000067	0.000166	0.000222	0.001652	7031.272043	45175.556473	3986.000279	24010.394793
34.036000	-0.000954	0.000430	0.000953	0.000287	7035.812927	45334.301248	3991.323053	24076.856436
34.536500	-0.001482	-0.000384	-0.003564	0.002958	7005.557612	44995.449747	3973.178603	23947.027240
35.036500	0.003207	0.001912	0.001313	-0.000271	7080.851844	45533.944570	3993.659598	24104.065623
35.537000	0.000930	0.000663	-0.000341	0.002218	7035.366226	45168.859690	3983.145083	23982.907201
36.037000	-0.000577	-0.000295	-0.000618	0.001873	7024.351846	45109.293259	3983.315861	23999.665930
36.534500	-0.001093	0.000911	-0.003601	0.003721	7002.039582	45046.990535	3971.176848	23910.090185
37.038000	-0.001707	0.000031	-0.000304	0.002243	7010.181403	45105.041556	3983.174846	23981.722779
37.535500	-0.000432	0.000058	-0.001770	0.002139	7023.213871	45117.851743	3979.741508	23986.779389
38.035500	-0.000351	0.000134	-0.001401	0.002119	7024.161179	45127.101090	3980.719732	23987.719589
38.536000	-0.001981	-0.000054	-0.001997	0.003548	6995.311930	44970.280731	3975.626797	23918.462465
39.036000	-0.001794	0.000137	-0.002034	0.002210	7009.672002	45118.505105	3978.896570	23983.307061
39.536000	0.000279	0.000428	0.001353	0.002503	7026.492517	45118.361293	3986.710055	23969.089517
40.037000	-0.001136	0.000724	0.001218	0.002335	7014.698966	45163.470217	3986.792027	23977.227017
40.537000	-0.002612	-0.001213	-0.000173	0.000956	7013.789505	45109.275315	3986.763245	24044.285342
41.037000	-0.000256	0.001014	-0.002456	0.002427	7022.151639	45182.726203	3977.287598	23972.768587
41.537500	-0.000745	0.000122	-0.002004	0.002003	7021.537985	45137.223782	3979.493423	23993.363317
42.035000	0.000589	0.000653	-0.004331	0.002603	7028.481158	45130.505905	3972.147705	23964.249634
42.535000	-0.000754	0.000264	0.001782	0.002518	7016.583010	45100.960600	3987.759131	23968.359459
43.035500	-0.000155	0.001193	0.003199	0.002770	7019.854590	45166.692146	3990.719124	23956.124072
43.536500	0.000724	0.000451	-0.000497	0.002669	7029.138537	45104.448089	3981.612163	23961.049565
44.036500	-0.000269	-0.000039	-0.001386	0.002122	7024.913719	45110.063589	3980.751439	23987.593315
44.536500	-0.001043	0.000100	-0.002747	0.002087	7017.919805	45126.899013	3977.412330	23989.261764
45.037000	-0.001320	0.000089	-0.001058	0.001569	7020.196349	45176.199141	3982.972360	24014.428632
45.537000	0.001964	0.000463	0.001619	-0.001073	7076.622234	45470.540862	3996.489766	24143.269106
46.037500	-0.000951	0.000836	0.000020	0.000512	7033.703483	45351.988777	3988.378448	24065.870779
46.566500	-0.002348	-0.000229	-0.002011	0.005431	6974.211705	44771.642774	3970.879704	23827.548493
47.035500	0.000421	0.000315	-0.001445	0.000049	7051.152522	45346.334568	3985.839193	24088.464125
47.535500	0.000654	0.000322	0.001751	0.001458	7039.967733	45209.669688	3990.374953	24019.862005
48.036000	0.000305	0.000245	0.003105	0.000741	7043.466791	45272.072096	3995.652867	24054.750540
48.536000	-0.002497	0.000846	-0.001356	0.006178	6965.837515	44803.226534	3970.647008	23791.567097
49.036500	-0.002014	-0.000431	-0.003531	0.001563	7013.698989	45126.196286	3976.759876	24014.741500
49.539500	-0.001806	-0.000074	-0.000343	0.002402	7007.749816	45079.436563	3982.676937	23974.009924
50.037000	-0.000690	0.000853	0.003030	0.001168	7029.955506	45289.623906	3994.370200	24033.933845
50.540000	-0.004871	-0.000082	-0.006131	0.005562	6949.477092	44773.185834	3960.311930	23821.251021
51.038500	-0.000882	0.000401	0.002223	0.000380	7035.611143	45322.401504	3994.320985	24072.307608
51.535000	0.001547	0.001277	0.002974	0.001600	7047.109281	45288.873700	3993.124422	24012.941295
52.035500	0.002234	0.000162	0.000708	-0.001822	7086.401698	45514.388784	3996.076532	24179.922201
52.536000	-0.002438	-0.000623	-0.002205	0.005629	6971.515139	44714.592505	3969.898691	23817.982611
53.035500	-0.001887	-0.000127	0.001939	0.001167	7018.643737	45194.306297	3991.591346	24033.997856
53.535500	-0.032287	-0.008352	-0.017067	0.214526	5255.187160	28306.515505	3533.486682	15831.621793
54.036000	-0.055490	-0.015816	-0.024001	0.052049	6140.720566	39188.762042	3812.344242	21697.720020
54.537000	-0.059466	-0.023373	-0.033203	-0.094165	7391.515688	52824.254994	4155.945355	29221.128661
55.040000	-0.035094	-0.067785	-0.003254	-0.230716	9400.186956	64614.868195	4749.302481	38944.973339
55.537500	-0.030080	-0.034882	-0.007442	-0.173168	8661.075003	61212.160748	4502.397670	34471.880023
56.035000	-0.036778	-0.030291	-0.010099	-0.158332	8383.017526	59853.502074	4438.584195	33411.659990
56.535000	-0.023011	-0.019479	-0.018779	-0.140055	8326.505374	58883.575038	4345.144893	32154.352557
57.035500	-0.009445	-0.017749	-0.006955	-0.143333	8540.604598	59532.470910	4396.778404	32375.984755
57.535500	-0.002657	-0.009349	-0.004904	-0.111522	8225.514399	56562.351868	4296.718410	30294.273140
58.036000	0.003942	-0.005446	-0.007474	-0.106014	8238.877014	56364.514198	4270.722399	29949.058169
58.536500	-0.005334	0.001460	-0.010466	-0.033971	7329.440490	48923.184934	4051.004690	25814.808651
59.037000	-0.004127	0.001520	-0.006459	-0.000946	7017.439851	45561.800807	3975.708769	24137.081280
59.540000	0.001298	0.000130	-0.005295	-0.042336	7484.606054	49674.116916	4087.886964	26260.366884
60.037500	0.000029	-0.000899	-0.003476	-0.069323	7763.506439	52552.889202	4170.308456	27757.903597
60.537500	-0.007453	0.002136	-0.001961	-0.002943	7004.896033	45818.966302	3992.124784	24234.905614
61.035000	-0.001434	0.004214	0.007671	0.015431	6890.134824	44239.688818	3970.084118	23351.236517
61.535500	-0.000596	0.004701	0.008271	0.024258	6817.646399	43454.178531	3949.741075	22939.816611
62.035500	0.003327	0.007594	0.009706	0.015871	6929.899290	44520.254995	3974.072755	23330.502033
62.535500	0.006630	0.008005	0.008851	0.006985	7044.230003	45419.995369	3994.380493	23752.792054
63.035500	0.008315	0.009748	0.006440	0.002646	7101.937148	46019.180020	3999.312497	23962.151660
63.536000	0.010206	0.011250	0.012271	-0.001859	7164.080579	46619.220806	4026.125129	24181.730106
64.039500	0.021307	0.018392	0.017324	0.021033	7050.228238	45063.431894	3980.244287	23089.152641
64.561500	0.022027	0.016221	0.012172	-0.009567	7359.608500	47913.345691	4046.277341	24562.808976
65.037500	0.024133	0.016116	0.015994	-0.014126	7428.376073	48376.920542	4068.885562	24791.360020
65.544000	0.024002	0.016836	0.013710	-0.012125	7406.260801	48243.162227	4057.270519	24690.734095
66.044000	0.026160	0.018644	0.023641	-0.006459	7370.119654	47842.485416	4068.832956	24408.350187
66.535500	0.023622	0.018706	0.014524	0.002464	7254.028765	46935.513916	4020.703790	23970.983543
67.036000	0.024733	0.018180	0.013302	0.001406	7275.764926	46989.386313	4020.275167	24022.349826
67.536500	0.026076	0.019311	0.015195	0.006939	7233.873624	46545.173447	4010.808007	23755.002170
68.036500	0.027077	0.021797	0.023292	0.013128	7182.565911	46174.931182	4015.760735	23459.932653
68.539500	0.023102	0.020979	0.019520	0.021397	7063.876384	45279.610913	3984.868250	23072.211807
69.036500	0.026910	0.021639	0.025184	0.020987	7104.394428	45384.132953	4000.346098	23091.294805
69.537000	0.026532	0.021458	0.018972	0.027048	7042.703381	44778.277282	3969.292973	22811.461401
70.037500	0.029727	0.022428	0.024100	0.029085	7053.731199	44675.620442	3977.031251	22718.307502
70.535500	0.028704	0.023498	0.024895	0.037060	6968.829839	44017.312276	3959.143683	22357.775955
71.035000	0.029680	0.022915	0.021647	0.035727	6990.436254	44088.206132	3954.419794	22417.542946
71.535500	0.031738	0.024236	0.023827	0.041459	6956.097430	43672.459597	3945.720351	22161.699718
72.035500	0.030164	0.024737	0.021480	0.042210	6934.506134	43648.983696	3938.186659	22128.426481
72.536000	0.028762	0.023987	0.022914	0.048714	6861.960988	42974.612964	3925.975210	21842.631583
73.039000	0.030651	0.025046	0.020441	0.046291	6901.364080	43296.828023	3925.853715	21948.574438
73.536500	0.031681	0.025227	0.020814	0.049513	6881.292836	43015.345050	3919.056480	21807.829889
74.037000	0.033814	0.025772	0.023088	0.048911	6906.349887	43121.208438	3925.919834	21834.022293
74.534500	0.029318	0.025733	0.020976	0.053820	6820.812196	42666.118444	3909.243409	21621.267247
75.034500	0.034237	0.026256	0.032113	0.050243	6898.004751	43042.833205	3944.503131	21776.046426
75.535000	0.031391	0.025817	0.025894	0.051921	6856.707091	42847.805730	3925.431324	21703.260267
76.035500	0.034572	0.026125	0.028142	0.050077	6902.605616	43046.126930	3935.270612	21783.277415
76.535500	0.031319	0.025434	0.022725	0.052670	6849.266722	42743.958585	3916.097158	21670.898328
77.036000	0.035580	0.025812	0.032769	0.048292	6928.347074	43182.350540	3950.879335	21861.055752
77.539000	0.031868	0.025720	0.023113	0.049578	6882.399041	43054.816885	3924.383901	21804.986635
78.036500	0.034730	0.025348	0.030343	0.046181	6940.020710	43335.277078	3950.106592	21953.437089
78.537000	0.031117	0.026262	0.028745	0.049562	6875.692289	43106.388087	3937.976513	21805.685708
79.037000	0.031565	0.025459	0.029101	0.043863	6932.175191	43561.802894	3952.744567	22055.358202
79.537000	0.031458	0.025014	0.020553	0.044683	6923.596896	43443.626325	3929.981130	22019.224054
80.035000	0.034186	0.026037	0.031224	0.042358	6970.545795	43757.131159	3961.694437	22121.874768
80.535000	0.030203	0.025004	0.022449	0.043778	6920.372500	43527.178555	3936.735848	22059.111060
81.036000	0.033188	0.025473	0.035153	0.039916	6984.057376	43934.024361	3977.589563	22230.234007
81.536000	0.031229	0.025391	0.024723	0.040812	6957.383383	43841.763590	3949.490580	22190.400274
82.039000	0.032065	0.024395	0.025918	0.037330	6997.797669	44076.665626	3961.007280	22345.688631
82.536500	0.030823	0.024162	0.024749	0.039400	6966.762046	43859.024335	3953.019557	22253.215574
83.037000	0.031195	0.025091	0.026398	0.035927	7002.809415	44276.005467	3965.677669	22408.589869
83.537000	0.031128	0.024659	0.029510	0.034754	7013.230448	44346.536095	3976.381208	22461.315460
84.037000	0.031773	0.024395	0.027391	0.033944	7026.992234	44398.578980	3973.100917	22497.839541
84.537500	0.030498	0.023462	0.026072	0.035275	7002.379068	44183.047500	3966.488196	22437.876698
85.035000	0.030223	0.024806	0.028809	0.032303	7027.865479	44595.053163	3980.786986	22572.045352
85.534500	0.031806	0.024727	0.030294	0.032310	7042.820726	44586.750901	3984.518363	22571.727788
86.035500	0.031279	0.023642	0.029327	0.030811	7052.064257	44626.489046	3985.862862	22639.709952
86.538500	0.030776	0.023719	0.029359	0.032086	7035.160340	44511.637641	3982.719386	22581.868844
87.036000	0.033462	0.024015	0.030538	0.029931	7081.365890	44746.929493	3991.171123	22679.751147
87.536500	0.030476	0.023933	0.031673	0.029560	7056.335469	44774.752092	3995.010104	22696.644367
88.036500	0.032583	0.024276	0.030568	0.029568	7076.419264	44807.077453	3992.173843	22696.307311
88.537000	0.028203	0.023525	0.029731	0.030893	7022.079848	44607.305095	3986.677676	22635.980314
89.037500	0.032556	0.023495	0.031615	0.028723	7084.268982	44813.261463	3997.002615	22734.851576
89.535000	0.030552	0.023413	0.033176	0.028170	7070.353635	44858.740025	4002.423885	22760.126676
90.038000	0.031678	0.022718	0.033076	0.027602	7086.601901	44846.389911	4003.627128	22786.112666
90.535500	0.033418	0.023399	0.029326	0.028455	7095.129553	44829.736789	3991.842512	22747.065753
91.038500	0.031329	0.023467	0.032584	0.028251	7077.016859	44856.020450	4000.695003	22756.403476
91.536000	0.030247	0.023307	0.033246	0.028210	7067.057400	44844.596088	4002.500590	22758.293561
92.036000	0.031987	0.023371	0.028755	0.028757	7078.476730	44797.993251	3989.623778	22733.279621
92.536500	0.032421	0.023201	0.030544	0.030848	7062.612862	44580.579707	3988.854942	22638.032683
93.037000	0.031327	0.024299	0.028823	0.028954	7070.264601	44868.534150	3989.296871	22724.311116
93.537000	0.030371	0.023017	0.032256	0.031501	7036.864389	44500.398803	3991.548674	22608.388345
94.037500	0.033074	0.023486	0.039183	0.029162	7085.024635	44769.961323	4015.388900	22714.787348
94.535000	0.031975	0.023425	0.032705	0.031329	7053.770232	44556.003353	3993.129758	22616.196915
95.035000	0.031082	0.022518	0.029768	0.028969	7067.779010	44695.430472	3991.658359	22723.595707
95.538500	0.030624	0.023328	0.033876	0.029900	7054.511506	44683.839757	3999.778163	22681.167761
96.065500	0.030555	0.023241	0.033012	0.030251	7050.508829	44641.721058	3996.667756	22665.197777
96.566000	0.031901	0.023175	0.035144	0.031702	7049.504750	44496.289502	3998.408877	22599.272319
97.036500	0.032654	0.024106	0.033049	0.032091	7052.975842	44548.242372	3992.065431	22581.641342
