sample name	sample
index	1520
start time	 05-18-2021  03:25:30 PM
880	0.448356
Peak Time (s)	92.535
Peak Height 	0.4484
calc peak height	90,93
Baseline Time (s)	8.537
Baseline Value 	-0.004267
subtract baseline	10,4
Abs	0.260006
Peak Time (s)	91.037
Peak Height 	0.26
calc peak height	90,93
Baseline Time (s)	9.037
Baseline Value 	0.002113
subtract baseline	10,3
PK_550	0.146986
Peak Time (s)	92.035
Peak Height 	0.147
calc peak height	90,93
Baseline Time (s)	10.534
Baseline Value 	2.5885E-4
subtract baseline	10,2
PK_880	0.250052
Peak Time (s)	92.035
Peak Height 	0.2501
calc peak height	90,93
Baseline Time (s)	10.037
Baseline Value 	0.001393
subtract baseline	10,1


Time (s)	A880-A510	A880-A775	A880-A975	A880	I510	I775	I975	I880	
0.039500	-0.003381	-0.000657	-0.000154	0.001263	6580.543193	43975.039218	4011.992469	22821.608499
0.540000	-0.001797	-0.000983	-0.001517	0.003337	6576.531029	43749.537336	4003.985898	22727.267980
1.034500	-0.002711	-0.000147	-0.003456	0.005015	6555.377640	43670.805923	3995.629490	22651.276734
1.535000	-0.000882	-0.000953	0.001458	0.000732	6605.460468	43997.256517	4017.017788	22845.840704
2.036000	-0.001387	-0.000541	0.002056	0.000224	6605.483789	44084.018206	4019.621130	22869.051002
2.535000	0.001750	0.000483	-0.000209	0.001106	6624.144274	44097.439035	4012.232825	22828.768497
3.035500	-0.002228	-0.000241	0.001456	0.003247	6573.739946	43827.603631	4011.118750	22731.342672
3.572000	-0.000932	-0.000153	0.005105	0.000543	6606.609956	44090.612375	4026.075243	22854.487978
4.039500	-0.003475	-0.000423	-0.000808	0.005007	6549.229401	43645.658715	4001.759038	22651.621093
4.566000	-0.000731	-0.000181	-0.002512	0.000760	6606.476405	44067.417470	4007.665358	22844.575057
5.284000	-0.001780	-0.000533	-0.002456	-0.000031	6604.352731	44108.980824	4009.638417	22880.728483
5.620500	-0.000488	0.000227	0.000976	0.000593	6609.856931	44121.757594	4016.210945	22852.183438
6.038000	-0.002129	-0.000378	-0.003068	0.004248	6566.368600	43720.913076	3998.290618	22685.972754
6.535000	-0.000262	0.000486	-0.000332	0.000753	6610.413369	44131.143135	4012.770996	22844.894845
7.038500	-0.001435	0.000838	0.006130	0.000804	6600.307167	44159.631383	4027.889472	22842.576740
7.539000	0.000867	0.000351	0.000802	0.000327	6623.279873	44158.696348	4016.427322	22864.336315
8.036000	-0.004879	-0.000533	0.001584	0.004258	6543.915670	43705.474867	4009.058692	22685.518926
8.536500	-0.002336	0.000121	-0.001692	0.000000	6599.510603	44167.893930	4011.351670	22879.294541
9.036500	0.002416	-0.000055	0.000000	0.000508	6634.648314	44103.218179	4014.122776	22856.092118
9.537000	-0.000959	0.000008	0.000179	0.000082	6610.189450	44149.389213	4015.539246	22875.532236
10.037500	0.000000	-0.000759	0.001308	-0.000274	6621.073934	44110.505389	4019.031266	22891.815965
10.534500	0.002654	0.000000	-0.001350	-0.000177	6642.330340	44173.131022	4012.563932	22887.378799
11.035000	-0.000558	0.000458	0.005717	0.000512	6609.953525	44151.252179	4027.600969	22855.888231
11.535500	0.000386	-0.000219	-0.005003	-0.000662	6627.493080	44198.313955	4005.176659	22909.575140
12.038000	-0.000783	-0.000662	-0.000697	0.003657	6582.213643	43749.674556	4005.147741	22712.766530
12.535500	0.001332	-0.000266	0.004726	-0.000690	6635.593052	44196.499092	4028.100288	22910.856520
13.036500	0.000227	-0.000088	0.001443	-0.001565	6633.681934	44296.416216	4022.396231	22951.005131
13.536000	-0.000076	0.000138	0.007197	-0.000596	6623.116282	44225.936675	4033.765512	22906.572825
14.037000	-0.002640	-0.000567	-0.001847	0.002931	6572.960626	43826.756085	4004.163733	22745.727106
14.537000	-0.000759	0.000669	0.003017	0.002247	6593.993112	44007.331290	4017.122517	22776.804546
15.040000	-0.004226	-0.000579	-0.001460	0.004545	6546.886699	43674.333017	4001.319656	22672.542895
15.537500	0.000895	0.001322	0.001052	0.000328	6623.509623	44250.664074	4017.015154	22864.317214
16.034500	-0.003085	-0.000759	-0.001294	0.004825	6553.880959	43631.342804	4001.056097	22659.863067
16.535500	-0.000394	0.000127	-0.001739	-0.000614	6620.621254	44226.586557	4012.676544	22907.373211
17.035500	0.001762	-0.000008	0.001943	-0.003912	6666.115321	44527.559783	4029.145836	23059.009297
17.536000	0.001230	-0.000135	0.003342	0.000167	6627.623024	44127.844320	4022.793232	22871.681525
18.036500	-0.001256	0.000849	0.002252	0.003168	6582.350258	43937.547390	4013.165966	22734.951804
18.536500	-0.000437	0.000662	0.006666	0.001146	6605.717195	44110.537927	4028.347926	22826.933853
19.036000	0.001708	-0.000150	0.003907	0.000470	6629.075040	44097.815613	4023.412549	22857.833124
19.537500	0.000263	-0.000496	0.002334	0.000338	6618.182403	44077.554792	4020.008663	22863.849912
20.036500	-0.000242	-0.000686	0.002918	0.000593	6611.894140	44035.517796	4020.782681	22852.174691
20.535000	0.001061	0.000355	0.000543	0.000938	6619.828446	44101.306580	4014.387094	22836.443240
21.035500	-0.000003	0.000192	0.000463	0.000864	6611.631040	44092.894728	4014.373048	22839.833326
21.535500	-0.000179	0.000174	0.002413	0.000702	6611.518290	44106.479182	4019.335554	22847.220649
22.035500	-0.001254	-0.000112	0.002407	0.002065	6591.423527	43950.888587	4016.117250	22785.104246
22.535500	-0.001266	0.000302	-0.001674	0.000477	6604.399125	44139.814925	4010.277186	22857.490507
23.036500	-0.003071	0.000981	-0.000255	0.002700	6571.322291	43993.987364	4008.401660	22756.199559
23.536500	-0.000775	-0.000076	0.003840	0.000688	6606.701509	44084.156854	4022.735221	22847.841244
24.037000	-0.000560	0.001070	0.003864	0.001274	6603.642830	44137.092091	4021.408229	22821.119416
24.540000	0.000717	0.000378	-0.000258	0.000920	6617.122246	44105.067887	4012.552881	22837.248682
25.038000	0.000074	0.000440	0.003047	0.000725	6613.415427	44129.435042	4020.776139	22846.175439
25.535000	-0.001184	-0.000675	-0.000988	-0.000224	6610.855822	44113.712285	4013.520966	22889.521865
26.035500	0.000737	-0.000181	-0.000134	0.000329	6622.187798	44108.199617	4014.226610	22864.252392
26.536000	-0.000395	-0.000550	0.000719	0.000112	6614.609085	44093.807863	4016.740543	22874.194039
27.035500	-0.003851	-0.000327	-0.002638	0.003794	6556.035612	43768.249311	4000.330915	22706.552025
27.535500	0.002222	0.000234	0.004578	-0.001802	6652.288119	44349.571767	4030.395142	22961.870319
28.036500	0.001837	0.000842	-0.001307	-0.000463	6637.910062	44280.163969	4013.336365	22900.490795
28.537000	0.000661	-0.000317	-0.000282	-0.001498	6636.727816	44268.261076	4018.170250	22947.901893
29.040000	-0.003913	-0.000995	0.002871	0.004601	6548.971291	43630.198661	4011.261125	22670.000389
29.534500	0.000146	0.000647	-0.003164	-0.000779	6626.473290	44291.568408	4009.730597	22914.945197
30.034500	0.001184	-0.000067	0.002208	-0.001027	6637.166415	44247.342023	4022.930942	22926.296635
30.535500	-0.000465	-0.000093	0.005257	0.000963	6606.999492	44056.596719	4025.439315	22835.317445
31.035500	-0.002589	-0.000645	-0.004258	0.003001	6572.802420	43812.797818	3998.420892	22742.536454
31.536000	0.001023	-0.000272	0.005715	-0.001120	6636.601578	44236.680081	4031.477579	22930.563391
32.039000	0.001800	-0.000344	0.003205	-0.001667	6647.643675	44281.874058	4026.811166	22955.689741
32.536500	-0.000691	0.000021	0.001208	-0.000954	6620.979663	44248.755516	4020.399433	22922.952239
33.039500	-0.004649	-0.000324	-0.001434	0.004005	6547.826299	43748.668586	4002.629745	22696.961749
33.537000	0.000709	-0.000111	-0.002399	-0.001252	6635.080341	44264.489003	4012.623354	22936.611012
34.037000	-0.003226	0.000362	0.001405	0.003721	6561.723760	43839.712776	4009.892217	22709.854606
34.535000	-0.001975	-0.000400	0.000179	0.000763	6596.193518	44046.479008	4013.944339	22844.421556
35.035000	-0.002748	-0.000789	-0.002804	0.002158	6578.401485	43878.463079	4003.737279	22780.870936
35.538000	-0.000248	0.000062	0.000244	0.000932	6609.047176	44074.215401	4013.702261	22836.738664
36.035500	-0.002669	-0.000554	0.000233	0.001978	6580.517500	43917.449590	4011.225062	22789.030729
36.536000	-0.000274	-0.000306	-0.000267	0.001053	6607.830641	44027.981963	4012.221171	22831.187946
37.036000	-0.001051	-0.000123	0.001019	0.001022	6601.673409	44048.173350	4015.307170	22832.607453
37.536500	0.001132	-0.000066	-0.000752	0.001079	6619.249527	44048.182102	4011.025434	22830.018983
38.039500	0.000331	0.000846	-0.000964	0.001454	6609.513641	44098.835939	4009.653669	22812.901989
38.540000	-0.001337	-0.000972	0.000783	0.000363	6604.747504	44030.190707	4016.298614	22862.693765
39.037500	-0.001214	-0.000227	0.002595	0.001036	6600.217589	44037.005099	4018.976715	22831.961799
39.535000	-0.001062	-0.000227	-0.002003	0.000713	6604.132863	44067.522646	4008.958835	22846.704315
40.034500	-0.000501	0.000995	-0.001742	0.002894	6590.793322	43977.100891	4004.493721	22747.394958
40.535000	-0.003143	-0.000105	-0.002528	0.001153	6583.394159	44037.451862	4006.711474	22826.621765
41.035000	0.000541	0.000250	0.000735	0.000924	6615.631989	44092.577898	4014.868167	22837.063293
41.536000	-0.002397	-0.000522	0.001100	0.000928	6591.370067	44019.369865	4015.716720	22836.895503
42.036500	-0.001646	-0.000478	0.003121	0.000698	6599.439307	44045.259992	4021.014017	22847.380650
42.537000	-0.001997	-0.000010	0.004019	0.001165	6592.716645	44045.427224	4022.034690	22826.110669
43.037000	-0.000180	-0.000350	-0.000516	0.000561	6612.673855	44070.287888	4012.789553	22853.672462
43.537000	-0.001934	-0.000275	-0.000779	0.000889	6595.497501	44046.334848	4011.406891	22838.674200
44.034500	-0.002826	0.000493	-0.000570	0.003803	6564.309255	43844.296909	4005.102055	22706.119553
44.535000	0.001372	-0.000046	0.007527	-0.000264	6632.388470	44177.054598	4033.761381	22891.393871
45.035500	-0.001244	-0.000752	0.000024	-0.001388	6620.004686	44216.629027	4018.633730	22942.890582
45.535500	-0.000254	0.000405	0.003830	-0.000525	6621.050613	44244.528386	4025.583274	22903.305767
46.041500	-0.002204	-0.000340	-0.001516	0.004984	6559.750684	43655.581180	4000.173736	22652.663331
46.539000	-0.000675	0.000254	-0.002034	-0.000997	6621.468905	44274.920395	4012.881148	22924.919875
47.036500	-0.001935	-0.000096	0.000012	0.003565	6573.541669	43811.381158	4007.009823	22716.941993
47.536500	-0.003086	-0.000125	0.005038	0.000861	6586.258219	44063.126582	4025.161106	22839.937014
48.040000	-0.000499	-0.000055	0.001174	0.002815	6591.462560	43885.708358	4011.469102	22750.980208
48.556500	0.002175	0.000040	0.007990	-0.000773	6643.314012	44233.404465	4036.085377	22914.691406
49.242000	0.000637	-0.000405	0.004282	-0.000800	6630.733978	44193.802990	4027.308920	22915.928863
50.007500	0.000269	-0.000214	0.001887	-0.001118	6630.314500	44242.052526	4022.391187	22930.504703
50.563000	0.002072	0.000427	-0.004010	-0.000655	6641.464555	44258.895475	4007.470463	22909.277226
50.650500	0.000447	-0.000162	-0.000466	-0.001120	6631.811725	44247.206762	4016.849110	22930.597683
51.039000	0.001194	0.001165	0.002616	-0.000125	6629.746353	44278.647002	4021.765638	22885.016533
51.536000	0.001423	0.000657	0.005186	-0.003206	6657.351744	44523.625258	4035.196941	23026.454509
52.037000	-0.000863	0.000218	0.005861	0.004917	6571.246004	43714.029323	4017.531619	22655.689834
52.537500	0.000841	0.000327	0.000747	0.003259	6598.832818	43879.868387	4009.435708	22730.832325
53.037500	0.002611	-0.009928	0.026205	0.250520	5054.142538	25618.186195	3604.207251	14173.524588
53.537000	0.004062	-0.012710	-0.000924	0.100902	5899.795073	34695.410274	3802.315328	18761.696037
54.037500	-0.008450	-0.047952	-0.008175	-0.196873	8572.921234	60968.712441	4569.892655	34270.141704
54.535500	-0.005489	-0.083220	0.008781	-0.260105	9486.921073	64820.253032	4889.010985	39168.191451
55.035500	0.011705	-0.039664	0.025017	-0.190280	8749.021999	61195.130627	4669.290194	33799.287412
55.535500	0.028957	-0.018967	0.043480	-0.135251	8271.854191	56775.868844	4534.188370	30136.012784
56.036000	0.034673	-0.004024	0.044597	-0.058352	7478.104988	49633.504563	4287.929335	25735.436974
56.535500	0.041950	0.004901	0.048832	-0.054173	7510.012324	50145.359785	4288.093726	25517.889933
57.037000	0.050060	0.002982	0.059926	-0.097949	8079.620134	54909.998683	4462.076119	27904.070781
57.539500	0.066040	0.012288	0.082080	-0.035613	7567.527962	48949.258590	4332.531933	24576.579252
58.037000	0.088157	0.027538	0.105561	0.051454	6936.044268	41954.174713	4150.528457	20660.264552
58.535000	0.099515	0.039512	0.116494	0.119723	6455.253191	37224.883462	4007.763407	18093.974471
59.035500	0.119222	0.053311	0.129664	0.162715	6275.990236	35003.406614	3940.634629	16673.067769
59.535500	0.137711	0.064162	0.147306	0.201984	6123.937750	32979.832220	3894.756042	15492.581656
60.035500	0.150351	0.071526	0.153657	0.241862	5935.328396	30821.134614	3827.996843	14398.145390
60.536000	0.166995	0.080990	0.173529	0.274169	5832.107222	29398.366629	3804.519861	13582.314512
61.036000	0.174147	0.088854	0.187080	0.301074	5707.133187	28268.309231	3780.041829	12947.707540
61.536500	0.189327	0.098430	0.206010	0.310343	5743.940261	28286.118655	3797.674840	12738.031996
62.039000	0.202160	0.104288	0.209675	0.316189	5788.095161	28286.840791	3793.660210	12608.082032
62.536500	0.207374	0.112264	0.217057	0.327535	5749.308242	28091.798850	3786.415623	12360.785490
63.034500	0.211780	0.119460	0.218666	0.351578	5628.707003	27139.150759	3746.631193	11857.614857
63.535000	0.220296	0.121870	0.225458	0.409008	5350.988024	24273.209845	3664.042607	10762.703828
64.039000	0.223371	0.127574	0.229965	0.397365	5431.286442	25137.919915	3689.344180	10973.128045
64.538500	0.220974	0.127971	0.233857	0.385613	5483.758613	25764.433235	3714.766715	11191.332349
65.035500	0.224343	0.128634	0.227818	0.382171	5522.681604	25980.114295	3710.483637	11256.376593
65.536000	0.226338	0.129732	0.226361	0.382772	5530.724707	26006.378125	3707.106949	11244.976755
66.036500	0.223120	0.130283	0.227524	0.389738	5472.565771	25669.824853	3697.670670	11114.067009
66.537000	0.228377	0.132589	0.240446	0.386123	5523.155727	25980.258968	3724.895710	11181.746166
67.037500	0.228382	0.133848	0.237413	0.387881	5513.074526	25953.936818	3716.902135	11148.765764
67.537500	0.232075	0.135729	0.242483	0.389847	5523.000931	25949.438324	3722.070208	11112.037529
68.037500	0.234307	0.135557	0.239815	0.390001	5535.004121	25932.266643	3717.368938	11109.167354
68.535500	0.235619	0.137882	0.239885	0.392523	5528.010108	25921.909959	3713.308089	11062.315934
69.035000	0.237410	0.138301	0.241026	0.394902	5524.612486	25818.896334	3711.267637	11018.368167
69.535000	0.237705	0.138643	0.246041	0.395500	5522.871184	25805.487424	3718.577895	11007.366357
70.036000	0.237940	0.140585	0.241407	0.398463	5507.209495	25752.105626	3706.051865	10953.051032
70.536000	0.236787	0.139084	0.238917	0.399221	5496.295366	25634.334638	3700.763434	10939.214063
71.039500	0.239614	0.141376	0.240634	0.404044	5484.946096	25503.121855	3695.741351	10851.725370
71.539500	0.240565	0.141314	0.241519	0.405099	5484.356209	25445.416649	3695.467790	10832.717420
72.037000	0.241074	0.142830	0.249894	0.408451	5468.283145	25350.994376	3703.601795	10772.637714
72.537500	0.242290	0.143284	0.244701	0.410765	5462.111091	25255.741129	3691.480427	10731.438143
73.035000	0.241164	0.141760	0.242846	0.411859	5449.663372	25122.292593	3686.774423	10712.026360
73.534500	0.238425	0.140122	0.247629	0.411246	5437.803318	25070.240736	3695.408127	10722.887363
74.035000	0.241434	0.143527	0.250384	0.421371	5398.536396	24732.226546	3683.642291	10545.349660
74.536000	0.242887	0.144287	0.245670	0.418173	5424.126713	24930.642266	3681.246393	10600.971692
75.036000	0.242207	0.144523	0.249734	0.420607	5406.962958	24820.234954	3683.822692	10558.599638
75.536500	0.246380	0.144267	0.253915	0.422430	5419.903278	24716.315244	3687.566773	10527.016242
76.036500	0.244591	0.144890	0.244915	0.422367	5410.391361	24750.511004	3673.484756	10528.101611
76.537000	0.243192	0.144579	0.252623	0.423348	5397.337499	24686.058368	3684.058004	10511.159120
77.037000	0.245434	0.145341	0.252744	0.424624	5402.630034	24660.508050	3682.231606	10489.181880
77.537500	0.246692	0.147243	0.254257	0.424463	5410.415176	24763.373908	3684.880030	10491.940425
78.040500	0.248305	0.145678	0.258837	0.423535	5424.438332	24731.569944	3693.670310	10507.935528
78.535500	0.249180	0.147569	0.261938	0.424397	5424.510122	24782.943189	3697.274048	10493.075369
79.035500	0.250725	0.147266	0.251745	0.424034	5435.088274	24785.952878	3681.584867	10499.326451
79.536000	0.246074	0.147498	0.259219	0.423492	5412.361918	24824.771242	3694.353422	10508.675210
80.036000	0.251621	0.146566	0.248319	0.422884	5446.491696	24808.510663	3678.002923	10519.170011
80.536500	0.249122	0.147913	0.255185	0.424289	5424.788341	24805.596354	3686.629793	10494.937149
81.039000	0.248566	0.147204	0.258072	0.423635	5425.324522	24802.812637	3692.281418	10506.201831
81.537000	0.250862	0.148253	0.253031	0.425081	5430.042733	24783.012641	3681.963226	10481.327347
82.034000	0.244255	0.146299	0.254952	0.430463	5364.454692	24419.021513	3676.519646	10389.402756
82.534500	0.249227	0.147596	0.260177	0.426273	5414.411628	24690.624886	3691.428441	10460.856668
83.035000	0.246893	0.147817	0.257156	0.426512	5400.279872	24689.798361	3686.230313	10456.777134
83.535500	0.250392	0.148606	0.245917	0.428270	5409.831415	24641.520170	3665.885014	10426.711786
84.035500	0.245784	0.148179	0.259086	0.428734	5382.099538	24597.300376	3685.764491	10418.803500
84.536000	0.247871	0.149355	0.255997	0.430915	5381.588901	24547.482037	3677.447761	10381.732313
85.036500	0.246745	0.148065	0.261280	0.430385	5378.349140	24509.940074	3686.628277	10390.724135
85.537000	0.250210	0.149701	0.261300	0.432529	5385.532585	24484.881416	3683.260697	10354.424639
86.037000	0.246810	0.148931	0.261410	0.432526	5367.114695	24447.039103	3683.439066	10354.475658
86.537500	0.246100	0.148854	0.255242	0.434726	5351.450635	24335.197974	3670.323688	10317.407389
87.037500	0.248582	0.148182	0.250193	0.435244	5362.009518	24276.906570	3661.737614	10308.695738
87.535000	0.245494	0.147160	0.256037	0.435711	5342.930049	24204.315057	3670.028799	10300.864637
88.035000	0.243596	0.147236	0.247905	0.443216	5293.201973	23845.575212	3646.198624	10176.091996
88.535500	0.246343	0.146958	0.256176	0.439284	5328.412067	24021.287467	3664.722792	10241.201366
89.036000	0.245764	0.146832	0.257770	0.439876	5322.199547	23986.614073	3666.266006	10231.354685
89.536000	0.243494	0.145799	0.250137	0.440926	5304.682916	23886.454589	3653.003314	10213.944528
90.044500	0.238211	0.143953	0.251439	0.446464	5248.492117	23535.211593	3646.626507	10122.755044
90.539500	0.248090	0.145643	0.256858	0.443316	5316.305662	23764.641885	3659.584241	10174.439609
91.037000	0.248626	0.146515	0.260006	0.445815	5305.958593	23687.260647	3660.576821	10133.391072
91.537500	0.247944	0.146069	0.258092	0.446056	5301.104756	23654.625305	3657.288268	10129.432885
92.034500	0.250052	0.146986	0.255427	0.448068	5301.607734	23602.727258	3650.207402	10096.568353
92.535000	0.245714	0.145774	0.256846	0.448356	5277.451003	23531.914792	3651.912684	10091.875654
93.035000	0.249061	0.146476	0.260791	0.450098	5285.808196	23482.958685	3655.247438	10063.566053
93.535500	0.244453	0.145961	0.254800	0.450618	5259.220421	23434.279362	3645.439858	10055.123896
94.036000	0.245018	0.145405	0.249655	0.458083	5223.954694	23061.355534	3626.860469	9935.207926
94.536500	0.247083	0.146043	0.259415	0.452841	5261.324727	23334.082524	3649.026313	10019.204288
95.039500	0.248279	0.145526	0.252673	0.453614	5263.507592	23273.902227	3637.826449	10006.752382
95.534000	0.242929	0.143974	0.260702	0.453694	5235.646018	23198.053409	3649.678835	10005.460721
96.037500	0.251223	0.147425	0.269593	0.458086	5255.632033	23154.482143	3656.483972	9935.157089
96.534500	0.250395	0.146644	0.254162	0.457492	5254.427258	23145.819727	3634.307318	9944.621536
97.035000	0.247042	0.145326	0.260840	0.457668	5236.354684	23076.858490	3643.932552	9941.822925
97.535500	0.248853	0.147002	0.258890	0.459364	5236.942990	23075.949877	3638.517668	9914.841324
