sample name	sample
index	341
start time	 03-01-2021  11:12:37 AM


Wavelength (nm)	Absorbance
494.344910	0.070510
494.563924	0.070510
494.782919	0.070510
495.001897	-0.232275
495.220856	-0.023811
495.439797	-0.031101
495.658719	-0.057652
495.877624	-0.110176
496.096510	-0.113148
496.315378	-0.125303
496.534227	-0.063294
496.753059	-0.090623
496.971872	-0.095222
497.190667	0.225088
497.409444	0.270167
497.628203	0.282127
497.846943	0.293033
498.065665	0.297041
498.284369	0.299870
498.503055	0.296441
498.721723	0.297582
498.940372	0.298672
499.159003	0.298064
499.377616	0.298063
499.596210	0.297136
499.814787	0.295585
500.033345	0.294831
500.251885	0.292464
500.470406	0.294458
500.688910	0.294197
500.907395	0.292994
501.125862	0.291001
501.344311	0.289186
501.562742	0.288646
501.781154	0.288013
501.999548	0.287012
502.217924	0.286118
502.436282	0.283501
502.654621	0.281808
502.872942	0.280187
503.091245	0.279940
503.309530	0.278361
503.527797	0.276506
503.746045	0.275240
503.964275	0.274162
504.182487	0.272516
504.400681	0.272426
504.618856	0.271763
504.837013	0.271889
505.055152	0.271050
505.273273	0.270643
505.491376	0.271178
505.709460	0.270289
505.927526	0.269118
506.145574	0.269841
506.363604	0.268595
506.581615	0.268810
506.799608	0.268267
507.017583	0.265653
507.235540	0.265211
507.453478	0.263574
507.671399	0.263173
507.889301	0.263173
508.107185	0.262366
508.325050	0.261974
508.542898	0.261068
508.760727	0.259703
508.978538	0.259941
509.196330	0.259891
509.414105	0.260767
509.631861	0.260703
509.849599	0.260655
510.067319	0.260782
510.285021	0.259468
510.502704	0.258719
510.720369	0.258420
510.938016	0.258639
511.155645	0.257596
511.373255	0.256524
511.590848	0.255627
511.808422	0.254135
512.025977	0.252761
512.243515	0.252766
512.461034	0.252578
512.678536	0.252413
512.896018	0.252043
513.113483	0.251665
513.330930	0.251601
513.548358	0.250817
513.765768	0.250935
513.983160	0.250260
514.200533	0.249515
514.417889	0.249463
514.635226	0.248943
514.852545	0.248038
515.069845	0.247775
515.287128	0.246566
515.504392	0.246037
515.721638	0.245218
515.938866	0.245184
516.156075	0.244687
516.373267	0.242722
516.590440	0.243057
516.807594	0.242618
517.024731	0.242339
517.241850	0.242488
517.458950	0.241323
517.676032	0.241160
517.893095	0.241093
518.110141	0.240986
518.327168	0.240428
518.544177	0.239639
518.761168	0.239154
518.978141	0.238784
519.195095	0.238443
519.412031	0.239216
519.628949	0.238727
519.845849	0.238322
520.062731	0.238164
520.279594	0.238458
520.496439	0.238308
520.713266	0.238537
520.930074	0.237277
521.146865	0.236425
521.363637	0.236508
521.580391	0.236628
521.797127	0.235865
522.013844	0.235393
522.230543	0.235272
522.447224	0.234698
522.663887	0.234582
522.880532	0.235295
523.097158	0.234982
523.313766	0.233969
523.530356	0.232614
523.746928	0.232838
523.963481	0.232841
524.180017	0.231570
524.396534	0.230378
524.613032	0.229445
524.829513	0.229754
525.045975	0.229755
525.262420	0.229348
525.478845	0.230091
525.695253	0.229305
525.911643	0.229547
526.128014	0.230358
526.344367	0.230167
526.560702	0.230473
526.777018	0.228713
526.993316	0.228414
527.209597	0.228448
527.425858	0.228137
527.642102	0.228728
527.858328	0.228051
528.074535	0.227863
528.290724	0.227930
528.506894	0.227540
528.723047	0.228645
528.939181	0.228438
529.155297	0.228850
529.371395	0.227788
529.587475	0.226965
529.803536	0.226524
530.019579	0.226310
530.235604	0.226824
530.451611	0.226744
530.667600	0.226181
530.883570	0.226146
531.099522	0.225972
531.315456	0.226638
531.531372	0.226002
531.747269	0.226602
531.963148	0.226631
532.179009	0.226709
532.394852	0.227062
532.610676	0.226998
532.826482	0.226990
533.042271	0.226704
533.258040	0.226831
533.473792	0.227775
533.689525	0.227428
533.905240	0.227941
534.120937	0.227279
534.336616	0.227197
534.552277	0.227228
534.767919	0.227126
534.983543	0.226535
535.199149	0.226780
535.414736	0.226752
535.630306	0.226383
535.845857	0.226150
536.061390	0.226718
536.276904	0.226578
536.492401	0.226605
536.707879	0.227311
536.923339	0.227386
537.138781	0.227209
537.354204	0.226786
537.569610	0.227499
537.784997	0.226728
538.000366	0.226308
538.215716	0.225938
538.431049	0.225640
538.646363	0.225336
538.861659	0.225517
539.076937	0.225338
539.292196	0.225977
539.507438	0.225531
539.722661	0.226252
539.937866	0.226638
540.153052	0.226721
540.368221	0.226970
540.583371	0.226581
540.798503	0.226945
541.013617	0.226953
541.228712	0.226699
541.443789	0.226325
541.658848	0.225975
541.873889	0.225741
542.088912	0.225880
542.303916	0.225794
542.518902	0.225857
542.733870	0.226027
542.948820	0.226229
543.163752	0.226195
543.378665	0.226509
543.593560	0.226771
543.808437	0.226509
544.023295	0.226446
544.238136	0.227218
544.452958	0.227120
544.667762	0.226639
544.882548	0.226051
545.097315	0.225818
545.312064	0.226196
545.526795	0.226192
545.741508	0.226117
545.956203	0.226363
546.170879	0.225557
546.385537	0.225665
546.600177	0.225640
546.814799	0.226069
547.029402	0.225957
547.243988	0.225657
547.458555	0.225773
547.673103	0.225742
547.887634	0.225793
548.102146	0.226011
548.316640	0.226103
548.531116	0.226187
548.745574	0.226417
548.960013	0.226852
549.174435	0.226581
549.388838	0.226934
549.603222	0.226855
549.817589	0.226585
550.031937	0.226644
550.246267	0.226337
550.460579	0.226349
550.674873	0.226002
550.889148	0.225924
551.103405	0.226204
551.317644	0.225708
551.531865	0.225918
551.746068	0.225882
551.960252	0.225733
552.174418	0.226187
552.388566	0.226299
552.602696	0.226203
552.816807	0.226254
553.030900	0.226355
553.244975	0.226652
553.459032	0.226927
553.673070	0.227510
553.887091	0.227917
554.101093	0.227801
554.315077	0.227994
554.529042	0.228102
554.742990	0.228132
554.956919	0.228191
555.170830	0.228097
555.384722	0.227970
555.598597	0.227928
555.812453	0.227788
556.026291	0.227992
556.240111	0.228377
556.453913	0.228298
556.667696	0.228233
556.881461	0.228470
557.095208	0.228596
557.308937	0.228818
557.522647	0.228712
557.736339	0.228795
557.950013	0.228797
558.163669	0.228216
558.377307	0.228730
558.590926	0.228548
558.804527	0.228407
559.018110	0.228208
559.231675	0.228238
559.445221	0.228036
559.658749	0.227518
559.872259	0.227367
560.085751	0.227436
560.299225	0.227103
560.512680	0.227365
560.726117	0.227184
560.939536	0.227458
561.152937	0.227290
561.366319	0.227535
561.579683	0.228077
561.793029	0.228243
562.006357	0.228212
562.219667	0.228482
562.432958	0.228691
562.646231	0.228683
562.859486	0.228629
563.072723	0.229062
563.285941	0.228745
563.499141	0.228905
563.712323	0.229043
563.925487	0.229892
564.138632	0.230093
564.351760	0.229959
564.564869	0.230253
564.777960	0.229921
564.991032	0.230105
565.204087	0.230706
565.417123	0.230691
565.630141	0.230966
565.843140	0.230259
566.056122	0.230447
566.269085	0.230466
566.482030	0.230760
566.694957	0.231395
566.907866	0.230905
567.120756	0.231039
567.333628	0.231141
567.546482	0.231307
567.759318	0.231662
567.972135	0.231868
568.184935	0.232446
568.397716	0.232495
568.610478	0.232269
568.823223	0.232987
569.035949	0.233077
569.248657	0.232840
569.461347	0.232455
569.674019	0.232508
569.886672	0.232529
570.099308	0.232062
570.311925	0.231944
570.524523	0.232114
570.737104	0.231770
570.949666	0.231534
571.162210	0.232009
571.374736	0.232391
571.587244	0.232743
571.799733	0.232666
572.012205	0.233328
572.224658	0.233466
572.437092	0.233747
572.649509	0.233922
572.861907	0.234334
573.074287	0.234050
573.286649	0.234017
573.498993	0.234263
573.711318	0.234129
573.923625	0.233976
574.135914	0.234155
574.348185	0.234384
574.560438	0.234716
574.772672	0.234612
574.984888	0.235033
575.197086	0.235163
575.409266	0.234943
575.621427	0.235204
575.833570	0.235560
576.045695	0.235677
576.257802	0.235717
576.469890	0.235525
576.681961	0.235756
576.894013	0.235753
577.106046	0.235788
577.318062	0.236181
577.530059	0.236216
577.742039	0.235926
577.954000	0.236129
578.165942	0.235953
578.377867	0.236259
578.589773	0.236366
578.801661	0.236615
579.013531	0.236662
579.225382	0.236210
579.437216	0.236396
579.649031	0.236695
579.860828	0.236401
580.072606	0.236459
580.284367	0.236838
580.496109	0.236971
580.707833	0.236843
580.919539	0.237228
581.131227	0.237350
581.342896	0.237638
581.554547	0.237647
581.766180	0.238072
581.977795	0.238443
582.189391	0.238037
582.400969	0.237727
582.612529	0.237862
582.824071	0.237712
583.035595	0.237850
583.247100	0.237830
583.458587	0.238108
583.670056	0.237954
583.881506	0.237947
584.092939	0.238314
584.304353	0.239088
584.515749	0.239289
584.727127	0.239720
584.938486	0.240101
585.149828	0.240294
585.361151	0.240208
585.572456	0.240432
585.783742	0.240408
585.995011	0.240563
586.206261	0.240303
586.417493	0.240377
586.628706	0.240309
586.839902	0.240318
587.051079	0.240201
587.262238	0.240377
587.473379	0.240744
587.684502	0.241361
587.895606	0.241320
588.106692	0.241539
588.317760	0.241860
588.528810	0.241991
588.739841	0.242360
588.950855	0.242699
589.161850	0.243110
589.372827	0.243271
589.583785	0.243048
589.794726	0.243061
590.005648	0.243378
590.216552	0.243368
590.427437	0.243810
590.638305	0.243660
590.849154	0.244026
591.059985	0.244210
591.270798	0.244279
591.481592	0.244554
591.692369	0.244661
591.903127	0.244515
592.113867	0.244667
592.324588	0.244755
592.535292	0.245229
592.745977	0.245191
592.956644	0.244772
593.167293	0.245195
593.377923	0.245132
593.588536	0.245474
593.799130	0.245735
594.009706	0.246213
594.220263	0.245928
594.430803	0.246060
594.641324	0.246184
594.851827	0.246521
595.062312	0.246184
595.272778	0.246737
595.483227	0.247059
595.693657	0.247068
595.904069	0.247158
596.114462	0.247191
596.324838	0.246822
596.535195	0.246690
596.745534	0.246700
596.955855	0.247155
597.166157	0.247011
597.376441	0.247072
597.586707	0.247471
597.796955	0.247342
598.007185	0.248048
598.217396	0.248480
598.427589	0.249016
598.637764	0.249600
598.847921	0.249968
599.058060	0.250221
599.268180	0.250365
599.478282	0.250499
599.688366	0.250652
599.898431	0.250545
600.108479	0.250585
600.318508	0.250629
600.528519	0.250667
600.738511	0.250652
600.948486	0.250736
601.158442	0.250978
601.368380	0.250807
601.578300	0.250902
601.788202	0.251223
601.998085	0.251529
602.207950	0.251642
602.417797	0.251663
602.627626	0.251726
602.837436	0.251666
603.047228	0.251768
603.257002	0.252049
603.466758	0.252284
603.676496	0.252591
603.886215	0.252787
604.095916	0.252714
604.305599	0.253067
604.515264	0.253050
604.724910	0.253233
604.934538	0.253443
605.144148	0.253328
605.353740	0.253294
605.563314	0.253283
605.772869	0.253519
605.982406	0.253784
606.191925	0.253874
606.401425	0.253880
606.610908	0.254010
606.820372	0.254148
607.029818	0.254678
607.239246	0.255034
607.448655	0.255411
607.658047	0.255637
607.867420	0.256086
608.076775	0.256221
608.286111	0.256172
608.495430	0.256496
608.704730	0.256497
608.914012	0.256476
609.123275	0.256587
609.332521	0.256404
609.541748	0.256654
609.750957	0.256625
609.960148	0.256862
610.169321	0.257276
610.378475	0.257351
610.587611	0.257330
610.796729	0.257478
611.005829	0.257528
611.214910	0.257846
611.423974	0.257725
611.633019	0.257749
611.842045	0.257814
612.051054	0.257860
612.260044	0.258116
612.469017	0.258676
612.677970	0.258881
612.886906	0.258954
613.095824	0.259045
613.304723	0.259200
613.513604	0.259493
613.722467	0.259387
613.931311	0.259796
614.140138	0.259770
614.348946	0.259773
614.557736	0.259779
614.766507	0.260183
614.975261	0.260228
615.183996	0.260336
615.392713	0.260711
615.601412	0.260709
615.810092	0.260847
616.018754	0.261118
616.227399	0.261084
616.436024	0.261366
616.644632	0.261144
616.853222	0.261249
617.061793	0.261466
617.270346	0.261222
617.478880	0.261849
617.687397	0.261895
617.895895	0.261904
618.104375	0.262285
618.312837	0.262466
618.521281	0.262912
618.729706	0.262847
618.938113	0.262677
619.146502	0.262924
619.354873	0.262654
619.563226	0.262833
619.771560	0.262991
619.979876	0.262838
620.188174	0.262754
620.396453	0.262780
620.604715	0.262954
620.812958	0.263111
621.021183	0.263228
621.229390	0.263600
621.437578	0.263634
621.645748	0.263628
621.853900	0.263842
622.062034	0.264022
622.270150	0.264384
622.478247	0.265080
622.686326	0.265446
622.894387	0.265494
623.102430	0.265575
623.310454	0.265985
623.518461	0.266072
623.726449	0.266249
623.934418	0.266566
624.142370	0.266634
624.350303	0.266315
624.558218	0.266408
624.766115	0.266601
624.973994	0.266753
625.181855	0.266415
625.389697	0.266622
625.597521	0.266828
625.805327	0.266890
626.013114	0.266855
626.220883	0.266934
626.428634	0.267008
626.636367	0.266985
626.844082	0.266805
627.051778	0.267510
627.259457	0.267807
627.467117	0.267571
627.674758	0.267608
627.882382	0.267808
628.089987	0.268033
628.297574	0.268190
628.505143	0.268614
628.712694	0.268864
628.920226	0.268384
629.127740	0.268723
629.335236	0.269112
629.542714	0.269456
629.750174	0.269388
629.957615	0.269383
630.165038	0.269574
630.372443	0.269440
630.579829	0.269840
630.787198	0.270403
630.994548	0.270527
631.201880	0.270795
631.409194	0.270894
631.616489	0.271265
631.823766	0.271758
632.031025	0.271939
632.238266	0.272308
632.445489	0.272473
632.652693	0.272591
632.859879	0.272471
633.067047	0.272657
633.274197	0.272890
633.481329	0.273132
633.688442	0.273038
633.895537	0.273179
634.102614	0.273195
634.309672	0.273190
634.516713	0.273231
634.723735	0.273602
634.930739	0.273657
635.137724	0.273643
635.344692	0.273720
635.551641	0.273736
635.758572	0.273494
635.965485	0.273743
636.172379	0.274167
636.379256	0.274282
636.586114	0.274196
636.792954	0.274530
636.999775	0.274458
637.206579	0.274409
637.413364	0.274564
637.620131	0.275024
637.826880	0.275095
638.033610	0.274903
638.240323	0.275152
638.447017	0.275221
638.653692	0.275038
638.860350	0.275329
639.066990	0.275568
639.273611	0.275970
639.480214	0.276284
639.686798	0.276392
639.893365	0.276619
640.099913	0.276840
640.306443	0.277131
640.512955	0.277446
640.719449	0.277727
640.925924	0.277944
641.132381	0.277933
641.338820	0.277922
641.545241	0.277949
641.751644	0.278229
641.958028	0.278210
642.164394	0.278301
642.370742	0.278397
642.577071	0.278509
642.783383	0.278668
642.989676	0.278931
643.195951	0.278986
643.402207	0.279274
643.608446	0.279364
643.814666	0.279820
644.020868	0.280133
644.227052	0.280428
644.433218	0.280753
644.639365	0.280764
644.845494	0.280802
645.051605	0.281138
645.257698	0.281177
645.463772	0.281328
645.669828	0.281454
645.875866	0.281540
646.081886	0.281655
646.287888	0.281425
646.493871	0.281677
646.699836	0.281840
646.905783	0.281840
647.111712	0.281874
647.317622	0.281698
647.523514	0.281555
647.729388	0.281479
647.935244	0.281514
648.141082	0.281613
648.346901	0.281533
648.552702	0.281756
648.758485	0.281878
648.964250	0.282173
649.169996	0.282457
649.375724	0.282556
649.581434	0.282741
649.787126	0.282854
649.992800	0.283150
650.198455	0.283632
650.404092	0.284071
650.609711	0.284404
650.815311	0.284772
651.020894	0.285178
651.226458	0.285527
651.432004	0.285899
651.637532	0.286115
651.843041	0.286288
652.048532	0.286384
652.254006	0.286332
652.459460	0.286545
652.664897	0.286512
652.870315	0.286363
653.075716	0.286522
653.281097	0.286548
653.486461	0.286583
653.691807	0.286623
653.897134	0.286746
654.102443	0.286777
654.307734	0.286815
654.513006	0.287179
654.718261	0.287538
654.923497	0.287664
655.128715	0.288105
655.333915	0.288403
655.539096	0.288848
655.744259	0.289143
655.949404	0.289339
656.154531	0.289522
656.359640	0.289571
656.564730	0.289930
656.769802	0.290124
656.974856	0.290059
657.179892	0.290445
657.384909	0.290529
657.589908	0.290668
657.794889	0.291025
657.999852	0.291193
658.204797	0.291583
658.409723	0.291550
658.614631	0.291858
658.819521	0.292190
659.024393	0.292139
659.229246	0.292459
659.434081	0.292660
659.638898	0.292901
659.843697	0.293018
660.048478	0.292926
660.253240	0.293222
660.457984	0.293090
660.662710	0.293303
660.867417	0.293725
661.072107	0.293897
661.276778	0.293921
661.481431	0.293891
661.686066	0.294117
661.890682	0.294513
662.095281	0.294855
662.299861	0.295288
662.504422	0.295289
662.708966	0.295128
662.913491	0.295404
663.117999	0.295689
663.322488	0.295985
663.526958	0.296269
663.731411	0.296434
663.935845	0.296473
664.140261	0.296643
664.344659	0.296837
664.549038	0.296946
664.753400	0.296965
664.957743	0.297083
665.162068	0.296847
665.366375	0.296925
665.570663	0.296949
665.774933	0.296904
665.979185	0.297226
666.183419	0.297239
666.387635	0.297691
666.591832	0.297756
666.796011	0.297975
667.000172	0.298577
667.204315	0.298782
667.408439	0.298916
667.612545	0.299316
667.816634	0.299312
668.020703	0.299847
668.224755	0.300022
668.428788	0.300161
668.632803	0.300387
668.836800	0.300362
669.040779	0.300596
669.244739	0.300872
669.448681	0.301055
669.652605	0.301263
669.856511	0.301290
670.060399	0.301557
670.264268	0.301898
670.468119	0.302158
670.671952	0.302295
670.875767	0.302162
671.079563	0.302239
671.283341	0.302334
671.487101	0.302466
671.690843	0.302718
671.894567	0.302636
672.098272	0.302806
672.301959	0.302916
672.505628	0.303199
672.709278	0.303696
672.912911	0.304017
673.116525	0.304266
673.320121	0.304241
673.523699	0.304345
673.727258	0.304768
673.930799	0.305000
674.134322	0.305225
674.337827	0.305324
674.541314	0.305441
674.744782	0.305493
674.948232	0.305605
675.151664	0.305772
675.355078	0.305845
675.558474	0.305845
675.761851	0.305889
675.965210	0.306237
676.168551	0.306438
676.371873	0.306699
676.575178	0.307028
676.778464	0.307091
676.981732	0.307397
677.184981	0.307930
677.388213	0.308329
677.591426	0.308533
677.794621	0.308372
677.997798	0.308737
678.200956	0.308848
678.404097	0.309111
678.607219	0.309401
678.810323	0.309711
679.013408	0.309577
679.216476	0.309622
679.419525	0.309851
679.622556	0.310112
679.825569	0.309897
680.028563	0.309987
680.231540	0.309994
680.434498	0.310176
680.637438	0.310189
680.840359	0.310288
681.043263	0.310434
681.246148	0.310496
681.449015	0.310530
681.651864	0.310991
681.854694	0.311117
682.057506	0.311329
682.260301	0.311472
682.463076	0.311654
682.665834	0.311968
682.868573	0.312272
683.071295	0.312487
683.273998	0.312937
683.476682	0.312965
683.679349	0.313487
683.881997	0.313761
684.084627	0.314009
684.287239	0.314418
684.489833	0.314471
684.692408	0.314516
684.894965	0.314672
685.097504	0.314708
685.300025	0.314985
685.502527	0.314912
685.705012	0.314761
685.907478	0.314726
686.109925	0.314634
686.312355	0.315118
686.514766	0.315180
686.717159	0.315407
686.919534	0.315547
687.121891	0.315656
687.324230	0.315846
687.526550	0.316284
687.728852	0.316398
687.931136	0.316635
688.133401	0.316529
688.335649	0.316657
688.537878	0.316694
688.740089	0.317050
688.942281	0.317287
689.144456	0.317376
689.346612	0.317533
689.548750	0.317860
689.750870	0.318304
689.952971	0.318430
690.155055	0.318819
690.357120	0.319069
690.559167	0.318991
690.761195	0.319415
690.963206	0.319494
691.165198	0.319811
691.367172	0.319942
691.569128	0.319949
691.771065	0.320430
691.972984	0.320418
692.174885	0.320667
692.376768	0.320834
692.578633	0.320753
692.780479	0.321084
692.982308	0.320963
693.184118	0.321106
693.385909	0.321049
