sample name	sample
index	469
start time	 03-11-2021  12:16:05 PM


Wavelength (nm)	Absorbance
494.344910	0.318602
494.563924	0.318602
494.782919	0.318602
495.001897	0.168667
495.220856	0.130488
495.439797	0.113677
495.658719	0.050550
495.877624	-0.022760
496.096510	-0.026811
496.315378	-0.066969
496.534227	-0.041586
496.753059	-0.055362
496.971872	-0.052009
497.190667	0.144425
497.409444	0.156962
497.628203	0.163771
497.846943	0.167993
498.065665	0.169102
498.284369	0.169045
498.503055	0.167842
498.721723	0.168018
498.940372	0.166843
499.159003	0.166691
499.377616	0.166680
499.596210	0.165433
499.814787	0.165040
500.033345	0.163639
500.251885	0.164203
500.470406	0.165053
500.688910	0.165085
500.907395	0.166034
501.125862	0.165507
501.344311	0.166112
501.562742	0.167249
501.781154	0.167158
501.999548	0.167937
502.217924	0.167705
502.436282	0.166866
502.654621	0.166379
502.872942	0.166855
503.091245	0.167395
503.309530	0.166845
503.527797	0.165997
503.746045	0.166495
503.964275	0.167133
504.182487	0.167497
504.400681	0.168450
504.618856	0.169332
504.837013	0.169611
505.055152	0.170152
505.273273	0.171138
505.491376	0.172375
505.709460	0.173012
505.927526	0.172425
506.145574	0.172695
506.363604	0.172880
506.581615	0.171997
506.799608	0.172020
507.017583	0.171757
507.235540	0.170783
507.453478	0.170647
507.671399	0.169857
507.889301	0.170463
508.107185	0.170280
508.325050	0.169591
508.542898	0.170943
508.760727	0.171471
508.978538	0.172520
509.196330	0.173508
509.414105	0.173126
509.631861	0.173921
509.849599	0.173731
510.067319	0.174383
510.285021	0.174797
510.502704	0.174789
510.720369	0.174354
510.938016	0.173883
511.155645	0.173368
511.373255	0.174708
511.590848	0.174494
511.808422	0.175040
512.025977	0.174697
512.243515	0.175131
512.461034	0.175330
512.678536	0.175021
512.896018	0.175140
513.113483	0.176249
513.330930	0.175280
513.548358	0.175832
513.765768	0.175579
513.983160	0.176014
514.200533	0.176490
514.417889	0.176834
514.635226	0.177230
514.852545	0.177548
515.069845	0.177073
515.287128	0.177468
515.504392	0.177705
515.721638	0.178568
515.938866	0.179040
516.156075	0.178739
516.373267	0.178457
516.590440	0.178706
516.807594	0.179313
517.024731	0.179882
517.241850	0.180478
517.458950	0.180937
517.676032	0.180952
517.893095	0.180283
518.110141	0.180348
518.327168	0.180673
518.544177	0.181874
518.761168	0.181779
518.978141	0.182747
519.195095	0.182354
519.412031	0.181399
519.628949	0.180988
519.845849	0.181432
520.062731	0.182210
520.279594	0.182317
520.496439	0.182534
520.713266	0.181850
520.930074	0.181571
521.146865	0.182423
521.363637	0.182938
521.580391	0.183462
521.797127	0.184376
522.013844	0.184747
522.230543	0.184909
522.447224	0.184303
522.663887	0.185406
522.880532	0.185594
523.097158	0.185674
523.313766	0.185971
523.530356	0.186433
523.746928	0.186312
523.963481	0.185847
524.180017	0.186051
524.396534	0.186235
524.613032	0.186556
524.829513	0.186242
525.045975	0.186570
525.262420	0.188098
525.478845	0.188431
525.695253	0.189202
525.911643	0.190593
526.128014	0.190866
526.344367	0.191640
526.560702	0.191914
526.777018	0.192836
526.993316	0.194250
527.209597	0.193438
527.425858	0.193480
527.642102	0.193161
527.858328	0.192758
528.074535	0.193251
528.290724	0.193787
528.506894	0.193416
528.723047	0.193229
528.939181	0.192176
529.155297	0.192778
529.371395	0.193434
529.587475	0.193853
529.803536	0.194436
530.019579	0.194954
530.235604	0.195156
530.451611	0.195741
530.667600	0.196228
530.883570	0.197196
531.099522	0.197050
531.315456	0.196831
531.531372	0.197343
531.747269	0.197064
531.963148	0.197326
532.179009	0.197394
532.394852	0.197752
532.610676	0.198377
532.826482	0.198258
533.042271	0.198943
533.258040	0.199286
533.473792	0.199064
533.689525	0.199754
533.905240	0.199316
534.120937	0.199573
534.336616	0.200741
534.552277	0.200365
534.767919	0.200584
534.983543	0.200490
535.199149	0.200959
535.414736	0.201896
535.630306	0.202072
535.845857	0.203147
536.061390	0.203730
536.276904	0.203478
536.492401	0.204156
536.707879	0.204699
536.923339	0.204693
537.138781	0.205154
537.354204	0.204831
537.569610	0.205368
537.784997	0.205500
538.000366	0.205991
538.215716	0.206126
538.431049	0.206240
538.646363	0.206205
538.861659	0.206980
539.076937	0.207224
539.292196	0.208239
539.507438	0.208680
539.722661	0.208975
539.937866	0.208634
540.153052	0.209357
540.368221	0.209574
540.583371	0.209554
540.798503	0.209873
541.013617	0.210041
541.228712	0.209564
541.443789	0.209923
541.658848	0.210166
541.873889	0.211005
542.088912	0.210982
542.303916	0.211818
542.518902	0.212597
542.733870	0.212890
542.948820	0.213332
543.163752	0.213576
543.378665	0.213132
543.593560	0.213509
543.808437	0.213645
544.023295	0.213852
544.238136	0.214024
544.452958	0.214387
544.667762	0.215153
544.882548	0.215502
545.097315	0.216171
545.312064	0.216911
545.526795	0.217017
545.741508	0.217421
545.956203	0.217437
546.170879	0.217247
546.385537	0.217662
546.600177	0.218180
546.814799	0.218653
547.029402	0.218762
547.243988	0.218953
547.458555	0.218946
547.673103	0.218948
547.887634	0.219417
548.102146	0.219493
548.316640	0.219343
548.531116	0.218683
548.745574	0.218553
548.960013	0.218962
549.174435	0.219193
549.388838	0.219356
549.603222	0.219482
549.817589	0.219885
550.031937	0.220497
550.246267	0.220892
550.460579	0.221486
550.674873	0.222011
550.889148	0.222175
551.103405	0.222203
551.317644	0.222355
551.531865	0.222745
551.746068	0.222925
551.960252	0.223294
552.174418	0.223466
552.388566	0.223422
552.602696	0.223830
552.816807	0.223977
553.030900	0.224706
553.244975	0.225359
553.459032	0.225688
553.673070	0.225761
553.887091	0.225818
554.101093	0.226228
554.315077	0.226487
554.529042	0.226561
554.742990	0.226743
554.956919	0.226425
555.170830	0.226918
555.384722	0.226991
555.598597	0.227703
555.812453	0.227345
556.026291	0.227743
556.240111	0.228250
556.453913	0.228277
556.667696	0.228489
556.881461	0.229292
557.095208	0.229278
557.308937	0.229825
557.522647	0.229775
557.736339	0.230927
557.950013	0.231045
558.163669	0.231261
558.377307	0.231283
558.590926	0.231713
558.804527	0.231170
559.018110	0.231522
559.231675	0.231936
559.445221	0.232184
559.658749	0.231815
559.872259	0.232020
560.085751	0.231849
560.299225	0.232048
560.512680	0.232325
560.726117	0.232997
560.939536	0.232910
561.152937	0.232455
561.366319	0.232303
561.579683	0.232663
561.793029	0.232601
562.006357	0.233141
562.219667	0.233617
562.432958	0.233598
562.646231	0.233630
562.859486	0.234028
563.072723	0.234283
563.285941	0.234861
563.499141	0.235137
563.712323	0.235218
563.925487	0.234990
564.138632	0.234879
564.351760	0.234782
564.564869	0.235211
564.777960	0.235399
564.991032	0.235696
565.204087	0.236151
565.417123	0.236599
565.630141	0.236798
565.843140	0.237007
566.056122	0.237232
566.269085	0.238077
566.482030	0.237970
566.694957	0.237954
566.907866	0.238186
567.120756	0.237831
567.333628	0.237946
567.546482	0.238148
567.759318	0.238572
567.972135	0.239045
568.184935	0.238975
568.397716	0.239732
568.610478	0.240116
568.823223	0.240359
569.035949	0.240885
569.248657	0.240886
569.461347	0.241093
569.674019	0.241388
569.886672	0.241645
570.099308	0.241531
570.311925	0.240947
570.524523	0.241062
570.737104	0.241170
570.949666	0.240824
571.162210	0.241323
571.374736	0.241513
571.587244	0.241698
571.799733	0.241796
572.012205	0.242135
572.224658	0.242764
572.437092	0.242996
572.649509	0.242931
572.861907	0.243427
573.074287	0.243419
573.286649	0.243873
573.498993	0.243905
573.711318	0.243749
573.923625	0.244226
574.135914	0.244922
574.348185	0.244835
574.560438	0.245287
574.772672	0.245435
574.984888	0.245708
575.197086	0.245625
575.409266	0.245477
575.621427	0.245810
575.833570	0.245677
576.045695	0.245144
576.257802	0.245288
576.469890	0.245295
576.681961	0.245189
576.894013	0.245257
577.106046	0.245856
577.318062	0.246408
577.530059	0.246372
577.742039	0.246593
577.954000	0.246860
578.165942	0.247632
578.377867	0.247887
578.589773	0.248721
578.801661	0.248697
579.013531	0.248494
579.225382	0.248636
579.437216	0.249017
579.649031	0.249244
579.860828	0.249572
580.072606	0.249208
580.284367	0.249540
580.496109	0.249509
580.707833	0.249823
580.919539	0.250288
581.131227	0.250464
581.342896	0.250794
581.554547	0.251113
581.766180	0.251252
581.977795	0.251917
582.189391	0.252182
582.400969	0.252111
582.612529	0.252473
582.824071	0.252489
583.035595	0.253435
583.247100	0.253453
583.458587	0.253716
583.670056	0.253958
583.881506	0.253883
584.092939	0.254247
584.304353	0.254795
584.515749	0.254989
584.727127	0.255424
584.938486	0.255341
585.149828	0.255629
585.361151	0.255525
585.572456	0.255816
585.783742	0.256192
585.995011	0.255989
586.206261	0.256194
586.417493	0.256566
586.628706	0.256663
586.839902	0.256653
587.051079	0.257338
587.262238	0.257792
587.473379	0.258116
587.684502	0.258534
587.895606	0.258927
588.106692	0.258986
588.317760	0.259063
588.528810	0.259027
588.739841	0.259203
588.950855	0.259047
589.161850	0.259319
589.372827	0.259172
589.583785	0.258850
589.794726	0.258981
590.005648	0.259403
590.216552	0.259398
590.427437	0.259593
590.638305	0.259535
590.849154	0.259911
591.059985	0.260381
591.270798	0.260910
591.481592	0.261195
591.692369	0.261661
591.903127	0.261538
592.113867	0.261776
592.324588	0.262027
592.535292	0.262250
592.745977	0.262147
592.956644	0.261838
593.167293	0.262191
593.377923	0.262591
593.588536	0.262490
593.799130	0.263172
594.009706	0.263299
594.220263	0.263400
594.430803	0.263827
594.641324	0.264361
594.851827	0.264501
595.062312	0.264295
595.272778	0.264686
595.483227	0.264865
595.693657	0.264585
595.904069	0.264934
596.114462	0.265407
596.324838	0.265497
596.535195	0.265207
596.745534	0.265333
596.955855	0.265758
597.166157	0.265927
597.376441	0.265982
597.586707	0.266256
597.796955	0.266201
598.007185	0.266548
598.217396	0.266640
598.427589	0.266957
598.637764	0.267347
598.847921	0.267496
599.058060	0.267703
599.268180	0.268550
599.478282	0.268771
599.688366	0.269245
599.898431	0.269036
600.108479	0.269356
600.318508	0.269680
600.528519	0.269806
600.738511	0.269626
600.948486	0.269977
601.158442	0.269801
601.368380	0.270066
601.578300	0.270069
601.788202	0.270380
601.998085	0.270363
602.207950	0.270535
602.417797	0.270754
602.627626	0.271100
602.837436	0.271143
603.047228	0.271179
603.257002	0.271398
603.466758	0.271783
603.676496	0.272178
603.886215	0.272471
604.095916	0.272876
604.305599	0.273481
604.515264	0.273723
604.724910	0.273808
604.934538	0.274127
605.144148	0.274031
605.353740	0.273960
605.563314	0.273709
605.772869	0.273672
605.982406	0.273718
606.191925	0.273791
606.401425	0.273738
606.610908	0.273854
606.820372	0.273695
607.029818	0.274233
607.239246	0.274468
607.448655	0.275091
607.658047	0.275749
607.867420	0.275729
608.076775	0.275528
608.286111	0.275876
608.495430	0.275917
608.704730	0.276190
608.914012	0.276076
609.123275	0.276284
609.332521	0.276426
609.541748	0.276475
609.750957	0.276733
609.960148	0.277044
610.169321	0.277208
610.378475	0.277529
610.587611	0.277994
610.796729	0.278494
611.005829	0.278839
611.214910	0.278863
611.423974	0.278717
611.633019	0.279099
611.842045	0.279068
612.051054	0.279567
612.260044	0.280124
612.469017	0.280074
612.677970	0.280029
612.886906	0.280143
613.095824	0.280279
613.304723	0.280487
613.513604	0.280569
613.722467	0.281064
613.931311	0.280861
614.140138	0.280690
614.348946	0.280944
614.557736	0.280899
614.766507	0.280597
614.975261	0.280870
615.183996	0.280987
615.392713	0.281019
615.601412	0.281173
615.810092	0.281589
616.018754	0.281750
616.227399	0.281937
616.436024	0.282347
616.644632	0.283001
616.853222	0.283100
617.061793	0.283537
617.270346	0.283676
617.478880	0.283528
617.687397	0.283358
617.895895	0.283556
618.104375	0.283697
618.312837	0.283574
618.521281	0.283392
618.729706	0.283549
618.938113	0.283786
619.146502	0.283898
619.354873	0.284271
619.563226	0.284781
619.771560	0.284836
619.979876	0.285000
620.188174	0.285343
620.396453	0.285836
620.604715	0.286025
620.812958	0.286348
621.021183	0.286721
621.229390	0.286956
621.437578	0.286949
621.645748	0.287133
621.853900	0.287187
622.062034	0.287344
622.270150	0.287317
622.478247	0.287362
622.686326	0.287194
622.894387	0.287294
623.102430	0.287422
623.310454	0.287607
623.518461	0.287767
623.726449	0.288106
623.934418	0.288392
624.142370	0.288792
624.350303	0.289059
624.558218	0.289587
624.766115	0.289801
624.973994	0.289796
625.181855	0.289740
625.389697	0.289820
625.597521	0.290093
625.805327	0.290303
626.013114	0.290059
626.220883	0.290082
626.428634	0.289887
626.636367	0.289938
626.844082	0.289912
627.051778	0.290167
627.259457	0.290326
627.467117	0.290341
627.674758	0.290178
627.882382	0.290611
628.089987	0.291132
628.297574	0.291505
628.505143	0.291682
628.712694	0.292343
628.920226	0.292579
629.127740	0.292775
629.335236	0.292929
629.542714	0.293416
629.750174	0.293554
629.957615	0.293578
630.165038	0.293795
630.372443	0.293911
630.579829	0.294093
630.787198	0.294327
630.994548	0.294457
631.201880	0.294563
631.409194	0.294703
631.616489	0.294779
631.823766	0.294882
632.031025	0.295050
632.238266	0.295148
632.445489	0.295152
632.652693	0.295185
632.859879	0.295491
633.067047	0.295631
633.274197	0.295894
633.481329	0.296095
633.688442	0.296456
633.895537	0.296667
634.102614	0.297132
634.309672	0.297148
634.516713	0.297476
634.723735	0.297771
634.930739	0.298067
635.137724	0.298247
635.344692	0.298513
635.551641	0.298566
635.758572	0.298264
635.965485	0.298253
636.172379	0.298516
636.379256	0.298542
636.586114	0.298429
636.792954	0.298737
636.999775	0.298721
637.206579	0.298893
637.413364	0.298791
637.620131	0.299351
637.826880	0.299326
638.033610	0.299609
638.240323	0.299923
638.447017	0.299988
638.653692	0.300051
638.860350	0.300314
639.066990	0.300409
639.273611	0.301049
639.480214	0.301204
639.686798	0.301819
639.893365	0.302188
640.099913	0.302381
640.306443	0.302659
640.512955	0.302808
640.719449	0.303264
640.925924	0.303769
641.132381	0.303903
641.338820	0.304110
641.545241	0.304143
641.751644	0.304014
641.958028	0.304087
642.164394	0.304418
642.370742	0.304587
642.577071	0.304180
642.783383	0.304293
642.989676	0.304219
643.195951	0.304473
643.402207	0.304711
643.608446	0.305042
643.814666	0.305392
644.020868	0.305574
644.227052	0.305789
644.433218	0.306285
644.639365	0.306242
644.845494	0.306487
645.051605	0.306505
645.257698	0.306554
645.463772	0.306568
645.669828	0.306773
645.875866	0.306979
646.081886	0.307389
646.287888	0.307408
646.493871	0.307612
646.699836	0.307865
646.905783	0.307754
647.111712	0.307961
647.317622	0.307958
647.523514	0.307816
647.729388	0.308142
647.935244	0.307941
648.141082	0.308424
648.346901	0.308675
648.552702	0.308863
648.758485	0.309456
648.964250	0.309581
649.169996	0.309832
649.375724	0.310357
649.581434	0.310388
649.787126	0.310948
649.992800	0.311059
650.198455	0.311214
650.404092	0.311285
650.609711	0.311418
650.815311	0.311982
651.020894	0.312484
651.226458	0.312465
651.432004	0.312790
651.637532	0.312883
651.843041	0.312986
652.048532	0.313181
652.254006	0.313494
652.459460	0.313853
652.664897	0.313795
652.870315	0.313884
653.075716	0.314252
653.281097	0.314437
653.486461	0.314556
653.691807	0.314645
653.897134	0.315005
654.102443	0.315183
654.307734	0.314995
654.513006	0.315307
654.718261	0.315603
654.923497	0.315888
655.128715	0.316066
655.333915	0.316382
655.539096	0.316759
655.744259	0.316792
655.949404	0.317023
656.154531	0.317405
656.359640	0.317357
656.564730	0.317477
656.769802	0.317420
656.974856	0.317480
657.179892	0.317387
657.384909	0.317497
657.589908	0.317897
657.794889	0.318188
657.999852	0.318349
658.204797	0.318804
658.409723	0.319410
658.614631	0.319898
658.819521	0.320192
659.024393	0.320391
659.229246	0.320632
659.434081	0.320801
659.638898	0.321123
659.843697	0.321408
660.048478	0.321748
660.253240	0.321741
660.457984	0.321917
660.662710	0.322234
660.867417	0.322754
661.072107	0.323038
661.276778	0.323217
661.481431	0.323268
661.686066	0.323511
661.890682	0.323453
662.095281	0.323499
662.299861	0.323403
662.504422	0.323412
662.708966	0.323431
662.913491	0.323441
663.117999	0.323481
663.322488	0.323658
663.526958	0.323746
663.731411	0.324105
663.935845	0.324399
664.140261	0.324989
664.344659	0.325217
664.549038	0.325480
664.753400	0.325857
664.957743	0.326067
665.162068	0.326220
665.366375	0.326415
665.570663	0.326516
665.774933	0.326611
665.979185	0.326724
666.183419	0.326920
666.387635	0.327018
666.591832	0.327070
666.796011	0.327522
667.000172	0.327848
667.204315	0.328391
667.408439	0.328583
667.612545	0.328669
667.816634	0.328652
668.020703	0.328790
668.224755	0.329113
668.428788	0.329425
668.632803	0.329634
668.836800	0.330024
669.040779	0.330138
669.244739	0.330405
669.448681	0.330916
669.652605	0.331486
669.856511	0.331947
670.060399	0.332138
670.264268	0.332339
670.468119	0.332419
670.671952	0.332342
670.875767	0.332584
671.079563	0.332685
671.283341	0.332891
671.487101	0.332767
671.690843	0.332847
671.894567	0.333213
672.098272	0.333399
672.301959	0.333901
672.505628	0.334015
672.709278	0.334103
672.912911	0.334344
673.116525	0.334554
673.320121	0.335058
673.523699	0.335335
673.727258	0.335545
673.930799	0.335933
674.134322	0.335962
674.337827	0.336595
674.541314	0.336946
674.744782	0.337286
674.948232	0.337622
675.151664	0.337799
675.355078	0.337945
675.558474	0.338200
675.761851	0.338332
675.965210	0.338188
676.168551	0.338146
676.371873	0.338003
676.575178	0.338078
676.778464	0.338117
676.981732	0.338364
677.184981	0.338908
677.388213	0.338968
677.591426	0.339179
677.794621	0.339657
677.997798	0.339902
678.200956	0.340458
678.404097	0.340757
678.607219	0.341030
678.810323	0.341041
679.013408	0.340872
679.216476	0.341261
679.419525	0.341496
679.622556	0.341761
679.825569	0.341855
680.028563	0.341821
680.231540	0.342031
680.434498	0.342234
680.637438	0.342955
680.840359	0.343593
681.043263	0.343914
681.246148	0.344209
681.449015	0.344344
681.651864	0.344808
681.854694	0.345231
682.057506	0.345538
682.260301	0.345793
682.463076	0.345501
682.665834	0.345226
682.868573	0.345235
683.071295	0.345560
683.273998	0.346040
683.476682	0.346142
683.679349	0.346297
683.881997	0.346806
684.084627	0.346962
684.287239	0.347263
684.489833	0.347847
684.692408	0.347865
684.894965	0.347753
685.097504	0.347834
685.300025	0.348008
685.502527	0.348195
685.705012	0.348192
685.907478	0.348344
686.109925	0.348500
686.312355	0.348448
686.514766	0.348817
686.717159	0.349207
686.919534	0.349414
687.121891	0.349536
687.324230	0.349899
687.526550	0.349958
687.728852	0.350327
687.931136	0.350535
688.133401	0.350955
688.335649	0.351247
688.537878	0.351226
688.740089	0.351334
688.942281	0.351537
689.144456	0.351313
689.346612	0.351346
689.548750	0.351151
689.750870	0.351238
689.952971	0.351085
690.155055	0.351387
690.357120	0.351857
690.559167	0.351961
690.761195	0.352289
690.963206	0.352577
691.165198	0.352897
691.367172	0.353167
691.569128	0.353315
691.771065	0.353889
691.972984	0.353788
692.174885	0.353810
692.376768	0.353959
692.578633	0.354088
692.780479	0.354520
692.982308	0.354741
693.184118	0.355152
693.385909	0.355551
