sample name	sample
index	1018
start time	 04-19-2021  11:54:13 AM


Wavelength (nm)	Absorbance
494.344910	0.044300
494.563924	0.044300
494.782919	0.044300
495.001897	-0.053325
495.220856	0.026758
495.439797	0.009200
495.658719	0.007559
495.877624	-0.008136
496.096510	-0.006553
496.315378	-0.018335
496.534227	-0.047416
496.753059	-0.035903
496.971872	-0.045782
497.190667	0.072860
497.409444	0.135246
497.628203	0.156624
497.846943	0.169126
498.065665	0.173999
498.284369	0.178673
498.503055	0.180723
498.721723	0.183013
498.940372	0.185785
499.159003	0.185664
499.377616	0.185236
499.596210	0.185225
499.814787	0.185208
500.033345	0.185373
500.251885	0.184780
500.470406	0.187038
500.688910	0.187085
500.907395	0.187594
501.125862	0.190945
501.344311	0.191676
501.562742	0.191130
501.781154	0.192797
501.999548	0.193659
502.217924	0.194128
502.436282	0.194005
502.654621	0.194438
502.872942	0.194135
503.091245	0.191783
503.309530	0.191570
503.527797	0.192286
503.746045	0.191185
503.964275	0.192031
504.182487	0.192250
504.400681	0.193014
504.618856	0.192639
504.837013	0.192600
505.055152	0.194540
505.273273	0.195147
505.491376	0.194465
505.709460	0.194445
505.927526	0.194295
506.145574	0.194666
506.363604	0.193758
506.581615	0.193980
506.799608	0.193719
507.017583	0.192254
507.235540	0.192794
507.453478	0.193328
507.671399	0.193492
507.889301	0.193472
508.107185	0.193820
508.325050	0.194959
508.542898	0.194138
508.760727	0.194998
508.978538	0.196235
509.196330	0.196388
509.414105	0.196330
509.631861	0.196497
509.849599	0.196908
510.067319	0.197305
510.285021	0.196513
510.502704	0.198101
510.720369	0.198785
510.938016	0.199553
511.155645	0.198706
511.373255	0.199848
511.590848	0.200135
511.808422	0.199568
512.025977	0.198881
512.243515	0.198875
512.461034	0.198511
512.678536	0.199392
512.896018	0.198215
513.113483	0.199431
513.330930	0.199189
513.548358	0.199909
513.765768	0.200064
513.983160	0.200844
514.200533	0.201824
514.417889	0.202563
514.635226	0.202274
514.852545	0.202914
515.069845	0.202570
515.287128	0.202391
515.504392	0.202765
515.721638	0.202802
515.938866	0.203116
516.156075	0.203658
516.373267	0.202790
516.590440	0.202826
516.807594	0.203142
517.024731	0.203969
517.241850	0.204835
517.458950	0.204302
517.676032	0.205173
517.893095	0.205404
518.110141	0.205458
518.327168	0.205967
518.544177	0.206610
518.761168	0.206838
518.978141	0.206319
519.195095	0.207027
519.412031	0.206794
519.628949	0.206822
519.845849	0.207552
520.062731	0.208426
520.279594	0.209848
520.496439	0.210164
520.713266	0.211258
520.930074	0.211879
521.146865	0.212036
521.363637	0.213201
521.580391	0.213431
521.797127	0.214152
522.013844	0.213997
522.230543	0.213697
522.447224	0.213593
522.663887	0.213735
522.880532	0.214477
523.097158	0.214639
523.313766	0.214677
523.530356	0.215686
523.746928	0.215085
523.963481	0.215602
524.180017	0.216294
524.396534	0.216623
524.613032	0.216673
524.829513	0.217982
525.045975	0.218828
525.262420	0.219861
525.478845	0.220197
525.695253	0.221184
525.911643	0.221575
526.128014	0.221781
526.344367	0.222664
526.560702	0.223327
526.777018	0.223098
526.993316	0.223612
527.209597	0.223345
527.425858	0.223246
527.642102	0.223147
527.858328	0.222915
528.074535	0.223439
528.290724	0.223668
528.506894	0.223869
528.723047	0.224156
528.939181	0.223663
529.155297	0.225120
529.371395	0.225984
529.587475	0.226163
529.803536	0.226184
530.019579	0.226280
530.235604	0.226028
530.451611	0.226198
530.667600	0.226604
530.883570	0.227786
531.099522	0.227327
531.315456	0.228074
531.531372	0.228965
531.747269	0.229883
531.963148	0.230428
532.179009	0.231358
532.394852	0.231431
532.610676	0.231865
532.826482	0.231407
533.042271	0.231756
533.258040	0.231685
533.473792	0.232178
533.689525	0.232829
533.905240	0.233205
534.120937	0.233676
534.336616	0.234291
534.552277	0.235085
534.767919	0.235459
534.983543	0.235841
535.199149	0.236556
535.414736	0.236279
535.630306	0.236390
535.845857	0.236284
536.061390	0.236139
536.276904	0.237179
536.492401	0.237052
536.707879	0.237829
536.923339	0.237901
537.138781	0.238011
537.354204	0.238695
537.569610	0.239230
537.784997	0.239732
538.000366	0.240325
538.215716	0.240054
538.431049	0.240424
538.646363	0.240609
538.861659	0.241480
539.076937	0.241936
539.292196	0.242684
539.507438	0.242860
539.722661	0.243868
539.937866	0.244201
540.153052	0.244975
540.368221	0.245007
540.583371	0.245308
540.798503	0.245671
541.013617	0.245999
541.228712	0.246464
541.443789	0.247208
541.658848	0.247499
541.873889	0.248020
542.088912	0.248171
542.303916	0.248368
542.518902	0.249292
542.733870	0.249872
542.948820	0.250445
543.163752	0.250913
543.378665	0.250966
543.593560	0.251233
543.808437	0.251786
544.023295	0.252102
544.238136	0.252804
544.452958	0.252347
544.667762	0.252327
544.882548	0.252731
545.097315	0.252563
545.312064	0.253388
545.526795	0.253336
545.741508	0.253893
545.956203	0.254474
546.170879	0.254958
546.385537	0.255685
546.600177	0.256229
546.814799	0.256296
547.029402	0.256585
547.243988	0.256735
547.458555	0.257035
547.673103	0.257049
547.887634	0.257053
548.102146	0.257540
548.316640	0.257682
548.531116	0.257770
548.745574	0.257905
548.960013	0.258621
549.174435	0.258756
549.388838	0.258899
549.603222	0.259185
549.817589	0.259545
550.031937	0.259206
550.246267	0.259491
550.460579	0.259973
550.674873	0.260579
550.889148	0.260233
551.103405	0.260003
551.317644	0.260834
551.531865	0.261122
551.746068	0.261457
551.960252	0.261805
552.174418	0.261963
552.388566	0.261656
552.602696	0.261526
552.816807	0.262288
553.030900	0.262917
553.244975	0.263030
553.459032	0.263015
553.673070	0.263567
553.887091	0.264062
554.101093	0.265053
554.315077	0.265744
554.529042	0.266454
554.742990	0.266746
554.956919	0.266851
555.170830	0.267223
555.384722	0.267794
555.598597	0.267440
555.812453	0.267858
556.026291	0.267645
556.240111	0.267823
556.453913	0.267974
556.667696	0.268331
556.881461	0.268598
557.095208	0.268946
557.308937	0.269258
557.522647	0.269569
557.736339	0.269760
557.950013	0.269985
558.163669	0.269749
558.377307	0.270157
558.590926	0.270460
558.804527	0.271075
559.018110	0.271186
559.231675	0.271072
559.445221	0.271378
559.658749	0.271421
559.872259	0.271910
560.085751	0.272645
560.299225	0.272253
560.512680	0.271711
560.726117	0.271408
560.939536	0.271685
561.152937	0.271938
561.366319	0.272589
561.579683	0.273199
561.793029	0.273394
562.006357	0.273538
562.219667	0.274000
562.432958	0.274312
562.646231	0.275072
562.859486	0.274995
563.072723	0.275432
563.285941	0.275663
563.499141	0.275787
563.712323	0.275719
563.925487	0.275954
564.138632	0.276243
564.351760	0.276817
564.564869	0.276736
564.777960	0.276982
564.991032	0.276995
565.204087	0.277160
565.417123	0.277122
565.630141	0.276921
565.843140	0.277557
566.056122	0.277704
566.269085	0.277645
566.482030	0.277701
566.694957	0.278233
566.907866	0.278420
567.120756	0.278710
567.333628	0.279142
567.546482	0.280138
567.759318	0.279867
567.972135	0.280006
568.184935	0.280406
568.397716	0.280821
568.610478	0.280963
568.823223	0.281260
569.035949	0.281166
569.248657	0.281191
569.461347	0.280985
569.674019	0.281087
569.886672	0.281323
570.099308	0.281270
570.311925	0.281340
570.524523	0.280941
570.737104	0.281033
570.949666	0.281531
571.162210	0.281998
571.374736	0.282782
571.587244	0.283127
571.799733	0.283249
572.012205	0.283970
572.224658	0.284359
572.437092	0.284953
572.649509	0.285535
572.861907	0.285379
573.074287	0.284906
573.286649	0.284421
573.498993	0.284871
573.711318	0.285256
573.923625	0.285257
574.135914	0.285320
574.348185	0.285571
574.560438	0.285348
574.772672	0.285637
574.984888	0.286232
575.197086	0.286444
575.409266	0.286666
575.621427	0.286829
575.833570	0.286599
576.045695	0.286856
576.257802	0.287182
576.469890	0.287308
576.681961	0.287509
576.894013	0.287454
577.106046	0.287177
577.318062	0.286757
577.530059	0.287082
577.742039	0.287469
577.954000	0.287497
578.165942	0.287333
578.377867	0.287873
578.589773	0.287698
578.801661	0.288006
579.013531	0.288777
579.225382	0.289275
579.437216	0.289434
579.649031	0.289611
579.860828	0.289724
580.072606	0.289977
580.284367	0.290073
580.496109	0.290429
580.707833	0.290610
580.919539	0.290632
581.131227	0.291159
581.342896	0.291341
581.554547	0.291377
581.766180	0.291829
581.977795	0.292137
582.189391	0.292048
582.400969	0.292673
582.612529	0.293077
582.824071	0.293403
583.035595	0.293742
583.247100	0.293892
583.458587	0.294575
583.670056	0.294652
583.881506	0.295000
584.092939	0.295293
584.304353	0.295365
584.515749	0.295162
584.727127	0.295638
584.938486	0.295641
585.149828	0.295549
585.361151	0.295756
585.572456	0.295893
585.783742	0.295605
585.995011	0.295658
586.206261	0.295441
586.417493	0.295929
586.628706	0.295985
586.839902	0.295694
587.051079	0.296202
587.262238	0.296208
587.473379	0.296531
587.684502	0.296824
587.895606	0.297441
588.106692	0.297639
588.317760	0.298294
588.528810	0.298216
588.739841	0.298739
588.950855	0.299014
589.161850	0.299216
589.372827	0.299426
589.583785	0.299628
589.794726	0.299799
590.005648	0.300087
590.216552	0.299585
590.427437	0.300038
590.638305	0.300072
590.849154	0.299751
591.059985	0.300085
591.270798	0.300433
591.481592	0.300880
591.692369	0.301162
591.903127	0.301333
592.113867	0.301670
592.324588	0.301709
592.535292	0.302154
592.745977	0.302950
592.956644	0.303201
593.167293	0.303138
593.377923	0.303529
593.588536	0.303482
593.799130	0.303654
594.009706	0.303892
594.220263	0.304040
594.430803	0.303726
594.641324	0.303446
594.851827	0.303258
595.062312	0.303208
595.272778	0.303174
595.483227	0.303484
595.693657	0.303633
595.904069	0.303783
596.114462	0.303977
596.324838	0.304486
596.535195	0.304547
596.745534	0.304966
596.955855	0.305560
597.166157	0.305888
597.376441	0.305870
597.586707	0.306222
597.796955	0.306437
598.007185	0.306709
598.217396	0.306663
598.427589	0.307367
598.637764	0.306898
598.847921	0.307209
599.058060	0.307008
599.268180	0.307234
599.478282	0.307306
599.688366	0.307673
599.898431	0.308046
600.108479	0.308613
600.318508	0.308544
600.528519	0.309385
600.738511	0.309228
600.948486	0.309268
601.158442	0.309437
601.368380	0.309496
601.578300	0.309470
601.788202	0.309582
601.998085	0.309364
602.207950	0.309300
602.417797	0.309315
602.627626	0.309468
602.837436	0.310009
603.047228	0.310089
603.257002	0.310484
603.466758	0.310592
603.676496	0.310424
603.886215	0.310815
604.095916	0.311163
604.305599	0.311581
604.515264	0.311802
604.724910	0.311884
604.934538	0.312373
605.144148	0.312160
605.353740	0.312617
605.563314	0.313033
605.772869	0.313162
605.982406	0.312950
606.191925	0.312996
606.401425	0.313270
606.610908	0.313288
606.820372	0.313365
607.029818	0.313928
607.239246	0.313813
607.448655	0.313920
607.658047	0.314391
607.867420	0.315046
608.076775	0.314767
608.286111	0.314840
608.495430	0.315220
608.704730	0.315359
608.914012	0.315514
609.123275	0.316157
609.332521	0.316526
609.541748	0.316243
609.750957	0.316326
609.960148	0.316810
610.169321	0.317189
610.378475	0.317042
610.587611	0.317071
610.796729	0.317289
611.005829	0.317284
611.214910	0.317328
611.423974	0.317433
611.633019	0.317646
611.842045	0.317878
612.051054	0.317766
612.260044	0.318001
612.469017	0.318210
612.677970	0.318620
612.886906	0.318708
613.095824	0.318583
613.304723	0.319189
613.513604	0.319555
613.722467	0.319824
613.931311	0.320451
614.140138	0.320733
614.348946	0.320927
614.557736	0.321047
614.766507	0.321087
614.975261	0.321585
615.183996	0.321430
615.392713	0.321517
615.601412	0.321823
615.810092	0.321631
616.018754	0.321987
616.227399	0.322058
616.436024	0.322136
616.644632	0.322216
616.853222	0.322325
617.061793	0.322558
617.270346	0.322156
617.478880	0.322286
617.687397	0.322287
617.895895	0.322432
618.104375	0.322610
618.312837	0.322749
618.521281	0.322944
618.729706	0.323228
618.938113	0.323598
619.146502	0.323971
619.354873	0.323956
619.563226	0.324369
619.771560	0.324549
619.979876	0.324855
620.188174	0.325031
620.396453	0.325455
620.604715	0.325563
620.812958	0.325419
621.021183	0.325582
621.229390	0.325940
621.437578	0.325949
621.645748	0.326042
621.853900	0.326330
622.062034	0.326660
622.270150	0.326565
622.478247	0.326921
622.686326	0.327283
622.894387	0.327790
623.102430	0.327851
623.310454	0.328068
623.518461	0.328174
623.726449	0.327961
623.934418	0.327995
624.142370	0.328300
624.350303	0.328309
624.558218	0.328370
624.766115	0.328575
624.973994	0.328486
625.181855	0.328483
625.389697	0.328642
625.597521	0.329134
625.805327	0.329313
626.013114	0.329406
626.220883	0.329383
626.428634	0.329587
626.636367	0.329812
626.844082	0.330178
627.051778	0.330370
627.259457	0.330377
627.467117	0.330403
627.674758	0.330675
627.882382	0.330932
628.089987	0.331321
628.297574	0.331491
628.505143	0.331612
628.712694	0.331901
628.920226	0.331852
629.127740	0.332074
629.335236	0.332486
629.542714	0.332673
629.750174	0.332393
629.957615	0.332261
630.165038	0.332405
630.372443	0.332303
630.579829	0.332471
630.787198	0.333274
630.994548	0.333644
631.201880	0.333774
631.409194	0.333761
631.616489	0.334299
631.823766	0.334468
632.031025	0.334695
632.238266	0.334761
632.445489	0.334874
632.652693	0.335004
632.859879	0.335065
633.067047	0.335127
633.274197	0.335267
633.481329	0.335498
633.688442	0.335872
633.895537	0.336011
634.102614	0.336529
634.309672	0.336773
634.516713	0.336771
634.723735	0.336963
634.930739	0.337346
635.137724	0.337505
635.344692	0.337831
635.551641	0.338188
635.758572	0.338588
635.965485	0.338938
636.172379	0.339030
636.379256	0.339484
636.586114	0.339793
636.792954	0.339637
636.999775	0.339815
637.206579	0.339940
637.413364	0.339884
637.620131	0.340033
637.826880	0.340190
638.033610	0.340259
638.240323	0.340453
638.447017	0.340328
638.653692	0.340490
638.860350	0.340358
639.066990	0.340248
639.273611	0.340468
639.480214	0.340388
639.686798	0.340507
639.893365	0.340533
640.099913	0.340265
640.306443	0.340709
640.512955	0.341068
640.719449	0.341536
640.925924	0.341929
641.132381	0.342277
641.338820	0.342639
641.545241	0.342604
641.751644	0.343168
641.958028	0.343798
642.164394	0.343915
642.370742	0.343802
642.577071	0.344093
642.783383	0.344172
642.989676	0.344217
643.195951	0.344450
643.402207	0.344812
643.608446	0.344777
643.814666	0.344705
644.020868	0.344783
644.227052	0.345236
644.433218	0.345226
644.639365	0.345422
644.845494	0.345767
645.051605	0.346001
645.257698	0.346125
645.463772	0.346548
645.669828	0.346691
645.875866	0.347167
646.081886	0.347221
646.287888	0.347344
646.493871	0.347879
646.699836	0.348154
646.905783	0.348143
647.111712	0.348384
647.317622	0.348300
647.523514	0.348745
647.729388	0.348867
647.935244	0.349195
648.141082	0.349707
648.346901	0.349689
648.552702	0.349780
648.758485	0.349907
648.964250	0.350042
649.169996	0.350392
649.375724	0.350340
649.581434	0.350506
649.787126	0.350878
649.992800	0.350767
650.198455	0.351124
650.404092	0.351358
650.609711	0.351717
650.815311	0.351822
651.020894	0.351851
651.226458	0.352325
651.432004	0.352624
651.637532	0.352810
651.843041	0.353031
652.048532	0.352963
652.254006	0.352889
652.459460	0.353094
652.664897	0.353620
652.870315	0.354046
653.075716	0.354099
653.281097	0.354263
653.486461	0.354129
653.691807	0.354506
653.897134	0.354953
654.102443	0.355188
654.307734	0.355482
654.513006	0.355320
654.718261	0.355618
654.923497	0.355831
655.128715	0.356113
655.333915	0.356847
655.539096	0.356846
655.744259	0.356669
655.949404	0.356982
656.154531	0.357472
656.359640	0.357722
656.564730	0.357637
656.769802	0.357774
656.974856	0.358006
657.179892	0.357905
657.384909	0.358320
657.589908	0.358762
657.794889	0.359181
657.999852	0.359244
658.204797	0.359819
658.409723	0.360273
658.614631	0.360794
658.819521	0.360820
659.024393	0.361206
659.229246	0.361537
659.434081	0.361952
659.638898	0.362034
659.843697	0.361905
660.048478	0.361912
660.253240	0.361992
660.457984	0.361871
660.662710	0.362317
660.867417	0.362322
661.072107	0.362689
661.276778	0.363067
661.481431	0.363394
661.686066	0.363814
661.890682	0.363925
662.095281	0.364164
662.299861	0.364573
662.504422	0.364545
662.708966	0.364775
662.913491	0.364948
663.117999	0.364880
663.322488	0.365075
663.526958	0.365352
663.731411	0.365565
663.935845	0.365895
664.140261	0.366112
664.344659	0.366560
664.549038	0.366951
664.753400	0.367153
664.957743	0.367623
665.162068	0.367693
665.366375	0.367729
665.570663	0.367768
665.774933	0.368004
665.979185	0.368342
666.183419	0.368534
666.387635	0.368870
666.591832	0.369382
666.796011	0.369569
667.000172	0.369894
667.204315	0.370406
667.408439	0.371018
667.612545	0.371248
667.816634	0.371134
668.020703	0.371326
668.224755	0.371498
668.428788	0.371240
668.632803	0.371335
668.836800	0.371482
669.040779	0.371760
669.244739	0.371838
669.448681	0.372186
669.652605	0.372478
669.856511	0.372848
670.060399	0.373030
670.264268	0.373449
670.468119	0.373636
670.671952	0.373960
670.875767	0.374070
671.079563	0.374577
671.283341	0.374772
671.487101	0.375164
671.690843	0.375285
671.894567	0.375595
672.098272	0.376009
672.301959	0.376367
672.505628	0.376588
672.709278	0.376883
672.912911	0.376957
673.116525	0.377009
673.320121	0.377290
673.523699	0.377432
673.727258	0.377426
673.930799	0.377801
674.134322	0.378000
674.337827	0.378230
674.541314	0.378299
674.744782	0.378530
674.948232	0.378923
675.151664	0.379179
675.355078	0.379461
675.558474	0.379880
675.761851	0.379768
675.965210	0.380144
676.168551	0.380391
676.371873	0.380742
676.575178	0.381300
676.778464	0.381314
676.981732	0.381535
677.184981	0.381961
677.388213	0.382301
677.591426	0.382550
677.794621	0.382704
677.997798	0.382922
678.200956	0.383381
678.404097	0.383335
678.607219	0.383924
678.810323	0.383857
679.013408	0.384225
679.216476	0.384471
679.419525	0.384768
679.622556	0.384977
679.825569	0.385334
680.028563	0.385576
680.231540	0.385787
680.434498	0.385841
680.637438	0.386339
680.840359	0.386406
681.043263	0.386751
681.246148	0.386926
681.449015	0.387192
681.651864	0.387433
681.854694	0.387507
682.057506	0.387878
682.260301	0.388130
682.463076	0.388473
682.665834	0.388624
682.868573	0.388506
683.071295	0.388619
683.273998	0.388556
683.476682	0.388894
683.679349	0.388840
683.881997	0.388923
684.084627	0.389067
684.287239	0.389169
684.489833	0.389401
684.692408	0.389600
684.894965	0.390009
685.097504	0.390455
685.300025	0.390680
685.502527	0.391158
685.705012	0.391414
685.907478	0.391682
686.109925	0.391924
686.312355	0.392161
686.514766	0.392698
686.717159	0.392995
686.919534	0.393468
687.121891	0.393217
687.324230	0.393283
687.526550	0.393467
687.728852	0.393593
687.931136	0.394007
688.133401	0.394220
688.335649	0.394082
688.537878	0.393947
688.740089	0.393935
688.942281	0.394466
689.144456	0.394825
689.346612	0.394826
689.548750	0.395358
689.750870	0.395276
689.952971	0.395073
690.155055	0.395326
690.357120	0.395677
690.559167	0.395784
690.761195	0.396035
690.963206	0.396266
691.165198	0.396396
691.367172	0.396274
691.569128	0.396366
691.771065	0.397046
691.972984	0.397371
692.174885	0.397606
692.376768	0.397676
692.578633	0.397821
692.780479	0.397701
692.982308	0.398118
693.184118	0.398238
693.385909	0.398353
