sample name	sample
index	1501
start time	 05-18-2021  02:29:50 PM
880	0.289260
Peak Time (s)	92.535
Peak Height 	0.2893
calc peak height	90,93
Baseline Time (s)	10.534
Baseline Value 	-0.005166
subtract baseline	10,4
Abs	0.203005
Peak Time (s)	92.035
Peak Height 	0.203
calc peak height	90,93
Baseline Time (s)	9.537
Baseline Value 	0.003086
subtract baseline	10,3
PK_550	0.121667
Peak Time (s)	90.037
Peak Height 	0.1217
calc peak height	90,93
Baseline Time (s)	11.536
Baseline Value 	2.0937E-4
subtract baseline	10,2
PK_880	0.195729
Peak Time (s)	91.535
Peak Height 	0.1957
calc peak height	90,93
Baseline Time (s)	10.037
Baseline Value 	0.00218
subtract baseline	10,1


Time (s)	A880-A510	A880-A775	A880-A975	A880	I510	I775	I975	I880	
0.034000	-0.003231	0.000204	-0.003020	0.003092	6580.206128	44197.420979	3978.645404	22876.171391
0.534500	-0.003047	-0.001659	-0.003692	0.003212	6580.742605	44009.794021	3976.772115	22870.690306
1.038000	-0.002681	-0.000174	-0.002237	0.003990	6577.323491	44076.579895	3978.373271	22835.073912
1.535000	-0.003060	0.000861	0.000874	0.003513	6578.137891	44219.801993	3986.908478	22856.893709
2.035000	-0.002997	-0.000165	0.002297	0.002159	6589.910245	44250.911323	3993.562822	22918.988727
2.536000	-0.002980	-0.000104	-0.000848	0.002156	6590.078580	44257.038442	3986.035963	22919.134858
3.036000	-0.002295	0.000115	-0.001008	0.002174	6595.632534	44276.160833	3985.612591	22918.310589
3.536500	0.001500	-0.000601	0.000137	0.000740	6639.497160	44344.431429	3991.782557	22984.285226
4.039500	-0.000777	-0.000213	0.002424	0.000194	6624.915590	44433.439893	3998.603616	23009.467706
4.537000	-0.000608	0.000075	-0.000906	0.000112	6627.026961	44468.726639	3990.787497	23013.242315
5.037500	0.000583	0.000491	0.003783	0.001368	6626.478280	44388.650838	3999.051105	22955.360567
5.534500	-0.000436	0.000156	0.002411	0.000819	6622.528568	44408.970088	3997.062881	22980.633651
6.035000	-0.001810	0.000487	0.002556	0.000856	6610.695491	44436.990059	3997.323807	22978.915322
6.535000	-0.001783	0.000071	0.001580	0.000242	6616.063868	44455.902994	3996.451895	23007.237617
7.035500	0.001480	-0.000104	0.002056	0.000051	6645.141088	44457.515267	3998.060488	23016.069591
7.536000	0.000160	-0.000329	0.003763	-0.000181	6635.954377	44458.125745	4002.752221	23026.757540
8.036500	-0.001413	0.000062	-0.000085	-0.000286	6623.602264	44505.548846	3993.714888	23031.615800
8.539500	0.001949	0.000952	0.003866	0.000667	6643.897675	44499.461168	4000.947374	22987.643547
9.037000	0.000024	-0.000130	-0.003109	-0.000545	6637.874982	44511.840029	3987.087450	23043.565570
9.537000	-0.000972	-0.000007	0.000000	-0.000031	6625.169450	44474.530429	3993.305270	23019.832469
10.037500	0.000000	0.000283	-0.001115	0.000546	6628.492860	44447.167757	3989.247054	22993.241312
10.534500	0.000807	0.000288	-0.002318	0.000000	6639.887388	44499.821284	3987.674835	23018.408448
11.035000	-0.000135	-0.000036	0.000385	0.000063	6631.417446	44462.885936	3994.005354	23015.513129
11.535500	-0.003192	0.000000	0.001708	-0.000315	6608.934475	44502.369288	3998.104589	23032.960856
12.035500	-0.001536	0.000358	0.000198	-0.000098	6620.988062	44515.857209	3993.943143	23022.922800
12.536000	-0.000587	0.000168	0.002923	-0.000139	6629.311805	44501.557942	4000.616423	23024.826511
13.039000	-0.002371	0.000404	0.008464	0.001510	6600.538201	44366.842198	4010.077110	22948.828498
13.539500	-0.001353	-0.000313	0.001155	0.001580	6608.463613	44291.957145	3992.209682	22945.611496
14.036000	0.000719	0.000918	-0.002369	0.003333	6611.138191	44242.409859	3979.618068	22865.162509
14.537500	-0.001293	0.000063	0.000690	0.002813	6598.658802	44210.506761	3988.141328	22888.959116
15.034500	-0.001178	0.001122	0.003662	0.002642	6601.053432	44327.391749	3995.685469	22896.828176
15.535500	0.000090	0.000683	0.002141	0.001557	6620.751692	44388.938060	3994.635791	22946.676594
16.038500	-0.000931	0.000990	0.002123	0.001732	6610.729534	44401.553219	3994.172224	22938.635826
16.535500	-0.002131	-0.000908	-0.000256	0.000764	6608.776022	44312.888301	3990.782608	22983.158920
17.036000	-0.001686	0.000242	-0.001207	0.001006	6610.475821	44399.384027	3987.924727	22972.012964
17.536500	-0.000768	0.000331	0.001144	0.001482	6614.180516	44362.477866	3992.417194	22950.091915
18.036500	-0.001978	0.000486	0.001719	0.002216	6597.928347	44307.458580	3992.038233	22916.374992
18.536500	-0.002291	0.000891	-0.000567	0.002845	6590.077888	44286.111478	3985.065107	22887.516360
19.037000	-0.000209	0.000993	0.002140	0.002590	6609.589483	44320.082072	3992.151981	22899.219588
19.537500	-0.003005	0.000544	-0.000368	0.002152	6589.901994	44318.980831	3987.193004	22919.308844
20.035000	-0.001332	0.000352	0.002976	0.002328	6602.380444	44283.962574	3994.788460	22911.218208
20.535000	-0.001025	0.000810	0.002647	0.002344	6604.820233	44326.063328	3993.960426	22910.502379
21.036000	-0.002527	0.000395	0.002293	0.001727	6597.429964	44345.263997	3994.590863	22938.841583
21.536000	-0.001729	0.000155	0.001282	0.001689	6604.411329	44326.083122	3992.253491	22940.593114
22.036000	-0.001308	0.000841	0.002479	0.002375	6602.195409	44326.048661	3993.481452	22909.067925
22.536500	-0.001570	0.000026	0.002236	0.001962	6603.459080	44287.842881	3993.890624	22928.045645
23.039000	-0.002648	-0.000012	-0.000918	0.002015	6594.021275	44279.174094	3986.205089	22925.605773
23.537000	-0.000796	0.000722	0.000417	0.002285	6607.227660	44323.310519	3988.752004	22913.226180
24.037000	-0.002398	0.000907	0.006344	0.002542	6591.715136	44316.498434	4002.408100	22901.426092
24.535000	-0.000922	0.000898	0.004532	0.002280	6606.215479	44340.527116	3998.657341	22913.425614
25.035000	-0.000405	0.000730	0.005760	0.002118	6611.901947	44339.938739	4002.021101	22920.891445
25.534500	-0.001513	0.000165	0.001993	0.002112	6602.676895	44286.753195	3992.943505	22921.134375
26.035500	-0.001839	-0.000460	0.001852	0.001445	6605.532259	44290.754554	3994.209560	22951.820586
26.536000	-0.001991	-0.000478	-0.002839	0.001748	6601.732996	44260.286116	3982.267542	22937.900810
27.036500	-0.000971	-0.000065	0.002607	0.001730	6610.398794	44301.220553	3995.339627	22938.693886
27.536500	0.000382	0.000554	0.005077	-0.000360	6639.340832	44559.622019	4006.379386	23035.031097
28.039500	-0.000725	0.000367	0.001657	0.001251	6616.476626	44387.926688	3994.205808	22960.737750
28.539500	-0.001427	0.000118	-0.000448	0.003048	6595.591970	44193.464024	3984.863671	22878.215878
29.034500	0.000724	0.000497	0.001746	0.001627	6625.481316	44364.485394	3993.515863	22943.423819
29.537000	-0.000783	0.000165	0.003287	0.000964	6618.398565	44396.038904	3998.829237	22973.972628
30.035500	-0.000942	0.001025	0.004949	0.001519	6612.411793	44425.067628	4001.505014	22948.399820
30.535500	-0.001107	0.000169	0.000904	0.002813	6600.217885	44220.614493	3988.653817	22888.971359
31.036000	-0.002223	-0.000081	0.001481	0.002834	6590.736552	44194.816395	3989.982530	22887.991695
31.535500	-0.002097	0.000503	-0.002595	0.001854	6599.953451	44343.420753	3982.592710	22932.992761
32.036500	-0.002968	-0.000186	0.001356	0.001080	6599.145129	44351.479374	3993.893034	22968.593971
32.539500	-0.000978	-0.000836	-0.003345	0.003108	6598.835437	44097.455515	3977.839902	22875.467774
33.037000	-0.001428	0.000683	-0.004050	0.001668	6607.102015	44378.329072	3979.579147	22941.560992
33.537500	-0.001192	-0.000347	0.001694	0.000724	6616.988596	44370.172690	3995.564956	22985.032370
34.034500	0.000851	0.000797	0.006423	0.000154	6638.957867	44533.700415	4008.406909	23011.304068
34.537500	-0.003101	-0.000153	0.005601	0.003447	6578.345011	44129.945946	3998.421271	22859.917861
35.035500	-0.003137	0.000435	0.002381	0.002527	6585.682265	44272.985578	3992.879573	22902.080797
35.536000	-0.003383	0.000028	0.002087	0.001822	6589.499166	44301.269662	3993.867712	22934.470475
36.036000	-0.002881	0.000198	0.001815	0.002497	6588.070373	44253.361878	3991.593825	22903.490284
36.536000	-0.001419	0.000427	0.002301	0.004185	6586.183612	44115.015767	3988.712412	22826.138615
37.039000	-0.002640	-0.000695	0.002361	0.001803	6595.857688	44234.522607	3994.573580	22935.373647
37.537000	-0.002305	-0.000046	-0.001145	0.002296	6594.530825	44249.205757	3984.994255	22912.681601
38.036500	-0.002059	0.000523	-0.003765	0.002865	6591.847007	44249.266512	3977.419009	22886.588128
38.537500	-0.000181	0.001129	0.000491	0.003370	6603.292425	44258.858817	3986.334691	22863.433685
39.035000	-0.002910	-0.000095	-0.002493	0.002439	6588.304865	44230.997637	3981.445516	22906.125137
39.535000	-0.002570	0.000370	-0.001715	0.002542	6590.278338	44265.417775	3983.052301	22901.426993
40.035500	-0.001146	0.000206	0.005791	0.002605	6601.619603	44243.771752	4000.913877	22898.499817
40.535500	-0.001071	0.000618	0.002512	0.003030	6598.701145	44242.536752	3991.986316	22879.016057
41.036000	-0.001614	-0.000161	-0.000588	0.002286	6600.382366	44239.294132	3986.347464	22913.159763
41.535500	-0.002745	0.000265	-0.000823	0.002705	6587.465465	44239.875862	3984.786812	22893.917185
42.036500	0.000277	0.000192	0.000197	0.002031	6618.339473	44297.033469	3988.832857	22924.864075
42.537000	0.000078	0.001028	0.000970	0.003139	6607.390412	44271.196607	3988.031332	22874.037650
43.037500	-0.000809	0.000666	-0.000366	0.003176	6599.672466	44233.300516	3984.751575	22872.316075
43.535000	-0.000366	0.000742	0.002316	0.002734	6607.071381	44282.561716	3992.228462	22892.621789
44.035000	0.000302	0.000974	0.002209	0.000001	6635.617707	44565.286445	3998.549978	23018.354908
44.535500	-0.000667	0.000036	0.001944	0.001228	6617.161477	44358.639545	3994.954280	22961.822217
45.035500	-0.003522	0.000030	-0.000974	0.001751	6588.937392	44308.244548	3986.702395	22937.730735
45.535500	0.000571	0.000999	0.002881	0.002177	6619.582540	44360.005173	3994.925653	22918.182384
46.036000	-0.002365	0.000496	0.000639	0.001573	6600.067239	44369.545842	3990.989759	22945.921355
46.539000	-0.002700	-0.000351	-0.001929	0.001033	6601.771534	44340.349722	3986.136871	22970.767924
47.036500	-0.002019	0.000078	0.002546	0.001969	6599.645686	44292.067393	3994.619111	22927.720802
47.536500	-0.001708	0.001326	-0.000954	0.003429	6590.068253	44271.938464	3982.750492	22860.728687
48.037000	-0.002094	0.000531	0.002279	0.003736	6584.309056	44167.466925	3989.735719	22846.710692
48.534000	-0.006570	-0.000425	-0.003506	0.005883	6529.683713	43874.366742	3970.911257	22748.691462
49.035000	0.000767	0.000467	0.004169	0.002206	6620.990039	44306.628136	3997.959357	22916.850955
49.535000	-0.001289	-0.000340	0.004973	0.001349	6610.934678	44311.313033	4001.977446	22956.239040
50.036000	0.002188	0.000134	0.005751	-0.001849	6667.249542	44662.004291	4011.655424	23103.931344
50.536000	-0.003156	0.000160	-0.000852	0.006838	6549.864447	43839.517255	3974.912890	22705.211690
51.036500	0.003331	0.001928	0.004551	0.013440	6548.918622	43387.565894	3972.087525	22407.510122
51.536500	0.003935	-0.025110	0.014158	0.578735	3948.768645	13329.635628	3233.994253	8259.335293
52.036500	-0.011496	-0.022265	-0.017581	0.003779	6506.663624	42058.668335	3943.143312	22844.737823
52.537000	-0.023033	-0.060963	-0.030033	-0.224095	8786.872677	63377.040094	4581.206560	36556.680349
53.037500	-0.019129	-0.094048	-0.020302	-0.271630	9517.665334	65419.486389	4811.184898	40441.450040
53.535000	-0.013763	-0.066662	-0.010118	-0.233708	9045.144540	63923.592147	4696.001850	37308.367476
54.035000	-0.009194	-0.048496	-0.007899	-0.205252	8720.278286	62497.067122	4593.617481	35130.577789
54.535500	-0.006454	-0.025161	-0.004368	-0.145064	8008.428138	57657.145664	4392.538893	30968.730778
55.035500	-0.005790	-0.022821	-0.001195	-0.155185	8134.984627	59248.029389	4437.392968	31628.861945
55.535500	-0.001687	-0.038742	-0.001457	-0.195877	8695.623419	62549.130332	4582.550921	34443.820571
56.039000	0.013459	-0.025505	0.012985	-0.169674	8551.815919	60797.684388	4538.923671	32601.050090
56.536500	0.013437	-0.010171	0.023297	-0.111790	7855.675238	55403.981584	4374.021043	28903.725485
57.036500	0.033091	0.003963	0.042412	-0.050100	7405.417892	49969.253374	4241.004977	25469.733738
57.537000	0.050877	0.016777	0.052210	-0.004503	7130.595285	46554.622106	4138.819410	23227.329930
58.035000	0.071677	0.028043	0.073555	0.037269	6934.699321	43600.670458	4084.179996	21369.796083
58.535000	0.088425	0.041252	0.093303	0.086047	6653.173074	40408.446860	4010.816562	19415.149522
59.035000	0.113471	0.054186	0.113180	0.115050	6619.809967	39049.776614	3988.746822	18352.835090
59.535500	0.124191	0.064299	0.130896	0.144553	6465.534447	37475.947509	3960.922830	17342.597179
60.036000	0.136885	0.073428	0.138242	0.175856	6319.130731	35760.049880	3906.643372	16343.158062
60.536500	0.141178	0.079043	0.143325	0.202355	6152.432791	34222.246120	3860.591237	15551.618558
61.036500	0.153690	0.089601	0.159978	0.200106	6262.291199	35156.513330	3901.119095	15616.947547
61.536000	0.152988	0.088252	0.153838	0.237448	5986.575979	32416.146078	3810.460453	14575.042250
62.037000	0.153919	0.089943	0.161160	0.252511	5890.159387	31524.399029	3795.252862	14179.477786
62.540500	0.160846	0.099901	0.159187	0.253869	5927.785306	32094.755293	3788.792139	14144.484417
63.034500	0.161013	0.100755	0.156485	0.242460	6007.544778	32927.833867	3805.785624	14441.901666
63.534500	0.164670	0.102406	0.165735	0.242112	6035.644550	33065.864833	3824.920691	14451.099476
64.035500	0.165400	0.103200	0.169381	0.243504	6030.979552	33024.524686	3829.474318	14414.362970
64.539000	0.166887	0.104819	0.173349	0.246840	6017.994220	32906.059357	3830.756761	14326.793448
65.036000	0.169963	0.106602	0.169647	0.249904	6018.082019	32818.005301	3817.133801	14246.963192
65.539000	0.173754	0.108251	0.175096	0.252271	6028.076114	32768.770962	3823.312701	14185.673823
66.037000	0.172890	0.107981	0.173506	0.254560	6005.987028	32593.858683	3815.543473	14126.708905
66.537000	0.174303	0.109816	0.173628	0.257752	5993.593560	32501.554773	3809.443154	14045.013196
67.040000	0.177635	0.112086	0.179934	0.261104	5993.456699	32428.185001	3815.312361	13959.876688
67.535000	0.176781	0.111454	0.175195	0.262842	5975.497319	32268.070204	3802.495797	13915.992091
68.037500	0.179043	0.113603	0.176321	0.268658	5951.044928	32021.988217	3793.334956	13770.390811
68.538000	0.176344	0.111880	0.171541	0.276762	5877.928967	31372.825686	3768.670653	13570.733203
69.035500	0.179734	0.114475	0.178040	0.273476	5922.895945	31759.583104	3787.334718	13651.241055
69.536000	0.182042	0.115055	0.181338	0.275565	5924.382349	31659.828688	3789.671487	13599.999006
70.039000	0.181593	0.114612	0.176049	0.277815	5906.115402	31482.706090	3775.213883	13545.075450
70.536500	0.182269	0.115398	0.183743	0.284630	5864.965671	31090.086546	3776.883773	13380.423630
71.039000	0.184128	0.116619	0.182577	0.281832	5896.123382	31351.157507	3779.999001	13447.706624
71.540000	0.187095	0.117860	0.183977	0.285571	5890.938311	31188.636448	3775.538827	13357.903195
72.034500	0.183669	0.117986	0.181787	0.288736	5847.022448	30992.142544	3765.418697	13282.486367
72.535000	0.182687	0.118088	0.181111	0.294355	5803.695090	30638.803616	3753.677133	13149.917071
73.034500	0.185193	0.119233	0.187365	0.290600	5844.767545	30952.335752	3772.423754	13238.309899
73.535000	0.185524	0.119955	0.181803	0.290308	5848.889594	31017.655380	3762.498742	13245.210064
74.035500	0.187228	0.121198	0.185819	0.289974	5862.410859	31119.622439	3770.684733	13253.135917
74.536000	0.183783	0.119657	0.180859	0.293050	5819.378963	30822.279690	3755.630276	13180.563245
75.036000	0.189750	0.121951	0.183060	0.289585	5881.823341	31193.627591	3766.214197	13262.337790
75.537000	0.190926	0.120255	0.189819	0.287251	5905.416865	31235.072878	3783.493947	13317.800212
76.036500	0.186882	0.120054	0.184345	0.287050	5879.601196	31235.059786	3773.429331	13322.591305
76.534500	0.191275	0.121441	0.187271	0.288952	5896.308713	31201.632837	3775.374591	13277.354131
77.034000	0.185593	0.120958	0.191299	0.288191	5863.388405	31219.616047	3784.530319	13295.417008
77.534500	0.190170	0.122030	0.183105	0.288783	5890.020747	31250.854486	3767.808588	13281.366255
78.034500	0.189974	0.121996	0.188325	0.289668	5882.769414	31191.165482	3776.016974	13260.371482
78.535500	0.186415	0.120707	0.184116	0.288204	5868.776249	31202.554303	3770.811117	13295.126068
79.036000	0.188291	0.122786	0.183393	0.290379	5866.786570	31196.236497	3765.347621	13243.534902
79.539000	0.188543	0.123172	0.191670	0.291049	5864.007098	31177.862207	3779.763000	13227.714296
80.036000	0.189556	0.122553	0.182633	0.291029	5870.883667	31139.013979	3762.703552	13228.182231
80.536000	0.191171	0.123710	0.191962	0.292156	5874.143785	31140.966098	3778.206858	13201.604195
81.037000	0.190316	0.122994	0.191832	0.291292	5874.200012	31150.519329	3779.609057	13221.969109
81.537500	0.191884	0.122574	0.194554	0.291231	5885.093291	31127.313840	3784.943777	13223.405098
82.035000	0.193839	0.124988	0.191063	0.292594	5889.060197	31195.432878	3775.658291	13191.281455
82.534500	0.194701	0.125213	0.198609	0.292472	5895.672876	31217.951167	3790.375099	13194.155084
83.035000	0.194013	0.124452	0.191633	0.292005	5894.186768	31198.851518	3777.865612	13205.148263
83.535500	0.195233	0.124279	0.193374	0.291708	5904.398409	31206.897285	3781.762965	13212.143753
84.036000	0.193540	0.123163	0.196764	0.289970	5904.704395	31247.320470	3791.647404	13253.215211
84.536500	0.191904	0.123358	0.193212	0.290397	5890.827043	31232.273139	3783.969374	13243.125808
85.036500	0.192296	0.122323	0.193714	0.289721	5898.004757	31208.964469	3786.234706	13259.124218
85.537000	0.193182	0.122779	0.195849	0.288903	5909.496076	31291.793757	3791.942672	13278.520870
86.037000	0.193124	0.123516	0.191131	0.289538	5904.814082	31298.409148	3781.622311	13263.451586
86.534500	0.190908	0.122482	0.198669	0.288545	5896.576359	31295.775322	3798.129386	13287.024060
87.034500	0.192054	0.122325	0.197557	0.288229	5906.428058	31306.114062	3796.575947	13294.522198
87.535500	0.194290	0.121188	0.196196	0.286764	5931.515348	31327.487348	3796.777985	13329.401920
88.035000	0.192451	0.121465	0.196289	0.287475	5914.207617	31299.212053	3795.573228	13312.464241
88.535500	0.194488	0.121371	0.199459	0.287080	5930.715870	31318.842877	3802.546887	13321.880319
89.039000	0.196151	0.122599	0.195184	0.288647	5931.367370	31296.755291	3791.149048	13284.594026
89.536000	0.194305	0.122690	0.202864	0.287441	5927.009693	31381.311551	3808.546368	13313.263725
90.036500	0.193567	0.121667	0.196804	0.286930	5925.470224	31347.927064	3797.641772	13325.449086
90.537000	0.191044	0.119803	0.197019	0.288200	5899.813304	31144.128719	3795.582316	13295.211976
91.036500	0.195181	0.120320	0.198754	0.286549	5939.055720	31284.967389	3802.204884	13334.541977
91.535000	0.195729	0.121033	0.200261	0.286445	5943.512313	31338.198069	3805.373750	13337.026094
92.035000	0.195091	0.121068	0.203005	0.286699	5937.413037	31323.924035	3810.295080	13330.951434
92.535000	0.194594	0.120973	0.198954	0.289260	5916.631447	31151.275029	3797.289785	13270.039395
93.035500	0.196750	0.120689	0.196717	0.286266	5951.719601	31327.406103	3798.767949	13341.287465
93.536000	0.195508	0.120007	0.199475	0.285868	5945.942468	31308.929182	3804.963150	13350.809644
94.036000	0.194553	0.120528	0.198353	0.286448	5935.456018	31305.117906	3801.615915	13336.948037
94.536500	0.195506	0.119702	0.198335	0.288304	5929.310298	31130.863511	3797.948401	13292.743830
95.037000	0.194904	0.119180	0.200444	0.285845	5941.966817	31256.610044	3806.918858	13351.349770
95.534000	0.197005	0.120138	0.195689	0.286762	5950.069062	31259.219865	3795.793599	13329.443284
96.040000	0.196605	0.119089	0.198346	0.285692	5954.661577	31260.658737	3803.087916	13355.016506
96.535000	0.192683	0.119284	0.203307	0.288402	5909.502796	31097.476132	3807.522613	13290.410899
