sample name	sample
index	58
start time	 02-11-2021  02:58:44 PM
880	0.354390
Peak Time (s)	91.035
Peak Height 	0.3544
calc peak height	90,93
Baseline Time (s)	10.036
Baseline Value 	-0.001495
subtract baseline	10,4
Abs	0.245544
Peak Time (s)	92.536
Peak Height 	0.2455
calc peak height	90,93
Baseline Time (s)	9.036
Baseline Value 	0.008117
subtract baseline	10,3
PK_550	0.116018
Peak Time (s)	92.536
Peak Height 	0.116
calc peak height	90,93
Baseline Time (s)	10.536
Baseline Value 	4.8117E-4
subtract baseline	10,2
PK_880	0.225763
Peak Time (s)	90.535
Peak Height 	0.2258
calc peak height	90,93
Baseline Time (s)	10.036
Baseline Value 	0.002005
subtract baseline	10,1


Time (s)	A880-A510	A880-A775	A880-A975	A880	I510	I775	I975	I880	
0.035000	-0.001658	0.000325	-0.005336	0.000954	4510.825559	19312.964232	3291.911702	10602.597218
0.538000	-0.000092	-0.000806	0.008258	0.001650	4513.958647	19244.323193	3303.005254	10590.318907
1.035500	0.000094	-0.000394	-0.005674	0.001704	4514.435982	19257.742247	3290.990955	10589.372299
1.536500	-0.003574	0.000197	-0.010284	0.006153	4485.401600	19113.658613	3283.412714	10511.407374
2.035500	-0.002486	-0.000129	-0.000504	-0.000666	4513.678452	19356.891586	3297.419523	10631.230096
2.537000	0.000694	0.001509	-0.008469	0.001019	4519.083885	19355.110635	3289.210913	10601.446272
3.037500	0.000872	0.000531	-0.001282	-0.002263	4531.663771	19442.319580	3298.125322	10659.574861
3.534500	-0.001464	-0.000990	-0.003493	0.000837	4511.944462	19267.920860	3293.576343	10604.660959
4.034500	0.000026	-0.000124	-0.006286	-0.000417	4521.864839	19347.673991	3292.267683	10626.817088
4.537500	-0.004085	-0.000617	-0.000920	0.000358	4504.241191	19299.928237	3296.183523	10613.118911
5.038000	-0.003580	-0.000724	0.006795	0.000188	4506.667195	19302.300825	3303.004651	10616.128146
5.535500	0.000733	0.000227	-0.010687	0.000878	4519.733705	19312.108006	3287.467916	10603.927746
6.036000	-0.000192	-0.000498	-0.012219	0.000332	4518.363114	19305.398022	3286.643256	10613.572647
6.536000	0.000404	-0.000376	0.000906	-0.000646	4524.068901	19346.835032	3298.616689	10630.872167
7.036500	0.000480	0.000167	-0.012589	0.000180	4521.349015	19336.150916	3286.461066	10616.258696
7.539500	0.002902	0.002606	0.002609	0.002409	4522.048985	19344.076382	3297.452212	10576.961483
8.036500	0.002535	-0.000208	-0.008864	-0.000299	4530.564729	19340.084471	3289.988770	10624.734604
8.534500	0.001978	0.000405	-0.001507	0.000127	4526.981826	19347.135986	3295.878254	10617.199079
9.035500	0.000993	-0.000626	0.000000	-0.000214	4524.642830	19321.135574	3297.464538	10623.229280
9.535500	-0.001875	-0.000867	0.004232	-0.000961	4516.952948	19340.204369	3301.772782	10636.462050
10.036000	0.000000	0.000075	0.000020	0.000000	4520.261535	19339.468829	3297.297736	10619.447484
10.536000	0.001951	0.000000	-0.009143	0.000557	4525.322789	19315.665936	3289.032699	10609.602362
11.036000	-0.001177	0.001409	0.003559	0.001263	4511.443164	19342.123053	3299.259899	10597.137945
11.536500	-0.000504	-0.000733	-0.012141	-0.000376	4519.799912	19323.215337	3287.301046	10626.108239
12.036500	0.000079	0.000120	0.000386	0.000256	4519.620164	19331.527689	3297.391878	10614.916741
12.534500	0.001788	-0.000347	-0.002502	0.000039	4526.614573	19322.126511	3295.102361	10618.760471
13.034000	-0.001128	-0.000431	0.000460	-0.002006	4523.448035	19396.157701	3299.407008	10655.011720
13.535000	-0.003061	-0.001104	-0.005560	0.000052	4509.017308	19293.114614	3292.486091	10618.522353
14.035500	-0.002069	-0.000650	-0.013921	0.000883	4509.598006	19278.963921	3284.766525	10603.843519
14.538000	-0.006681	-0.001196	-0.003601	0.001778	4489.903006	19224.934932	3292.684222	10588.066019
15.038500	0.001955	-0.000825	-0.000828	0.000076	4527.086918	19302.728911	3296.504336	10618.100412
15.566000	-0.003293	-0.000013	-0.009779	0.000309	4507.260343	19324.521365	3288.706481	10613.977862
16.037000	0.004224	0.000187	0.003073	-0.000240	4536.519979	19352.736106	3300.140073	10623.687408
16.536500	-0.005485	-0.000442	-0.003361	-0.000648	4502.828949	19344.412236	3294.955407	10630.912654
17.036500	-0.001101	0.000183	-0.005206	-0.000046	4516.443052	19345.280986	3292.870922	10620.266520
17.534500	0.002596	-0.000730	-0.007981	-0.002824	4540.026794	19415.801708	3292.872954	10669.553809
18.037500	-0.000705	-0.001215	-0.006174	-0.000544	4519.679850	19311.375048	3292.471064	10629.075238
18.534500	-0.001917	-0.000975	-0.012777	0.000760	4510.590473	19271.365282	3285.821161	10606.019732
19.038000	-0.000993	0.000330	-0.007531	0.001576	4510.978922	19289.762277	3289.531881	10591.629700
19.535000	-0.001075	-0.001175	0.003722	0.000471	4514.668301	19274.724815	3300.086504	10611.128628
20.039000	-0.002654	-0.000293	-0.002690	0.001048	4506.902774	19286.181221	3294.080327	10600.931083
20.535500	0.000265	0.000882	-0.006475	0.003018	4510.316454	19256.347376	3289.207385	10566.267187
21.036000	-0.002093	-0.000355	0.006401	0.000179	4512.048961	19316.540124	3302.669413	10616.285229
21.536000	-0.004619	-0.001301	-0.004693	0.000712	4501.059583	19260.966391	3292.662429	10606.869961
22.037000	-0.001612	-0.001603	-0.009235	0.000256	4513.505621	19266.736599	3289.208813	10614.925043
22.534000	-0.003957	-0.000193	0.002926	0.001545	4500.446078	19271.255711	3298.469581	10592.166519
23.037500	0.000839	0.000070	-0.011481	0.001239	4518.811891	19292.649926	3286.502757	10597.572909
23.534500	-0.001332	-0.001018	0.000813	0.000617	4513.213815	19275.139241	3297.449355	10608.551317
24.038000	0.000906	-0.000869	-0.015842	0.000832	4520.529181	19272.666292	3283.216012	10604.754329
24.535500	-0.002494	0.000821	0.005945	0.002221	4503.266708	19283.949003	3300.496278	10580.268547
25.036000	0.002320	0.000458	-0.003984	0.002647	4519.075930	19254.363359	3291.622373	10572.783225
25.536000	0.001158	0.000412	-0.003512	0.002417	4515.705582	19261.240209	3292.217866	10576.822272
26.036500	-0.000457	-0.000676	-0.012631	0.001514	4513.133872	19254.286784	3285.314095	10592.713747
26.536500	-0.003892	-0.000180	0.004633	0.001451	4501.016251	19275.266665	3300.026325	10593.826008
27.037000	0.000310	0.001456	0.001942	0.003189	4509.862637	19271.458795	3296.209895	10563.259365
27.537500	0.000124	0.000433	0.002717	0.000868	4517.568873	19320.275814	3298.874397	10604.119268
28.037500	0.003029	0.000182	0.002489	-0.000698	4533.825341	19369.835844	3300.030456	10631.798107
28.535500	0.001609	0.000185	-0.001433	0.000911	4522.796337	19309.322732	3295.271107	10603.360844
29.035500	-0.002411	0.000158	0.000271	0.001043	4507.795684	19303.324008	3296.618085	10601.032603
29.536000	-0.000063	0.000755	-0.005863	0.001349	4515.153393	19314.280294	3291.131075	10595.630605
30.035500	0.001640	-0.000615	-0.003284	0.000378	4524.841798	19299.276615	3294.144948	10612.764831
30.536500	0.003490	-0.000734	-0.009282	0.000300	4531.866444	19297.746740	3289.132401	10614.148090
31.038000	0.000720	-0.000925	-0.005281	0.000102	4522.501122	19297.963044	3292.680470	10617.639366
31.537500	-0.001785	-0.000802	-0.029521	0.003270	4502.049629	19183.895098	3270.125215	10561.843684
32.034500	-0.000756	-0.000041	-0.004789	0.001365	4512.594430	19283.726308	3292.026587	10595.343667
32.592000	-0.001552	-0.000811	-0.003716	-0.000608	4516.844298	19328.977360	3294.617982	10630.200437
33.040000	0.000446	0.000306	-0.002036	0.001477	4516.527541	19292.562419	3294.271848	10593.364481
33.538000	0.003434	0.002220	0.001314	0.001994	4525.488999	19345.174198	3296.696304	10584.269421
34.035000	0.002075	-0.000650	-0.003287	0.001006	4524.142866	19274.355269	3293.608274	10601.684872
34.536500	0.000880	0.000307	-0.012810	0.000773	4520.651121	19319.101514	3285.783290	10605.795812
35.035500	0.003577	-0.000355	-0.011729	0.002056	4525.785894	19246.036340	3285.614699	10583.181105
35.536500	-0.004128	-0.002365	-0.002650	0.000526	4503.487563	19228.030681	3294.560282	10610.156449
36.036500	0.001680	-0.000710	-0.000004	0.002253	4518.187665	19225.340696	3295.345488	10579.712268
36.537500	-0.001206	-0.000664	-0.010256	0.002520	4506.813098	19217.061120	3286.455282	10575.005432
37.034000	-0.001024	0.001016	-0.001632	0.003307	4504.643128	19250.510664	3293.058536	10561.188467
37.535000	-0.003315	-0.000773	0.003038	0.002208	4500.374485	19224.668602	3297.995186	10580.507689
38.034500	-0.001051	0.000166	-0.009302	0.003108	4505.260339	19226.103885	3286.761291	10564.674450
38.535500	-0.001490	-0.000741	-0.015988	0.002178	4507.024714	19227.004221	3281.983764	10581.032837
39.038500	-0.000168	0.000019	-0.003727	0.003068	4508.579450	19222.133434	3291.484353	10565.389226
39.536000	0.001437	-0.000200	0.008216	0.002372	4516.875574	19239.983965	3302.338978	10577.616731
40.036000	-0.003832	-0.000311	-0.011607	0.002690	4496.803934	19223.906421	3285.187866	10572.025854
40.536500	-0.004246	-0.001556	-0.003820	0.002353	4496.528235	19189.987812	3292.011181	10577.954986
41.036500	0.005097	-0.000473	-0.001229	0.002716	4528.915574	19216.899931	3293.904368	10571.568451
41.537000	-0.004877	-0.000468	-0.001303	0.002419	4494.043632	19228.192090	3294.094684	10576.793485
42.037500	-0.001135	-0.001639	-0.010787	0.002091	4508.611319	19196.634972	3286.370831	10582.554376
42.535000	-0.002498	-0.000667	-0.008364	0.002376	4502.696633	19222.375923	3288.159961	10577.552780
43.035000	0.001931	0.001201	0.003564	0.004317	4511.637438	19219.583617	3296.633336	10543.477112
43.535500	0.000772	-0.000195	-0.003709	0.003390	4510.804807	19202.084963	3291.226870	10559.738279
44.039000	0.001696	0.000335	-0.012615	0.003361	4514.239238	19222.992132	3283.794308	10560.242462
44.535500	-0.002619	-0.002235	-0.009817	0.001525	4505.315775	19195.510221	3287.655219	10592.523005
45.036500	0.002988	-0.000497	-0.001814	-0.001254	4535.711163	19365.225508	3296.799827	10641.661307
45.536500	0.002512	-0.000387	-0.002123	0.001444	4524.139457	19267.800211	3294.226989	10593.960798
46.037000	0.002158	0.001114	0.002705	0.002048	4520.660805	19301.486952	3297.846425	10583.323508
46.535000	-0.000744	-0.001305	-0.006387	0.000671	4515.141436	19262.337678	3291.260832	10607.584377
47.040500	-0.000339	-0.001269	0.002819	0.001071	4515.158136	19248.661963	3298.786262	10600.527221
47.535000	-0.002680	-0.000698	-0.009748	0.000922	4507.259849	19275.696966	3288.217885	10603.155995
48.041000	0.001460	-0.000219	0.000243	0.001262	4520.977859	19280.911902	3296.405615	10597.163875
48.567000	0.000105	0.000270	-0.008846	0.000936	4517.255970	19311.567146	3288.964257	10602.921488
49.038500	-0.002274	-0.000021	0.002491	0.004227	4496.876713	19177.284394	3295.790498	10545.054450
49.536500	-0.002637	-0.000360	-0.004703	0.003405	4498.516579	19195.329805	3290.374117	10559.461629
50.069000	-0.001567	0.000044	0.005994	0.001483	4509.247107	19282.494860	3301.179234	10593.268224
50.536500	0.000295	0.000231	0.002052	0.000779	4518.509561	19315.994356	3298.376867	10605.685204
51.040500	-0.002344	-0.001200	-0.005968	0.002491	4502.835224	19198.096347	3290.077799	10575.520323
51.537000	0.003596	-0.000788	-0.010086	-0.001919	4540.375024	19379.317333	3290.323784	10653.451229
52.041000	0.001986	-0.000129	-0.000408	-0.003084	4538.745978	19448.416523	3299.588682	10674.184750
52.537500	-0.036720	-0.020326	-0.000383	0.125586	4029.469644	14665.018903	3203.265488	8690.849870
53.035500	-0.050454	-0.021446	-0.023186	0.019018	4287.594022	17880.202169	3262.700917	10290.380635
53.535500	-0.018679	-0.009046	0.000906	0.016019	4399.405695	18418.562116	3284.509867	10341.325428
54.035500	-0.025562	-0.011118	-0.005188	-0.057257	4639.420986	21171.621835	3344.843355	11701.758130
54.536500	-0.028244	-0.010839	-0.022915	-0.069551	4677.312575	21706.463952	3339.610524	11953.363450
55.036500	-0.021522	-0.011097	-0.004738	-0.131415	4973.439662	24562.693724	3423.747368	13333.330870
55.537000	-0.005629	-0.005189	0.001932	-0.117478	4982.590552	24167.065223	3415.452276	13005.070816
56.034500	0.006100	-0.007469	0.012683	-0.072006	4830.370769	21959.492955	3377.680876	12004.457772
56.534500	0.009389	-0.005327	0.003218	-0.051794	4758.372822	21185.428288	3347.706659	11592.239193
57.034500	0.011218	-0.006375	-0.000541	-0.039525	4715.329711	20635.205127	3332.349344	11351.206073
57.535000	0.019058	-0.004917	0.009666	-0.024747	4687.295948	20101.473315	3328.072341	11069.780261
58.038000	0.018717	-0.004466	0.024523	-0.008080	4620.436381	19473.458445	3326.392449	10763.680124
58.536000	0.019304	-0.006660	0.030737	0.003633	4578.091114	18953.204976	3321.327762	10555.472906
59.036000	0.023754	-0.007308	0.037532	0.019167	4536.974883	18368.457178	3313.409394	10287.871673
59.537000	0.031933	-0.004600	0.039421	0.030672	4524.837944	18059.599540	3304.879214	10095.747483
60.039000	0.037527	-0.003780	0.040467	0.045208	4492.670373	17590.330067	3293.226077	9860.183108
60.537000	0.041757	-0.005223	0.038485	0.060763	4452.870284	17028.993277	3278.608729	9616.695017
61.034000	0.050186	-0.002314	0.039862	0.079770	4416.617722	16517.228602	3264.496657	9330.754073
61.535000	0.062268	0.002210	0.051106	0.101150	4385.474784	16001.349499	3256.639294	9023.738009
62.037500	0.074168	0.007510	0.076977	0.126440	4341.784273	15414.954509	3257.085131	8679.549359
62.535500	0.095610	0.016044	0.088057	0.154165	4321.742328	14876.811086	3244.556019	8324.553491
63.035500	0.103732	0.022050	0.113372	0.178910	4270.089744	14373.762367	3244.976535	8026.287342
63.536000	0.121702	0.031168	0.116383	0.203589	4249.798384	13972.224497	3229.348739	7745.278659
64.036000	0.135014	0.040356	0.136319	0.213883	4258.885735	13944.252262	3236.206463	7632.704706
64.536500	0.143949	0.049035	0.147412	0.230412	4236.135860	13747.582777	3232.322107	7457.438786
65.038500	0.155981	0.055047	0.163806	0.242176	4236.930150	13605.719533	3235.627564	7336.690634
65.546500	0.165549	0.059875	0.175643	0.251035	4239.042214	13507.411057	3237.773054	7247.901826
66.043000	0.174957	0.068199	0.180344	0.261678	4235.370326	13451.265646	3233.507172	7143.597038
66.538500	0.173842	0.071312	0.170758	0.269561	4208.939274	13336.734714	3221.299787	7067.975392
67.035500	0.188560	0.078320	0.193583	0.279230	4223.704644	13273.411499	3230.448147	6977.076787
67.535500	0.185020	0.080570	0.193380	0.284131	4199.116874	13210.670015	3226.865532	6931.765466
68.036000	0.190559	0.084731	0.189601	0.290725	4196.074944	13153.439367	3219.714484	6871.603067
68.535500	0.194563	0.090487	0.190535	0.297685	4187.599665	13125.230613	3215.638470	6809.089866
69.039500	0.192427	0.089742	0.203931	0.304765	4161.538041	12943.812586	3219.912683	6746.517199
69.536500	0.199162	0.094829	0.193495	0.305465	4178.539193	13045.113833	3212.417309	6740.379277
70.037000	0.197798	0.098883	0.213631	0.308816	4165.235423	13061.437125	3223.787727	6711.165182
70.537000	0.202732	0.098961	0.188510	0.310860	4173.375318	13015.862799	3205.603462	6693.458401
71.037500	0.201375	0.100042	0.204070	0.318513	4148.179132	12864.895522	3210.779040	6627.880104
71.535500	0.205523	0.103517	0.207984	0.317596	4162.278179	12965.519053	3213.989013	6635.678959
72.035500	0.204696	0.102985	0.217080	0.317291	4160.817418	12960.291373	3220.337106	6638.275097
72.536000	0.205240	0.104504	0.213872	0.320394	4153.682097	12923.909575	3216.059967	6611.936921
73.036000	0.202466	0.104757	0.209122	0.326569	4129.060630	12789.039636	3208.801557	6560.091606
73.536500	0.210743	0.107124	0.202466	0.324149	4158.553276	12897.922968	3206.035924	6580.323113
74.036500	0.205186	0.106517	0.215939	0.322545	4147.569876	12920.741205	3216.003987	6593.795957
74.537500	0.215895	0.110749	0.230451	0.327295	4164.163260	12908.868909	3222.644733	6554.042602
75.034000	0.214970	0.109696	0.204589	0.334040	4142.843266	12731.923393	3201.033671	6498.334180
75.535000	0.214817	0.109385	0.207083	0.326999	4161.973823	12884.460591	3207.185907	6556.505723
76.035000	0.214770	0.109740	0.208847	0.328422	4157.864670	12860.097465	3207.408670	6544.672846
76.534500	0.212807	0.110676	0.223439	0.329585	4149.177627	12854.925632	3216.313077	6535.033269
77.035000	0.208467	0.107304	0.203235	0.334616	4123.500647	12665.411465	3199.805331	6493.621028
77.535500	0.217814	0.113053	0.206786	0.334108	4150.515509	12806.168067	3202.395452	6497.776907
78.036000	0.213414	0.112169	0.214590	0.332348	4143.220648	12826.042551	3208.597798	6512.232394
78.536500	0.214273	0.112435	0.226866	0.334046	4140.910951	12793.573726	3215.617659	6498.286414
79.036500	0.215506	0.111320	0.224536	0.333947	4144.578342	12770.609975	3214.122591	6499.098561
79.537000	0.215061	0.112994	0.216982	0.335800	4138.256580	12766.566574	3207.903187	6483.940902
80.034000	0.214170	0.112629	0.223855	0.335643	4136.242395	12761.877594	3212.538649	6485.222427
80.537500	0.211814	0.113347	0.202874	0.335996	4128.843875	12770.132872	3198.701481	6482.345576
81.034500	0.214199	0.112766	0.215357	0.336780	4133.210149	12739.357950	3206.204670	6475.952359
81.535000	0.217347	0.110713	0.217180	0.335798	4144.552107	12715.271003	3208.034150	6483.958980
82.035500	0.214817	0.110189	0.221311	0.336686	4135.157979	12683.638757	3210.163854	6476.718153
82.536000	0.221251	0.113427	0.225518	0.339802	4144.277494	12686.374775	3210.884681	6451.433307
83.036000	0.215091	0.114408	0.224751	0.346620	4109.009642	12556.591122	3205.915186	6396.727927
83.537500	0.220249	0.114965	0.215493	0.341628	4136.502482	12679.935294	3203.158797	6436.698734
84.034000	0.221948	0.115909	0.213264	0.343258	4136.690629	12664.595981	3200.687381	6423.591610
84.534000	0.221029	0.114154	0.218241	0.342348	4136.666370	12645.744295	3204.465425	6430.900633
85.034500	0.219273	0.114813	0.218769	0.349654	4112.084083	12498.695338	3200.119981	6372.653287
85.534500	0.219737	0.116135	0.230421	0.344968	4125.990438	12631.504465	3210.710598	6409.900956
86.035000	0.219976	0.116470	0.228566	0.346084	4123.611619	12614.137904	3208.754890	6400.991223
86.535500	0.220585	0.115149	0.229498	0.345454	4126.973666	12598.785755	3209.781433	6406.016525
87.036000	0.214750	0.111420	0.199618	0.349248	4101.087244	12433.371206	3188.450475	6375.865117
87.535500	0.221496	0.114258	0.226528	0.346791	4125.819337	12549.518109	3206.960578	6395.367230
88.036000	0.223267	0.116882	0.212093	0.349248	4123.957972	12553.198336	3196.160729	6375.867974
88.540000	0.221975	0.113773	0.209436	0.346624	4127.575362	12542.490673	3196.139986	6396.694299
89.036500	0.214433	0.113785	0.220674	0.351455	4094.396698	12436.800045	3200.186702	6358.446688
89.534500	0.221965	0.115809	0.221616	0.348696	4121.924814	12541.713091	3202.551495	6380.239471
90.037500	0.220589	0.112779	0.217080	0.347627	4121.095493	12498.563007	3200.335842	6388.718870
90.535000	0.225763	0.113623	0.215895	0.347991	4134.174751	12509.075882	3199.351008	6385.824001
91.034500	0.217090	0.113104	0.221371	0.354390	4093.660462	12358.265783	3198.765791	6335.415065
91.535000	0.221804	0.114808	0.223673	0.350725	4116.012698	12475.129678	3202.569380	6364.200391
92.036000	0.222298	0.112895	0.223022	0.349507	4120.631647	12459.913321	3202.933624	6373.817407
92.536000	0.220097	0.116018	0.245544	0.351794	4108.558148	12478.211201	3216.243362	6355.780100
93.036500	0.221593	0.114483	0.223101	0.356207	4100.779034	12348.813884	3198.710948	6321.238306
93.534000	0.224089	0.116710	0.226576	0.353083	4115.817040	12465.145524	3202.919646	6345.657519
94.034000	0.223727	0.112371	0.231064	0.350963	4120.559560	12416.730388	3207.197767	6362.324352
94.534500	0.217573	0.111285	0.222564	0.349265	4108.572822	12430.064682	3202.794622	6375.735529
95.034000	0.220901	0.113197	0.229139	0.357392	4095.800985	12295.565589	3201.799426	6312.022594
95.623000	0.224257	0.115374	0.215271	0.353283	4115.730378	12431.607594	3195.624278	6344.088604
96.035500	0.220005	0.112402	0.230324	0.351182	4109.952949	12412.634692	3206.572821	6360.599018
96.535000	0.222039	0.114557	0.225677	0.354425	4106.717486	12389.002363	3201.483415	6335.147618
97.035500	0.221097	0.115510	0.235230	0.359605	4090.475692	12297.731816	3204.292169	6294.882892
97.537000	0.223349	0.114834	0.217092	0.355290	4107.905166	12376.234180	3195.507449	6328.386816
