sample name	sample
index	698
start time	 03-22-2021  12:45:21 PM


Wavelength (nm)	Absorbance
494.344910	-0.371488
494.563924	-0.371488
494.782919	-0.371488
495.001897	-0.266661
495.220856	-0.076561
495.439797	-0.046983
495.658719	-0.007390
495.877624	-0.029262
496.096510	-0.016635
496.315378	0.035990
496.534227	-0.006900
496.753059	0.078365
496.971872	0.081523
497.190667	0.056690
497.409444	0.054680
497.628203	0.052994
497.846943	0.052617
498.065665	0.053953
498.284369	0.053332
498.503055	0.053344
498.721723	0.052175
498.940372	0.052635
499.159003	0.052139
499.377616	0.052501
499.596210	0.052669
499.814787	0.052737
500.033345	0.051659
500.251885	0.051729
500.470406	0.051427
500.688910	0.052182
500.907395	0.051889
501.125862	0.052095
501.344311	0.051738
501.562742	0.051161
501.781154	0.052005
501.999548	0.051803
502.217924	0.051619
502.436282	0.052351
502.654621	0.052077
502.872942	0.052031
503.091245	0.051695
503.309530	0.051110
503.527797	0.051980
503.746045	0.052120
503.964275	0.052115
504.182487	0.052053
504.400681	0.051511
504.618856	0.051999
504.837013	0.052700
505.055152	0.052223
505.273273	0.052459
505.491376	0.052744
505.709460	0.052463
505.927526	0.053248
506.145574	0.052937
506.363604	0.053075
506.581615	0.052865
506.799608	0.052353
507.017583	0.052496
507.235540	0.052403
507.453478	0.051084
507.671399	0.051574
507.889301	0.050969
508.107185	0.051201
508.325050	0.050712
508.542898	0.050954
508.760727	0.050688
508.978538	0.051038
509.196330	0.051863
509.414105	0.052102
509.631861	0.051316
509.849599	0.052017
510.067319	0.051881
510.285021	0.052464
510.502704	0.052316
510.720369	0.052042
510.938016	0.051476
511.155645	0.050633
511.373255	0.051665
511.590848	0.051939
511.808422	0.051317
512.025977	0.051475
512.243515	0.051043
512.461034	0.050696
512.678536	0.050895
512.896018	0.050935
513.113483	0.051506
513.330930	0.050398
513.548358	0.050256
513.765768	0.050888
513.983160	0.050802
514.200533	0.050554
514.417889	0.050577
514.635226	0.051298
514.852545	0.051359
515.069845	0.050653
515.287128	0.050761
515.504392	0.050564
515.721638	0.049787
515.938866	0.050228
516.156075	0.050036
516.373267	0.049886
516.590440	0.048963
516.807594	0.048958
517.024731	0.049365
517.241850	0.049993
517.458950	0.049701
517.676032	0.050286
517.893095	0.050239
518.110141	0.050686
518.327168	0.051365
518.544177	0.051628
518.761168	0.051937
518.978141	0.051995
519.195095	0.052027
519.412031	0.052578
519.628949	0.052514
519.845849	0.052307
520.062731	0.052727
520.279594	0.052340
520.496439	0.052599
520.713266	0.052893
520.930074	0.052813
521.146865	0.052515
521.363637	0.052121
521.580391	0.052546
521.797127	0.052631
522.013844	0.052124
522.230543	0.052182
522.447224	0.052802
522.663887	0.052859
522.880532	0.053054
523.097158	0.053354
523.313766	0.053708
523.530356	0.053441
523.746928	0.053171
523.963481	0.053295
524.180017	0.053629
524.396534	0.053068
524.613032	0.053092
524.829513	0.052920
525.045975	0.052863
525.262420	0.053295
525.478845	0.053256
525.695253	0.053356
525.911643	0.053557
526.128014	0.053542
526.344367	0.053858
526.560702	0.053877
526.777018	0.054016
526.993316	0.054149
527.209597	0.053604
527.425858	0.054279
527.642102	0.053729
527.858328	0.053711
528.074535	0.053514
528.290724	0.053405
528.506894	0.053092
528.723047	0.053473
528.939181	0.053525
529.155297	0.053529
529.371395	0.053038
529.587475	0.053802
529.803536	0.054017
530.019579	0.054101
530.235604	0.054048
530.451611	0.054247
530.667600	0.054322
530.883570	0.054436
531.099522	0.054457
531.315456	0.054374
531.531372	0.054860
531.747269	0.055031
531.963148	0.055391
532.179009	0.055775
532.394852	0.055607
532.610676	0.055437
532.826482	0.054907
533.042271	0.055200
533.258040	0.055267
533.473792	0.054767
533.689525	0.054775
533.905240	0.054888
534.120937	0.054758
534.336616	0.054659
534.552277	0.054575
534.767919	0.055122
534.983543	0.055017
535.199149	0.055412
535.414736	0.055797
535.630306	0.055652
535.845857	0.055410
536.061390	0.055946
536.276904	0.056124
536.492401	0.056658
536.707879	0.056374
536.923339	0.056763
537.138781	0.056482
537.354204	0.056553
537.569610	0.056789
537.784997	0.056983
538.000366	0.056476
538.215716	0.057245
538.431049	0.057107
538.646363	0.057371
538.861659	0.057035
539.076937	0.057567
539.292196	0.057687
539.507438	0.057458
539.722661	0.057665
539.937866	0.057790
540.153052	0.057869
540.368221	0.057603
540.583371	0.057573
540.798503	0.057764
541.013617	0.057493
541.228712	0.057276
541.443789	0.057047
541.658848	0.056748
541.873889	0.056920
542.088912	0.056103
542.303916	0.056736
542.518902	0.057225
542.733870	0.057360
542.948820	0.057682
543.163752	0.057896
543.378665	0.058278
543.593560	0.058446
543.808437	0.058440
544.023295	0.058644
544.238136	0.057915
544.452958	0.057800
544.667762	0.057518
544.882548	0.057822
545.097315	0.057714
545.312064	0.058086
545.526795	0.058056
545.741508	0.057898
545.956203	0.058167
546.170879	0.058819
546.385537	0.058913
546.600177	0.059574
546.814799	0.059221
547.029402	0.059314
547.243988	0.058912
547.458555	0.059042
547.673103	0.058870
547.887634	0.058586
548.102146	0.058299
548.316640	0.058131
548.531116	0.057789
548.745574	0.057446
548.960013	0.057413
549.174435	0.057380
549.388838	0.057296
549.603222	0.057680
549.817589	0.057764
550.031937	0.057813
550.246267	0.057667
550.460579	0.057740
550.674873	0.058031
550.889148	0.058004
551.103405	0.058221
551.317644	0.058369
551.531865	0.057701
551.746068	0.058200
551.960252	0.058509
552.174418	0.058759
552.388566	0.058579
552.602696	0.058840
552.816807	0.059016
553.030900	0.059147
553.244975	0.059135
553.459032	0.059719
553.673070	0.059650
553.887091	0.059047
554.101093	0.058965
554.315077	0.059302
554.529042	0.058840
554.742990	0.059224
554.956919	0.059337
555.170830	0.059283
555.384722	0.059142
555.598597	0.059288
555.812453	0.059908
556.026291	0.059965
556.240111	0.059804
556.453913	0.060206
556.667696	0.059954
556.881461	0.059881
557.095208	0.059963
557.308937	0.060385
557.522647	0.060262
557.736339	0.060296
557.950013	0.061057
558.163669	0.061344
558.377307	0.061456
558.590926	0.061660
558.804527	0.061808
559.018110	0.062280
559.231675	0.062134
559.445221	0.062181
559.658749	0.062106
559.872259	0.061035
560.085751	0.061125
560.299225	0.060983
560.512680	0.060721
560.726117	0.060920
560.939536	0.060626
561.152937	0.060717
561.366319	0.060863
561.579683	0.060866
561.793029	0.061357
562.006357	0.061331
562.219667	0.061282
562.432958	0.061347
562.646231	0.061357
562.859486	0.061542
563.072723	0.061916
563.285941	0.061936
563.499141	0.061823
563.712323	0.062266
563.925487	0.062375
564.138632	0.062527
564.351760	0.062595
564.564869	0.062561
564.777960	0.062625
564.991032	0.062579
565.204087	0.062783
565.417123	0.062845
565.630141	0.062980
565.843140	0.062944
566.056122	0.063096
566.269085	0.063011
566.482030	0.063110
566.694957	0.062949
566.907866	0.062837
567.120756	0.063072
567.333628	0.063332
567.546482	0.063356
567.759318	0.063490
567.972135	0.063462
568.184935	0.063575
568.397716	0.063258
568.610478	0.063518
568.823223	0.063439
569.035949	0.063403
569.248657	0.063426
569.461347	0.062898
569.674019	0.062606
569.886672	0.062281
570.099308	0.062327
570.311925	0.062352
570.524523	0.062182
570.737104	0.062250
570.949666	0.062271
571.162210	0.062266
571.374736	0.062599
571.587244	0.062707
571.799733	0.063213
572.012205	0.063552
572.224658	0.063779
572.437092	0.063695
572.649509	0.064017
572.861907	0.063739
573.074287	0.063934
573.286649	0.063833
573.498993	0.063972
573.711318	0.063741
573.923625	0.063593
574.135914	0.063581
574.348185	0.063788
574.560438	0.063008
574.772672	0.063205
574.984888	0.063217
575.197086	0.063298
575.409266	0.063229
575.621427	0.063405
575.833570	0.063606
576.045695	0.063732
576.257802	0.063868
576.469890	0.064405
576.681961	0.064528
576.894013	0.064424
577.106046	0.064404
577.318062	0.064536
577.530059	0.064547
577.742039	0.064340
577.954000	0.064339
578.165942	0.064189
578.377867	0.064043
578.589773	0.063669
578.801661	0.063878
579.013531	0.064000
579.225382	0.064122
579.437216	0.064034
579.649031	0.064341
579.860828	0.064464
580.072606	0.064818
580.284367	0.064904
580.496109	0.064977
580.707833	0.064807
580.919539	0.064541
581.131227	0.064294
581.342896	0.064339
581.554547	0.064342
581.766180	0.064090
581.977795	0.063618
582.189391	0.064174
582.400969	0.064281
582.612529	0.064474
582.824071	0.064892
583.035595	0.065066
583.247100	0.065432
583.458587	0.065527
583.670056	0.065752
583.881506	0.066085
584.092939	0.065942
584.304353	0.066346
584.515749	0.066023
584.727127	0.066156
584.938486	0.066627
585.149828	0.066732
585.361151	0.066422
585.572456	0.066469
585.783742	0.066856
585.995011	0.067115
586.206261	0.066735
586.417493	0.067073
586.628706	0.067049
586.839902	0.066778
587.051079	0.066723
587.262238	0.066823
587.473379	0.067139
587.684502	0.067030
587.895606	0.066874
588.106692	0.067042
588.317760	0.067198
588.528810	0.067273
588.739841	0.067568
588.950855	0.067588
589.161850	0.067611
589.372827	0.067614
589.583785	0.067657
589.794726	0.067615
590.005648	0.068022
590.216552	0.067918
590.427437	0.067653
590.638305	0.067174
590.849154	0.067285
591.059985	0.067701
591.270798	0.067742
591.481592	0.067477
591.692369	0.067452
591.903127	0.067266
592.113867	0.067480
592.324588	0.067262
592.535292	0.067759
592.745977	0.067734
592.956644	0.067773
593.167293	0.067644
593.377923	0.067905
593.588536	0.068028
593.799130	0.068072
594.009706	0.067758
594.220263	0.068161
594.430803	0.067956
594.641324	0.067800
594.851827	0.067805
595.062312	0.068085
595.272778	0.068109
595.483227	0.067988
595.693657	0.067784
595.904069	0.068029
596.114462	0.067999
596.324838	0.067890
596.535195	0.068228
596.745534	0.067919
596.955855	0.067872
597.166157	0.067838
597.376441	0.068026
597.586707	0.068361
597.796955	0.068529
598.007185	0.068696
598.217396	0.068885
598.427589	0.068958
598.637764	0.069359
598.847921	0.069301
599.058060	0.069310
599.268180	0.069245
599.478282	0.069273
599.688366	0.069118
599.898431	0.069349
600.108479	0.069550
600.318508	0.069525
600.528519	0.069397
600.738511	0.069394
600.948486	0.069654
601.158442	0.069800
601.368380	0.069776
601.578300	0.069973
601.788202	0.069692
601.998085	0.069930
602.207950	0.069561
602.417797	0.069565
602.627626	0.069395
602.837436	0.069384
603.047228	0.069334
603.257002	0.069388
603.466758	0.069535
603.676496	0.069768
603.886215	0.069688
604.095916	0.069901
604.305599	0.069823
604.515264	0.070101
604.724910	0.069976
604.934538	0.070156
605.144148	0.070324
605.353740	0.070236
605.563314	0.070247
605.772869	0.070317
605.982406	0.070534
606.191925	0.070673
606.401425	0.070677
606.610908	0.070955
606.820372	0.071034
607.029818	0.071159
607.239246	0.071168
607.448655	0.071332
607.658047	0.071026
607.867420	0.071075
608.076775	0.071269
608.286111	0.071290
608.495430	0.071155
608.704730	0.071262
608.914012	0.071003
609.123275	0.071055
609.332521	0.070848
609.541748	0.071172
609.750957	0.071070
609.960148	0.070901
610.169321	0.070900
610.378475	0.070975
610.587611	0.070984
610.796729	0.071047
611.005829	0.071269
611.214910	0.071458
611.423974	0.071596
611.633019	0.071766
611.842045	0.071884
612.051054	0.072032
612.260044	0.071985
612.469017	0.071823
612.677970	0.071985
612.886906	0.071850
613.095824	0.071861
613.304723	0.071652
613.513604	0.071425
613.722467	0.071482
613.931311	0.071436
614.140138	0.071546
614.348946	0.071608
614.557736	0.071567
614.766507	0.071434
614.975261	0.071492
615.183996	0.071519
615.392713	0.071526
615.601412	0.071621
615.810092	0.071522
616.018754	0.071292
616.227399	0.071188
616.436024	0.071317
616.644632	0.071504
616.853222	0.071811
617.061793	0.072050
617.270346	0.072418
617.478880	0.072384
617.687397	0.072672
617.895895	0.073030
618.104375	0.073411
618.312837	0.073385
618.521281	0.073696
618.729706	0.073531
618.938113	0.073453
619.146502	0.073512
619.354873	0.073641
619.563226	0.073575
619.771560	0.073460
619.979876	0.073321
620.188174	0.073281
620.396453	0.073145
620.604715	0.073087
620.812958	0.073182
621.021183	0.073307
621.229390	0.073250
621.437578	0.073426
621.645748	0.073656
621.853900	0.073865
622.062034	0.073697
622.270150	0.073698
622.478247	0.073616
622.686326	0.073681
622.894387	0.073480
623.102430	0.073431
623.310454	0.073276
623.518461	0.073120
623.726449	0.072893
623.934418	0.073144
624.142370	0.073061
624.350303	0.073198
624.558218	0.073074
624.766115	0.073165
624.973994	0.073238
625.181855	0.073419
625.389697	0.073280
625.597521	0.073555
625.805327	0.073651
626.013114	0.073850
626.220883	0.074036
626.428634	0.074229
626.636367	0.074220
626.844082	0.074482
627.051778	0.074487
627.259457	0.074793
627.467117	0.074455
627.674758	0.074554
627.882382	0.074641
628.089987	0.074623
628.297574	0.074696
628.505143	0.074720
628.712694	0.074474
628.920226	0.074670
629.127740	0.074477
629.335236	0.074593
629.542714	0.074441
629.750174	0.074586
629.957615	0.074554
630.165038	0.074483
630.372443	0.074605
630.579829	0.074713
630.787198	0.074498
630.994548	0.074687
631.201880	0.074643
631.409194	0.074834
631.616489	0.074614
631.823766	0.074585
632.031025	0.074625
632.238266	0.074624
632.445489	0.074602
632.652693	0.074765
632.859879	0.074861
633.067047	0.075146
633.274197	0.075068
633.481329	0.075245
633.688442	0.075479
633.895537	0.075356
634.102614	0.075451
634.309672	0.075638
634.516713	0.075701
634.723735	0.075447
634.930739	0.075478
635.137724	0.075581
635.344692	0.075253
635.551641	0.075044
635.758572	0.075214
635.965485	0.075027
636.172379	0.075003
636.379256	0.074906
636.586114	0.075312
636.792954	0.075533
636.999775	0.075581
637.206579	0.075908
637.413364	0.076098
637.620131	0.076209
637.826880	0.076340
638.033610	0.076587
638.240323	0.076662
638.447017	0.076427
638.653692	0.076131
638.860350	0.076201
639.066990	0.076215
639.273611	0.076371
639.480214	0.076470
639.686798	0.076593
639.893365	0.076478
640.099913	0.076453
640.306443	0.076640
640.512955	0.076831
640.719449	0.076825
640.925924	0.076685
641.132381	0.076569
641.338820	0.076457
641.545241	0.076436
641.751644	0.076460
641.958028	0.076807
642.164394	0.076908
642.370742	0.076872
642.577071	0.076706
642.783383	0.076940
642.989676	0.076958
643.195951	0.076877
643.402207	0.076998
643.608446	0.077144
643.814666	0.076868
644.020868	0.077074
644.227052	0.077103
644.433218	0.077394
644.639365	0.077492
644.845494	0.077466
645.051605	0.077635
645.257698	0.077618
645.463772	0.077556
645.669828	0.077773
645.875866	0.077819
646.081886	0.078005
646.287888	0.078011
646.493871	0.077980
646.699836	0.078018
646.905783	0.077991
647.111712	0.077848
647.317622	0.077918
647.523514	0.077909
647.729388	0.077837
647.935244	0.077845
648.141082	0.077892
648.346901	0.077937
648.552702	0.078035
648.758485	0.078155
648.964250	0.078467
649.169996	0.078408
649.375724	0.078470
649.581434	0.078457
649.787126	0.078449
649.992800	0.078407
650.198455	0.078390
650.404092	0.078433
650.609711	0.078392
650.815311	0.078089
651.020894	0.078079
651.226458	0.078119
651.432004	0.078192
651.637532	0.078281
651.843041	0.078388
652.048532	0.078260
652.254006	0.078327
652.459460	0.078554
652.664897	0.078759
652.870315	0.078851
653.075716	0.078745
653.281097	0.078673
653.486461	0.078590
653.691807	0.078753
653.897134	0.078905
654.102443	0.078785
654.307734	0.078769
654.513006	0.078928
654.718261	0.078984
654.923497	0.079153
655.128715	0.079433
655.333915	0.079613
655.539096	0.079555
655.744259	0.079795
655.949404	0.080227
656.154531	0.080276
656.359640	0.080331
656.564730	0.080381
656.769802	0.080479
656.974856	0.080229
657.179892	0.080200
657.384909	0.080228
657.589908	0.080079
657.794889	0.079963
657.999852	0.079980
658.204797	0.079899
658.409723	0.079971
658.614631	0.080020
658.819521	0.080204
659.024393	0.080361
659.229246	0.080248
659.434081	0.080171
659.638898	0.080085
659.843697	0.080217
660.048478	0.080338
660.253240	0.080277
660.457984	0.080163
660.662710	0.080191
660.867417	0.080150
661.072107	0.080216
661.276778	0.080312
661.481431	0.080436
661.686066	0.080331
661.890682	0.080492
662.095281	0.080590
662.299861	0.080685
662.504422	0.080505
662.708966	0.080659
662.913491	0.080645
663.117999	0.080709
663.322488	0.080588
663.526958	0.080427
663.731411	0.080238
663.935845	0.080185
664.140261	0.080349
664.344659	0.080423
664.549038	0.080433
664.753400	0.080562
664.957743	0.080700
665.162068	0.080885
665.366375	0.081149
665.570663	0.081260
665.774933	0.081369
665.979185	0.081287
666.183419	0.081540
666.387635	0.081690
666.591832	0.081889
666.796011	0.081912
667.000172	0.082176
667.204315	0.082234
667.408439	0.082266
667.612545	0.082382
667.816634	0.082544
668.020703	0.082604
668.224755	0.082500
668.428788	0.082470
668.632803	0.082566
668.836800	0.082456
669.040779	0.082432
669.244739	0.082510
669.448681	0.082524
669.652605	0.082425
669.856511	0.082412
670.060399	0.082538
670.264268	0.082670
670.468119	0.082524
670.671952	0.082574
670.875767	0.082899
671.079563	0.083000
671.283341	0.083155
671.487101	0.083533
671.690843	0.083799
671.894567	0.083949
672.098272	0.084138
672.301959	0.084448
672.505628	0.084561
672.709278	0.084648
672.912911	0.084788
673.116525	0.084890
673.320121	0.084916
673.523699	0.084862
673.727258	0.084795
673.930799	0.084639
674.134322	0.084632
674.337827	0.084625
674.541314	0.084532
674.744782	0.084521
674.948232	0.084431
675.151664	0.084171
675.355078	0.084020
675.558474	0.084031
675.761851	0.084082
675.965210	0.083949
676.168551	0.083839
676.371873	0.083847
676.575178	0.083769
676.778464	0.083772
676.981732	0.083937
677.184981	0.084029
677.388213	0.084122
677.591426	0.084115
677.794621	0.084416
677.997798	0.084629
678.200956	0.084676
678.404097	0.084810
678.607219	0.084929
678.810323	0.085033
679.013408	0.085125
679.216476	0.084935
679.419525	0.084983
679.622556	0.084920
679.825569	0.084792
680.028563	0.084805
680.231540	0.084810
680.434498	0.084861
680.637438	0.084816
680.840359	0.084992
681.043263	0.085202
681.246148	0.085241
681.449015	0.085379
681.651864	0.085536
681.854694	0.085648
682.057506	0.085727
682.260301	0.085732
682.463076	0.085704
682.665834	0.085678
682.868573	0.085712
683.071295	0.085796
683.273998	0.085664
683.476682	0.085566
683.679349	0.085629
683.881997	0.085704
684.084627	0.085836
684.287239	0.086047
684.489833	0.086046
684.692408	0.086199
684.894965	0.086360
685.097504	0.086531
685.300025	0.086744
685.502527	0.086661
685.705012	0.086775
685.907478	0.086792
686.109925	0.086774
686.312355	0.086742
686.514766	0.086598
686.717159	0.086540
686.919534	0.086539
687.121891	0.086338
687.324230	0.086341
687.526550	0.086232
687.728852	0.086154
687.931136	0.086045
688.133401	0.086069
688.335649	0.086092
688.537878	0.086081
688.740089	0.086065
688.942281	0.086354
689.144456	0.086472
689.346612	0.086505
689.548750	0.086523
689.750870	0.086438
689.952971	0.086652
690.155055	0.086721
690.357120	0.086650
690.559167	0.086747
690.761195	0.086713
690.963206	0.086834
691.165198	0.086977
691.367172	0.087085
691.569128	0.087272
691.771065	0.087307
691.972984	0.087310
692.174885	0.087372
692.376768	0.087433
692.578633	0.087356
692.780479	0.087035
692.982308	0.087037
693.184118	0.086895
693.385909	0.086889
