sample name	sample
index	1523
start time	 05-18-2021  03:34:47 PM


Wavelength (nm)	Absorbance
494.344910	-0.164197
494.563924	-0.164197
494.782919	-0.164197
495.001897	NaN
495.220856	0.094147
495.439797	0.109660
495.658719	0.161400
495.877624	0.185672
496.096510	0.104075
496.315378	0.073749
496.534227	0.044350
496.753059	-0.032836
496.971872	-0.013864
497.190667	0.155755
497.409444	0.177835
497.628203	0.176952
497.846943	0.177123
498.065665	0.181938
498.284369	0.183455
498.503055	0.183076
498.721723	0.183015
498.940372	0.182429
499.159003	0.182843
499.377616	0.182189
499.596210	0.183114
499.814787	0.184690
500.033345	0.182788
500.251885	0.182259
500.470406	0.183483
500.688910	0.184573
500.907395	0.185482
501.125862	0.184706
501.344311	0.185075
501.562742	0.184802
501.781154	0.184335
501.999548	0.184828
502.217924	0.184644
502.436282	0.185742
502.654621	0.186115
502.872942	0.187440
503.091245	0.187036
503.309530	0.186877
503.527797	0.187578
503.746045	0.188601
503.964275	0.189703
504.182487	0.190466
504.400681	0.189752
504.618856	0.189818
504.837013	0.190131
505.055152	0.191014
505.273273	0.191975
505.491376	0.192299
505.709460	0.192047
505.927526	0.191714
506.145574	0.190902
506.363604	0.190938
506.581615	0.190186
506.799608	0.189847
507.017583	0.190820
507.235540	0.190238
507.453478	0.189127
507.671399	0.188531
507.889301	0.189429
508.107185	0.190149
508.325050	0.190777
508.542898	0.191444
508.760727	0.191280
508.978538	0.190949
509.196330	0.190949
509.414105	0.191922
509.631861	0.193108
509.849599	0.192917
510.067319	0.193168
510.285021	0.192716
510.502704	0.192801
510.720369	0.193912
510.938016	0.195173
511.155645	0.195669
511.373255	0.196763
511.590848	0.196163
511.808422	0.195348
512.025977	0.194977
512.243515	0.195415
512.461034	0.195617
512.678536	0.195116
512.896018	0.194489
513.113483	0.194949
513.330930	0.194451
513.548358	0.195953
513.765768	0.198248
513.983160	0.198568
514.200533	0.199099
514.417889	0.200200
514.635226	0.200633
514.852545	0.200633
515.069845	0.200947
515.287128	0.201869
515.504392	0.201141
515.721638	0.199826
515.938866	0.200147
516.156075	0.199476
516.373267	0.198633
516.590440	0.198905
516.807594	0.199931
517.024731	0.200465
517.241850	0.200281
517.458950	0.200199
517.676032	0.201283
517.893095	0.202058
518.110141	0.202634
518.327168	0.202823
518.544177	0.203038
518.761168	0.202398
518.978141	0.202326
519.195095	0.202923
519.412031	0.203641
519.628949	0.203005
519.845849	0.202703
520.062731	0.203493
520.279594	0.204520
520.496439	0.205032
520.713266	0.205017
520.930074	0.205896
521.146865	0.205469
521.363637	0.206158
521.580391	0.207041
521.797127	0.208289
522.013844	0.208042
522.230543	0.208084
522.447224	0.207293
522.663887	0.207225
522.880532	0.207280
523.097158	0.208014
523.313766	0.207585
523.530356	0.207711
523.746928	0.207687
523.963481	0.208418
524.180017	0.208803
524.396534	0.210155
524.613032	0.211691
524.829513	0.211452
525.045975	0.211389
525.262420	0.212182
525.478845	0.212524
525.695253	0.213261
525.911643	0.213802
526.128014	0.213792
526.344367	0.213893
526.560702	0.214150
526.777018	0.215142
526.993316	0.215707
527.209597	0.215859
527.425858	0.215649
527.642102	0.214955
527.858328	0.214561
528.074535	0.215533
528.290724	0.215456
528.506894	0.215490
528.723047	0.215584
528.939181	0.216465
529.155297	0.217313
529.371395	0.218747
529.587475	0.219441
529.803536	0.219693
530.019579	0.219268
530.235604	0.219802
530.451611	0.220107
530.667600	0.220260
530.883570	0.220672
531.099522	0.220531
531.315456	0.220506
531.531372	0.220774
531.747269	0.221053
531.963148	0.221824
532.179009	0.222532
532.394852	0.223342
532.610676	0.223242
532.826482	0.222878
533.042271	0.223771
533.258040	0.223898
533.473792	0.224461
533.689525	0.225438
533.905240	0.225901
534.120937	0.225685
534.336616	0.225585
534.552277	0.226382
534.767919	0.226566
534.983543	0.226846
535.199149	0.227160
535.414736	0.227199
535.630306	0.227880
535.845857	0.228486
536.061390	0.228783
536.276904	0.229402
536.492401	0.230227
536.707879	0.231460
536.923339	0.231984
537.138781	0.232893
537.354204	0.233413
537.569610	0.233103
537.784997	0.232676
538.000366	0.233429
538.215716	0.234026
538.431049	0.234121
538.646363	0.234191
538.861659	0.234042
539.076937	0.234203
539.292196	0.234675
539.507438	0.235479
539.722661	0.236495
539.937866	0.236982
540.153052	0.237094
540.368221	0.237733
540.583371	0.238106
540.798503	0.238323
541.013617	0.238332
541.228712	0.239270
541.443789	0.239452
541.658848	0.239664
541.873889	0.239745
542.088912	0.240045
542.303916	0.240062
542.518902	0.239994
542.733870	0.240310
542.948820	0.240321
543.163752	0.239552
543.378665	0.239715
543.593560	0.240070
543.808437	0.240554
544.023295	0.240545
544.238136	0.240723
544.452958	0.240588
544.667762	0.240918
544.882548	0.241525
545.097315	0.242198
545.312064	0.242145
545.526795	0.242744
545.741508	0.242433
545.956203	0.242939
546.170879	0.243015
546.385537	0.244264
546.600177	0.244160
546.814799	0.244516
547.029402	0.244627
547.243988	0.245225
547.458555	0.244652
547.673103	0.245637
547.887634	0.246442
548.102146	0.246914
548.316640	0.247237
548.531116	0.247760
548.745574	0.248298
548.960013	0.248412
549.174435	0.248820
549.388838	0.249027
549.603222	0.249103
549.817589	0.248835
550.031937	0.249361
550.246267	0.248907
550.460579	0.249820
550.674873	0.249564
550.889148	0.250060
551.103405	0.250020
551.317644	0.250118
551.531865	0.250564
551.746068	0.250255
551.960252	0.249666
552.174418	0.250290
552.388566	0.250403
552.602696	0.250941
552.816807	0.251532
553.030900	0.252001
553.244975	0.253378
553.459032	0.253161
553.673070	0.254102
553.887091	0.255076
554.101093	0.255307
554.315077	0.254534
554.529042	0.254532
554.742990	0.254431
554.956919	0.254283
555.170830	0.253540
555.384722	0.254581
555.598597	0.254655
555.812453	0.254545
556.026291	0.254596
556.240111	0.255211
556.453913	0.255163
556.667696	0.255591
556.881461	0.256200
557.095208	0.256775
557.308937	0.256137
557.522647	0.256398
557.736339	0.256659
557.950013	0.256831
558.163669	0.257245
558.377307	0.257950
558.590926	0.258097
558.804527	0.257400
559.018110	0.257591
559.231675	0.257932
559.445221	0.258259
559.658749	0.258087
559.872259	0.258176
560.085751	0.258187
560.299225	0.257897
560.512680	0.257802
560.726117	0.258192
560.939536	0.258075
561.152937	0.258405
561.366319	0.258957
561.579683	0.259768
561.793029	0.260530
562.006357	0.261252
562.219667	0.261790
562.432958	0.262313
562.646231	0.263289
562.859486	0.263957
563.072723	0.263907
563.285941	0.263498
563.499141	0.263402
563.712323	0.263202
563.925487	0.263015
564.138632	0.263082
564.351760	0.262827
564.564869	0.262886
564.777960	0.262914
564.991032	0.263395
565.204087	0.263431
565.417123	0.263833
565.630141	0.263877
565.843140	0.264020
566.056122	0.264242
566.269085	0.264595
566.482030	0.264449
566.694957	0.264822
566.907866	0.265054
567.120756	0.265236
567.333628	0.265296
567.546482	0.265801
567.759318	0.266151
567.972135	0.266023
568.184935	0.266134
568.397716	0.266493
568.610478	0.266220
568.823223	0.266187
569.035949	0.266244
569.248657	0.266302
569.461347	0.266462
569.674019	0.266236
569.886672	0.266527
570.099308	0.266790
570.311925	0.266871
570.524523	0.266988
570.737104	0.267464
570.949666	0.267810
571.162210	0.267723
571.374736	0.267884
571.587244	0.268447
571.799733	0.269134
572.012205	0.269424
572.224658	0.269835
572.437092	0.269967
572.649509	0.269748
572.861907	0.270089
573.074287	0.270507
573.286649	0.270782
573.498993	0.270650
573.711318	0.270103
573.923625	0.270574
574.135914	0.270423
574.348185	0.270961
574.560438	0.271865
574.772672	0.272109
574.984888	0.272217
575.197086	0.271588
575.409266	0.272027
575.621427	0.272110
575.833570	0.272086
576.045695	0.272566
576.257802	0.272389
576.469890	0.271991
576.681961	0.271909
576.894013	0.272270
577.106046	0.272733
577.318062	0.273370
577.530059	0.274175
577.742039	0.274205
577.954000	0.274228
578.165942	0.275167
578.377867	0.275555
578.589773	0.275898
578.801661	0.276273
579.013531	0.276587
579.225382	0.276264
579.437216	0.276616
579.649031	0.277081
579.860828	0.277443
580.072606	0.277614
580.284367	0.278022
580.496109	0.278179
580.707833	0.278456
580.919539	0.278586
581.131227	0.278854
581.342896	0.278925
581.554547	0.278821
581.766180	0.278950
581.977795	0.278725
582.189391	0.278732
582.400969	0.278761
582.612529	0.278857
582.824071	0.278975
583.035595	0.279290
583.247100	0.279789
583.458587	0.280004
583.670056	0.280321
583.881506	0.280364
584.092939	0.280871
584.304353	0.281049
584.515749	0.280916
584.727127	0.281215
584.938486	0.281011
585.149828	0.280249
585.361151	0.280600
585.572456	0.280428
585.783742	0.280819
585.995011	0.280774
586.206261	0.281197
586.417493	0.281573
586.628706	0.281623
586.839902	0.281904
587.051079	0.282540
587.262238	0.282113
587.473379	0.282378
587.684502	0.282095
587.895606	0.282033
588.106692	0.281969
588.317760	0.282112
588.528810	0.282611
588.739841	0.282911
588.950855	0.282858
589.161850	0.283126
589.372827	0.283191
589.583785	0.283613
589.794726	0.283907
590.005648	0.284060
590.216552	0.284342
590.427437	0.284487
590.638305	0.284782
590.849154	0.285366
591.059985	0.286046
591.270798	0.286700
591.481592	0.286584
591.692369	0.286770
591.903127	0.287018
592.113867	0.287015
592.324588	0.287071
592.535292	0.287015
592.745977	0.287090
592.956644	0.287226
593.167293	0.286953
593.377923	0.287464
593.588536	0.287802
593.799130	0.288239
594.009706	0.288616
594.220263	0.288312
594.430803	0.288693
594.641324	0.288983
594.851827	0.289257
595.062312	0.289616
595.272778	0.289892
595.483227	0.290258
595.693657	0.290351
595.904069	0.290587
596.114462	0.291373
596.324838	0.291472
596.535195	0.291746
596.745534	0.292381
596.955855	0.293017
597.166157	0.293459
597.376441	0.293230
597.586707	0.293479
597.796955	0.293550
598.007185	0.294020
598.217396	0.294405
598.427589	0.294759
598.637764	0.294411
598.847921	0.294448
599.058060	0.294763
599.268180	0.294992
599.478282	0.295204
599.688366	0.295395
599.898431	0.295091
600.108479	0.295356
600.318508	0.295000
600.528519	0.295201
600.738511	0.295245
600.948486	0.294879
601.158442	0.295074
601.368380	0.295239
601.578300	0.295232
601.788202	0.295470
601.998085	0.295376
602.207950	0.296070
602.417797	0.296364
602.627626	0.296457
602.837436	0.296804
603.047228	0.297124
603.257002	0.297352
603.466758	0.298044
603.676496	0.298225
603.886215	0.298246
604.095916	0.298120
604.305599	0.298266
604.515264	0.298703
604.724910	0.298899
604.934538	0.299146
605.144148	0.299514
605.353740	0.299630
605.563314	0.300054
605.772869	0.300242
605.982406	0.300295
606.191925	0.300178
606.401425	0.300169
606.610908	0.300248
606.820372	0.300203
607.029818	0.300141
607.239246	0.299872
607.448655	0.299976
607.658047	0.300404
607.867420	0.300831
608.076775	0.301155
608.286111	0.301057
608.495430	0.301066
608.704730	0.301358
608.914012	0.301441
609.123275	0.301706
609.332521	0.301746
609.541748	0.301839
609.750957	0.301621
609.960148	0.301795
610.169321	0.302475
610.378475	0.302775
610.587611	0.303005
610.796729	0.303379
611.005829	0.303513
611.214910	0.303860
611.423974	0.303990
611.633019	0.304500
611.842045	0.304778
612.051054	0.304737
612.260044	0.305074
612.469017	0.305024
612.677970	0.305175
612.886906	0.305456
613.095824	0.305686
613.304723	0.306180
613.513604	0.306162
613.722467	0.306320
613.931311	0.306993
614.140138	0.307234
614.348946	0.307532
614.557736	0.307887
614.766507	0.307867
614.975261	0.308024
615.183996	0.307621
615.392713	0.308081
615.601412	0.308296
615.810092	0.308084
616.018754	0.308144
616.227399	0.308094
616.436024	0.307593
616.644632	0.307843
616.853222	0.308069
617.061793	0.308579
617.270346	0.308676
617.478880	0.309058
617.687397	0.309219
617.895895	0.309770
618.104375	0.309923
618.312837	0.310525
618.521281	0.310994
618.729706	0.311080
618.938113	0.311145
619.146502	0.311358
619.354873	0.311248
619.563226	0.311505
619.771560	0.311685
619.979876	0.312306
620.188174	0.312520
620.396453	0.312676
620.604715	0.312982
620.812958	0.313137
621.021183	0.313152
621.229390	0.313621
621.437578	0.313625
621.645748	0.313460
621.853900	0.313757
622.062034	0.313951
622.270150	0.314091
622.478247	0.314353
622.686326	0.314922
622.894387	0.315250
623.102430	0.315200
623.310454	0.315510
623.518461	0.315896
623.726449	0.315637
623.934418	0.315664
624.142370	0.315708
624.350303	0.315580
624.558218	0.315855
624.766115	0.316029
624.973994	0.316152
625.181855	0.316417
625.389697	0.316420
625.597521	0.316429
625.805327	0.316757
626.013114	0.316719
626.220883	0.317381
626.428634	0.317140
626.636367	0.317447
626.844082	0.317881
627.051778	0.317804
627.259457	0.317988
627.467117	0.318245
627.674758	0.318635
627.882382	0.318945
628.089987	0.318677
628.297574	0.319079
628.505143	0.318999
628.712694	0.318855
628.920226	0.319022
629.127740	0.319255
629.335236	0.319425
629.542714	0.319173
629.750174	0.319557
629.957615	0.319738
630.165038	0.319781
630.372443	0.320010
630.579829	0.320494
630.787198	0.320569
630.994548	0.320569
631.201880	0.321119
631.409194	0.321461
631.616489	0.321461
631.823766	0.321627
632.031025	0.321964
632.238266	0.322183
632.445489	0.322178
632.652693	0.322436
632.859879	0.323025
633.067047	0.323102
633.274197	0.323395
633.481329	0.323773
633.688442	0.323981
633.895537	0.324166
634.102614	0.324216
634.309672	0.324662
634.516713	0.324841
634.723735	0.324967
634.930739	0.325012
635.137724	0.325039
635.344692	0.325174
635.551641	0.325518
635.758572	0.325704
635.965485	0.325940
636.172379	0.326086
636.379256	0.326280
636.586114	0.326346
636.792954	0.326602
636.999775	0.326809
637.206579	0.326927
637.413364	0.327098
637.620131	0.327358
637.826880	0.327522
638.033610	0.327464
638.240323	0.327687
638.447017	0.327687
638.653692	0.327895
638.860350	0.327931
639.066990	0.327972
639.273611	0.327933
639.480214	0.327852
639.686798	0.328015
639.893365	0.328030
640.099913	0.328318
640.306443	0.328536
640.512955	0.328646
640.719449	0.328868
640.925924	0.329312
641.132381	0.329653
641.338820	0.329944
641.545241	0.330207
641.751644	0.330435
641.958028	0.330490
642.164394	0.330815
642.370742	0.331130
642.577071	0.331296
642.783383	0.331243
642.989676	0.331391
643.195951	0.331280
643.402207	0.331575
643.608446	0.331752
643.814666	0.332076
644.020868	0.332514
644.227052	0.332750
644.433218	0.332934
644.639365	0.333400
644.845494	0.333611
645.051605	0.333990
645.257698	0.334364
645.463772	0.334622
645.669828	0.334816
645.875866	0.334538
646.081886	0.334594
646.287888	0.334828
646.493871	0.334955
646.699836	0.335234
646.905783	0.335493
647.111712	0.335396
647.317622	0.335723
647.523514	0.335905
647.729388	0.336214
647.935244	0.336455
648.141082	0.336994
648.346901	0.337392
648.552702	0.337486
648.758485	0.337738
648.964250	0.338300
649.169996	0.338511
649.375724	0.338425
649.581434	0.339030
649.787126	0.339347
649.992800	0.339592
650.198455	0.339468
650.404092	0.339634
650.609711	0.339635
650.815311	0.339444
651.020894	0.339757
651.226458	0.340083
651.432004	0.339999
651.637532	0.339995
651.843041	0.339721
652.048532	0.339963
652.254006	0.340323
652.459460	0.340601
652.664897	0.340726
652.870315	0.340901
653.075716	0.341344
653.281097	0.341435
653.486461	0.341822
653.691807	0.342299
653.897134	0.342569
654.102443	0.342590
654.307734	0.342798
654.513006	0.343347
654.718261	0.343157
654.923497	0.343006
655.128715	0.343598
655.333915	0.343674
655.539096	0.344038
655.744259	0.344220
655.949404	0.344636
656.154531	0.344810
656.359640	0.344894
656.564730	0.345311
656.769802	0.345971
656.974856	0.345902
657.179892	0.346406
657.384909	0.346566
657.589908	0.346710
657.794889	0.347029
657.999852	0.347530
658.204797	0.347807
658.409723	0.348246
658.614631	0.348175
658.819521	0.348493
659.024393	0.348542
659.229246	0.348584
659.434081	0.349008
659.638898	0.349167
659.843697	0.349279
660.048478	0.349555
660.253240	0.349374
660.457984	0.349906
660.662710	0.350129
660.867417	0.350624
661.072107	0.351055
661.276778	0.351289
661.481431	0.351390
661.686066	0.351502
661.890682	0.352056
662.095281	0.352539
662.299861	0.352561
662.504422	0.352877
662.708966	0.352697
662.913491	0.352859
663.117999	0.353128
663.322488	0.353371
663.526958	0.353851
663.731411	0.353563
663.935845	0.353736
664.140261	0.354122
664.344659	0.354146
664.549038	0.354512
664.753400	0.354559
664.957743	0.354679
665.162068	0.355115
665.366375	0.355231
665.570663	0.355695
665.774933	0.356104
665.979185	0.356339
666.183419	0.356294
666.387635	0.356522
666.591832	0.356775
666.796011	0.357132
667.000172	0.357511
667.204315	0.357832
667.408439	0.357971
667.612545	0.358391
667.816634	0.358696
668.020703	0.359167
668.224755	0.359600
668.428788	0.360068
668.632803	0.360182
668.836800	0.360275
669.040779	0.360364
669.244739	0.360781
669.448681	0.360949
669.652605	0.361018
669.856511	0.361676
670.060399	0.361730
670.264268	0.362267
670.468119	0.362873
670.671952	0.363239
670.875767	0.363579
671.079563	0.363711
671.283341	0.363968
671.487101	0.364376
671.690843	0.364195
671.894567	0.364687
672.098272	0.364672
672.301959	0.364700
672.505628	0.364929
672.709278	0.365330
672.912911	0.365465
673.116525	0.365554
673.320121	0.365621
673.523699	0.366006
673.727258	0.366164
673.930799	0.366319
674.134322	0.366710
674.337827	0.366810
674.541314	0.367094
674.744782	0.367345
674.948232	0.367529
675.151664	0.367726
675.355078	0.368100
675.558474	0.368042
675.761851	0.368319
675.965210	0.368491
676.168551	0.368456
676.371873	0.368569
676.575178	0.369077
676.778464	0.369630
676.981732	0.369791
677.184981	0.369946
677.388213	0.370624
677.591426	0.370835
677.794621	0.371089
677.997798	0.371345
678.200956	0.371753
678.404097	0.372045
678.607219	0.372104
678.810323	0.372732
679.013408	0.373023
679.216476	0.372909
679.419525	0.373078
679.622556	0.373385
679.825569	0.373855
680.028563	0.373811
680.231540	0.373768
680.434498	0.373836
680.637438	0.373902
680.840359	0.373969
681.043263	0.374229
681.246148	0.374728
681.449015	0.374697
681.651864	0.374988
681.854694	0.375177
682.057506	0.375478
682.260301	0.376013
682.463076	0.376197
682.665834	0.376586
682.868573	0.377011
683.071295	0.377375
683.273998	0.377889
683.476682	0.378112
683.679349	0.378657
683.881997	0.378793
684.084627	0.379133
684.287239	0.379231
684.489833	0.379460
684.692408	0.379496
684.894965	0.379517
685.097504	0.379479
685.300025	0.379503
685.502527	0.379569
685.705012	0.379740
685.907478	0.379729
686.109925	0.380013
686.312355	0.380073
686.514766	0.380649
686.717159	0.380602
686.919534	0.380872
687.121891	0.381129
687.324230	0.381424
687.526550	0.381376
687.728852	0.381504
687.931136	0.381983
688.133401	0.382312
688.335649	0.382247
688.537878	0.382426
688.740089	0.382530
688.942281	0.382574
689.144456	0.382595
689.346612	0.383148
689.548750	0.383431
689.750870	0.383164
689.952971	0.383536
690.155055	0.384112
690.357120	0.384590
690.559167	0.384995
690.761195	0.385328
690.963206	0.385552
691.165198	0.385648
691.367172	0.385846
691.569128	0.386117
691.771065	0.386088
691.972984	0.385769
692.174885	0.386069
692.376768	0.385761
692.578633	0.386050
692.780479	0.386053
692.982308	0.386225
693.184118	0.386630
693.385909	0.386899
