sample name	sample
index	1079
start time	 04-22-2021  11:10:21 AM
880	0.064428
Peak Time (s)	100.037
Peak Height 	0.06443
calc peak height	100,103
Baseline Time (s)	9.537
Baseline Value 	-0.004898
subtract baseline	10,4
Abs	0.035062
Peak Time (s)	100.537
Peak Height 	0.03506
calc peak height	100,103
Baseline Time (s)	11.035
Baseline Value 	-1.2583E-4
subtract baseline	10,3
PK_550	0.029188
Peak Time (s)	102.535
Peak Height 	0.02919
calc peak height	100,103
Baseline Time (s)	8.537
Baseline Value 	3.8461E-4
subtract baseline	10,2
PK_880	0.025254
Peak Time (s)	102.535
Peak Height 	0.02525
calc peak height	100,103
Baseline Time (s)	9.037
Baseline Value 	0.00104
subtract baseline	10,1


Time (s)	A880-A510	A880-A775	A880-A975	A880	I510	I775	I975	I880	
0.037000	0.000954	0.000213	-0.007158	0.002715	6261.862729	43282.361324	3864.252743	22700.153302
0.537500	-0.002715	-0.000026	-0.004793	0.007605	6196.253146	42808.905279	3858.488127	22478.477212
1.037500	-0.001231	-0.000595	0.000851	0.004525	6231.082301	43040.049725	3878.555733	22617.829152
1.535000	-0.001687	0.000245	-0.002360	0.001796	6248.561134	43370.852602	3877.437389	22742.127268
2.035500	0.002528	0.000056	0.005129	0.001505	6283.486634	43380.240268	3895.654636	22755.406903
2.535500	-0.002966	-0.000465	-0.001870	0.005091	6213.479947	42999.827116	3870.947505	22592.161531
3.036000	0.001760	0.000090	0.006043	-0.001030	6297.281079	43620.162102	3903.836340	22871.654060
3.536500	-0.001192	-0.000264	0.004493	0.000546	6262.042279	43439.866776	3896.418359	22799.324677
4.037000	-0.001884	-0.000764	-0.000482	0.000421	6257.650164	43404.798019	3885.013531	22805.014247
4.539500	-0.001978	-0.001249	0.004076	0.004858	6222.807274	42949.021465	3885.297455	22602.715860
5.037000	-0.000622	-0.000358	0.000155	0.000438	6267.297066	43441.075208	3886.463739	22804.251492
5.537500	-0.001322	0.000523	0.002368	0.001220	6255.819878	43450.327099	3889.819839	22768.444417
6.035000	-0.001409	0.000715	-0.000228	0.001182	6255.448869	43471.792671	3883.829137	22770.197819
6.535500	0.000320	0.001215	0.004635	0.001467	6266.618688	43491.911876	3894.577157	22757.156631
7.035000	-0.001240	-0.000108	0.000519	0.000366	6263.064441	43471.176022	3887.485394	22807.557746
7.535500	-0.000718	-0.000255	0.004111	0.000211	6268.313892	43471.857399	3896.305505	22814.664685
8.036000	0.001012	-0.000103	-0.000987	0.000133	6282.360517	43493.369077	3884.504881	22818.229359
8.536500	-0.000553	0.000000	-0.003117	0.000369	6268.368636	43480.949127	3878.991879	22807.420009
9.037000	0.000000	-0.000254	-0.001314	0.000430	6272.181882	43451.509511	3883.048510	22804.609514
9.537000	0.000520	0.000003	-0.001560	0.000000	6279.566716	43515.617156	3883.478424	22824.333744
10.037500	-0.000752	0.000596	0.001040	0.000539	6265.502056	43520.735649	3888.302307	22799.623621
10.534500	-0.001538	-0.000420	0.002670	-0.000440	6267.001801	43517.242246	3894.439361	22844.516339
11.035000	0.000372	-0.000202	0.000000	-0.000075	6279.000742	43503.573930	3887.303719	22827.794218
11.535500	0.000310	0.000117	0.001898	-0.000334	6280.534084	43557.612751	3892.372314	22839.682925
12.038000	-0.000553	-0.000420	0.001016	-0.000312	6273.650103	43505.353215	3890.243883	22838.662170
12.536000	0.000303	0.000894	-0.000068	0.000783	6271.791209	43525.710130	3885.135921	22788.443495
13.039000	-0.001068	-0.000000	0.001564	0.000312	6264.817898	43486.224562	3890.064687	22810.025862
13.536000	0.001391	0.000790	0.007377	0.000541	6282.138624	43538.660851	3903.270816	22799.534369
14.042000	-0.000225	0.000066	-0.002930	0.002047	6257.910497	43330.857064	3875.531498	22730.659417
14.540000	-0.005239	-0.001115	0.001177	0.003388	6209.129434	43097.001410	3881.958190	22669.503729
15.037000	-0.000783	0.000164	-0.002605	0.000701	6264.007747	43465.284726	3879.411120	22792.214851
15.537500	0.000877	0.000016	0.000595	-0.000629	6287.255709	43575.707089	3890.000756	22853.231901
16.035000	0.000206	0.000825	0.003139	-0.000156	6278.335655	43607.059383	3894.876711	22831.472478
16.535500	-0.004158	-0.000430	-0.003832	0.004585	6208.245171	43049.629030	3867.594642	22615.086128
17.035500	0.001596	0.000245	0.003300	-0.001953	6303.219085	43721.099186	3899.508179	22914.108624
17.535500	0.000114	-0.000037	-0.000025	0.000162	6275.155924	43496.821226	3886.689515	22816.911500
18.036500	-0.001209	0.000046	0.005668	0.001152	6257.220261	43412.179071	3897.763082	22771.551237
18.537000	0.000805	-0.000102	0.000659	0.000559	6277.434741	43453.679510	3887.361420	22798.686850
19.037000	-0.000693	0.000162	0.004507	0.001026	6262.195544	43434.819785	3895.316988	22777.341426
19.537500	0.000199	0.000354	0.001682	0.001258	6267.297560	43431.040333	3888.121391	22766.699592
20.034500	0.000755	0.000488	-0.000334	0.001616	6268.836040	43410.162150	3882.566542	22750.318132
20.535500	-0.002517	0.000344	-0.001706	0.001031	6248.058353	43451.220312	3880.733000	22777.086703
21.035500	-0.000992	0.000422	-0.000377	0.001431	6256.741395	43421.233482	3882.900127	22758.786402
21.535500	0.000324	-0.000126	-0.001315	0.000476	6274.345280	43459.201552	3882.940769	22802.528808
22.038500	-0.000172	-0.000526	-0.001394	0.000796	6268.005089	43392.077883	3882.007628	22787.853879
22.536500	-0.001991	-0.000036	-0.000226	0.000851	6253.501386	43432.616407	3884.605857	22785.311738
23.036500	0.001366	-0.000480	0.000922	0.000802	6279.909364	43395.848949	3887.408982	22787.590738
23.539500	-0.000503	0.000366	-0.002473	0.001595	6259.261324	43400.741910	3877.641372	22751.308145
24.037000	-0.000205	0.000776	0.001435	0.001680	6260.906181	43431.078859	3886.552992	22747.427624
24.534500	-0.002875	-0.000479	-0.000573	0.000626	6248.416564	43412.309242	3884.319678	22795.620609
25.034500	-0.002871	0.000358	0.001682	0.001754	6239.763811	43385.204256	3886.959840	22744.039884
25.535500	-0.001515	-0.000147	-0.001129	0.001071	6255.486173	43401.782176	3881.985456	22775.260629
26.038000	-0.000672	0.000393	0.003165	0.001227	6260.795358	43437.611541	3891.677411	22768.127066
26.535500	-0.000551	-0.000318	0.002110	0.000997	6263.514453	43392.747614	3889.738470	22778.644727
27.035500	0.001477	0.000140	0.001953	-0.000728	6292.702546	43596.443823	3893.428224	22857.735935
27.536000	0.001026	0.000959	0.000292	-0.001504	6295.247871	43746.061841	3891.345547	22893.460591
28.042000	0.001218	-0.000166	0.006232	-0.001179	6294.207033	43610.145667	3904.642065	22878.498455
28.537000	-0.000739	0.000117	0.002117	-0.000795	6275.954662	43600.603862	3893.972041	22860.832375
29.035000	0.002438	0.000241	0.002523	-0.000595	6299.179401	43593.527865	3894.459948	22851.652248
29.535000	-0.000712	-0.000224	0.003117	-0.001126	6278.739322	43599.663701	3897.116188	22876.050434
30.036500	0.000441	0.001088	0.005744	0.000167	6277.652682	43601.517474	3900.278667	22816.686283
30.535000	-0.003692	-0.000324	0.004794	0.003478	6220.252660	43161.802791	3890.213535	22665.409424
31.035000	-0.001733	-0.000343	0.002934	0.001384	6251.385074	43354.463337	3890.767182	22760.965113
31.536000	-0.000022	-0.000997	0.001373	-0.001310	6285.547362	43544.615063	3893.432665	22884.498457
32.036000	-0.000291	0.000496	0.004340	-0.000371	6276.152592	43596.458947	3898.226648	22841.378479
32.536500	-0.003265	0.000303	0.000869	0.004143	6218.425881	43158.279597	3879.484072	22635.157397
33.037000	-0.001010	0.000056	0.004154	0.000813	6261.383269	43444.773690	3894.985502	22787.073411
33.537000	-0.001689	-0.000128	0.002263	0.000898	6255.479750	43419.677605	3890.329986	22783.186391
34.037000	0.000673	0.000553	-0.000031	0.002063	6264.734249	43374.544035	3882.232199	22729.903284
34.534500	-0.002495	0.000353	-0.000049	0.003699	6227.725985	43204.154511	3878.384955	22655.386078
35.035000	-0.000351	0.000914	0.000541	0.001975	6257.494132	43416.386792	3883.772263	22733.931318
35.535500	-0.001524	0.000615	0.003050	0.002251	6246.308108	43362.932904	3889.001944	22721.349556
36.035500	-0.002303	0.000495	0.000910	0.001483	6246.227572	43423.243225	3885.786945	22756.428413
36.536000	-0.001344	0.000442	0.003189	0.001724	6251.761517	43395.799089	3890.565143	22745.389965
37.036500	-0.000742	-0.000063	0.000991	0.001379	6259.082416	43380.928731	3886.219631	22761.191439
37.539500	-0.001378	0.000169	0.008266	0.001414	6253.893096	43399.302398	3903.310942	22759.583657
38.037000	0.000134	-0.000688	0.002150	0.000826	6270.146451	43374.244070	3890.234639	22786.473002
38.537500	-0.000649	-0.000176	0.000141	0.001225	6260.988249	43384.793218	3884.590158	22768.230608
39.034500	-0.000925	-0.000619	-0.000952	0.000930	6261.134448	43370.955765	3882.726492	22781.727274
39.535000	-0.001355	-0.000459	-0.002103	0.000998	6257.290125	43379.550266	3879.887615	22778.625869
40.035000	-0.003066	-0.001050	0.001271	0.000676	6246.566416	43354.537660	3888.523573	22793.359029
40.536000	-0.002368	0.000810	-0.000346	0.002197	6240.222025	43385.961293	3881.184396	22723.779919
41.036000	-0.002950	-0.000142	0.004576	0.001330	6242.424060	43378.122143	3894.762205	22763.427875
41.536500	-0.001715	0.000146	-0.001049	0.001582	6249.997487	43381.499822	3880.981171	22751.896433
42.036500	-0.001062	0.000825	0.004766	0.002749	6246.031273	43336.136069	3891.865248	22698.634589
42.536500	0.000224	0.001214	0.001189	0.002595	6257.147977	43386.644757	3883.838002	22705.644278
43.036500	-0.000116	0.000469	0.000127	0.001880	6260.039606	43383.818101	3883.026872	22738.265727
43.534500	0.001414	-0.000063	0.009220	-0.003611	6314.805664	43848.066455	3917.640080	22990.662168
44.035000	0.000697	0.000631	0.002044	-0.000880	6287.807156	43656.770019	3894.001339	22864.749924
44.538500	-0.001342	0.000243	0.002231	0.001900	6250.416470	43360.914115	3887.901622	22737.349623
45.035500	-0.000513	0.000266	0.005828	0.001741	6258.047754	43377.848857	3896.746677	22744.605970
45.536000	-0.002408	-0.000255	0.004224	-0.001228	6266.365766	43606.332633	3899.982418	22880.738680
46.038000	0.000942	0.001068	0.003750	-0.000166	6284.144952	43630.774807	3896.344494	22831.940681
46.536000	-0.000606	0.000075	0.006195	0.001294	6260.789725	43401.628220	3898.673759	22765.048076
47.039500	-0.000593	-0.000311	0.001896	0.002322	6252.942922	43270.226379	3886.129999	22718.114232
47.537000	0.000293	0.000611	0.004973	0.002211	6260.645749	43366.230987	3893.618316	22723.145308
48.034500	0.002137	0.000974	-0.001528	-0.000262	6294.216717	43630.956375	3884.165357	22836.346502
48.537500	-0.000724	-0.000903	-0.004931	-0.000204	6271.490509	43450.203374	3876.112273	22833.713214
49.037500	0.000476	0.000964	0.000284	0.000900	6272.224818	43521.333969	3885.683112	22783.074255
49.535500	0.002935	0.000903	0.006010	-0.002366	6316.974497	43821.774885	3906.943150	22933.149241
50.035500	0.001216	0.000184	-0.000207	0.001139	6276.121909	43426.325956	3883.978725	22772.156459
50.535500	0.013191	-0.007047	0.006402	0.088273	5739.596715	35522.269406	3712.292752	19159.852072
51.036000	0.014081	-0.007003	-0.013746	0.440866	4163.365659	17416.863763	3226.775968	10120.410589
51.536500	-0.014507	-0.019064	-0.026450	-0.068689	6724.066347	48425.277268	3991.071198	26238.308097
52.037000	-0.026469	-0.040064	-0.026991	-0.191760	7838.980863	60472.498989	4356.646187	33883.827841
52.534500	-0.018296	-0.049547	-0.008925	-0.224023	8320.939265	63569.858130	4539.363879	36273.100854
53.036500	-0.009835	-0.028529	0.000998	-0.186196	7966.485253	61268.604293	4435.447261	33489.376905
53.535000	0.000583	-0.021016	0.002097	-0.162410	7812.916670	59124.124361	4355.748351	31859.184109
54.035000	-0.003578	-0.012839	-0.000455	-0.119512	7308.388438	54808.326444	4208.075793	29135.552882
54.535000	-0.008320	-0.013140	-0.008095	-0.118181	7247.158124	54613.813681	4180.706881	29055.254156
55.035500	-0.002840	-0.014133	-0.000759	-0.148349	7619.058359	58203.323190	4298.967733	30936.623227
55.536000	-0.001157	-0.010100	0.001085	-0.134311	7486.691832	56945.079837	4259.389318	30044.891708
56.036000	0.000105	-0.008909	0.001170	-0.133142	7487.679012	56947.881517	4255.926837	29971.946091
56.539000	0.006562	-0.005263	0.001370	-0.116194	7378.182274	55319.222204	4203.480767	28935.874699
57.036500	0.004439	-0.003073	0.000499	-0.097611	7169.672924	53379.499181	4145.044753	27845.387088
57.537000	0.005001	0.000074	0.003962	-0.063633	6853.466588	49923.909671	4058.501562	25968.206648
58.035000	0.003550	0.000719	0.004819	-0.051023	6727.507300	48647.501099	4026.753019	25308.044977
58.535000	0.003517	0.000521	0.008657	-0.029561	6542.675172	46424.503293	3980.734088	24227.654622
59.035500	0.002930	-0.000155	0.007610	-0.040238	6628.298982	47437.122336	4005.647973	24758.443574
59.535500	0.000844	0.000797	0.000715	-0.023953	6473.871975	45894.000111	3946.599475	23954.018759
60.035500	0.000827	0.000135	0.005057	-0.006681	6334.388556	44156.992722	3915.005546	23133.189057
60.536000	-0.000041	0.000627	-0.000910	0.024755	6088.195627	41323.394272	3828.733748	21720.475741
61.039500	-0.000329	0.000529	0.008556	0.064290	5808.843253	37976.978263	3764.569094	20082.967187
61.537000	-0.000860	0.003783	0.002687	0.085895	5664.282225	36527.859729	3709.700754	19249.106769
62.037000	-0.002971	0.006242	0.007549	0.091127	5617.937641	36314.253544	3708.986314	19053.365595
62.537000	-0.001529	0.008866	0.007792	0.099219	5576.636276	35896.918813	3693.951532	18755.197932
63.066500	-0.001664	0.009222	0.001212	0.098439	5580.610296	35983.143615	3683.013593	18783.672583
63.538000	-0.000902	0.011038	0.010441	0.097819	5589.152524	36168.867014	3701.673664	18806.361047
64.035500	0.001351	0.012258	0.011913	0.095650	5616.679257	36429.131682	3708.679323	18886.024809
64.535500	-0.000256	0.011626	0.011461	0.091680	5631.501101	36687.368956	3715.505117	19032.800918
65.036000	0.003234	0.013954	0.003665	0.089525	5667.236456	37037.387700	3704.586629	19113.045714
65.535500	0.006743	0.013963	0.007269	0.084344	5723.164353	37447.089240	3721.649245	19307.588743
66.036000	0.003394	0.015215	0.005878	0.077103	5748.585891	38128.341930	3733.206501	19583.435502
66.537000	0.002361	0.016710	0.008366	0.068525	5798.505770	38953.638447	3755.495785	19916.219082
67.037500	0.001846	0.016148	0.004514	0.059959	5852.747554	39623.273470	3765.164897	20255.166153
67.537000	0.001310	0.016321	0.010556	0.050139	5916.550911	40476.828968	3798.482286	20652.029534
68.035000	0.003866	0.017889	0.004891	0.042640	5987.200502	41268.366142	3802.411122	20961.176384
68.535500	0.001255	0.015519	0.006186	0.033224	6035.963235	41895.080697	3825.706810	21357.025357
69.036000	0.001310	0.016876	0.002644	0.029296	6064.856507	42371.837754	3826.556705	21524.725004
69.535500	0.006436	0.017702	0.008075	0.022944	6149.613544	43028.718803	3852.875870	21799.080607
70.036000	0.005666	0.016958	0.005362	0.018158	6179.814411	43403.494317	3857.582855	22008.522784
70.539000	0.006335	0.016961	0.007814	0.015212	6207.224788	43679.042817	3869.939605	22138.557219
71.036500	0.006542	0.016768	0.005163	0.012142	6232.276849	43949.724394	3870.904609	22275.045385
71.536500	0.006622	0.017415	0.014571	0.009727	6251.476380	44239.731482	3898.540627	22383.059266
72.037500	0.008009	0.017329	0.007043	0.008615	6270.814898	44337.438178	3883.448971	22432.995785
72.593500	0.006314	0.017927	0.011506	0.007939	6262.915969	44458.984663	3895.517510	22463.426822
73.038000	0.006711	0.017381	0.007768	0.008182	6264.109677	44383.654843	3886.155923	22452.489535
73.535500	0.008598	0.018034	0.012626	0.007583	6283.421366	44503.272444	3899.013283	22479.487319
74.035500	0.010309	0.018393	0.013615	0.007701	6295.852433	44526.295284	3901.079056	22474.153334
74.536000	0.010380	0.018391	0.009714	0.008598	6289.399097	44440.381929	3889.745906	22433.771325
75.036500	0.010615	0.017982	0.014714	0.008665	6290.719389	44395.004900	3901.400471	22430.781100
75.537000	0.010423	0.018459	0.020601	0.008068	6293.875157	44497.519815	3916.919029	22457.611216
76.037000	0.011279	0.017913	0.012588	0.007749	6303.074516	44475.858868	3898.528371	22472.002027
76.537000	0.010060	0.018026	0.015052	0.008386	6288.556040	44425.769330	3902.865708	22443.295934
77.034500	0.012572	0.018683	0.012007	0.009754	6297.497686	44357.935774	3892.420478	22381.865306
77.534500	0.012521	0.018452	0.017898	0.008851	6304.173212	44422.108641	3908.547904	22422.410684
78.035000	0.013257	0.018913	0.017091	0.009067	6308.245111	44445.379133	3906.101518	22412.677614
78.535500	0.011887	0.018907	0.016714	0.009592	6293.408395	44394.703415	3903.950244	22389.104421
79.036000	0.013226	0.020155	0.012782	0.010903	6293.626484	44388.700936	3891.539099	22330.387483
79.536000	0.013009	0.020400	0.018760	0.010087	6298.318805	44490.181536	3907.653907	22366.947903
80.039500	0.012037	0.020726	0.015968	0.011191	6282.104532	44415.708912	3898.382020	22317.505547
80.536500	0.012320	0.020468	0.019674	0.011953	6278.378294	44318.522496	3905.378591	22283.465103
81.037000	0.013759	0.020997	0.017068	0.013585	6276.877611	44213.571346	3895.321790	22210.777553
81.537500	0.014792	0.020299	0.019691	0.014100	6280.904549	44098.480602	3900.310220	22187.866673
82.034500	0.015330	0.020462	0.014777	0.015838	6271.577172	43949.531784	3884.642677	22110.853466
82.535000	0.013055	0.020550	0.017317	0.017129	6244.003747	43836.162464	3887.565782	22053.823665
83.035500	0.012816	0.020315	0.014710	0.017958	6235.789049	43736.062434	3879.545680	22017.311828
83.535500	0.013081	0.020633	0.013428	0.019219	6228.152824	43647.720937	3873.648002	21961.906833
84.036000	0.012221	0.020238	0.018680	0.020663	6210.544986	43475.783868	3882.491025	21898.631840
84.537000	0.015136	0.021087	0.025547	0.022905	6215.673089	43345.917817	3893.335218	21800.781211
85.036000	0.014318	0.020768	0.019722	0.023572	6204.355984	43254.368141	3878.145959	21771.807250
85.539500	0.013086	0.021110	0.017230	0.025784	6178.249991	43081.172488	3867.279991	21675.914451
86.037000	0.015768	0.022541	0.025731	0.029722	6168.786692	42850.253538	3877.817176	21506.443592
86.537000	0.014898	0.022012	0.021998	0.029562	6163.446478	42816.310246	3869.555376	21513.290064
87.037500	0.012719	0.020834	0.017551	0.029874	6144.779668	42679.807526	3858.658371	21499.946479
87.534500	0.015865	0.021509	0.020514	0.031700	6154.661309	42574.709615	3861.253003	21421.917689
88.035000	0.015279	0.021762	0.021566	0.033241	6138.757025	42457.304420	3860.134728	21356.287960
88.536000	0.017449	0.022406	0.024559	0.035147	6140.727681	42342.800771	3862.618984	21275.508446
89.036000	0.016228	0.023076	0.024090	0.038387	6107.611073	42110.300309	3854.172807	21138.915172
89.539500	0.017009	0.023315	0.020483	0.038487	6112.641990	42122.811172	3845.804092	21134.715917
90.036500	0.018121	0.022779	0.020299	0.042098	6094.207697	41750.648080	3837.309372	20983.737606
90.536500	0.017488	0.023468	0.018383	0.042249	6088.452205	41798.786853	3832.717204	20977.477917
91.037500	0.017413	0.022980	0.024292	0.043804	6076.503611	41616.384957	3842.420571	20912.839553
91.535000	0.015873	0.023658	0.024209	0.044571	6059.671732	41608.458191	3840.517916	20881.060603
92.346500	0.019032	0.024573	0.024177	0.047873	6058.630795	41396.595127	3833.092257	20744.888490
92.777500	0.014618	0.023338	0.016057	0.053324	5987.688114	40809.296798	3803.446978	20522.308028
93.126500	0.018595	0.024570	0.024496	0.049420	6044.235247	41259.623580	3830.372085	20681.421403
93.535500	0.017672	0.024246	0.020190	0.049708	6035.477056	41205.753015	3820.262318	20669.652538
94.039000	0.022880	0.024792	0.025099	0.051381	6061.109963	41106.624770	3827.372569	20601.344452
94.536500	0.018327	0.025194	0.024421	0.052144	6022.650621	41074.927393	3824.199572	20570.279499
95.036000	0.017754	0.025535	0.023657	0.054334	6002.841587	40912.892098	3817.726523	20481.372834
95.537000	0.020509	0.025854	0.023481	0.054197	6023.572385	40952.830434	3817.643725	20486.938621
96.037500	0.017474	0.025953	0.022917	0.058464	5971.494148	40589.877613	3807.155220	20315.010025
96.534500	0.020025	0.025668	0.028662	0.055986	6007.265027	40780.368087	3825.075391	20414.629844
97.035000	0.019988	0.025343	0.031406	0.057430	5996.684652	40626.618667	3827.940572	20356.496565
