sample name	sample
index	1262
start time	 04-29-2021  01:21:08 PM


Wavelength (nm)	Absorbance
494.344910	-0.329425
494.563924	-0.329425
494.782919	-0.329425
495.001897	-0.005463
495.220856	-0.182118
495.439797	-0.110238
495.658719	-0.088302
495.877624	-0.085708
496.096510	-0.082943
496.315378	-0.098203
496.534227	-0.073911
496.753059	-0.124338
496.971872	-0.060985
497.190667	0.059238
497.409444	0.069033
497.628203	0.076232
497.846943	0.077932
498.065665	0.079969
498.284369	0.081324
498.503055	0.082106
498.721723	0.083937
498.940372	0.084505
499.159003	0.084825
499.377616	0.084177
499.596210	0.083174
499.814787	0.083881
500.033345	0.084607
500.251885	0.084321
500.470406	0.084517
500.688910	0.083773
500.907395	0.082237
501.125862	0.080765
501.344311	0.082236
501.562742	0.082916
501.781154	0.082871
501.999548	0.080981
502.217924	0.080260
502.436282	0.080151
502.654621	0.079954
502.872942	0.079901
503.091245	0.080842
503.309530	0.080717
503.527797	0.080033
503.746045	0.080220
503.964275	0.080895
504.182487	0.080848
504.400681	0.080589
504.618856	0.081179
504.837013	0.081479
505.055152	0.081238
505.273273	0.080346
505.491376	0.081032
505.709460	0.081204
505.927526	0.081245
506.145574	0.082088
506.363604	0.082347
506.581615	0.081836
506.799608	0.082109
507.017583	0.082741
507.235540	0.083569
507.453478	0.082867
507.671399	0.082573
507.889301	0.082565
508.107185	0.081172
508.325050	0.080142
508.542898	0.080068
508.760727	0.079218
508.978538	0.079007
509.196330	0.079424
509.414105	0.080090
509.631861	0.080264
509.849599	0.080489
510.067319	0.081507
510.285021	0.082155
510.502704	0.082001
510.720369	0.082277
510.938016	0.081658
511.155645	0.079972
511.373255	0.079153
511.590848	0.078852
511.808422	0.078073
512.025977	0.077590
512.243515	0.077522
512.461034	0.077480
512.678536	0.077773
512.896018	0.077844
513.113483	0.078089
513.330930	0.078256
513.548358	0.078313
513.765768	0.079600
513.983160	0.079867
514.200533	0.080511
514.417889	0.081724
514.635226	0.081614
514.852545	0.082074
515.069845	0.082701
515.287128	0.084004
515.504392	0.083545
515.721638	0.083785
515.938866	0.083711
516.156075	0.083650
516.373267	0.082485
516.590440	0.083398
516.807594	0.083247
517.024731	0.083365
517.241850	0.083308
517.458950	0.084051
517.676032	0.082488
517.893095	0.082447
518.110141	0.082111
518.327168	0.082899
518.544177	0.082758
518.761168	0.083165
518.978141	0.083753
519.195095	0.083094
519.412031	0.083570
519.628949	0.084130
519.845849	0.084578
520.062731	0.084588
520.279594	0.084106
520.496439	0.083993
520.713266	0.083488
520.930074	0.083226
521.146865	0.082864
521.363637	0.082325
521.580391	0.082773
521.797127	0.082578
522.013844	0.083151
522.230543	0.083578
522.447224	0.083373
522.663887	0.083445
522.880532	0.083495
523.097158	0.084223
523.313766	0.084420
523.530356	0.084267
523.746928	0.084349
523.963481	0.083950
524.180017	0.083373
524.396534	0.083365
524.613032	0.083770
524.829513	0.083487
525.045975	0.083357
525.262420	0.083162
525.478845	0.083239
525.695253	0.083380
525.911643	0.083909
526.128014	0.084030
526.344367	0.083950
526.560702	0.083885
526.777018	0.083896
526.993316	0.083503
527.209597	0.084158
527.425858	0.084515
527.642102	0.084623
527.858328	0.084843
528.074535	0.084997
528.290724	0.085019
528.506894	0.085244
528.723047	0.085978
528.939181	0.086899
529.155297	0.086110
529.371395	0.086180
529.587475	0.086318
529.803536	0.085725
530.019579	0.086451
530.235604	0.085665
530.451611	0.085792
530.667600	0.085140
530.883570	0.084712
531.099522	0.085449
531.315456	0.085214
531.531372	0.085318
531.747269	0.085652
531.963148	0.085967
532.179009	0.087209
532.394852	0.087731
532.610676	0.088415
532.826482	0.088850
533.042271	0.089147
533.258040	0.089339
533.473792	0.089019
533.689525	0.088797
533.905240	0.088190
534.120937	0.088488
534.336616	0.087315
534.552277	0.086812
534.767919	0.086437
534.983543	0.086152
535.199149	0.086305
535.414736	0.086939
535.630306	0.087986
535.845857	0.088257
536.061390	0.088565
536.276904	0.089234
536.492401	0.089708
536.707879	0.090013
536.923339	0.089920
537.138781	0.090121
537.354204	0.090102
537.569610	0.089371
537.784997	0.089757
538.000366	0.089279
538.215716	0.089258
538.431049	0.088910
538.646363	0.089382
538.861659	0.089843
539.076937	0.089580
539.292196	0.089614
539.507438	0.089906
539.722661	0.089703
539.937866	0.090397
540.153052	0.090972
540.368221	0.091366
540.583371	0.091094
540.798503	0.091145
541.013617	0.091061
541.228712	0.090749
541.443789	0.090849
541.658848	0.090845
541.873889	0.090212
542.088912	0.089486
542.303916	0.089644
542.518902	0.090099
542.733870	0.089653
542.948820	0.089486
543.163752	0.089698
543.378665	0.089447
543.593560	0.089249
543.808437	0.089341
544.023295	0.089875
544.238136	0.089713
544.452958	0.089146
544.667762	0.089534
544.882548	0.090022
545.097315	0.090393
545.312064	0.090445
545.526795	0.091418
545.741508	0.091606
545.956203	0.091936
546.170879	0.091919
546.385537	0.092155
546.600177	0.091839
546.814799	0.091414
547.029402	0.090795
547.243988	0.090748
547.458555	0.090197
547.673103	0.089964
547.887634	0.089954
548.102146	0.090053
548.316640	0.090325
548.531116	0.090754
548.745574	0.091435
548.960013	0.092082
549.174435	0.092575
549.388838	0.092904
549.603222	0.093297
549.817589	0.093157
550.031937	0.093818
550.246267	0.093937
550.460579	0.093959
550.674873	0.093541
550.889148	0.093778
551.103405	0.093702
551.317644	0.093470
551.531865	0.093206
551.746068	0.093385
551.960252	0.093033
552.174418	0.093229
552.388566	0.093413
552.602696	0.093592
552.816807	0.093212
553.030900	0.093547
553.244975	0.093673
553.459032	0.093800
553.673070	0.093979
553.887091	0.094113
554.101093	0.094128
554.315077	0.094003
554.529042	0.094501
554.742990	0.094871
554.956919	0.094878
555.170830	0.095074
555.384722	0.095386
555.598597	0.095407
555.812453	0.095506
556.026291	0.095445
556.240111	0.095780
556.453913	0.095918
556.667696	0.095712
556.881461	0.095405
557.095208	0.095670
557.308937	0.095390
557.522647	0.095117
557.736339	0.094496
557.950013	0.094333
558.163669	0.094502
558.377307	0.094608
558.590926	0.094911
558.804527	0.095318
559.018110	0.095095
559.231675	0.095515
559.445221	0.095654
559.658749	0.096341
559.872259	0.096625
560.085751	0.096351
560.299225	0.095997
560.512680	0.095742
560.726117	0.096139
560.939536	0.095827
561.152937	0.095446
561.366319	0.095224
561.579683	0.095049
561.793029	0.094852
562.006357	0.094818
562.219667	0.094879
562.432958	0.095202
562.646231	0.094761
562.859486	0.095057
563.072723	0.095443
563.285941	0.095850
563.499141	0.095988
563.712323	0.096071
563.925487	0.096175
564.138632	0.096175
564.351760	0.096354
564.564869	0.096477
564.777960	0.096844
564.991032	0.096824
565.204087	0.096903
565.417123	0.096894
565.630141	0.097008
565.843140	0.097319
566.056122	0.097404
566.269085	0.097329
566.482030	0.097024
566.694957	0.096863
566.907866	0.097124
567.120756	0.096976
567.333628	0.097177
567.546482	0.097347
567.759318	0.097316
567.972135	0.097506
568.184935	0.097595
568.397716	0.097665
568.610478	0.097757
568.823223	0.097573
569.035949	0.097879
569.248657	0.097631
569.461347	0.097648
569.674019	0.097800
569.886672	0.097496
570.099308	0.097613
570.311925	0.097865
570.524523	0.097738
570.737104	0.097609
570.949666	0.097416
571.162210	0.097836
571.374736	0.097928
571.587244	0.097976
571.799733	0.098259
572.012205	0.098485
572.224658	0.098573
572.437092	0.098827
572.649509	0.099557
572.861907	0.100019
573.074287	0.100105
573.286649	0.100041
573.498993	0.099862
573.711318	0.100161
573.923625	0.099775
574.135914	0.099924
574.348185	0.099950
574.560438	0.099870
574.772672	0.099611
574.984888	0.099907
575.197086	0.100023
575.409266	0.100271
575.621427	0.100227
575.833570	0.100471
576.045695	0.100305
576.257802	0.100082
576.469890	0.100060
576.681961	0.100245
576.894013	0.099961
577.106046	0.100203
577.318062	0.100135
577.530059	0.100097
577.742039	0.099947
577.954000	0.100329
578.165942	0.100615
578.377867	0.100654
578.589773	0.100513
578.801661	0.100412
579.013531	0.100151
579.225382	0.100246
579.437216	0.100151
579.649031	0.100508
579.860828	0.100326
580.072606	0.100282
580.284367	0.099887
580.496109	0.100000
580.707833	0.100397
580.919539	0.100766
581.131227	0.100459
581.342896	0.100341
581.554547	0.100022
581.766180	0.100026
581.977795	0.099857
582.189391	0.100340
582.400969	0.100381
582.612529	0.099967
582.824071	0.100112
583.035595	0.100653
583.247100	0.101209
583.458587	0.101476
583.670056	0.101608
583.881506	0.101931
584.092939	0.101522
584.304353	0.101433
584.515749	0.101738
584.727127	0.101718
584.938486	0.101779
585.149828	0.101653
585.361151	0.101784
585.572456	0.101941
585.783742	0.102220
585.995011	0.102659
586.206261	0.102862
586.417493	0.102956
586.628706	0.103068
586.839902	0.103342
587.051079	0.103538
587.262238	0.103783
587.473379	0.103900
587.684502	0.103740
587.895606	0.103685
588.106692	0.104004
588.317760	0.104268
588.528810	0.104064
588.739841	0.103638
588.950855	0.103721
589.161850	0.103764
589.372827	0.103775
589.583785	0.104041
589.794726	0.104481
590.005648	0.104323
590.216552	0.104263
590.427437	0.104329
590.638305	0.104601
590.849154	0.104862
591.059985	0.104761
591.270798	0.104824
591.481592	0.104903
591.692369	0.105080
591.903127	0.105561
592.113867	0.105473
592.324588	0.105628
592.535292	0.105558
592.745977	0.105264
592.956644	0.105558
593.167293	0.105360
593.377923	0.105241
593.588536	0.105157
593.799130	0.104685
594.009706	0.105063
594.220263	0.105125
594.430803	0.105222
594.641324	0.105642
594.851827	0.105751
595.062312	0.106317
595.272778	0.106375
595.483227	0.105918
595.693657	0.106547
595.904069	0.106473
596.114462	0.106705
596.324838	0.107123
596.535195	0.107028
596.745534	0.106603
596.955855	0.106388
597.166157	0.106607
597.376441	0.106892
597.586707	0.106838
597.796955	0.106898
598.007185	0.106671
598.217396	0.106392
598.427589	0.106225
598.637764	0.106555
598.847921	0.106795
599.058060	0.106591
599.268180	0.106774
599.478282	0.106651
599.688366	0.106651
599.898431	0.106822
600.108479	0.107281
600.318508	0.107610
600.528519	0.107741
600.738511	0.107684
600.948486	0.107609
601.158442	0.108091
601.368380	0.108101
601.578300	0.108149
601.788202	0.108041
601.998085	0.107864
602.207950	0.107876
602.417797	0.107878
602.627626	0.107800
602.837436	0.108184
603.047228	0.107611
603.257002	0.107641
603.466758	0.107822
603.676496	0.107890
603.886215	0.107842
604.095916	0.107588
604.305599	0.107562
604.515264	0.107663
604.724910	0.107814
604.934538	0.107796
605.144148	0.107404
605.353740	0.107035
605.563314	0.107090
605.772869	0.107137
605.982406	0.107072
606.191925	0.107135
606.401425	0.107104
606.610908	0.106935
606.820372	0.106953
607.029818	0.107677
607.239246	0.107776
607.448655	0.107735
607.658047	0.107797
607.867420	0.108049
608.076775	0.108045
608.286111	0.108286
608.495430	0.107999
608.704730	0.108439
608.914012	0.108293
609.123275	0.108682
609.332521	0.108799
609.541748	0.108736
609.750957	0.108757
609.960148	0.108618
610.169321	0.108631
610.378475	0.109170
610.587611	0.109400
610.796729	0.109230
611.005829	0.109178
611.214910	0.109311
611.423974	0.109405
611.633019	0.109451
611.842045	0.109755
612.051054	0.109781
612.260044	0.109706
612.469017	0.109528
612.677970	0.109451
612.886906	0.109293
613.095824	0.109319
613.304723	0.109295
613.513604	0.109393
613.722467	0.109648
613.931311	0.109658
614.140138	0.109779
614.348946	0.109638
614.557736	0.109841
614.766507	0.110036
614.975261	0.109897
615.183996	0.109861
615.392713	0.109766
615.601412	0.109700
615.810092	0.109548
616.018754	0.109526
616.227399	0.109791
616.436024	0.110008
616.644632	0.110128
616.853222	0.110446
617.061793	0.110771
617.270346	0.110990
617.478880	0.111097
617.687397	0.111069
617.895895	0.110911
618.104375	0.110901
618.312837	0.110771
618.521281	0.110838
618.729706	0.110470
618.938113	0.110299
619.146502	0.110359
619.354873	0.110239
619.563226	0.110287
619.771560	0.110358
619.979876	0.110174
620.188174	0.110173
620.396453	0.109886
620.604715	0.110080
620.812958	0.110311
621.021183	0.110448
621.229390	0.110355
621.437578	0.110323
621.645748	0.110598
621.853900	0.110730
622.062034	0.110754
622.270150	0.110888
622.478247	0.110963
622.686326	0.110964
622.894387	0.110840
623.102430	0.110814
623.310454	0.111296
623.518461	0.111228
623.726449	0.111344
623.934418	0.111732
624.142370	0.111987
624.350303	0.112251
624.558218	0.112168
624.766115	0.112275
624.973994	0.112372
625.181855	0.112402
625.389697	0.112426
625.597521	0.112434
625.805327	0.112382
626.013114	0.112322
626.220883	0.112212
626.428634	0.112199
626.636367	0.112022
626.844082	0.111972
627.051778	0.111816
627.259457	0.111829
627.467117	0.111931
627.674758	0.112032
627.882382	0.111992
628.089987	0.111957
628.297574	0.112108
628.505143	0.112119
628.712694	0.112383
628.920226	0.112489
629.127740	0.112504
629.335236	0.112150
629.542714	0.111896
629.750174	0.111923
629.957615	0.112041
630.165038	0.112088
630.372443	0.112334
630.579829	0.112262
630.787198	0.112334
630.994548	0.112611
631.201880	0.113017
631.409194	0.113036
631.616489	0.112944
631.823766	0.113018
632.031025	0.112998
632.238266	0.112896
632.445489	0.113001
632.652693	0.113267
632.859879	0.113006
633.067047	0.112727
633.274197	0.112737
633.481329	0.112901
633.688442	0.112968
633.895537	0.113129
634.102614	0.113106
634.309672	0.113162
634.516713	0.113086
634.723735	0.113111
634.930739	0.113469
635.137724	0.113607
635.344692	0.113464
635.551641	0.113411
635.758572	0.113283
635.965485	0.113384
636.172379	0.113283
636.379256	0.112990
636.586114	0.113217
636.792954	0.113216
636.999775	0.113143
637.206579	0.113509
637.413364	0.113662
637.620131	0.113941
637.826880	0.114209
638.033610	0.114279
638.240323	0.114467
638.447017	0.114604
638.653692	0.114934
638.860350	0.115190
639.066990	0.115167
639.273611	0.115240
639.480214	0.115276
639.686798	0.115552
639.893365	0.115706
640.099913	0.115852
640.306443	0.115905
640.512955	0.115807
640.719449	0.116071
640.925924	0.116289
641.132381	0.116531
641.338820	0.116373
641.545241	0.116277
641.751644	0.116171
641.958028	0.116372
642.164394	0.116220
642.370742	0.116236
642.577071	0.116190
642.783383	0.116226
642.989676	0.116150
643.195951	0.116443
643.402207	0.116427
643.608446	0.116628
643.814666	0.116421
644.020868	0.116565
644.227052	0.116745
644.433218	0.116673
644.639365	0.116444
644.845494	0.116666
645.051605	0.116801
645.257698	0.116903
645.463772	0.117068
645.669828	0.117442
645.875866	0.117583
646.081886	0.117727
646.287888	0.117940
646.493871	0.118307
646.699836	0.118167
646.905783	0.118362
647.111712	0.118323
647.317622	0.118493
647.523514	0.118418
647.729388	0.118376
647.935244	0.118041
648.141082	0.118033
648.346901	0.118004
648.552702	0.118023
648.758485	0.117753
648.964250	0.117887
649.169996	0.117698
649.375724	0.117522
649.581434	0.117733
649.787126	0.117857
649.992800	0.117841
650.198455	0.117971
650.404092	0.118026
650.609711	0.117948
650.815311	0.117901
651.020894	0.117941
651.226458	0.117915
651.432004	0.117851
651.637532	0.118132
651.843041	0.118099
652.048532	0.117902
652.254006	0.117928
652.459460	0.118070
652.664897	0.117880
652.870315	0.117898
653.075716	0.118115
653.281097	0.118251
653.486461	0.117995
653.691807	0.118226
653.897134	0.118283
654.102443	0.118414
654.307734	0.118371
654.513006	0.118654
654.718261	0.118889
654.923497	0.118993
655.128715	0.118817
655.333915	0.119095
655.539096	0.119054
655.744259	0.119198
655.949404	0.119129
656.154531	0.119160
656.359640	0.118908
656.564730	0.118865
656.769802	0.119009
656.974856	0.119304
657.179892	0.119297
657.384909	0.119354
657.589908	0.119582
657.794889	0.119698
657.999852	0.119615
658.204797	0.119885
658.409723	0.120217
658.614631	0.120345
658.819521	0.120356
659.024393	0.120341
659.229246	0.120533
659.434081	0.120544
659.638898	0.120528
659.843697	0.120985
660.048478	0.121124
660.253240	0.121045
660.457984	0.120949
660.662710	0.121173
660.867417	0.121370
661.072107	0.121245
661.276778	0.121357
661.481431	0.121744
661.686066	0.121783
661.890682	0.121953
662.095281	0.121905
662.299861	0.121918
662.504422	0.121708
662.708966	0.121727
662.913491	0.121829
663.117999	0.121624
663.322488	0.121371
663.526958	0.121271
663.731411	0.121238
663.935845	0.121304
664.140261	0.121165
664.344659	0.121288
664.549038	0.121216
664.753400	0.121277
664.957743	0.121501
665.162068	0.121757
665.366375	0.121922
665.570663	0.121971
665.774933	0.122239
665.979185	0.122588
666.183419	0.122764
666.387635	0.123088
666.591832	0.123439
666.796011	0.123670
667.000172	0.123639
667.204315	0.123825
667.408439	0.124139
667.612545	0.124335
667.816634	0.124602
668.020703	0.124721
668.224755	0.124831
668.428788	0.124867
668.632803	0.124799
668.836800	0.125081
669.040779	0.125302
669.244739	0.125315
669.448681	0.125223
669.652605	0.125020
669.856511	0.125047
670.060399	0.125129
670.264268	0.125222
670.468119	0.125373
670.671952	0.125429
670.875767	0.125429
671.079563	0.125453
671.283341	0.125592
671.487101	0.125772
671.690843	0.125875
671.894567	0.126065
672.098272	0.126108
672.301959	0.126154
672.505628	0.126093
672.709278	0.126081
672.912911	0.126118
673.116525	0.126252
673.320121	0.126458
673.523699	0.126450
673.727258	0.126518
673.930799	0.126436
674.134322	0.126508
674.337827	0.126486
674.541314	0.126476
674.744782	0.126710
674.948232	0.126472
675.151664	0.126484
675.355078	0.126442
675.558474	0.126226
675.761851	0.126390
675.965210	0.126501
676.168551	0.126658
676.371873	0.126605
676.575178	0.126471
676.778464	0.126669
676.981732	0.126592
677.184981	0.126621
677.388213	0.126669
677.591426	0.126625
677.794621	0.126676
677.997798	0.126609
678.200956	0.126963
678.404097	0.126972
678.607219	0.127024
678.810323	0.127109
679.013408	0.127360
679.216476	0.127613
679.419525	0.127615
679.622556	0.127502
679.825569	0.127699
680.028563	0.127557
680.231540	0.127557
680.434498	0.127351
680.637438	0.127445
680.840359	0.127473
681.043263	0.127415
681.246148	0.127741
681.449015	0.127868
681.651864	0.127782
681.854694	0.128001
682.057506	0.128233
682.260301	0.128683
682.463076	0.128794
682.665834	0.128850
682.868573	0.128982
683.071295	0.129005
683.273998	0.129200
683.476682	0.129367
683.679349	0.129329
683.881997	0.129293
684.084627	0.129401
684.287239	0.129574
684.489833	0.129565
684.692408	0.129694
684.894965	0.129695
685.097504	0.129745
685.300025	0.129969
685.502527	0.130135
685.705012	0.130454
685.907478	0.130471
686.109925	0.130290
686.312355	0.130499
686.514766	0.130433
686.717159	0.130458
686.919534	0.130698
687.121891	0.130749
687.324230	0.130791
687.526550	0.130646
687.728852	0.130600
687.931136	0.130728
688.133401	0.130714
688.335649	0.130809
688.537878	0.130799
688.740089	0.130658
688.942281	0.130501
689.144456	0.130478
689.346612	0.130593
689.548750	0.130591
689.750870	0.130725
689.952971	0.130692
690.155055	0.130649
690.357120	0.130765
690.559167	0.130693
690.761195	0.130832
690.963206	0.130832
691.165198	0.130934
691.367172	0.130869
691.569128	0.130741
691.771065	0.130936
691.972984	0.131131
692.174885	0.131344
692.376768	0.131425
692.578633	0.131437
692.780479	0.131530
692.982308	0.131309
693.184118	0.131427
