sample name	sample
index	128
start time	 02-15-2021  01:11:32 PM


Wavelength (nm)	Absorbance
494.344910	NaN
494.563924	NaN
494.782919	NaN
495.001897	NaN
495.220856	NaN
495.439797	NaN
495.658719	NaN
495.877624	NaN
496.096510	NaN
496.315378	NaN
496.534227	0.055498
496.753059	0.160866
496.971872	0.161375
497.190667	0.104754
497.409444	0.113702
497.628203	0.122342
497.846943	0.122183
498.065665	0.126016
498.284369	0.124323
498.503055	0.128573
498.721723	0.128910
498.940372	0.128876
499.159003	0.131129
499.377616	0.136046
499.596210	0.137336
499.814787	0.137338
500.033345	0.134450
500.251885	0.137638
500.470406	0.136528
500.688910	0.137664
500.907395	0.137980
501.125862	0.137101
501.344311	0.136002
501.562742	0.134487
501.781154	0.135814
501.999548	0.136316
502.217924	0.135799
502.436282	0.135684
502.654621	0.133800
502.872942	0.135823
503.091245	0.136866
503.309530	0.137863
503.527797	0.137718
503.746045	0.137609
503.964275	0.141597
504.182487	0.141921
504.400681	0.142448
504.618856	0.145382
504.837013	0.142427
505.055152	0.138268
505.273273	0.138511
505.491376	0.140184
505.709460	0.139801
505.927526	0.138192
506.145574	0.139134
506.363604	0.137901
506.581615	0.135851
506.799608	0.137759
507.017583	0.142283
507.235540	0.142419
507.453478	0.143214
507.671399	0.142558
507.889301	0.142377
508.107185	0.141467
508.325050	0.144301
508.542898	0.145936
508.760727	0.144768
508.978538	0.143090
509.196330	0.142774
509.414105	0.140154
509.631861	0.142260
509.849599	0.141329
510.067319	0.142113
510.285021	0.142543
510.502704	0.142385
510.720369	0.142431
510.938016	0.143286
511.155645	0.144557
511.373255	0.146598
511.590848	0.147064
511.808422	0.147866
512.025977	0.147801
512.243515	0.147024
512.461034	0.146974
512.678536	0.146947
512.896018	0.144804
513.113483	0.142329
513.330930	0.142054
513.548358	0.139964
513.765768	0.141200
513.983160	0.140905
514.200533	0.140141
514.417889	0.140632
514.635226	0.140239
514.852545	0.141525
515.069845	0.144176
515.287128	0.145079
515.504392	0.144909
515.721638	0.143098
515.938866	0.142475
516.156075	0.143845
516.373267	0.144140
516.590440	0.146822
516.807594	0.148472
517.024731	0.147451
517.241850	0.148056
517.458950	0.149661
517.676032	0.150368
517.893095	0.152309
518.110141	0.152272
518.327168	0.153116
518.544177	0.152646
518.761168	0.151851
518.978141	0.152100
519.195095	0.149994
519.412031	0.150551
519.628949	0.151288
519.845849	0.151164
520.062731	0.150153
520.279594	0.148645
520.496439	0.148169
520.713266	0.149405
520.930074	0.149404
521.146865	0.150649
521.363637	0.149512
521.580391	0.151129
521.797127	0.152111
522.013844	0.152371
522.230543	0.152210
522.447224	0.152973
522.663887	0.152165
522.880532	0.151592
523.097158	0.152419
523.313766	0.152754
523.530356	0.152674
523.746928	0.153682
523.963481	0.153928
524.180017	0.154813
524.396534	0.154898
524.613032	0.155609
524.829513	0.155535
525.045975	0.154684
525.262420	0.155609
525.478845	0.155105
525.695253	0.153935
525.911643	0.155542
526.128014	0.155652
526.344367	0.155259
526.560702	0.155725
526.777018	0.157385
526.993316	0.158702
527.209597	0.158574
527.425858	0.158454
527.642102	0.157555
527.858328	0.155802
528.074535	0.155340
528.290724	0.155258
528.506894	0.155333
528.723047	0.156498
528.939181	0.156603
529.155297	0.157386
529.371395	0.155702
529.587475	0.156769
529.803536	0.158118
530.019579	0.159848
530.235604	0.160016
530.451611	0.160000
530.667600	0.159033
530.883570	0.158716
531.099522	0.159812
531.315456	0.162316
531.531372	0.162759
531.747269	0.163747
531.963148	0.162951
532.179009	0.164439
532.394852	0.164985
532.610676	0.165876
532.826482	0.165944
533.042271	0.164476
533.258040	0.164598
533.473792	0.164619
533.689525	0.162815
533.905240	0.162793
534.120937	0.163651
534.336616	0.163431
534.552277	0.164461
534.767919	0.165211
534.983543	0.166222
535.199149	0.165645
535.414736	0.164847
535.630306	0.167181
535.845857	0.168446
536.061390	0.166705
536.276904	0.167116
536.492401	0.165764
536.707879	0.166828
536.923339	0.167792
537.138781	0.168656
537.354204	0.169519
537.569610	0.169354
537.784997	0.169407
538.000366	0.170409
538.215716	0.170806
538.431049	0.172668
538.646363	0.171521
538.861659	0.170876
539.076937	0.171519
539.292196	0.171839
539.507438	0.172033
539.722661	0.172753
539.937866	0.172332
540.153052	0.173682
540.368221	0.172853
540.583371	0.173376
540.798503	0.173494
541.013617	0.174003
541.228712	0.175756
541.443789	0.175060
541.658848	0.174544
541.873889	0.174833
542.088912	0.174156
542.303916	0.174762
542.518902	0.174510
542.733870	0.176073
542.948820	0.175511
543.163752	0.174408
543.378665	0.175413
543.593560	0.174715
543.808437	0.175575
544.023295	0.175953
544.238136	0.176254
544.452958	0.177215
544.667762	0.177591
544.882548	0.177726
545.097315	0.179012
545.312064	0.179499
545.526795	0.181277
545.741508	0.181936
545.956203	0.181998
546.170879	0.181994
546.385537	0.182239
546.600177	0.181459
546.814799	0.181425
547.029402	0.180649
547.243988	0.180560
547.458555	0.180122
547.673103	0.179801
547.887634	0.179829
548.102146	0.179961
548.316640	0.180470
548.531116	0.180857
548.745574	0.181182
548.960013	0.181789
549.174435	0.181500
549.388838	0.182227
549.603222	0.183317
549.817589	0.183840
550.031937	0.183789
550.246267	0.183669
550.460579	0.183499
550.674873	0.184473
550.889148	0.184089
551.103405	0.184505
551.317644	0.184204
551.531865	0.183912
551.746068	0.184113
551.960252	0.183998
552.174418	0.183970
552.388566	0.184596
552.602696	0.184491
552.816807	0.185019
553.030900	0.184970
553.244975	0.185554
553.459032	0.184436
553.673070	0.184894
553.887091	0.185558
554.101093	0.185549
554.315077	0.185519
554.529042	0.185368
554.742990	0.185688
554.956919	0.186610
555.170830	0.187165
555.384722	0.188691
555.598597	0.188330
555.812453	0.188422
556.026291	0.189225
556.240111	0.189670
556.453913	0.190206
556.667696	0.190469
556.881461	0.189144
557.095208	0.188450
557.308937	0.188065
557.522647	0.187975
557.736339	0.187848
557.950013	0.187910
558.163669	0.188103
558.377307	0.187007
558.590926	0.187377
558.804527	0.188693
559.018110	0.189051
559.231675	0.189565
559.445221	0.189548
559.658749	0.190205
559.872259	0.190774
560.085751	0.191416
560.299225	0.192033
560.512680	0.192401
560.726117	0.192400
560.939536	0.192806
561.152937	0.192821
561.366319	0.193215
561.579683	0.193284
561.793029	0.193341
562.006357	0.192208
562.219667	0.192855
562.432958	0.193304
562.646231	0.193631
562.859486	0.193859
563.072723	0.194363
563.285941	0.194887
563.499141	0.194478
563.712323	0.193704
563.925487	0.194214
564.138632	0.194342
564.351760	0.193745
564.564869	0.193813
564.777960	0.193464
564.991032	0.193504
565.204087	0.193340
565.417123	0.193576
565.630141	0.194062
565.843140	0.194473
566.056122	0.194492
566.269085	0.194913
566.482030	0.195260
566.694957	0.195479
566.907866	0.196000
567.120756	0.196220
567.333628	0.197337
567.546482	0.197326
567.759318	0.198037
567.972135	0.198197
568.184935	0.197302
568.397716	0.197805
568.610478	0.198144
568.823223	0.198362
569.035949	0.198467
569.248657	0.198114
569.461347	0.198529
569.674019	0.198980
569.886672	0.199681
570.099308	0.200451
570.311925	0.199866
570.524523	0.201027
570.737104	0.200512
570.949666	0.200836
571.162210	0.201355
571.374736	0.202110
571.587244	0.202019
571.799733	0.202508
572.012205	0.202414
572.224658	0.202892
572.437092	0.202469
572.649509	0.202868
572.861907	0.203236
573.074287	0.202398
573.286649	0.202051
573.498993	0.201669
573.711318	0.201523
573.923625	0.202130
574.135914	0.202817
574.348185	0.201985
574.560438	0.202550
574.772672	0.202515
574.984888	0.203408
575.197086	0.203295
575.409266	0.204239
575.621427	0.203493
575.833570	0.203227
576.045695	0.203501
576.257802	0.204716
576.469890	0.204204
576.681961	0.204086
576.894013	0.203908
577.106046	0.204514
577.318062	0.203472
577.530059	0.204532
577.742039	0.204447
577.954000	0.204577
578.165942	0.204820
578.377867	0.205801
578.589773	0.206301
578.801661	0.206505
579.013531	0.206215
579.225382	0.206923
579.437216	0.206327
579.649031	0.207057
579.860828	0.207324
580.072606	0.206991
580.284367	0.206810
580.496109	0.206385
580.707833	0.205831
580.919539	0.206286
581.131227	0.205772
581.342896	0.206693
581.554547	0.206823
581.766180	0.206460
581.977795	0.207114
582.189391	0.207168
582.400969	0.207746
582.612529	0.209485
582.824071	0.209355
583.035595	0.209985
583.247100	0.210651
583.458587	0.210560
583.670056	0.210662
583.881506	0.210146
584.092939	0.210250
584.304353	0.211364
584.515749	0.210038
584.727127	0.210377
584.938486	0.210702
585.149828	0.210634
585.361151	0.211520
585.572456	0.212135
585.783742	0.212624
585.995011	0.213025
586.206261	0.212044
586.417493	0.213045
586.628706	0.213581
586.839902	0.213832
587.051079	0.213610
587.262238	0.213883
587.473379	0.214081
587.684502	0.213542
587.895606	0.213216
588.106692	0.213612
588.317760	0.214091
588.528810	0.214177
588.739841	0.214044
588.950855	0.214421
589.161850	0.214239
589.372827	0.214515
589.583785	0.215226
589.794726	0.215407
590.005648	0.215855
590.216552	0.215885
590.427437	0.215198
590.638305	0.215722
590.849154	0.215080
591.059985	0.215121
591.270798	0.214526
591.481592	0.214884
591.692369	0.215549
591.903127	0.215015
592.113867	0.214313
592.324588	0.216051
592.535292	0.215956
592.745977	0.216492
592.956644	0.217364
593.167293	0.217314
593.377923	0.217550
593.588536	0.217420
593.799130	0.218623
594.009706	0.219014
594.220263	0.217948
594.430803	0.217599
594.641324	0.218193
594.851827	0.217171
595.062312	0.217649
595.272778	0.217860
595.483227	0.217995
595.693657	0.217374
595.904069	0.218230
596.114462	0.218559
596.324838	0.219759
596.535195	0.219580
596.745534	0.220756
596.955855	0.220089
597.166157	0.220492
597.376441	0.220459
597.586707	0.220457
597.796955	0.219853
598.007185	0.220340
598.217396	0.220101
598.427589	0.220779
598.637764	0.220832
598.847921	0.221703
599.058060	0.221056
599.268180	0.221376
599.478282	0.222185
599.688366	0.222952
599.898431	0.222870
600.108479	0.222871
600.318508	0.221921
600.528519	0.221572
600.738511	0.221828
600.948486	0.222550
601.158442	0.222905
601.368380	0.222435
601.578300	0.222723
601.788202	0.223403
601.998085	0.223374
602.207950	0.224320
602.417797	0.225212
602.627626	0.225848
602.837436	0.225486
603.047228	0.225388
603.257002	0.226246
603.466758	0.225656
603.676496	0.225910
603.886215	0.226178
604.095916	0.226282
604.305599	0.225712
604.515264	0.225937
604.724910	0.226473
604.934538	0.226913
605.144148	0.227275
605.353740	0.227799
605.563314	0.227452
605.772869	0.227774
605.982406	0.227486
606.191925	0.227706
606.401425	0.227642
606.610908	0.227710
606.820372	0.228192
607.029818	0.228032
607.239246	0.228305
607.448655	0.228437
607.658047	0.228610
607.867420	0.229119
608.076775	0.229481
608.286111	0.229701
608.495430	0.229445
608.704730	0.229175
608.914012	0.229598
609.123275	0.229740
609.332521	0.229549
609.541748	0.229139
609.750957	0.228935
609.960148	0.228852
610.169321	0.228440
610.378475	0.228545
610.587611	0.229307
610.796729	0.229011
611.005829	0.229192
611.214910	0.229487
611.423974	0.230322
611.633019	0.230546
611.842045	0.230858
612.051054	0.231627
612.260044	0.232166
612.469017	0.231715
612.677970	0.232058
612.886906	0.231398
613.095824	0.231893
613.304723	0.231626
613.513604	0.232314
613.722467	0.232302
613.931311	0.231630
614.140138	0.232158
614.348946	0.231726
614.557736	0.231900
614.766507	0.232289
614.975261	0.232565
615.183996	0.232736
615.392713	0.232609
615.601412	0.232358
615.810092	0.233442
616.018754	0.233603
616.227399	0.234377
616.436024	0.234259
616.644632	0.235046
616.853222	0.234410
617.061793	0.234772
617.270346	0.234415
617.478880	0.234883
617.687397	0.234552
617.895895	0.234139
618.104375	0.234531
618.312837	0.234750
618.521281	0.234522
618.729706	0.234660
618.938113	0.234696
619.146502	0.235348
619.354873	0.235680
619.563226	0.235936
619.771560	0.236301
619.979876	0.235959
620.188174	0.236049
620.396453	0.236461
620.604715	0.236752
620.812958	0.236542
621.021183	0.237034
621.229390	0.236708
621.437578	0.236297
621.645748	0.236598
621.853900	0.236956
622.062034	0.237194
622.270150	0.237219
622.478247	0.237865
622.686326	0.238842
622.894387	0.238872
623.102430	0.239489
623.310454	0.239830
623.518461	0.239936
623.726449	0.240265
623.934418	0.240641
624.142370	0.240785
624.350303	0.240693
624.558218	0.240919
624.766115	0.240918
624.973994	0.241329
625.181855	0.241527
625.389697	0.241563
625.597521	0.241775
625.805327	0.241983
626.013114	0.242308
626.220883	0.242754
626.428634	0.242810
626.636367	0.242582
626.844082	0.242702
627.051778	0.242594
627.259457	0.242701
627.467117	0.242740
627.674758	0.242286
627.882382	0.242764
628.089987	0.242732
628.297574	0.242594
628.505143	0.242953
628.712694	0.242648
628.920226	0.243249
629.127740	0.243762
629.335236	0.244210
629.542714	0.244628
629.750174	0.244469
629.957615	0.244819
630.165038	0.245161
630.372443	0.245301
630.579829	0.246291
630.787198	0.246399
630.994548	0.245747
631.201880	0.244948
631.409194	0.245411
631.616489	0.245519
631.823766	0.245841
632.031025	0.245328
632.238266	0.245653
632.445489	0.245013
632.652693	0.245227
632.859879	0.245857
633.067047	0.246542
633.274197	0.246516
633.481329	0.246559
633.688442	0.246424
633.895537	0.246668
634.102614	0.246744
634.309672	0.246922
634.516713	0.247150
634.723735	0.248132
634.930739	0.248554
635.137724	0.248650
635.344692	0.249237
635.551641	0.249748
635.758572	0.249992
635.965485	0.249766
636.172379	0.250699
636.379256	0.251096
636.586114	0.250211
636.792954	0.250500
636.999775	0.250783
637.206579	0.250674
637.413364	0.250350
637.620131	0.250854
637.826880	0.251763
638.033610	0.251745
638.240323	0.251545
638.447017	0.251937
638.653692	0.251804
638.860350	0.252034
639.066990	0.252786
639.273611	0.253238
639.480214	0.253590
639.686798	0.253716
639.893365	0.253698
640.099913	0.253930
640.306443	0.254102
640.512955	0.254281
640.719449	0.254235
640.925924	0.254130
641.132381	0.253899
641.338820	0.254026
641.545241	0.254134
641.751644	0.254272
641.958028	0.254705
642.164394	0.255264
642.370742	0.255247
642.577071	0.255678
642.783383	0.255311
642.989676	0.255920
643.195951	0.255623
643.402207	0.255573
643.608446	0.255748
643.814666	0.256020
644.020868	0.255965
644.227052	0.257027
644.433218	0.257412
644.639365	0.258475
644.845494	0.258067
645.051605	0.258301
645.257698	0.258658
645.463772	0.258685
645.669828	0.258586
645.875866	0.258642
646.081886	0.258187
646.287888	0.258013
646.493871	0.257138
646.699836	0.258089
646.905783	0.258632
647.111712	0.258532
647.317622	0.258675
647.523514	0.259090
647.729388	0.259534
647.935244	0.259908
648.141082	0.260436
648.346901	0.261524
648.552702	0.261312
648.758485	0.261483
648.964250	0.262166
649.169996	0.262281
649.375724	0.262416
649.581434	0.262458
649.787126	0.262696
649.992800	0.262911
650.198455	0.262984
650.404092	0.263177
650.609711	0.263581
650.815311	0.263901
651.020894	0.264399
651.226458	0.264899
651.432004	0.265694
651.637532	0.265697
651.843041	0.265919
652.048532	0.265853
652.254006	0.266136
652.459460	0.266049
652.664897	0.265931
652.870315	0.265898
653.075716	0.265689
653.281097	0.265256
653.486461	0.265782
653.691807	0.265193
653.897134	0.265153
654.102443	0.265302
654.307734	0.265699
654.513006	0.265738
654.718261	0.266292
654.923497	0.266267
655.128715	0.266394
655.333915	0.266446
655.539096	0.267160
655.744259	0.267646
655.949404	0.268036
656.154531	0.268096
656.359640	0.268434
656.564730	0.268531
656.769802	0.268747
656.974856	0.268967
657.179892	0.269025
657.384909	0.268907
657.589908	0.269374
657.794889	0.269623
657.999852	0.269748
658.204797	0.270221
658.409723	0.270700
658.614631	0.271050
658.819521	0.270747
659.024393	0.270952
659.229246	0.272179
659.434081	0.272199
659.638898	0.272443
659.843697	0.272855
660.048478	0.272914
660.253240	0.272741
660.457984	0.273006
660.662710	0.273916
660.867417	0.273800
661.072107	0.273338
661.276778	0.273594
661.481431	0.273511
661.686066	0.273455
661.890682	0.273731
662.095281	0.273773
662.299861	0.273801
662.504422	0.273866
662.708966	0.274212
662.913491	0.274428
663.117999	0.274646
663.322488	0.275036
663.526958	0.275784
663.731411	0.275766
663.935845	0.276073
664.140261	0.276463
664.344659	0.276753
664.549038	0.277097
664.753400	0.277015
664.957743	0.277094
665.162068	0.276914
665.366375	0.276500
665.570663	0.276478
665.774933	0.277253
665.979185	0.277221
666.183419	0.277122
666.387635	0.277457
666.591832	0.277787
666.796011	0.277975
667.000172	0.278285
667.204315	0.278433
667.408439	0.279124
667.612545	0.278781
667.816634	0.279284
668.020703	0.279850
668.224755	0.279777
668.428788	0.280071
668.632803	0.280734
668.836800	0.281408
669.040779	0.282032
669.244739	0.281788
669.448681	0.281856
669.652605	0.282513
669.856511	0.282627
670.060399	0.283067
670.264268	0.283414
670.468119	0.282947
670.671952	0.283206
670.875767	0.283447
671.079563	0.284156
671.283341	0.284791
671.487101	0.284411
671.690843	0.284365
671.894567	0.284283
672.098272	0.284495
672.301959	0.284464
672.505628	0.284295
672.709278	0.284303
672.912911	0.284242
673.116525	0.283974
673.320121	0.284118
673.523699	0.284976
673.727258	0.285779
673.930799	0.285830
674.134322	0.286762
674.337827	0.287082
674.541314	0.287575
674.744782	0.287831
674.948232	0.288473
675.151664	0.288991
675.355078	0.288561
675.558474	0.288776
675.761851	0.289024
675.965210	0.288840
676.168551	0.288943
676.371873	0.289354
676.575178	0.289547
676.778464	0.289426
676.981732	0.289434
677.184981	0.290023
677.388213	0.290119
677.591426	0.290149
677.794621	0.290394
677.997798	0.290555
678.200956	0.290546
678.404097	0.291143
678.607219	0.291557
678.810323	0.292029
679.013408	0.292117
679.216476	0.291970
679.419525	0.292758
679.622556	0.292990
679.825569	0.293504
680.028563	0.293276
680.231540	0.293361
680.434498	0.293522
680.637438	0.293366
680.840359	0.293387
681.043263	0.293560
681.246148	0.293024
681.449015	0.293164
681.651864	0.293148
681.854694	0.293656
682.057506	0.293499
682.260301	0.293796
682.463076	0.294359
682.665834	0.294538
682.868573	0.295204
683.071295	0.295457
683.273998	0.295638
683.476682	0.295737
683.679349	0.296161
683.881997	0.296429
684.084627	0.296342
684.287239	0.296441
684.489833	0.296910
684.692408	0.296624
684.894965	0.297066
685.097504	0.297406
685.300025	0.297664
685.502527	0.297758
685.705012	0.298117
685.907478	0.298384
686.109925	0.298530
686.312355	0.298929
686.514766	0.299212
686.717159	0.299761
686.919534	0.300136
687.121891	0.300367
687.324230	0.300445
687.526550	0.300165
687.728852	0.300263
687.931136	0.300599
688.133401	0.300737
688.335649	0.301212
688.537878	0.301250
688.740089	0.301151
688.942281	0.301689
689.144456	0.301610
689.346612	0.302156
689.548750	0.302301
689.750870	0.302223
689.952971	0.301989
690.155055	0.302011
690.357120	0.302160
690.559167	0.302280
690.761195	0.302223
690.963206	0.302484
691.165198	0.302461
691.367172	0.302550
691.569128	0.302987
691.771065	0.302903
691.972984	0.302562
692.174885	0.302515
692.376768	0.302670
692.578633	0.302824
692.780479	0.303170
692.982308	0.303417
693.184118	0.303806
693.385909	0.303868
693.587683	0.304092
693.789438	0.304575
693.991175	0.305099
