sample name	sample
index	593
start time	 03-16-2021  04:36:05 PM
880	0.434133
Peak Time (s)	181.535
Peak Height 	0.4341
calc peak height	180,183
Baseline Time (s)	9.537
Baseline Value 	-0.003248
subtract baseline	10,4
Abs	0.284699
Peak Time (s)	180.036
Peak Height 	0.2847
calc peak height	180,183
Baseline Time (s)	9.537
Baseline Value 	0.002597
subtract baseline	10,3
PK_550	0.158019
Peak Time (s)	181.037
Peak Height 	0.158
calc peak height	180,183
Baseline Time (s)	8.537
Baseline Value 	7.8849E-4
subtract baseline	10,2
PK_880	0.270470
Peak Time (s)	182.538
Peak Height 	0.2705
calc peak height	180,183
Baseline Time (s)	8.537
Baseline Value 	0.001614
subtract baseline	10,1


Time (s)	A880-A510	A880-A775	A880-A975	A880	I510	I775	I975	I880	
0.034500	0.002628	-0.000935	0.003634	0.000151	5618.727929	33748.751312	3654.284844	18325.323079
0.535000	-0.003684	-0.000407	0.002355	0.005435	5546.265987	33412.682430	3642.110130	18138.287599
1.035500	-0.005064	-0.001044	-0.003248	0.002062	5558.578722	33605.537051	3638.014131	18257.401022
1.535000	-0.000285	-0.000257	0.002631	-0.000515	5604.531645	33844.374088	3653.654252	18349.035398
2.036000	0.000054	0.000466	0.001182	-0.000164	5604.459509	33870.941857	3650.301991	18336.544899
2.536000	-0.004244	-0.000759	-0.000882	0.003620	5554.014418	33515.681462	3639.498216	18202.286120
3.039000	-0.000437	-0.000304	0.004315	-0.001978	5612.806128	33945.491861	3659.553583	18401.312790
3.536500	-0.000289	-0.000749	0.002800	-0.000106	5601.929846	33780.199811	3653.207434	18334.456701
4.037000	-0.000532	-0.000779	0.002573	-0.000290	5601.562395	33791.256751	3653.127356	18341.039637
4.537500	-0.000743	-0.000301	0.002973	0.000118	5597.673061	33796.179100	3653.112329	18326.495440
5.035000	-0.000886	-0.000730	0.000747	-0.000152	5598.468438	33784.860849	3649.469895	18336.112609
5.535000	-0.001920	0.000080	0.002132	0.000254	5589.429705	33813.594899	3651.289459	18321.632186
6.035000	-0.001327	-0.000829	-0.001843	-0.000662	5598.907877	33814.154840	3645.614320	18354.307930
6.535500	0.001798	0.000126	0.001803	0.000512	5611.197537	33798.577854	3650.199879	18312.478499
7.035500	-0.001084	-0.000534	0.004008	-0.000357	5598.512263	33813.382459	3655.935283	18343.420547
7.536000	-0.000910	-0.000753	0.001130	-0.000784	5602.291466	33828.174118	3651.356317	18358.629761
8.036500	-0.000527	-0.001146	0.004497	-0.001241	5607.587459	33832.813531	3658.511875	18374.967366
8.536500	0.000000	0.000000	-0.001014	0.000015	5602.994450	33824.969365	3645.896368	18330.171685
9.037000	-0.001852	0.000316	0.001999	-0.000048	5591.750371	33851.895730	3651.604041	18332.388897
9.537500	0.001439	-0.000478	0.000000	0.000000	5612.160607	33791.945232	3647.801054	18330.689974
10.034500	0.000239	0.001077	-0.002784	0.000560	5601.060949	33862.820778	3641.623652	18310.740052
10.535000	0.001823	-0.001042	-0.003912	-0.000963	5620.681934	33820.357967	3642.350486	18365.025537
11.034500	-0.000909	0.000426	0.005039	0.000146	5596.455389	33845.975576	3656.925299	18325.498630
11.535500	-0.001998	-0.000112	0.002315	-0.000497	5593.651558	33853.472188	3653.032611	18348.404576
12.036000	-0.000464	0.000678	0.009522	0.000177	5599.048641	33861.721844	3665.316030	18324.375058
12.539000	0.000928	0.000740	0.001908	0.000082	5608.416138	33872.875629	3651.193957	18327.770680
13.036500	0.000399	0.000571	0.001399	-0.002119	5618.985693	34018.191920	3654.350205	18406.365465
13.537000	-0.004817	0.000576	-0.000508	0.005960	5536.064476	33444.944582	3635.897267	18119.834759
14.037000	-0.001736	0.001167	0.009683	0.000423	5589.522395	33879.052187	3665.154049	18315.625746
14.537000	-0.001384	0.000004	-0.002088	0.003590	5571.942571	33571.656034	3637.342226	18203.327061
15.035000	-0.000825	-0.000323	0.003230	0.000536	5594.531523	33764.885492	3652.811793	18311.610162
15.545000	-0.002073	-0.001508	-0.000282	0.004856	5559.801581	33376.026283	3638.329384	18158.657721
16.038500	0.000301	0.000597	0.002054	-0.000488	5608.057482	33903.400684	3652.528540	18348.078563
16.536000	-0.001548	0.001329	-0.001181	0.006568	5552.456273	33455.144985	3633.561325	18098.484882
17.036500	0.000252	0.000227	0.007517	0.000097	5604.060141	33835.251488	3661.677280	18327.219992
17.536500	-0.001422	-0.000444	0.001212	0.003434	5572.673668	33551.000801	3643.690320	18208.827485
18.036500	0.001460	0.000003	-0.002867	-0.000321	5614.327958	33849.144733	3643.095343	18342.139533
18.537000	0.001005	0.000341	-0.000409	0.002943	5590.913441	33641.279037	3641.609898	18226.221458
19.037500	-0.000377	0.000360	-0.001388	0.001834	5589.199560	33721.237613	3641.849875	18265.501043
19.535000	0.000582	0.000414	0.000222	0.003789	5582.963325	33586.550104	3641.213568	18196.296766
20.035000	0.001423	-0.000283	0.003110	0.001570	5602.161127	33694.342614	3650.661948	18274.863788
20.535500	0.001302	0.000699	0.006367	0.002031	5598.496452	33731.246377	3655.881628	18258.505163
21.035500	-0.000028	-0.000060	0.003876	0.001482	5593.593010	33716.387609	3652.251605	18277.989106
21.536000	-0.002576	-0.000467	0.005373	0.003461	5565.334636	33547.466419	3651.353838	18207.872727
22.038500	-0.002738	0.001176	0.004179	0.002512	5570.227604	33731.037727	3650.898689	18241.480217
22.536500	-0.001603	0.000577	0.005041	0.002245	5578.963315	33707.418123	3653.000972	18250.911907
23.037000	-0.000493	0.000330	0.005095	0.002254	5585.848531	33689.265906	3653.085802	18250.616215
23.537500	-0.004341	-0.000822	-0.001184	0.002409	5560.911690	33596.730127	3641.167366	18245.114080
24.034500	0.001217	0.001071	0.003619	0.002672	5593.940203	33712.163757	3649.558545	18235.798468
24.535000	0.001870	-0.000346	0.006241	0.001760	5603.784343	33676.436437	3656.153984	18268.136164
25.035000	0.001211	0.000822	0.000674	0.002534	5594.770116	33704.305656	3644.359075	18240.689310
25.535000	-0.000245	0.000875	0.001060	0.004526	5573.204711	33567.035481	3641.400062	18170.290469
26.036000	0.000174	0.000320	0.002571	0.001768	5593.068885	33723.026860	3649.290854	18267.833103
26.536000	-0.000924	0.000742	0.002299	0.002257	5583.131857	33718.278754	3647.878585	18250.504645
27.036000	-0.001988	0.000520	-0.000803	0.002476	5575.120820	33687.055624	3641.744389	18242.751845
27.536500	-0.000420	-0.000051	-0.001798	0.004723	5570.895063	33487.822918	3635.799975	18163.357400
28.037000	0.003081	0.001207	0.005982	-0.000787	5627.553069	33968.361349	3660.451126	18358.758448
28.537000	-0.001540	0.000455	-0.001425	0.004963	5562.444143	33506.584771	3636.043929	18154.895866
29.048500	-0.000395	0.000450	-0.000258	0.000814	5595.479770	33800.090554	3645.815824	18301.711591
29.535000	0.001745	0.001869	0.006989	0.001786	5602.823991	33831.885875	3657.506005	18267.191274
30.035500	0.002217	0.000885	0.006210	0.001292	5608.916497	33797.030052	3656.972258	18284.732853
30.536000	-0.004056	-0.000298	-0.005019	0.006053	5540.172048	33377.012149	3627.530963	18116.572275
31.035500	0.002347	-0.000068	0.000089	0.000501	5614.739629	33785.515254	3647.038760	18312.863559
31.539000	-0.001235	0.001262	0.006152	0.004908	5564.673897	33567.381644	3650.109799	18156.827974
32.036500	0.000855	0.001060	0.008594	0.004677	5579.123547	33569.410723	3655.096422	18164.961356
32.607500	-0.000547	0.000253	0.002392	0.004710	5570.183236	33510.162733	3643.515497	18163.815704
33.037000	0.003554	0.001402	0.004594	0.002136	5612.030910	33773.740298	3652.371069	18254.786714
33.537000	-0.000886	0.000886	-0.000600	0.007296	5552.050679	33372.821146	3633.293100	18072.952025
34.037500	0.001613	0.000907	0.004287	0.001543	5603.525739	33780.725474	3652.904506	18275.814276
34.535500	0.000120	0.000831	0.004504	0.005707	5568.132142	33480.707718	3645.573971	18128.727437
35.035500	0.001533	0.000598	0.000889	0.003354	5591.643253	33630.302006	3643.243141	18211.654883
35.535000	0.001011	0.000355	0.000077	0.005388	5575.660261	33469.602511	3638.012478	18139.929704
36.039000	-0.001595	0.000314	0.004085	0.003626	5570.406463	33590.975704	3648.651552	18202.051736
36.536500	-0.001354	0.001159	0.006840	0.004442	5566.828747	33593.065446	3652.259197	18173.249830
37.036500	0.002369	0.001573	0.006459	0.005208	5585.267339	33568.170285	3650.123622	18146.265403
37.536500	-0.001691	0.000566	-0.003303	0.004970	5561.465065	33513.957877	3632.607820	18154.661238
38.037000	0.001062	0.000854	-0.001635	0.004109	5583.965674	33595.018958	3637.220215	18184.996110
38.534500	0.001031	0.001104	0.007934	0.004500	5581.330425	33585.057125	3654.193336	18171.207450
39.035000	0.000660	-0.000165	-0.002200	0.003441	5585.635432	33570.239409	3637.409842	18208.611355
39.535500	-0.001596	0.001616	0.002128	0.005974	5555.831414	33517.157119	3640.700202	18119.326970
40.035500	-0.000086	0.000954	-0.000982	0.004606	5573.699931	33567.026929	3637.507289	18167.480637
40.535500	-0.001871	0.000407	0.003306	0.004180	5565.249060	33558.443689	3646.181342	18182.487323
41.036500	0.000219	0.000628	0.008651	0.003961	5579.629736	33589.583158	3656.545201	18190.242590
41.536500	-0.000993	0.001346	0.003082	0.006289	5557.613429	33475.947473	3641.875799	18108.266503
42.037000	0.000388	0.001184	-0.001085	0.004908	5574.776443	33561.914240	3636.766029	18156.851589
42.537000	0.003052	0.000964	0.006971	0.004750	5592.413037	33557.527679	3651.930793	18162.406278
43.034500	0.001704	0.001600	0.006326	0.005294	5580.575216	33564.027219	3649.717911	18143.260079
43.534500	-0.000945	0.000409	0.002162	0.005425	5563.264669	33470.788604	3641.772190	18138.625495
44.035500	0.002136	0.001316	0.000754	0.004684	5587.093723	33587.063316	3640.547826	18164.741980
44.535500	-0.000450	0.001025	0.000860	0.004751	5570.531565	33561.757116	3640.619125	18162.376560
45.036500	0.004179	0.001971	0.004797	0.000918	5623.701433	33901.083083	3655.025949	18298.031857
45.539000	-0.001179	-0.000735	0.005377	0.006957	5552.335173	33282.993352	3644.876813	18084.831468
46.045500	0.003100	0.001022	0.003406	0.001970	5610.212827	33758.553604	3650.467433	18260.676619
46.537000	0.002754	0.002859	0.005263	0.007046	5576.191600	33529.252183	3644.501605	18081.711443
47.037000	0.004613	0.001406	0.008245	0.002825	5614.371931	33725.106770	3657.913593	18230.386572
47.537000	0.001786	0.000669	0.002272	0.007823	5565.332017	33320.655378	3637.573854	18054.494191
48.037500	0.002310	0.001424	0.009895	0.002855	5599.657057	33724.239814	3660.961050	18229.311851
48.535000	0.001647	0.001837	0.009040	0.006916	5570.106109	33466.375602	3651.749342	18086.271788
49.035500	0.000615	0.000461	0.002996	0.005756	5570.909046	33451.145677	3642.699926	18126.999393
49.535500	-0.001742	0.000657	0.000769	0.008179	5541.324401	33294.877971	3634.177939	18042.055490
50.036000	0.003711	0.002125	0.005786	0.003606	5603.747731	33720.703894	3651.852573	18202.750809
50.536500	0.000121	0.000894	0.007587	0.005758	5567.821462	33481.500882	3651.199448	18126.922688
51.036500	0.006714	0.002123	0.010468	0.003087	5626.019974	33757.373133	3661.603210	18221.093912
51.536500	-0.000780	0.001081	0.006485	0.007993	5548.395788	33337.570544	3645.008826	18048.544903
52.037000	0.003748	0.000113	0.009122	0.018757	5510.189270	32526.218451	3630.132273	17676.719620
52.537500	0.018764	0.011056	0.012192	0.000510	5720.480980	34586.316661	3669.755616	18312.544465
53.037500	0.000758	-0.005418	0.002276	0.109438	4997.659537	26637.845656	3471.719821	14884.552629
53.535000	-0.014564	-0.014105	-0.004880	-0.115659	6319.847994	41974.748371	3881.778323	23051.605881
54.035000	-0.009092	-0.055429	-0.001631	-0.348422	8841.976738	63623.833084	4632.019697	37369.301504
54.535000	0.005282	-0.021266	0.017617	-0.252978	7824.783542	55631.665549	4344.058841	30560.731310
55.039000	-0.004336	-0.014416	0.007551	-0.206312	7222.317828	51011.612675	4160.185468	27738.506525
55.536000	-0.019305	-0.011564	-0.004424	-0.175867	6790.036956	48049.647067	4037.570151	26054.195134
56.036500	-0.005949	-0.003777	-0.000826	-0.207855	7221.630507	52380.518261	4139.615667	27827.103361
56.536500	0.006983	0.001904	-0.000561	-0.207845	7353.089846	53030.925607	4140.375259	27826.486883
57.037000	0.013293	0.004916	0.006381	-0.189876	7234.294634	51333.590812	4107.835795	26814.551164
57.534500	0.012401	0.001588	0.010773	-0.153268	6873.134166	47077.939830	4017.373838	24878.097933
58.035000	0.022913	0.008286	0.020096	-0.131127	6767.333180	45534.436413	3983.209704	23783.731635
58.535000	0.026223	0.011899	0.022813	-0.095842	6490.587052	42535.442750	3900.796027	22150.931543
59.035500	0.027381	0.011895	0.030587	-0.042672	6081.760719	37967.239839	3795.766022	19927.994294
59.536000	0.032336	0.013884	0.034509	-0.011187	5891.344992	35664.258609	3737.147060	18734.392274
60.036500	0.040101	0.017572	0.037669	0.016989	5752.560603	33867.546947	3687.072927	17737.179245
60.536000	0.043033	0.020050	0.045258	0.045434	5588.008026	32069.922570	3647.474750	16793.973874
61.036500	0.048539	0.023026	0.056423	0.067593	5485.702737	30809.219526	3627.354693	16100.845129
61.537000	0.050899	0.026335	0.051743	0.088156	5378.264256	29721.867427	3583.038274	15488.493759
62.036500	0.053666	0.028842	0.061599	0.103999	5303.830127	28910.635543	3572.900930	15036.113241
62.534500	0.061934	0.032855	0.063849	0.113807	5295.207907	28565.721634	3560.299245	14764.194385
63.035000	0.067422	0.036843	0.073110	0.116343	5311.754995	28651.733427	3571.499264	14694.884677
63.535000	0.069666	0.042511	0.072693	0.108361	5369.974407	29474.138963	3584.309287	14914.420558
64.065500	0.071857	0.042765	0.080095	0.110906	5367.937395	29334.339478	3592.652612	14843.999461
64.538500	0.075244	0.043346	0.077166	0.106258	5414.612078	29654.625544	3595.628012	14972.947923
65.036500	0.078697	0.045236	0.084517	0.107736	5426.213676	29680.007422	3605.878949	14931.781774
65.539000	0.077838	0.045074	0.087450	0.110695	5403.822705	29488.167891	3605.832679	14849.805053
66.037000	0.082838	0.046367	0.082415	0.115921	5402.506612	29248.442603	3588.010471	14706.386425
66.537000	0.080054	0.044946	0.080457	0.119555	5365.334212	28943.441522	3578.473819	14607.676393
67.034500	0.083720	0.047844	0.088516	0.125186	5354.064490	28780.067790	3582.599047	14456.340938
67.535000	0.079710	0.046633	0.087503	0.134483	5279.057025	28161.240469	3565.239132	14210.739981
68.035000	0.088041	0.047310	0.093080	0.131704	5341.522105	28363.108410	3579.277805	14283.595620
68.535500	0.089816	0.050035	0.094230	0.137297	5319.875373	28195.460819	3571.778454	14137.415621
69.038500	0.087476	0.050722	0.090586	0.139236	5295.839347	28122.599554	3562.464789	14087.172642
69.536000	0.088637	0.050741	0.093103	0.147131	5258.491152	27669.218111	3553.605310	13884.923793
70.036500	0.093402	0.052366	0.100050	0.144605	5298.952919	27907.156057	3569.285401	13949.237741
70.536500	0.094213	0.053196	0.103923	0.147700	5286.206675	27777.036622	3570.587898	13870.484193
71.037000	0.094654	0.052478	0.103125	0.149223	5280.189566	27648.937112	3566.707002	13831.929311
71.537500	0.095766	0.054063	0.098284	0.158772	5233.792460	27199.175141	3543.106735	13593.332957
72.037500	0.102716	0.056357	0.104030	0.156585	5284.080827	27451.247318	3556.020367	13647.521796
72.535000	0.100743	0.056825	0.106505	0.159708	5255.897653	27301.538077	3554.956866	13570.208896
73.035000	0.104969	0.058337	0.103385	0.161996	5266.579168	27257.992756	3546.140662	13513.946272
73.534500	0.103181	0.058347	0.107071	0.169649	5215.004155	26832.941998	3539.742217	13327.829545
74.036000	0.107397	0.059329	0.107370	0.166173	5256.939480	27080.002049	3545.830143	13411.960521
74.536000	0.109983	0.060158	0.112874	0.169561	5252.532740	26937.880899	3549.264978	13329.963797
75.036000	0.109949	0.061859	0.115233	0.172500	5236.269948	26869.440307	3548.320562	13259.339897
75.536500	0.110507	0.063629	0.111825	0.182256	5186.647508	26432.603660	3527.249324	13028.322479
76.037000	0.114292	0.065199	0.125394	0.179147	5223.740063	26687.591704	3554.054899	13101.392957
76.537500	0.116881	0.066533	0.119154	0.183197	5215.831845	26539.236977	3537.395602	13006.318950
77.035000	0.119230	0.067651	0.119455	0.184855	5219.565247	26509.795621	3535.226753	12967.646992
77.535500	0.121887	0.067758	0.124358	0.187838	5217.803341	26353.964991	3538.296450	12898.467116
78.035500	0.122268	0.068781	0.125167	0.189714	5209.733607	26307.982538	3536.588758	12855.205186
78.538500	0.121925	0.068643	0.126779	0.192773	5191.456186	26136.181993	3534.279858	12785.029431
79.036000	0.127931	0.071584	0.127529	0.196270	5204.920532	26106.486523	3529.919386	12705.440058
79.536000	0.125740	0.071528	0.125454	0.205215	5145.771154	25630.306618	3512.696597	12504.717834
80.036500	0.132119	0.072473	0.131904	0.201628	5198.634196	25868.828199	3528.364449	12584.714407
80.536500	0.129647	0.073018	0.142606	0.205078	5167.071484	25715.650182	3539.912926	12507.758475
81.037000	0.135656	0.075061	0.135941	0.208535	5180.620319	25641.489426	3523.847849	12431.270599
81.537000	0.131076	0.074306	0.141049	0.215296	5121.024388	25251.194624	3521.259380	12283.427651
82.034500	0.134400	0.075404	0.137341	0.212538	5152.792491	25450.550854	3519.775140	12343.449273
82.535500	0.135398	0.076719	0.137908	0.215606	5141.926633	25359.678124	3515.887479	12276.688930
83.038500	0.139696	0.079405	0.140689	0.218684	5148.325818	25339.477381	3515.427062	12210.197355
83.536000	0.139990	0.078365	0.144596	0.227010	5106.546427	24860.576840	3508.615401	12032.633333
84.036000	0.142353	0.079879	0.150993	0.224579	5131.391467	25061.026656	3522.293136	12084.132541
84.536000	0.145872	0.081671	0.155450	0.228137	5131.188299	24971.030679	3523.700963	12008.858988
85.036500	0.145236	0.081640	0.152589	0.229350	5121.573563	24907.942097	3517.341595	11983.348419
85.537000	0.142980	0.083227	0.147026	0.238947	5060.911002	24505.616575	3494.192345	11783.939669
86.037500	0.146945	0.084162	0.153040	0.235941	5096.387258	24702.620102	3507.868048	11845.930487
86.535000	0.149828	0.083120	0.148062	0.236377	5108.979991	24628.561684	3499.626388	11836.919685
87.035000	0.150119	0.084699	0.156142	0.239721	5093.281443	24540.380039	3506.830471	11768.053639
87.535500	0.154817	0.086679	0.154406	0.242631	5102.460842	24494.057886	3499.761774	11708.560442
88.038500	0.154119	0.087184	0.153225	0.246593	5078.619781	24322.812851	3492.025975	11628.205580
88.536000	0.156581	0.088394	0.161150	0.248244	5082.748994	24301.041857	3501.475250	11594.925546
89.036500	0.157941	0.088826	0.161508	0.250583	5077.763533	24207.260183	3498.477007	11548.011108
89.536500	0.155652	0.090240	0.164652	0.252801	5054.953923	24167.870124	3499.877175	11503.752757
90.037000	0.157578	0.090791	0.157545	0.256187	5047.617114	24029.442311	3484.185740	11436.624166
90.537000	0.165342	0.092081	0.156950	0.258155	5076.894191	23996.497683	3480.410554	11397.852223
91.034500	0.164204	0.093088	0.164344	0.260670	5058.397001	23923.318452	3487.617202	11348.541410
91.535000	0.162119	0.093183	0.169445	0.268454	5009.191123	23554.252025	3483.642680	11197.741056
92.035500	0.165570	0.092747	0.168141	0.265841	5039.289221	23658.088550	3485.578695	11248.064504
92.536000	0.165306	0.096082	0.169078	0.267523	5029.585006	23737.314369	3484.476876	11215.646942
93.036000	0.168025	0.095261	0.167554	0.268560	5037.976389	23648.331174	3480.703119	11195.721353
93.536000	0.168068	0.096689	0.177525	0.277771	4992.652286	23279.693437	3481.819965	11020.777565
94.036500	0.171669	0.096882	0.178587	0.273683	5030.596248	23481.625759	3489.445321	11097.955012
94.537000	0.173764	0.098872	0.170938	0.277071	5024.167764	23415.460013	3473.212926	11033.943675
95.037000	0.173427	0.099004	0.183977	0.279157	5012.173763	23323.331116	3489.320831	10994.767327
95.537500	0.170285	0.100285	0.186562	0.286464	4961.214528	23041.820842	3482.326584	10859.050303
96.035000	0.174907	0.100751	0.177960	0.286236	4984.716993	23074.043552	3470.109576	10863.248625
96.535000	0.177908	0.100447	0.187455	0.284456	5008.140255	23142.724985	3486.613501	10896.108826
97.035000	0.180016	0.103079	0.183354	0.288141	5000.383820	23093.710503	3475.171026	10828.214081
97.538500	0.179491	0.102153	0.185452	0.294863	4965.104357	22741.106511	3468.471238	10705.831828
