sample name	sample
index	127
start time	 02-15-2021  01:09:05 PM


Wavelength (nm)	Absorbance
494.344910	-0.565268
494.563924	-0.565268
494.782919	-0.565268
495.001897	NaN
495.220856	NaN
495.439797	NaN
495.658719	NaN
495.877624	NaN
496.096510	NaN
496.315378	NaN
496.534227	NaN
496.753059	NaN
496.971872	NaN
497.190667	0.216712
497.409444	0.162699
497.628203	0.143557
497.846943	0.139629
498.065665	0.141543
498.284369	0.144142
498.503055	0.143646
498.721723	0.143438
498.940372	0.139247
499.159003	0.138085
499.377616	0.133464
499.596210	0.130900
499.814787	0.131577
500.033345	0.128198
500.251885	0.128084
500.470406	0.129459
500.688910	0.128835
500.907395	0.132010
501.125862	0.133402
501.344311	0.136127
501.562742	0.138277
501.781154	0.138509
501.999548	0.141436
502.217924	0.139679
502.436282	0.136846
502.654621	0.136623
502.872942	0.135901
503.091245	0.133412
503.309530	0.133225
503.527797	0.135599
503.746045	0.135628
503.964275	0.134519
504.182487	0.138576
504.400681	0.138415
504.618856	0.140966
504.837013	0.140721
505.055152	0.142004
505.273273	0.141382
505.491376	0.139328
505.709460	0.140991
505.927526	0.141086
506.145574	0.139204
506.363604	0.140776
506.581615	0.139080
506.799608	0.139419
507.017583	0.141330
507.235540	0.141214
507.453478	0.142800
507.671399	0.142086
507.889301	0.143185
508.107185	0.141223
508.325050	0.140631
508.542898	0.138405
508.760727	0.137802
508.978538	0.138655
509.196330	0.139769
509.414105	0.138824
509.631861	0.137689
509.849599	0.136661
510.067319	0.138070
510.285021	0.138325
510.502704	0.141881
510.720369	0.142193
510.938016	0.140751
511.155645	0.139729
511.373255	0.139558
511.590848	0.140196
511.808422	0.141094
512.025977	0.141622
512.243515	0.140953
512.461034	0.140502
512.678536	0.142195
512.896018	0.142214
513.113483	0.141408
513.330930	0.140183
513.548358	0.140870
513.765768	0.141369
513.983160	0.141514
514.200533	0.142701
514.417889	0.143204
514.635226	0.143514
514.852545	0.144017
515.069845	0.144535
515.287128	0.145283
515.504392	0.144147
515.721638	0.143193
515.938866	0.142763
516.156075	0.140854
516.373267	0.140855
516.590440	0.139787
516.807594	0.140742
517.024731	0.141186
517.241850	0.142936
517.458950	0.143554
517.676032	0.145074
517.893095	0.145869
518.110141	0.147444
518.327168	0.147844
518.544177	0.149705
518.761168	0.147461
518.978141	0.148628
519.195095	0.149594
519.412031	0.149553
519.628949	0.148970
519.845849	0.148076
520.062731	0.147541
520.279594	0.145221
520.496439	0.142988
520.713266	0.142229
520.930074	0.141915
521.146865	0.139379
521.363637	0.141146
521.580391	0.142404
521.797127	0.143314
522.013844	0.144124
522.230543	0.146407
522.447224	0.146470
522.663887	0.149476
522.880532	0.150001
523.097158	0.150811
523.313766	0.150497
523.530356	0.150102
523.746928	0.150738
523.963481	0.151576
524.180017	0.151484
524.396534	0.152441
524.613032	0.152397
524.829513	0.151446
525.045975	0.152619
525.262420	0.152105
525.478845	0.152245
525.695253	0.153244
525.911643	0.152241
526.128014	0.152977
526.344367	0.152201
526.560702	0.151947
526.777018	0.152523
526.993316	0.152934
527.209597	0.152838
527.425858	0.152117
527.642102	0.152206
527.858328	0.153870
528.074535	0.153790
528.290724	0.156061
528.506894	0.155173
528.723047	0.155915
528.939181	0.156542
529.155297	0.157834
529.371395	0.158905
529.587475	0.158671
529.803536	0.156787
530.019579	0.157480
530.235604	0.157347
530.451611	0.159745
530.667600	0.159742
530.883570	0.160200
531.099522	0.158916
531.315456	0.159105
531.531372	0.159324
531.747269	0.160596
531.963148	0.160364
532.179009	0.160526
532.394852	0.160541
532.610676	0.160502
532.826482	0.159003
533.042271	0.160673
533.258040	0.161516
533.473792	0.160300
533.689525	0.160142
533.905240	0.160709
534.120937	0.161081
534.336616	0.159952
534.552277	0.160243
534.767919	0.161729
534.983543	0.162419
535.199149	0.161917
535.414736	0.163571
535.630306	0.164537
535.845857	0.164625
536.061390	0.162853
536.276904	0.163640
536.492401	0.163534
536.707879	0.164460
536.923339	0.163871
537.138781	0.164509
537.354204	0.163459
537.569610	0.164649
537.784997	0.164996
538.000366	0.166302
538.215716	0.166265
538.431049	0.167555
538.646363	0.166522
538.861659	0.167129
539.076937	0.166717
539.292196	0.167530
539.507438	0.166714
539.722661	0.166885
539.937866	0.166566
540.153052	0.167693
540.368221	0.167582
540.583371	0.167862
540.798503	0.167994
541.013617	0.168508
541.228712	0.168997
541.443789	0.168668
541.658848	0.168243
541.873889	0.170022
542.088912	0.169399
542.303916	0.169686
542.518902	0.170746
542.733870	0.170129
542.948820	0.170111
543.163752	0.169785
543.378665	0.170100
543.593560	0.171907
543.808437	0.170886
544.023295	0.171969
544.238136	0.171485
544.452958	0.170787
544.667762	0.170240
544.882548	0.172540
545.097315	0.173430
545.312064	0.173633
545.526795	0.173068
545.741508	0.173348
545.956203	0.172521
546.170879	0.173152
546.385537	0.174305
546.600177	0.174758
546.814799	0.173994
547.029402	0.174747
547.243988	0.174996
547.458555	0.175126
547.673103	0.175571
547.887634	0.175186
548.102146	0.175827
548.316640	0.175899
548.531116	0.177437
548.745574	0.176482
548.960013	0.176453
549.174435	0.175954
549.388838	0.175780
549.603222	0.175997
549.817589	0.177663
550.031937	0.177987
550.246267	0.176842
550.460579	0.176132
550.674873	0.176600
550.889148	0.176003
551.103405	0.177423
551.317644	0.177552
551.531865	0.177791
551.746068	0.177360
551.960252	0.176566
552.174418	0.176570
552.388566	0.177197
552.602696	0.177218
552.816807	0.176998
553.030900	0.176576
553.244975	0.177345
553.459032	0.177250
553.673070	0.177027
553.887091	0.177758
554.101093	0.177785
554.315077	0.178857
554.529042	0.178874
554.742990	0.179876
554.956919	0.179932
555.170830	0.179998
555.384722	0.180132
555.598597	0.180418
555.812453	0.179801
556.026291	0.180348
556.240111	0.179030
556.453913	0.178776
556.667696	0.179019
556.881461	0.179300
557.095208	0.179455
557.308937	0.179731
557.522647	0.180961
557.736339	0.181942
557.950013	0.182116
558.163669	0.182402
558.377307	0.183121
558.590926	0.182865
558.804527	0.182033
559.018110	0.181345
559.231675	0.181837
559.445221	0.181823
559.658749	0.181541
559.872259	0.182612
560.085751	0.183336
560.299225	0.183671
560.512680	0.184093
560.726117	0.185046
560.939536	0.185934
561.152937	0.186299
561.366319	0.185803
561.579683	0.185561
561.793029	0.185197
562.006357	0.184354
562.219667	0.183803
562.432958	0.183478
562.646231	0.184479
562.859486	0.184484
563.072723	0.184489
563.285941	0.184718
563.499141	0.184716
563.712323	0.185310
563.925487	0.186260
564.138632	0.186988
564.351760	0.187802
564.564869	0.187435
564.777960	0.186872
564.991032	0.186828
565.204087	0.187200
565.417123	0.188138
565.630141	0.188121
565.843140	0.188041
566.056122	0.189215
566.269085	0.189490
566.482030	0.188756
566.694957	0.189718
566.907866	0.189282
567.120756	0.188769
567.333628	0.188942
567.546482	0.188777
567.759318	0.189096
567.972135	0.187682
568.184935	0.187823
568.397716	0.189185
568.610478	0.188415
568.823223	0.189020
569.035949	0.189947
569.248657	0.190251
569.461347	0.190302
569.674019	0.190296
569.886672	0.191366
570.099308	0.191192
570.311925	0.190662
570.524523	0.191215
570.737104	0.190802
570.949666	0.190688
571.162210	0.190760
571.374736	0.190814
571.587244	0.191308
571.799733	0.190962
572.012205	0.190806
572.224658	0.190899
572.437092	0.191017
572.649509	0.192428
572.861907	0.192460
573.074287	0.192846
573.286649	0.192467
573.498993	0.192598
573.711318	0.193070
573.923625	0.193290
574.135914	0.193441
574.348185	0.193980
574.560438	0.193386
574.772672	0.193749
574.984888	0.192924
575.197086	0.194025
575.409266	0.193979
575.621427	0.194032
575.833570	0.194487
576.045695	0.195250
576.257802	0.195446
576.469890	0.195895
576.681961	0.195318
576.894013	0.196362
577.106046	0.195454
577.318062	0.196439
577.530059	0.196354
577.742039	0.196220
577.954000	0.196722
578.165942	0.196869
578.377867	0.196529
578.589773	0.196878
578.801661	0.195902
579.013531	0.196472
579.225382	0.196140
579.437216	0.196016
579.649031	0.196633
579.860828	0.196132
580.072606	0.196087
580.284367	0.196243
580.496109	0.197104
580.707833	0.198111
580.919539	0.198273
581.131227	0.197085
581.342896	0.197235
581.554547	0.196833
581.766180	0.197694
581.977795	0.196954
582.189391	0.196956
582.400969	0.196098
582.612529	0.195610
582.824071	0.195758
583.035595	0.196503
583.247100	0.196297
583.458587	0.195783
583.670056	0.194846
583.881506	0.194974
584.092939	0.195487
584.304353	0.196394
584.515749	0.196631
584.727127	0.196813
584.938486	0.197064
585.149828	0.198313
585.361151	0.198720
585.572456	0.198815
585.783742	0.199505
585.995011	0.199100
586.206261	0.199268
586.417493	0.200409
586.628706	0.200738
586.839902	0.200400
587.051079	0.200080
587.262238	0.200781
587.473379	0.201520
587.684502	0.202325
587.895606	0.202544
588.106692	0.202595
588.317760	0.201738
588.528810	0.201661
588.739841	0.201789
588.950855	0.201860
589.161850	0.201722
589.372827	0.201348
589.583785	0.201349
589.794726	0.201767
590.005648	0.201144
590.216552	0.201284
590.427437	0.201568
590.638305	0.202379
590.849154	0.202110
591.059985	0.202161
591.270798	0.202558
591.481592	0.202138
591.692369	0.202307
591.903127	0.202598
592.113867	0.203093
592.324588	0.203328
592.535292	0.203454
592.745977	0.204275
592.956644	0.204377
593.167293	0.204246
593.377923	0.204752
593.588536	0.204034
593.799130	0.204147
594.009706	0.204344
594.220263	0.205063
594.430803	0.205583
594.641324	0.205582
594.851827	0.206397
595.062312	0.206110
595.272778	0.206209
595.483227	0.207005
595.693657	0.206713
595.904069	0.206843
596.114462	0.206010
596.324838	0.205395
596.535195	0.205723
596.745534	0.205227
596.955855	0.206059
597.166157	0.206142
597.376441	0.206482
597.586707	0.206585
597.796955	0.206642
598.007185	0.206715
598.217396	0.207393
598.427589	0.206681
598.637764	0.207133
598.847921	0.206830
599.058060	0.207261
599.268180	0.207356
599.478282	0.207921
599.688366	0.207789
599.898431	0.207966
600.108479	0.208150
600.318508	0.208963
600.528519	0.208794
600.738511	0.209353
600.948486	0.208506
601.158442	0.208481
601.368380	0.208133
601.578300	0.207801
601.788202	0.208266
601.998085	0.208357
602.207950	0.207671
602.417797	0.207744
602.627626	0.207977
602.837436	0.208481
603.047228	0.209217
603.257002	0.210767
603.466758	0.211883
603.676496	0.211969
603.886215	0.211852
604.095916	0.211572
604.305599	0.212117
604.515264	0.212257
604.724910	0.212546
604.934538	0.211958
605.144148	0.211076
605.353740	0.210529
605.563314	0.210642
605.772869	0.210370
605.982406	0.211561
606.191925	0.211308
606.401425	0.211556
606.610908	0.211565
606.820372	0.211959
607.029818	0.212097
607.239246	0.212215
607.448655	0.212363
607.658047	0.213378
607.867420	0.213080
608.076775	0.213104
608.286111	0.212756
608.495430	0.212877
608.704730	0.213403
608.914012	0.214077
609.123275	0.214853
609.332521	0.215435
609.541748	0.215153
609.750957	0.215700
609.960148	0.216030
610.169321	0.215784
610.378475	0.216066
610.587611	0.215736
610.796729	0.216172
611.005829	0.215914
611.214910	0.215307
611.423974	0.215603
611.633019	0.215599
611.842045	0.215900
612.051054	0.216345
612.260044	0.216634
612.469017	0.216957
612.677970	0.216528
612.886906	0.216648
613.095824	0.216873
613.304723	0.216466
613.513604	0.216747
613.722467	0.216816
613.931311	0.217264
614.140138	0.217874
614.348946	0.217884
614.557736	0.218238
614.766507	0.218596
614.975261	0.219620
615.183996	0.219863
615.392713	0.219780
615.601412	0.219542
615.810092	0.219371
616.018754	0.218573
616.227399	0.218737
616.436024	0.218612
616.644632	0.218381
616.853222	0.218057
617.061793	0.218448
617.270346	0.218362
617.478880	0.219020
617.687397	0.219271
617.895895	0.219537
618.104375	0.219469
618.312837	0.219769
618.521281	0.220343
618.729706	0.219994
618.938113	0.220021
619.146502	0.220183
619.354873	0.220397
619.563226	0.220803
619.771560	0.221473
619.979876	0.221519
620.188174	0.221566
620.396453	0.221300
620.604715	0.221704
620.812958	0.221756
621.021183	0.221916
621.229390	0.222079
621.437578	0.222223
621.645748	0.222057
621.853900	0.222594
622.062034	0.222906
622.270150	0.223731
622.478247	0.224280
622.686326	0.224550
622.894387	0.224362
623.102430	0.224304
623.310454	0.224711
623.518461	0.225208
623.726449	0.224891
623.934418	0.224814
624.142370	0.224362
624.350303	0.223952
624.558218	0.224120
624.766115	0.224972
624.973994	0.224863
625.181855	0.224581
625.389697	0.224337
625.597521	0.224863
625.805327	0.225042
626.013114	0.225338
626.220883	0.225652
626.428634	0.225042
626.636367	0.225182
626.844082	0.225379
627.051778	0.225676
627.259457	0.225705
627.467117	0.225816
627.674758	0.226146
627.882382	0.226429
628.089987	0.226526
628.297574	0.227521
628.505143	0.227351
628.712694	0.227637
628.920226	0.227812
629.127740	0.228094
629.335236	0.228345
629.542714	0.228337
629.750174	0.228124
629.957615	0.228598
630.165038	0.228662
630.372443	0.228933
630.579829	0.228965
630.787198	0.228717
630.994548	0.228686
631.201880	0.228978
631.409194	0.229457
631.616489	0.230110
631.823766	0.230081
632.031025	0.230489
632.238266	0.230593
632.445489	0.231167
632.652693	0.231542
632.859879	0.232089
633.067047	0.232145
633.274197	0.231876
633.481329	0.231966
633.688442	0.231827
633.895537	0.231338
634.102614	0.231547
634.309672	0.231358
634.516713	0.232084
634.723735	0.232655
634.930739	0.232431
635.137724	0.232778
635.344692	0.232694
635.551641	0.233292
635.758572	0.233985
635.965485	0.233892
636.172379	0.234385
636.379256	0.233817
636.586114	0.233317
636.792954	0.233883
636.999775	0.234021
637.206579	0.234371
637.413364	0.234276
637.620131	0.234283
637.826880	0.234955
638.033610	0.234883
638.240323	0.235129
638.447017	0.235240
638.653692	0.235333
638.860350	0.235546
639.066990	0.235712
639.273611	0.236310
639.480214	0.236355
639.686798	0.236553
639.893365	0.236897
640.099913	0.237176
640.306443	0.237795
640.512955	0.237763
640.719449	0.237971
640.925924	0.237852
641.132381	0.237899
641.338820	0.237739
641.545241	0.237645
641.751644	0.237553
641.958028	0.237724
642.164394	0.237307
642.370742	0.237278
642.577071	0.237162
642.783383	0.237267
642.989676	0.237313
643.195951	0.237789
643.402207	0.238039
643.608446	0.238235
643.814666	0.238309
644.020868	0.239177
644.227052	0.240027
644.433218	0.240454
644.639365	0.240579
644.845494	0.240330
645.051605	0.240151
645.257698	0.240379
645.463772	0.240302
645.669828	0.240194
645.875866	0.239231
646.081886	0.238756
646.287888	0.238727
646.493871	0.238893
646.699836	0.239048
646.905783	0.239496
647.111712	0.239399
647.317622	0.239347
647.523514	0.239482
647.729388	0.240054
647.935244	0.240495
648.141082	0.240334
648.346901	0.240814
648.552702	0.241474
648.758485	0.241468
648.964250	0.241581
649.169996	0.241465
649.375724	0.241668
649.581434	0.241722
649.787126	0.241271
649.992800	0.241596
650.198455	0.241544
650.404092	0.241216
650.609711	0.241483
650.815311	0.242097
651.020894	0.242863
651.226458	0.243213
651.432004	0.243844
651.637532	0.244842
651.843041	0.245401
652.048532	0.245078
652.254006	0.245499
652.459460	0.245939
652.664897	0.246298
652.870315	0.246573
653.075716	0.247010
653.281097	0.247016
653.486461	0.246965
653.691807	0.246795
653.897134	0.247762
654.102443	0.247748
654.307734	0.247430
654.513006	0.246788
654.718261	0.246610
654.923497	0.246696
655.128715	0.246574
655.333915	0.246489
655.539096	0.246846
655.744259	0.246769
655.949404	0.247200
656.154531	0.248086
656.359640	0.249078
656.564730	0.249527
656.769802	0.249681
656.974856	0.250196
657.179892	0.250192
657.384909	0.250245
657.589908	0.250385
657.794889	0.250479
657.999852	0.250350
658.204797	0.249896
658.409723	0.250383
658.614631	0.250623
658.819521	0.251029
659.024393	0.251833
659.229246	0.251901
659.434081	0.252393
659.638898	0.252902
659.843697	0.252961
660.048478	0.253659
660.253240	0.253461
660.457984	0.253641
660.662710	0.253681
660.867417	0.253631
661.072107	0.253949
661.276778	0.253704
661.481431	0.253289
661.686066	0.253894
661.890682	0.253944
662.095281	0.253818
662.299861	0.253974
662.504422	0.254239
662.708966	0.254483
662.913491	0.254523
663.117999	0.254440
663.322488	0.255097
663.526958	0.254845
663.731411	0.255062
663.935845	0.255912
664.140261	0.256096
664.344659	0.255819
664.549038	0.255876
664.753400	0.256095
664.957743	0.256568
665.162068	0.256883
665.366375	0.257429
665.570663	0.257265
665.774933	0.257183
665.979185	0.257300
666.183419	0.257511
666.387635	0.258077
666.591832	0.258268
666.796011	0.258968
667.000172	0.258668
667.204315	0.258527
667.408439	0.258963
667.612545	0.258661
667.816634	0.258655
668.020703	0.259109
668.224755	0.259112
668.428788	0.259071
668.632803	0.259292
668.836800	0.259863
669.040779	0.260207
669.244739	0.260586
669.448681	0.261429
669.652605	0.262237
669.856511	0.262525
670.060399	0.262705
670.264268	0.263289
670.468119	0.263069
670.671952	0.263094
670.875767	0.263209
671.079563	0.262968
671.283341	0.262984
671.487101	0.262637
671.690843	0.262819
671.894567	0.262598
672.098272	0.262569
672.301959	0.262273
672.505628	0.262956
672.709278	0.262943
672.912911	0.263668
673.116525	0.263599
673.320121	0.264061
673.523699	0.264386
673.727258	0.265132
673.930799	0.265548
674.134322	0.266680
674.337827	0.266414
674.541314	0.267079
674.744782	0.267014
674.948232	0.267420
675.151664	0.267385
675.355078	0.267481
675.558474	0.267279
675.761851	0.267634
675.965210	0.267389
676.168551	0.267249
676.371873	0.267300
676.575178	0.267258
676.778464	0.267360
676.981732	0.267594
677.184981	0.267392
677.388213	0.267851
677.591426	0.267861
677.794621	0.268086
677.997798	0.268510
678.200956	0.268413
678.404097	0.268722
678.607219	0.269028
678.810323	0.269167
679.013408	0.269704
679.216476	0.269738
679.419525	0.270229
679.622556	0.270307
679.825569	0.270862
680.028563	0.271785
680.231540	0.271677
680.434498	0.271818
680.637438	0.272096
680.840359	0.272364
681.043263	0.272775
681.246148	0.272737
681.449015	0.273282
681.651864	0.273196
681.854694	0.272848
682.057506	0.272994
682.260301	0.273206
682.463076	0.273211
682.665834	0.273378
682.868573	0.273406
683.071295	0.273387
683.273998	0.273046
683.476682	0.272886
683.679349	0.273158
683.881997	0.273465
684.084627	0.273756
684.287239	0.274191
684.489833	0.274478
684.692408	0.274357
684.894965	0.274659
685.097504	0.274908
685.300025	0.275039
685.502527	0.275095
685.705012	0.275150
685.907478	0.274948
686.109925	0.274881
686.312355	0.274719
686.514766	0.275621
686.717159	0.275648
686.919534	0.276282
687.121891	0.276682
687.324230	0.276721
687.526550	0.277198
687.728852	0.277897
687.931136	0.277816
688.133401	0.278168
688.335649	0.277374
688.537878	0.277899
688.740089	0.277457
688.942281	0.277664
689.144456	0.277864
689.346612	0.278049
689.548750	0.278114
689.750870	0.278390
689.952971	0.278413
690.155055	0.278801
690.357120	0.279025
690.559167	0.280040
690.761195	0.280158
690.963206	0.280315
691.165198	0.280400
691.367172	0.280490
691.569128	0.281089
691.771065	0.281481
691.972984	0.281592
692.174885	0.281434
692.376768	0.280995
692.578633	0.281252
692.780479	0.281854
692.982308	0.282119
693.184118	0.282390
693.385909	0.282277
693.587683	0.281956
693.789438	0.282165
